Data from hue_230_FLMS001491_00077.txt Node
Date: Tue Feb 07 16:37:44 GMT 2017
User: dcchb
Spectrometer: FLMS00149
Trigger mode: 0
Integration Time (sec): 2.000000E-2
Scans to average: 10
Electric dark correction enabled: true
Nonlinearity correction enabled: false
Boxcar width: 0
XAxis mode: Wavelengths
Number of Pixels in Spectrum: 2048
>>>>>Begin Spectral Data<<<<<
341.393	-13.9
341.776	-13.9
342.16	-13.9
342.543	-50.28
342.927	-72.2
343.31	-47.8
343.693	-84.18
344.077	-64.74
344.46	-64.97
344.843	-60
345.226	-25.88
345.61	-31.75
345.993	-9.38
346.376	-19.1
346.759	10.73
347.142	16.38
347.525	44.63
347.908	45.08
348.291	84.63
348.674	96.38
349.057	109.94
349.44	127.79
349.823	157.4
350.206	168.92
350.588	195.14
350.971	206.89
351.354	236.72
351.737	207.79
352.119	243.72
352.502	247.11
352.884	276.72
353.267	272.42
353.65	290.73
354.032	300.9
354.414	297.96
354.797	294.79
355.179	308.81
355.562	314.23
355.944	319.65
356.326	324.17
356.709	313.78
357.091	323.95
357.473	340.67
357.855	336.6
358.238	337.73
358.62	345.19
359.002	324.17
359.384	325.75
359.766	317.84
360.148	323.72
360.53	351.97
360.912	324.17
361.294	319.88
361.676	321.23
362.057	320.33
362.439	338.41
362.821	324.85
363.203	337.73
363.584	331.18
363.966	331.86
364.348	324.17
364.729	324.62
365.111	321.46
365.493	304.51
365.874	313.1
366.256	314.91
366.637	300.44
367.019	322.82
367.4	325.75
367.781	299.54
368.163	297.73
368.544	305.19
368.925	299.77
369.306	318.3
369.688	286.43
370.069	311.97
370.45	299.99
370.831	324.17
371.212	290.73
371.593	309.94
371.974	310.16
372.355	301.8
372.736	319.2
373.117	288.24
373.498	318.3
373.879	299.99
374.26	304.06
374.641	313.55
375.021	292.53
375.402	290.05
375.783	307.9
376.163	312.42
376.544	313.1
376.925	313.55
377.305	327.11
377.686	327.56
378.066	331.18
378.447	334.12
378.827	299.09
379.208	327.56
379.588	303.83
379.968	332.31
380.349	320.1
380.729	320.78
381.109	319.43
381.489	354.23
381.87	312.65
382.25	328.01
382.63	335.92
383.01	343.83
383.39	319.88
383.77	336.83
384.15	340.67
384.53	338.64
384.91	323.72
385.29	339.77
385.67	339.77
386.049	352.19
386.429	334.12
386.809	358.75
387.189	336.38
387.568	363.49
387.948	316.49
388.328	342.93
388.707	342.93
389.087	347.9
389.466	352.42
389.846	371.4
390.225	348.13
390.605	353.55
390.984	341.12
391.363	346.32
391.743	358.07
392.122	354.45
392.501	340.44
392.881	375.02
393.26	377.05
393.639	362.59
394.018	367.33
394.397	363.95
394.776	376.83
395.155	387
395.534	391.52
395.913	393.32
396.292	390.84
396.671	384.06
397.05	384.51
397.429	379.09
397.808	362.59
398.186	379.31
398.565	385.41
398.944	378.63
399.323	401.01
399.701	395.58
400.08	403.27
400.458	402.14
400.837	402.81
401.215	407.56
401.594	421.34
401.972	405.07
402.351	391.06
402.729	419.09
403.107	408.46
403.486	412.08
403.864	414.11
404.242	424.73
404.62	428.8
404.999	430.16
405.377	422.93
405.755	434.9
406.133	425.64
406.511	435.13
406.889	444.4
407.267	454.56
407.645	462.93
408.023	483.94
408.401	490.72
408.779	473.09
409.156	490.5
409.534	477.16
409.912	493.89
410.29	486.88
410.667	488.91
411.045	504.96
411.422	506.09
411.8	521.91
412.178	520.78
412.555	529.36
412.933	523.04
413.31	540.44
413.687	529.36
414.065	562.58
414.442	569.59
414.819	567.33
415.197	573.66
415.574	595.35
415.951	587.89
416.328	583.83
416.705	619.76
417.082	593.77
417.46	626.76
417.837	611.62
418.214	633.32
418.591	619.31
418.967	628.8
419.344	616.82
419.721	635.8
420.098	639.64
420.475	669.47
420.852	666.54
421.228	691.39
421.605	691.39
421.982	676.71
422.358	717.16
422.735	716.25
423.111	729.59
423.488	732.52
423.864	755.35
424.241	780.43
424.617	774.1
424.994	766.19
425.37	781.11
425.746	778.85
426.123	790.15
426.499	808.91
426.875	819.3
427.251	816.81
427.627	836.02
428.003	839.64
428.379	860.66
428.756	874.89
429.132	897.72
429.507	887.55
429.883	895.23
430.259	897.94
430.635	911.28
431.011	916.25
431.387	950.14
431.763	960.09
432.138	957.6
432.514	969.35
432.89	1008.9
433.265	1012.52
433.641	1008.67
434.016	1024.04
434.392	1042.8
434.767	1071.5
435.143	1095.9
435.518	1082.12
435.894	1118.28
436.269	1123.25
436.644	1131.83
437.02	1168.44
437.395	1169.57
437.77	1196.24
438.145	1193.75
438.52	1222
438.895	1231.04
439.271	1259.06
439.646	1273.53
440.021	1296.35
440.395	1317.37
440.77	1304.71
441.145	1334.77
441.52	1325.05
441.895	1353.3
442.27	1364.37
442.645	1374.54
443.019	1390.81
443.394	1409.79
443.769	1379.51
444.143	1419.96
444.518	1440.3
444.892	1449.11
445.267	1438.27
445.641	1470.13
446.016	1477.36
446.39	1483.46
446.764	1484.82
447.139	1533.63
447.513	1502.67
447.887	1521.43
448.262	1534.76
448.636	1554.87
449.01	1561.65
449.384	1571.6
449.758	1571.15
450.132	1623.35
450.506	1607.08
450.88	1616.57
451.254	1632.61
451.628	1626.96
452.002	1661.09
452.376	1664.02
452.75	1671.26
453.123	1695.44
453.497	1713.29
453.871	1722.1
454.244	1766.62
454.618	1797.13
454.992	1802.33
455.365	1794.64
455.739	1843.45
456.112	1843.68
456.486	1857.47
456.859	1865.15
457.232	1915.54
457.606	1911.25
457.979	1952.15
458.352	1951.02
458.725	1985.37
459.099	1980.85
459.472	2009.78
459.845	2066.5
460.218	2074.86
460.591	2086.61
460.964	2099.94
461.337	2158.7
461.71	2154.18
462.083	2193.73
462.456	2186.95
462.829	2200.96
463.201	2200.96
463.574	2232.37
463.947	2261.52
464.32	2338.36
464.692	2326.83
465.065	2329.54
465.438	2376.1
465.81	2385.59
466.183	2406.6
466.555	2458.58
466.928	2475.53
467.3	2494.74
467.672	2522.53
468.045	2567.5
468.417	2598.01
468.789	2614.73
469.161	2630.55
469.534	2666.94
469.906	2693.6
470.278	2722.08
470.65	2751
471.022	2795.29
471.394	2830.77
471.766	2888.4
472.138	2908.51
472.51	2941.05
472.882	2987.15
473.253	3017.66
473.625	3029.86
473.997	3134.95
474.369	3116.19
474.74	3135.62
475.112	3253.36
475.484	3217.2
475.855	3341.27
476.227	3314.15
476.598	3435.73
476.97	3437.76
477.341	3484.99
477.713	3531.09
478.084	3526.57
478.455	3649.06
478.827	3695.84
479.198	3781.71
479.569	3743.97
479.94	3887.92
480.311	3900.8
480.682	3948.03
481.053	4031.42
481.424	4057.63
481.795	4138.54
482.166	4173.56
482.537	4230.06
482.908	4290.62
483.279	4313.22
483.65	4434.57
484.021	4450.62
484.391	4477.06
484.762	4541.69
485.133	4583.72
485.503	4614.23
485.874	4704.17
486.244	4745.52
486.615	4844.28
486.985	4857.61
487.356	4994.56
487.726	4984.39
488.097	5080.21
488.467	5127.44
488.837	5193.42
489.207	5238.17
489.578	5320.65
489.948	5291.05
490.318	5369.24
490.688	5433.42
491.058	5470.03
491.428	5508.22
491.798	5532.4
492.168	5671.38
492.538	5705.95
492.908	5760.87
493.278	5831.6
493.648	5766.97
494.017	5843.35
494.387	5852.16
494.757	5951.14
495.126	6012.84
495.496	5991.82
495.866	6093.51
496.235	6125.83
496.605	6132.83
496.974	6173.28
497.344	6209.44
497.713	6206.73
498.082	6319.04
498.452	6352.04
498.821	6396.55
499.19	6354.3
499.559	6415.09
499.928	6460.06
500.298	6460.28
500.667	6528.08
501.036	6473.84
501.405	6559.71
501.774	6555.87
502.143	6641.07
502.512	6627.96
502.88	6644.68
503.249	6583.44
503.618	6709.54
503.987	6713.61
504.356	6764.23
504.724	6722.2
505.093	6800.61
505.462	6819.37
505.83	6830.44
506.199	6858.92
506.567	6956.54
506.936	6889.42
507.304	6968.52
507.672	6977.33
508.041	6992.7
508.409	6958.35
508.777	7107.72
509.145	7034.28
509.514	7067.5
509.882	7142.75
510.25	7112.24
510.618	7133.94
510.986	7149.53
511.354	7243.99
511.722	7290.09
512.09	7296.42
512.458	7255.52
512.826	7347.26
513.193	7315.85
513.561	7292.58
513.929	7328.06
514.297	7391.11
514.664	7370.54
515.032	7382.74
515.4	7455.06
515.767	7483.31
516.135	7526.02
516.502	7456.41
516.869	7520.59
517.237	7582.29
517.604	7522.85
517.972	7543.19
518.339	7550.87
518.706	7577.31
519.073	7573.7
519.44	7521.5
519.808	7629.97
520.175	7657.76
520.542	7677.88
520.909	7733.92
521.276	7725.11
521.643	7706.58
522.009	7752
522.376	7793.13
522.743	7766.91
523.11	7832.22
523.477	7854.14
523.843	7872.22
524.21	7919.45
524.577	7918.55
524.943	7927.81
525.31	7959
525.676	7943.41
526.043	7947.47
526.409	7918.77
526.776	8050.75
527.142	8067.47
527.508	8046
527.874	8039.9
528.241	8024.31
528.607	8087.58
528.973	8128.26
529.339	8093.91
529.705	8109.96
530.071	8144.08
530.437	8151.54
530.803	8168.26
531.169	8154.7
531.535	8131.42
531.901	8135.49
532.267	8165.32
532.632	8162.84
532.998	8137.75
533.364	8237.41
533.73	8120.13
534.095	8176.4
534.461	8171.2
534.826	8160.58
535.192	8183.63
535.557	8220.69
535.923	8201.93
536.288	8159.22
536.653	8237.64
537.019	8161.48
537.384	8214.59
537.749	8184.53
538.114	8114.7
538.479	8186.34
538.845	8112.89
539.21	8039.9
539.575	8094.14
539.94	8075.15
540.305	8139.33
540.67	8100.01
541.034	8084.42
541.399	8078.77
541.764	8147.92
542.129	8067.92
542.494	8081.48
542.858	8066.57
543.223	8059.56
543.587	8071.99
543.952	7940.47
544.316	8061.82
544.681	7934.14
545.045	7990.64
545.41	7964.42
545.774	8051.2
546.138	7933.69
546.503	7947.7
546.867	7917.87
547.231	7990.19
547.595	7933.46
547.959	8005.55
548.324	7942.5
548.688	7915.39
549.052	7921.94
549.416	7902.28
549.779	7930.3
550.143	7898.89
550.507	7923.52
550.871	7927.14
551.235	7855.05
551.599	7887.36
551.962	7845.78
552.326	7849.85
552.689	7897.31
553.053	7753.58
553.417	7761.04
553.78	7872.9
554.143	7850.3
554.507	7855.27
554.87	7814.6
555.234	7813.24
555.597	7774.6
555.96	7844.88
556.323	7802.17
556.686	7785.22
557.05	7827.25
557.413	7883.3
557.776	7874.71
558.139	7846.23
558.502	7828.16
558.865	7791.55
559.228	7895.95
559.59	7840.81
559.953	7886.01
560.316	7888.95
560.679	7884.2
561.041	7951.99
561.404	7953.58
561.767	7965.1
562.129	7927.14
562.492	7919.23
562.854	7966.01
563.217	7958.77
563.579	7956.29
563.941	8042.39
564.304	7971.2
564.666	8029.96
565.028	8077.64
565.39	8049.39
565.753	8053.69
566.115	8017.53
566.477	8104.76
566.839	8105.21
567.201	8117.41
567.563	8146.34
567.925	8177.53
568.287	8176.4
568.648	8139.56
569.01	8180.24
569.372	8257.07
569.734	8189.28
570.095	8280.57
570.457	8265.21
570.819	8255.26
571.18	8298.2
571.542	8285.54
571.903	8400.34
572.265	8384.3
572.626	8400.8
572.987	8429.27
573.349	8418.42
573.71	8436.73
574.071	8404.41
574.432	8486.44
574.794	8496.16
575.155	8536.39
575.516	8433.34
575.877	8433.34
576.238	8546.1
576.599	8623.62
576.96	8500.23
577.32	8627.46
577.681	8628.59
578.042	8631.3
578.403	8597.4
578.763	8711.3
579.124	8691.86
579.485	8794.01
579.845	8685.08
580.206	8716.49
580.566	8715.82
580.927	8715.36
581.287	8789.71
581.648	8858.86
582.008	8841.01
582.368	8818.19
582.728	8827.23
583.089	8838.75
583.449	8829.94
583.809	8835.13
584.169	8827.68
584.529	8786.77
584.889	8924.62
585.249	8914.23
585.609	8842.37
585.969	8875.36
586.329	8874.23
586.688	8869.94
587.048	8904.29
587.408	8885.76
587.768	8957.62
588.127	8954.68
588.487	8911.52
588.846	9058.86
589.206	8937.28
589.565	8987.22
589.925	9043.49
590.284	9030.84
590.643	9087.33
591.003	9058.41
591.362	9110.38
591.721	9060.89
592.08	9065.41
592.44	9088.46
592.799	9099.99
593.158	9016.6
593.517	9057.5
593.876	9104.51
594.235	9126.88
594.593	9143.83
594.952	9071.96
595.311	9092.53
595.67	9115.81
596.029	9234.9
596.387	9186.31
596.746	9183.15
597.104	9164.84
597.463	9122.36
597.822	9206.65
598.18	9164.17
598.538	9118.74
598.897	9246.42
599.255	9117.16
599.613	9269.25
599.972	9207.33
600.33	9242.58
600.688	9194.22
601.046	9243.71
601.404	9295.01
601.762	9329.13
602.12	9273.99
602.478	9298.85
602.836	9293.88
603.194	9267.21
603.552	9273.99
603.91	9280.55
604.268	9277.38
604.625	9266.31
604.983	9339.98
605.341	9219.08
605.698	9236.03
606.056	9312.18
606.413	9349.92
606.771	9379.3
607.128	9376.59
607.485	9292.07
607.843	9316.7
608.2	9410.71
608.557	9339.98
608.914	9377.27
609.272	9440.77
609.629	9392.18
609.986	9410.49
610.343	9399.87
610.7	9442.58
611.057	9465.17
611.414	9489.13
611.771	9492.07
612.127	9547.21
612.484	9446.19
612.841	9465.85
613.198	9455.68
613.554	9463.82
613.911	9524.16
614.267	9523.25
614.624	9488.23
614.98	9523.7
615.337	9574.1
615.693	9556.7
616.05	9526.87
616.406	9591.27
616.762	9535.23
617.118	9640.76
617.475	9573.42
617.831	9614.1
618.187	9598.28
618.543	9575.68
618.899	9677.15
619.255	9686.41
619.611	9582.46
619.967	9687.32
620.323	9699.29
620.678	9622.46
621.034	9563.48
621.39	9643.7
621.746	9620.2
622.101	9730.7
622.457	9621.55
622.812	9678.95
623.168	9685.06
623.523	9702.23
623.879	9726.41
624.234	9637.83
624.589	9638.96
624.945	9640.09
625.3	9698.16
625.655	9690.48
626.01	9606.19
626.365	9692.97
626.72	9686.86
627.075	9572.29
627.43	9641.89
627.785	9628.56
628.14	9660.2
628.495	9690.03
628.85	9628.79
629.205	9602.57
629.559	9678.5
629.914	9620.2
630.269	9603.93
630.623	9556.47
630.978	9530.71
631.332	9563.48
631.687	9612.52
632.041	9530.48
632.396	9558.28
632.75	9526.19
633.104	9572.52
633.459	9487.32
633.813	9483.25
634.167	9487.1
634.521	9498.17
634.875	9440.32
635.229	9398.74
635.583	9361.67
635.937	9383.6
636.291	9407.55
636.645	9387.66
636.999	9424.72
637.352	9407.1
637.706	9391.96
638.06	9321.9
638.413	9390.6
638.767	9365.74
639.121	9361.45
639.474	9324.16
639.828	9340.66
640.181	9271.51
640.534	9308.79
640.888	9289.81
641.241	9241.45
641.594	9208.46
641.947	9292.98
642.301	9248.23
642.654	9220.21
643.007	9209.14
643.36	9247.33
643.713	9183.83
644.066	9239.87
644.419	9235.35
644.771	9118.97
645.124	8991.97
645.477	9024.73
645.83	8971.85
646.182	8930.27
646.535	8918.75
646.888	8956.04
647.24	8904.29
647.593	8953.32
647.945	8968.92
648.298	8872.2
648.65	8817.73
649.002	8893.66
649.355	8888.01
649.707	8869.48
650.059	8949.93
650.411	9046.65
650.763	9063.15
651.115	9039.88
651.467	8999.42
651.819	9103.6
652.171	9111.51
652.523	9070.83
652.875	9024.28
653.227	8992.42
653.578	9055.92
653.93	9026.54
654.282	9029.25
654.633	9010.95
654.985	9055.02
655.337	9058.18
655.688	9053.66
656.039	9079.65
656.391	8987
656.742	8979.09
657.094	8971.18
657.445	9039.2
657.796	8981.8
658.147	8987
658.498	9025.64
658.849	9040.78
659.2	9011.18
659.551	9045.07
659.902	9020.67
660.253	9066.99
660.604	9039.65
660.955	9051.85
661.306	9074.22
661.656	9051.63
662.007	9072.19
662.358	9025.64
662.708	8984.74
663.059	9032.64
663.409	9019.31
663.76	9060.44
664.11	9106.54
664.461	9066.99
664.811	9050.72
665.161	9060.89
665.511	9097.73
665.862	9048.91
666.212	9032.19
666.562	9047.78
666.912	9025.19
667.262	9074.22
667.612	9087.11
667.962	9056.37
668.312	9100.44
668.662	9074.22
669.011	9070.16
669.361	9023.38
669.711	9008.24
670.06	9021.57
670.41	9063.38
670.76	9036.49
671.109	8991.06
671.459	9026.99
671.808	8992.64
672.157	8991.29
672.507	8946.09
672.856	8973.44
673.205	8996.03
673.554	8967.56
673.904	8961.46
674.253	8970.05
674.602	8991.29
674.951	8868.13
675.3	8823.38
675.649	8964.85
675.998	8918.75
676.346	8975.02
676.695	8951.06
677.044	8859.32
677.393	8941.8
677.741	8911.29
678.09	8898.64
678.438	8837.17
678.787	8822.25
679.135	8852.99
679.484	8780.9
679.832	8865.64
680.181	8761.46
680.529	8790.62
680.877	8759.43
681.225	8769.37
681.573	8808.24
681.922	8760.33
682.27	8730.96
682.618	8680.79
682.966	8726.44
683.314	8666.33
683.661	8657.51
684.009	8650.96
684.357	8617.97
684.705	8600.79
685.053	8643.73
685.4	8557.63
685.748	8564.41
686.095	8558.76
686.443	8474.01
686.79	8513.79
687.138	8488.25
687.485	8464.07
687.832	8471.98
688.18	8450.29
688.527	8466.33
688.874	8388.82
689.221	8356.05
689.568	8342.49
689.915	8375.49
690.262	8344.75
690.609	8294.13
690.956	8246.22
691.303	8267.24
691.65	8234.47
691.997	8220.46
692.344	8115.38
692.69	8157.64
693.037	8161.48
693.383	8079.22
693.73	8109.73
694.077	8062.73
694.423	8005.78
694.769	8012.56
695.116	8005.33
695.462	7978.89
695.808	7899.11
696.155	7948.83
696.501	7863.41
696.847	7850.08
697.193	7820.02
697.539	7794.03
697.885	7896.85
698.231	7703.41
698.577	7765.78
698.923	7735.73
699.269	7729.18
699.614	7626.58
699.96	7620.25
700.306	7647.82
700.651	7536.41
700.997	7599.46
701.342	7544.32
701.688	7497.09
702.033	7507.94
702.379	7518.56
702.724	7390.65
703.069	7398.11
703.415	7307.94
703.76	7334.16
704.105	7338.45
704.45	7282.41
704.795	7239.24
705.14	7264.78
705.485	7185.23
705.83	7170.09
706.175	7199.25
706.52	7164.44
706.865	7160.6
707.209	7131.68
707.554	7056.88
707.899	7079.7
708.243	7058.68
708.588	7045.8
708.932	7029.08
709.277	6949.99
709.621	6974.62
709.966	6957.67
710.31	6989.99
710.654	6919.25
710.998	6885.81
711.342	6947.73
711.687	6879.93
712.031	6827.28
712.375	6851.46
712.719	6853.72
713.063	6849.2
713.407	6904.79
713.75	6815.75
714.094	6761.97
714.438	6768.3
714.782	6747.28
715.125	6733.95
715.469	6734.85
715.812	6746.83
716.156	6693.95
716.499	6681.07
716.843	6696.66
717.186	6639.71
717.53	6710.9
717.873	6670.9
718.216	6682.2
718.559	6633.16
718.902	6630.22
719.246	6642.2
719.589	6579.15
719.932	6598.36
720.275	6555.87
720.617	6585.02
720.96	6553.61
721.303	6571.69
721.646	6585.7
721.989	6517
722.331	6579.15
722.674	6531.47
723.016	6563.1
723.359	6554.52
723.701	6503.67
724.044	6505.25
724.386	6497.12
724.729	6527.85
725.071	6496.21
725.413	6479.04
725.755	6450.56
726.097	6434.29
726.439	6408.98
726.782	6451.69
727.124	6426.84
727.465	6418.25
727.807	6456.89
728.149	6458.7
728.491	6438.81
728.833	6411.24
729.175	6393.39
729.516	6423.45
729.858	6384.8
730.199	6367.4
730.541	6399.04
730.882	6376.67
731.224	6401.53
731.565	6405.37
731.906	6401.3
732.248	6406.5
732.589	6346.61
732.93	6366.95
733.271	6339.38
733.612	6361.53
733.953	6349.32
734.294	6365.37
734.635	6345.48
734.976	6444.01
735.317	6395.65
735.658	6367.63
735.999	6359.04
736.339	6389.55
736.68	6352.26
737.021	6361.53
737.361	6351.81
737.702	6368.08
738.042	6412.6
738.383	6377.35
738.723	6406.5
739.063	6418.93
739.404	6410.57
739.744	6392.71
740.084	6381.87
740.424	6371.02
740.764	6417.8
741.104	6458.7
741.444	6407.18
741.784	6424.58
742.124	6442.2
742.464	6457.12
742.804	6442.88
743.143	6429.32
743.483	6499.38
743.823	6445.37
744.162	6536.89
744.502	6522.65
744.841	6560.17
745.181	6625.48
745.52	6542.77
745.86	6564.23
746.199	6650.33
746.538	6646.27
746.877	6681.75
747.216	6711.57
747.556	6732.59
747.895	6762.65
748.234	6771.23
748.573	6820.27
748.911	6911.12
749.25	6904.34
749.589	6901.85
749.928	6999.03
750.267	7100.27
750.605	7110.21
750.944	7063.66
751.283	7139.59
751.621	7232.92
751.96	7262.52
752.298	7401.5
752.636	7415.96
752.975	7480.37
753.313	7506.36
753.651	7610.76
753.989	7689.85
754.327	7730.98
754.666	7785.9
755.004	7918.55
755.342	7949.73
755.679	8017.08
756.017	8173.01
756.355	8258.65
756.693	8266.79
757.031	8428.59
757.368	8471.98
757.706	8617.06
758.044	8715.36
758.381	8816.15
758.719	8930.05
759.056	8984.06
759.394	9162.36
759.731	9251.17
760.068	9362.58
760.405	9416.81
760.743	9484.61
761.08	9698.39
761.417	9761.44
761.754	9882.79
762.091	10009.57
762.428	10143.12
762.765	10178.38
763.102	10341.31
763.438	10447.75
763.775	10567.29
764.112	10614.3
764.449	10833.5
764.785	10842.31
765.122	10885.25
765.458	10942.42
765.795	11066.71
766.131	11254.28
766.467	11313.94
766.804	11376.99
767.14	11431.9
767.476	11614.5
767.812	11613.82
768.148	11766.36
768.485	11820.82
768.821	11852.68
769.157	11964.09
769.492	12030.76
