Data from hue_300_FLMS001491_00002.txt Node
Date: Tue Feb 07 15:49:37 GMT 2017
User: dcchb
Spectrometer: FLMS00149
Trigger mode: 0
Integration Time (sec): 2.000000E-2
Scans to average: 10
Electric dark correction enabled: true
Nonlinearity correction enabled: false
Boxcar width: 0
XAxis mode: Wavelengths
Number of Pixels in Spectrum: 2048
>>>>>Begin Spectral Data<<<<<
341.393	-20.68
341.776	-20.68
342.16	-20.68
342.543	-57.51
342.927	-60.68
343.31	-83.5
343.693	-56.83
344.077	-71.52
344.46	-88.02
344.843	-40.79
345.226	-31.52
345.61	-24.52
345.993	-22.94
346.376	12.54
346.759	14.8
347.142	41.47
347.525	42.6
347.908	28.81
348.291	81.92
348.674	82.6
349.057	114.91
349.44	118.08
349.823	134.57
350.206	163.27
350.588	175.25
350.971	212.31
351.354	217.51
351.737	223.61
352.119	252.99
352.502	238.3
352.884	282.14
353.267	265.19
353.65	270.61
354.032	291.86
354.414	294.12
354.797	315.81
355.179	312.42
355.562	306.32
355.944	310.84
356.326	335.92
356.709	315.81
357.091	320.78
357.473	341.12
357.855	338.64
358.238	345.41
358.62	302.93
359.002	333.89
359.384	316.04
359.766	325.98
360.148	322.82
360.53	307.9
360.912	315.58
361.294	337.96
361.676	316.04
362.057	304.51
362.439	321.69
362.821	322.82
363.203	327.34
363.584	306.77
363.966	327.79
364.348	343.61
364.729	314.23
365.111	330.5
365.493	316.94
365.874	316.26
366.256	309.94
366.637	313.1
367.019	328.47
367.4	308.58
367.781	307
368.163	286.66
368.544	337.51
368.925	310.16
369.306	317.84
369.688	313.55
370.069	292.08
370.45	307.22
370.831	300.67
371.212	284.85
371.593	309.94
371.974	298.41
372.355	311.07
372.736	314.68
373.117	304.06
373.498	314.23
373.879	307
374.26	285.98
374.641	304.06
375.021	316.26
375.402	316.49
375.783	316.49
376.163	304.51
376.544	322.59
376.925	317.84
377.305	320.56
377.686	324.17
378.066	345.87
378.447	331.4
378.827	300.9
379.208	314
379.588	321.46
379.968	321.91
380.349	292.53
380.729	336.83
381.109	332.53
381.489	335.25
381.87	341.35
382.25	325.98
382.63	342.7
383.01	347
383.39	330.27
383.77	341.57
384.15	322.14
384.53	340.44
384.91	332.08
385.29	353.55
385.67	339.77
386.049	353.32
386.429	327.34
386.809	358.52
387.189	334.34
387.568	353.32
387.948	368.92
388.328	367.33
388.707	365.98
389.087	361.23
389.466	353.78
389.846	369.14
390.225	377.96
390.605	362.36
390.984	347.9
391.363	355.13
391.743	352.87
392.122	384.96
392.501	354.91
392.881	369.14
393.26	373.44
393.639	377.28
394.018	379.99
394.397	393.77
394.776	381.57
395.155	394.9
395.534	364.85
395.913	381.8
396.292	383.83
396.671	376.15
397.05	368.46
397.429	405.07
397.808	395.58
398.186	375.7
398.565	391.97
398.944	392.42
399.323	415.92
399.701	412.98
400.08	384.74
400.458	407.33
400.837	410.27
401.215	391.97
401.594	414.79
401.972	425.19
402.351	437.62
402.729	412.76
403.107	416.6
403.486	430.38
403.864	408.69
404.242	410.72
404.62	431.51
404.999	452.98
405.377	421.12
405.755	451.63
406.133	443.04
406.511	448.46
406.889	471.06
407.267	474.22
407.645	471.96
408.023	467.22
408.401	486.88
408.779	469.71
409.156	475.58
409.534	509.48
409.912	491.17
410.29	506.31
410.667	495.02
411.045	535.47
411.422	521.23
411.8	515.81
412.178	538.4
412.555	519.87
412.933	552.64
413.31	565.07
413.687	561.45
414.065	577.5
414.442	584.05
414.819	579.76
415.197	604.84
415.574	595.8
415.951	591.28
416.328	621.79
416.705	629.25
417.082	635.58
417.46	635.35
417.837	646.88
418.214	668.34
418.591	676.25
418.967	692.98
419.344	697.5
419.721	670.83
420.098	701.11
420.475	691.85
420.852	728.68
421.228	721.68
421.605	747.21
421.982	745.4
422.358	730.49
422.735	744.95
423.111	778.17
423.488	774.1
423.864	789.7
424.241	778.17
424.617	778.62
424.994	780.66
425.37	827.21
425.746	798.74
426.123	822.24
426.499	842.35
426.875	826.08
427.251	887.77
427.627	837.38
428.003	890.03
428.379	882.8
428.756	905.63
429.132	929.35
429.507	919.18
429.883	939.98
430.259	929.35
430.635	918.73
431.011	956.92
431.387	969.35
431.763	982.46
432.138	995.79
432.514	1030.14
432.89	1001.67
433.265	1033.76
433.641	1035.34
434.016	1065.62
434.392	1086.19
434.767	1055.23
435.143	1096.36
435.518	1102.91
435.894	1134.09
436.269	1121.67
436.644	1140.42
437.02	1149.01
437.395	1153.08
437.77	1165.51
438.145	1186.52
438.52	1199.18
438.895	1214.09
439.271	1213.87
439.646	1233.75
440.021	1241.21
440.395	1226.75
440.77	1235.56
441.145	1242.34
441.52	1263.36
441.895	1257.26
442.27	1283.47
442.645	1262.9
443.019	1305.84
443.394	1288.67
443.769	1299.97
444.143	1281.66
444.518	1305.39
444.892	1289.12
445.267	1318.5
445.641	1327.76
446.016	1325.05
446.39	1333.41
446.764	1332.06
447.139	1353.52
447.513	1352.17
447.887	1333.64
448.262	1360.08
448.636	1350.36
449.01	1354.65
449.384	1385.61
449.758	1372.73
450.132	1384.48
450.506	1395.78
450.88	1391.26
451.254	1389.68
451.628	1388.78
452.002	1411.15
452.376	1417.25
452.75	1431.49
453.123	1428.78
453.497	1445.72
453.871	1433.07
454.244	1471.03
454.618	1478.49
454.992	1493.18
455.365	1523.24
455.739	1522.56
456.112	1536.57
456.486	1532.05
456.859	1562.56
457.232	1543.8
457.606	1562.78
457.979	1576.79
458.352	1586.96
458.725	1610.24
459.099	1577.92
459.472	1626.96
459.845	1652.72
460.218	1652.95
460.591	1646.17
460.964	1647.3
461.337	1658.83
461.71	1707.19
462.083	1733.17
462.456	1731.82
462.829	1701.09
463.201	1741.99
463.574	1747.64
463.947	1774.3
464.32	1789.9
464.692	1784.25
465.065	1824.02
465.438	1806.17
465.81	1849.56
466.183	1852.95
466.555	1844.81
466.928	1876.22
467.3	1879.16
467.672	1878.71
468.045	1907.86
468.417	1911.48
468.789	1922.55
469.161	1936.79
469.534	1995.09
469.906	1991.47
470.278	2005.48
470.65	2021.08
471.022	2059.95
471.394	2081.19
471.766	2112.6
472.138	2109.44
472.51	2122.54
472.882	2157.8
473.253	2170
473.625	2158.25
473.997	2216.78
474.369	2200.28
474.74	2228.98
475.112	2232.37
475.484	2245.03
475.855	2312.37
476.227	2308.3
476.598	2393.95
476.97	2378.36
477.341	2408.19
477.713	2453.83
478.084	2449.09
478.455	2499.48
478.827	2488.86
479.198	2550.78
479.569	2529.99
479.94	2614.51
480.311	2611.34
480.682	2675.52
481.053	2673.94
481.424	2728.63
481.795	2720.49
482.166	2736.99
482.537	2802.3
482.908	2819.25
483.279	2844.11
483.65	2870.09
484.021	2884.78
484.391	2903.54
484.762	2934.95
485.133	2944.22
485.503	2942.41
485.874	3005.01
486.244	3016.76
486.615	3055.4
486.985	3080.94
487.356	3182.4
487.726	3165.45
488.097	3200.03
488.467	3168.39
488.837	3241.16
489.207	3233.7
489.578	3320.93
489.948	3331.32
490.318	3370.65
490.688	3319.8
491.058	3362.96
491.428	3422.4
491.798	3436.41
492.168	3529.51
492.538	3507.59
492.908	3538.78
493.278	3527.03
493.648	3571.54
494.017	3584.2
494.387	3651.32
494.757	3613.13
495.126	3633.92
495.496	3651.32
495.866	3679.34
496.235	3701.48
496.605	3730.64
496.974	3729.05
497.344	3735.38
497.713	3778.32
498.082	3776.06
498.452	3849.05
498.821	3841.14
499.19	3866.68
499.559	3831.65
499.928	3892.44
500.298	3928.82
500.667	3910.29
501.036	3894.93
501.405	3990.74
501.774	3972.66
502.143	3989.84
502.512	3983.29
502.88	4020.8
503.249	4006.34
503.618	4071.87
503.987	4032.78
504.356	4054.47
504.724	4077.52
505.093	4039.33
505.462	4035.26
505.83	4113.68
506.199	4144.64
506.567	4105.09
506.936	4103.96
507.304	4184.64
507.672	4163.39
508.041	4196.39
508.409	4230.74
508.777	4258.98
509.145	4284.07
509.514	4267.57
509.882	4292.88
510.25	4268.48
510.618	4243.84
510.986	4260.57
511.354	4307.57
511.722	4324.07
512.09	4397.06
512.458	4331.52
512.826	4372.2
513.193	4386.21
513.561	4372.65
513.929	4378.75
514.297	4426.66
514.664	4439.54
515.032	4441.35
515.4	4494.68
515.767	4464.18
516.135	4520.9
516.502	4423.05
516.869	4531.29
517.237	4535.59
517.604	4500.56
517.972	4537.39
518.339	4547.11
518.706	4575.13
519.073	4525.42
519.44	4609.03
519.808	4600.44
520.175	4588.47
520.542	4623.27
520.909	4644.28
521.276	4654.91
521.643	4673.89
522.009	4702.14
522.376	4734.23
522.743	4735.36
523.11	4776.71
523.477	4791.17
523.843	4797.5
524.21	4827.1
524.577	4908.68
524.943	4845.41
525.31	4917.72
525.676	4904.16
526.043	4909.14
526.409	4923.6
526.776	4973.99
527.142	5023.03
527.508	5042.24
527.874	5043.6
528.241	5078.62
528.607	5072.3
528.973	5138.51
529.339	5166.53
529.705	5159.3
530.071	5179.19
530.437	5224.16
530.803	5279.07
531.169	5224.38
531.535	5246.98
531.901	5258.05
532.267	5285.17
532.632	5327.88
532.998	5346.41
533.364	5357.03
533.73	5364.49
534.095	5385.73
534.461	5439.07
534.826	5442.91
535.192	5474.77
535.557	5516.13
535.923	5518.61
536.288	5539.4
536.653	5545.5
537.019	5543.92
537.384	5611.94
537.749	5623.24
538.114	5670.02
538.479	5638.16
538.845	5672.28
539.21	5609.01
539.575	5680.19
539.94	5706.4
540.305	5756.12
540.67	5760.41
541.034	5748.44
541.399	5846.74
541.764	5801.99
542.129	5844.93
542.494	5856
542.858	5900.3
543.223	5916.34
543.587	5981.2
543.952	5981.65
544.316	5982.78
544.681	6005.83
545.045	5977.36
545.41	6057.13
545.774	6090.35
546.138	6075.89
546.503	6126.96
546.867	6098.26
547.231	6184.36
547.595	6168.99
547.959	6155.66
548.324	6217.12
548.688	6238.37
549.052	6261.64
549.416	6283.56
549.779	6332.6
550.143	6325.14
550.507	6399.27
550.871	6376.67
551.235	6357.01
551.599	6387.74
551.962	6454.63
552.326	6467.74
552.689	6445.37
553.053	6458.02
553.417	6489.21
553.78	6548.64
554.143	6525.59
554.507	6570.56
554.87	6572.82
555.234	6644.46
555.597	6591.13
555.96	6630
556.323	6629.32
556.686	6679.94
557.05	6662.31
557.413	6694.63
557.776	6754.96
558.139	6757.68
558.502	6744.79
558.865	6754.06
559.228	6812.36
559.59	6813.72
559.953	6874.73
560.316	6888.97
560.679	6836.32
561.041	6896.43
561.404	6979.59
561.767	6971.46
562.129	6946.15
562.492	6993.38
562.854	6974.17
563.217	6990.66
563.579	7058.68
563.941	7080.83
564.304	7072.24
564.666	7135.07
565.028	7237.66
565.39	7216.42
565.753	7208.96
566.115	7220.26
566.477	7282.63
566.839	7347.72
567.201	7323.76
567.563	7299.58
567.925	7367.6
568.287	7385.91
568.648	7327.38
569.01	7446.7
569.372	7458.22
569.734	7443.99
570.095	7493.7
570.457	7573.93
570.819	7598.56
571.18	7639.91
571.542	7591.55
571.903	7697.09
572.265	7759.68
572.626	7764.88
572.987	7716.52
573.349	7878.32
573.71	7935.5
574.071	7919.23
574.432	8010.07
574.794	8069.05
575.155	8079.9
575.516	8184.98
575.877	8226.79
576.238	8205.77
576.599	8373.9
576.96	8415.71
577.32	8502.94
577.681	8540.91
578.042	8643.05
578.403	8690.96
578.763	8761.01
579.124	8876.04
579.485	8974.34
579.845	9096.82
580.206	9175.01
580.566	9280.55
580.927	9404.16
581.287	9586.98
581.648	9652.51
582.008	9826.52
582.368	9892.96
582.728	10086.4
583.089	10230.58
583.449	10389.44
583.809	10510.57
584.169	10753.95
584.529	10894.74
584.889	11155.07
585.249	11257.9
585.609	11408.4
585.969	11706.47
586.329	11880.93
586.688	12111.43
587.048	12320.47
587.408	12506.45
587.768	12809.72
588.127	12950.05
588.487	13192.31
588.846	13556.37
589.206	13755.01
589.565	13947.77
589.925	14296.91
590.284	14520.86
590.643	14745.04
591.003	15112.94
591.362	15411.91
591.721	15650.1
592.08	15878.57
592.44	16217.09
592.799	16481.49
593.158	16787.47
593.517	17077.4
593.876	17374.57
594.235	17624.73
594.593	17866.08
594.952	18285.06
595.311	18532.51
595.67	18974.08
596.029	19213.17
596.387	19527.96
596.746	19882.53
597.104	20089.98
597.463	20293.14
597.822	20749.62
598.18	20947.13
598.538	21180.57
598.897	21633.67
599.255	21769.71
599.613	22278.17
599.972	22410.37
600.33	22884.26
600.688	23017.59
601.046	23302.1
601.404	23739.83
601.762	24004.45
602.12	24372.58
602.478	24647.15
602.836	24971.89
603.194	25024.77
603.552	25345.21
603.91	25517.41
604.268	25893.44
604.625	26097.96
604.983	26413.88
605.341	26501.11
605.698	26822.68
606.056	27175.22
606.413	27354.65
606.771	27618.37
607.128	27891.81
607.485	28090
607.843	28239.6
608.2	28658.79
608.557	28772.69
608.914	28948.5
609.272	29320.47
609.629	29551.65
609.986	29760.01
610.343	29815.15
610.7	30271.18
611.057	30574.68
611.414	30528.35
611.771	30722.92
612.127	31130.14
612.484	31277.26
612.841	31459.85
613.198	31512.28
613.554	31739.62
613.911	32081.76
614.267	32224.12
614.624	32333.5
614.98	32484.91
615.337	32874.73
615.693	32986.14
616.05	32944.78
616.406	33317.88
616.762	33271.78
617.118	33526.01
617.475	33578.67
617.831	33820.01
618.187	33941.14
618.543	34175.03
618.899	34322.15
619.255	34403.73
619.611	34463.16
619.967	34669.48
620.323	34846.65
620.678	34895.69
621.034	34907.9
621.39	34889.59
621.746	35033.77
622.101	35558.05
622.457	35412.06
622.812	35555.79
623.168	35675.79
623.523	35750.59
623.879	35930.69
624.234	35859.28
624.589	35916
624.945	36124.81
625.3	36079.62
625.655	36307.86
626.01	36421.53
626.365	36553.5
626.72	36406.84
627.075	36473.5
627.43	36572.94
627.785	36684.12
628.14	36585.37
628.495	36723.67
628.85	36695.42
629.205	36606.61
629.559	36916.43
629.914	36642.09
630.269	36926.15
630.623	36960.05
630.978	36978.35
631.332	37078.01
631.687	37092.7
632.041	37044.11
632.396	37171.56
632.75	37032.59
633.104	37295.63
633.459	37101.51
633.813	37036.65
634.167	37160.49
634.521	37131.79
634.875	37365.46
635.229	37273.26
635.583	37141.06
635.937	37133.37
636.291	37155.97
636.645	37300.83
636.999	37215.41
637.352	37266.25
637.706	37151.68
638.06	37287.72
638.413	37185.8
638.767	37099.25
639.121	37133.15
639.474	37023.09
639.828	37145.58
640.181	37134.5
640.534	37225.35
640.888	37045.24
641.241	36974.06
641.594	36980.38
641.947	37191.45
642.301	37080.27
642.654	37255.86
643.007	37201.62
643.36	37166.37
643.713	37060.16
644.066	37247.27
644.419	37011.34
644.771	36835.53
645.124	36389.66
645.477	36494.97
645.83	36187.64
646.182	36094.98
646.535	36077.81
646.888	36118.49
647.24	35936.34
647.593	36181.53
647.945	36189.9
648.298	36046.85
648.65	35852.73
649.002	35879.85
649.355	36048.88
649.707	35977.25
650.059	36118.94
650.411	36546.72
650.763	36560.28
651.115	37032.13
651.467	36868.75
651.819	36847.51
652.171	36932.48
652.523	36633.73
652.875	36759.6
653.227	36527.74
653.578	36854.96
653.93	36709.66
654.282	36719.15
654.633	36512.6
654.985	36586.27
655.337	36694.97
655.688	36675.76
656.039	36793.5
656.391	36628.08
656.742	36601.64
657.094	36634.4
657.445	36698.58
657.796	36680.28
658.147	36443.67
658.498	36494.52
658.849	36643.9
659.2	36447.74
659.551	36469.44
659.902	36530.45
660.253	36510.79
660.604	36573.39
660.955	36335.65
661.306	36604.12
661.656	36675.53
662.007	36556.67
662.358	36479.83
662.708	36472.83
663.059	36502.43
663.409	36238.71
663.76	36486.16
664.11	36451.58
664.461	36535.2
664.811	36626.95
665.161	36496.78
665.511	36404.13
665.862	36405.03
666.212	36448.65
666.562	36558.02
666.912	36468.31
667.262	36403
667.612	36479.61
667.962	36448.19
668.312	36473.28
668.662	36540.17
669.011	36425.6
669.361	36395.09
669.711	36379.27
670.06	36334.07
670.41	36323.9
670.76	36194.42
671.109	36459.95
671.459	36320.29
671.808	36252.04
672.157	36325.49
672.507	36227.18
672.856	36193.96
673.205	36205.26
673.554	36417.69
673.904	36264.24
674.253	36354.64
674.602	36281.64
674.951	35750.59
675.3	35571.83
675.649	36160.29
675.998	36075.77
676.346	36091.37
676.695	36205.71
677.044	35873.97
677.393	35955.33
677.741	36190.12
678.09	35932.5
678.438	35868.55
678.787	36009.34
679.135	35864.03
679.484	35805.5
679.832	35728.21
680.181	35603.7
680.529	35683.47
680.877	35674.2
681.225	35497.26
681.573	35877.36
681.922	35490.93
682.27	35453.19
682.618	35455.23
682.966	35313.08
683.314	35364.38
683.661	35390.59
684.009	35280.77
684.357	35191.28
684.705	35101.79
685.053	35158.51
685.4	35093.65
685.748	34922.36
686.095	34905.41
686.443	34730.5
686.79	34693.21
687.138	34637.17
687.485	34829.48
687.832	34688.92
688.18	34656.83
688.527	34370.06
688.874	34485.76
689.221	34422.71
689.568	34315.82
689.915	34168.48
690.262	34144.75
690.609	34161.25
690.956	33940.69
691.303	34082.38
691.65	33942.5
691.997	33823.4
692.344	33694.14
692.69	33679.91
693.037	33648.04
693.383	33405.34
693.73	33442.4
694.077	33328.73
694.423	33193.82
694.769	33238.34
695.116	33265.68
695.462	33022.3
695.808	33034.5
696.155	33043.99
696.501	32713.15
696.847	32804.22
697.193	32547.05
697.539	32712.47
697.885	32454.4
698.231	32330.56
698.577	32435.87
698.923	32396.55
699.269	32159.72
699.614	32053.28
699.96	32011.47
700.306	32044.47
700.651	31816.68
700.997	31709.56
701.342	31686.74
701.688	31735.1
702.033	31699.62
702.379	31640.19
702.724	31482
703.069	31570.58
703.415	31136.92
703.76	31209.46
704.105	31210.59
704.45	31044.49
704.795	30934.67
705.14	30852.86
705.485	30861.22
705.83	30688.57
706.175	30774.9
706.52	30558.86
706.865	30527.67
707.209	30533.77
707.554	30379.88
707.899	30448.13
708.243	30246.32
708.588	30312.08
708.932	30036.61
709.277	30079.55
709.621	30123.16
709.966	29907.58
710.31	29901.25
710.654	29662.84
710.998	29713
711.342	29691.08
711.687	29548.49
712.031	29523.63
712.375	29362.5
712.719	29527.25
713.063	29305.78
713.407	29362.28
713.75	29209.06
714.094	29221.04
714.438	29157.76
714.782	29152.11
715.125	28896.53
715.469	29047.48
715.812	28858.56
716.156	28742.41
716.499	28870.99
716.843	28703.54
717.186	28621.28
717.53	28745.8
717.873	28868.73
718.216	28622.41
718.559	28541.51
718.902	28304
719.246	28398.46
719.589	28365.47
719.932	28238.01
720.275	28191.01
720.617	28231.24
720.96	28168.19
721.303	28067.17
721.646	28087.28
721.989	27944.91
722.331	27966.84
722.674	27887.74
723.016	27882.32
723.359	27877.57
723.701	27900.4
724.044	27720.29
724.386	27585.83
724.729	27772.94
725.071	27664.02
725.413	27518.71
725.755	27596.9
726.097	27475.55
726.439	27215.89
726.782	27415.21
727.124	27462.67
727.465	27317.81
727.807	27297.02
728.149	27258.15
728.491	27131.83
728.833	27155.56
729.175	27090.25
729.516	27039.85
729.858	26995.11
730.199	27092.96
730.541	26991.27
730.882	26921.21
731.224	27037.59
731.565	26827.2
731.906	26798.73
732.248	26893.42
732.589	26737.26
732.93	26751.73
733.271	26666.3
733.612	26713.99
733.953	26685.51
734.294	26594.22
734.635	26524.39
734.976	26619.75
735.317	26373.88
735.658	26368.91
735.999	26512.64
736.339	26310.83
736.68	26455.69
737.021	26319.19
737.361	26184.28
737.702	26416.14
738.042	26364.39
738.383	26239.2
738.723	26325.52
739.063	26160.33
739.404	26086.66
739.744	26088.92
740.084	26008.92
740.424	25956.04
740.764	25989.26
741.104	26005.98
741.444	25927.34
741.784	25834.24
742.124	26027.23
742.464	25758.31
742.804	25855.48
743.143	25628.82
743.483	25750.85
743.823	25613.68
744.162	25645.99
744.502	25670.85
744.841	25675.37
745.181	25694.13
745.52	25515.37
745.86	25598.76
746.199	25597.41
746.538	25536.39
746.877	25494.36
747.216	25489.84
747.556	25392.44
747.895	25370.75
748.234	25267.02
748.573	25188.38
748.911	25312.22
749.25	25230.64
749.589	25170.52
749.928	25350.41
750.267	25296.17
750.605	25224.53
750.944	25223.18
751.283	25042.17
751.621	25119.45
751.96	24925.11
752.298	24912.23
752.636	25011.21
752.975	24884.43
753.313	24790.65
753.651	24916.07
753.989	24782.51
754.327	24839.69
754.666	24627.71
755.004	24713.36
755.342	24702.06
755.679	24665.68
756.017	24518.56
756.355	24575.06
756.693	24418.23
757.031	24585.46
757.368	24412.8
757.706	24418.91
758.044	24293.94
758.381	24418.23
758.719	24319.47
759.056	24335.07
759.394	24166.94
759.731	24017.33
