Data from hue_28_FLMS001491_00040.txt Node
Date: Tue Feb 07 17:17:13 GMT 2017
User: dcchb
Spectrometer: FLMS00149
Trigger mode: 0
Integration Time (sec): 2.000000E-2
Scans to average: 10
Electric dark correction enabled: true
Nonlinearity correction enabled: false
Boxcar width: 0
XAxis mode: Wavelengths
Number of Pixels in Spectrum: 2048
>>>>>Begin Spectral Data<<<<<
341.393	-23.18
341.776	-23.18
342.16	-23.18
342.543	-75.38
342.927	-60.01
343.31	-68.37
343.693	-61.37
344.077	-85.55
344.46	-53.23
344.843	-71.54
345.226	-37.64
345.61	-37.87
345.993	-41.26
346.376	-21.14
346.759	35.13
347.142	18.18
347.525	59.31
347.908	58.85
348.291	90.94
348.674	96.14
349.057	119.42
349.44	129.36
349.823	143.82
350.206	168.91
350.588	188.12
350.971	221.11
351.354	224.5
351.737	229.47
352.119	256.59
352.502	283.93
352.884	292.97
353.267	271.73
353.65	287.77
354.032	307.21
354.414	314.89
354.797	324.16
355.179	313.76
355.562	327.32
355.944	337.04
356.326	333.65
356.709	346.53
357.091	318.28
357.473	325.74
357.855	349.69
358.238	346.3
358.62	336.81
359.002	337.94
359.384	343.37
359.766	344.27
360.148	325.06
360.53	333.65
360.912	335.46
361.294	333.2
361.676	316.02
362.057	330.03
362.439	324.16
362.821	331.39
363.203	317.38
363.584	313.76
363.966	340.43
364.348	331.39
364.729	324.84
365.111	325.06
365.493	322.8
365.874	308.79
366.256	303.59
366.637	288.23
367.019	316.02
367.4	322.58
367.781	316.93
368.163	311.05
368.544	307.44
368.925	302.92
369.306	330.03
369.688	294.1
370.069	286.42
370.45	301.79
370.831	326.19
371.212	304.5
371.593	345.63
371.974	297.72
372.355	299.07
372.736	337.94
373.117	338.62
373.498	312.63
373.879	317.6
374.26	325.06
374.641	311.96
375.021	318.73
375.402	320.77
375.783	321.67
376.163	311.96
376.544	342.91
376.925	335.01
377.305	314.44
377.686	342.46
378.066	332.75
378.447	339.07
378.827	332.29
379.208	329.81
379.588	323.48
379.968	318.96
380.349	318.51
380.729	336.14
381.109	343.37
381.489	319.64
381.87	353.76
382.25	349.24
382.63	322.58
383.01	322.35
383.39	346.76
383.77	339.98
384.15	344.95
384.53	336.14
384.91	344.27
385.29	346.76
385.67	348.56
386.049	350.6
386.429	337.04
386.809	340.43
387.189	363.03
387.568	368.9
387.948	362.12
388.328	357.15
388.707	346.98
389.087	340.2
389.466	354.21
389.846	386.53
390.225	379.07
390.605	356.93
390.984	359.41
391.363	360.32
391.743	370.71
392.122	366.19
392.501	371.84
392.881	381.56
393.26	372.52
393.639	375.46
394.018	374.33
394.397	383.14
394.776	363.48
395.155	379.07
395.534	350.37
395.913	377.94
396.292	378.62
396.671	381.78
397.05	387.89
397.429	373.42
397.808	391.05
398.186	402.8
398.565	379.98
398.944	390.37
399.323	401.22
399.701	370.26
400.08	406.87
400.458	369.58
400.837	406.87
401.215	399.41
401.594	389.02
401.972	413.87
402.351	393.99
402.729	402.35
403.107	397.38
403.486	432.18
403.864	405.96
404.242	416.59
404.62	405.29
404.999	405.06
405.377	416.59
405.755	391.05
406.133	419.97
406.511	416.59
406.889	405.96
407.267	419.07
407.645	440.77
408.023	426.3
408.401	429.01
408.779	444.61
409.156	430.6
409.534	442.12
409.912	423.36
410.29	442.12
410.667	446.41
411.045	431.73
411.422	436.25
411.8	448.45
412.178	443.25
412.555	485.51
412.933	472.85
413.31	463.14
413.687	452.29
414.065	469.24
414.442	459.97
414.819	468.11
415.197	460.43
415.574	478.96
415.951	479.63
416.328	480.76
416.705	478.5
417.082	498.16
417.46	501.78
417.837	491.61
418.214	514.66
418.591	484.15
418.967	492.74
419.344	504.04
419.721	508.79
420.098	494.55
420.475	502.23
420.852	504.72
421.228	511.5
421.605	520.99
421.982	531.16
422.358	525.06
422.735	524.6
423.111	511.05
423.488	528.9
423.864	536.36
424.241	546.98
424.617	548.11
424.994	533.64
425.37	528.67
425.746	555.56
426.123	561.21
426.499	553.3
426.875	551.27
427.251	579.97
427.627	569.12
428.003	581.33
428.379	569.35
428.756	552.63
429.132	567.54
429.507	593.98
429.883	592.63
430.259	581.78
430.635	609.12
431.011	593.76
431.387	604.83
431.763	598.95
432.138	632.17
432.514	653.64
432.89	641.44
433.265	638.95
433.641	614.32
434.016	652.74
434.392	657.03
434.767	662.68
435.143	666.3
435.518	678.05
435.894	670.14
436.269	677.14
436.644	679.86
437.02	719.63
437.395	671.72
437.77	696.58
438.145	692.06
438.52	682.57
438.895	723.7
439.271	704.71
439.646	737.48
440.021	716.92
440.395	712.62
440.77	753.75
441.145	747.42
441.52	760.98
441.895	746.52
442.27	760.53
442.645	761.89
443.019	760.08
443.394	771.83
443.769	739.51
444.143	760.3
444.518	767.76
444.892	772.73
445.267	784.71
445.641	779.97
446.016	796.24
446.39	800.3
446.764	823.81
447.139	800.76
447.513	791.72
447.887	791.49
448.262	792.62
448.636	813.64
449.01	793.07
449.384	829
449.758	826.52
450.132	826.97
450.506	843.69
450.88	843.24
451.254	829.23
451.628	836.46
452.002	856.12
452.376	862
452.75	873.07
453.123	879.17
453.497	885.73
453.871	891.15
454.244	907.87
454.618	926.18
454.992	896.57
455.365	902
455.739	946.74
456.112	924.37
456.486	933.63
456.859	970.47
457.232	987.64
457.606	951.03
457.979	971.37
458.352	967.53
458.725	1007.53
459.099	1003.24
459.472	1003.69
459.845	1027.19
460.218	1037.36
460.591	1031.03
460.964	1038.94
461.337	1087.3
461.71	1055.44
462.083	1119.84
462.456	1084.82
462.829	1101.99
463.201	1140.18
463.574	1125.72
463.947	1127.3
464.32	1165.72
464.692	1164.59
465.065	1172.95
465.438	1194.87
465.81	1189.67
466.183	1196.23
466.555	1227.64
466.928	1245.04
467.3	1241.65
467.672	1240.97
468.045	1282.33
468.417	1304.92
468.789	1307.64
469.161	1329.1
469.534	1353.74
469.906	1346.73
470.278	1395.09
470.65	1387.18
471.022	1394.19
471.394	1442.09
471.766	1447.74
472.138	1466.95
472.51	1526.39
472.882	1513.05
473.253	1552.83
473.625	1563.45
473.997	1613.62
474.369	1628.08
474.74	1609.1
475.112	1689.09
475.484	1694.52
475.855	1737.91
476.227	1755.53
476.598	1775.19
476.97	1833.72
477.341	1841.41
477.713	1873.72
478.084	1893.38
478.455	1978.13
478.827	1958.69
479.198	2042.31
479.569	2081.63
479.94	2106.94
480.311	2114.17
480.682	2188.52
481.053	2210.21
481.424	2269.64
481.795	2304.45
482.166	2326.82
482.537	2408.17
482.908	2450.43
483.279	2460.83
483.65	2523.65
484.021	2585.57
484.391	2623.98
484.762	2680.71
485.133	2694.94
485.503	2731.55
485.874	2812
486.244	2811.55
486.615	2909.85
486.985	2979.23
487.356	3005.22
487.726	3065.1
488.097	3143.75
488.467	3135.61
488.837	3207.7
489.207	3285.44
489.578	3348.03
489.948	3378.09
490.318	3431.2
490.688	3447.69
491.058	3544.64
491.428	3613.11
491.798	3624.86
492.168	3692.88
492.538	3712.77
492.908	3755.03
493.278	3865.08
493.648	3864.63
494.017	3935.81
494.387	3998.41
494.757	4028.47
495.126	4071.18
495.496	4105.75
495.866	4125.64
496.235	4195.92
496.605	4237.73
496.974	4265.75
497.344	4331.74
497.713	4345.07
498.082	4357.27
498.452	4444.73
498.821	4455.57
499.19	4445.63
499.559	4532.41
499.928	4525.4
500.298	4585.06
500.667	4660.32
501.036	4657.83
501.405	4748.67
501.774	4729.69
502.143	4786.64
502.512	4769.46
502.88	4875
503.249	4847.43
503.618	4848.33
503.987	4948.44
504.356	4966.07
504.724	4989.57
505.093	4999.52
505.462	5014.66
505.83	5116.8
506.199	5143.47
506.567	5172.62
506.936	5154.31
507.304	5216.23
507.672	5257.59
508.041	5225.27
508.409	5264.14
508.777	5353.86
509.145	5359.28
509.514	5401.31
509.882	5416.45
510.25	5383.69
510.618	5463.23
510.986	5470.69
511.354	5524.93
511.722	5608.99
512.09	5619.84
512.458	5602.66
512.826	5639.27
513.193	5658.48
513.561	5713.85
513.929	5731.47
514.297	5712.49
514.664	5801.08
515.032	5812.15
515.4	5818.02
515.767	5846.5
516.135	5880.4
516.502	5867.29
516.869	5967.63
517.237	5940.73
517.604	5946.16
517.972	5974.63
518.339	6029.54
518.706	6000.17
519.073	6084.68
519.44	6064.12
519.808	6157.68
520.175	6114.51
520.542	6170.56
520.909	6224.34
521.276	6215.53
521.643	6266.83
522.009	6344.56
522.376	6305.92
522.743	6398.35
523.11	6399.03
523.477	6429.31
523.843	6496.65
524.21	6525.35
524.577	6582.75
524.943	6564.22
525.31	6591.11
525.676	6661.17
526.043	6676.99
526.409	6694.16
526.776	6758.34
527.142	6761.95
527.508	6807.6
527.874	6884.89
528.241	6880.6
528.607	7002.85
528.973	6974.38
529.339	7002.4
529.705	7048.28
530.071	7134.15
530.437	7189.74
530.803	7140.02
531.169	7250.53
531.535	7211.43
531.901	7244.2
532.267	7270.87
532.632	7332.79
532.998	7340.92
533.364	7415.5
533.73	7383.86
534.095	7429.51
534.461	7500.24
534.826	7523.29
535.192	7541.82
535.557	7677.86
535.923	7659.78
536.288	7642.38
536.653	7784.98
537.019	7652.55
537.384	7723.74
537.749	7736.39
538.114	7808.71
538.479	7797.41
538.845	7786.33
539.21	7815.94
539.575	7855.03
539.94	7865.2
540.305	7987.46
540.67	7975.03
541.034	8010.51
541.399	8052.99
541.764	8066.1
542.129	8074.69
542.494	8148.59
542.858	8168.47
543.223	8135.03
543.587	8198.08
543.952	8288.47
544.316	8238.07
544.681	8299.32
545.045	8372.99
545.41	8476.03
545.774	8428.8
546.138	8435.58
546.503	8516.26
546.867	8537.28
547.231	8603.04
547.595	8635.8
547.959	8605.52
548.324	8676.93
548.688	8577.5
549.052	8720.32
549.416	8724.16
549.779	8717.61
550.143	8720.1
550.507	8787.21
550.871	8810.26
551.235	8796.25
551.599	8907.44
551.962	8908.79
552.326	8950.15
552.689	8979.52
553.053	8951.05
553.417	9063.36
553.78	9139.75
554.143	9076.47
554.507	9100.65
554.87	9171.16
555.234	9196.24
555.597	9173.64
555.96	9266.97
556.323	9293.87
556.686	9303.58
557.05	9358.27
557.413	9292.51
557.776	9379.51
558.139	9432.17
558.502	9403.24
558.865	9554.42
559.228	9603.91
559.59	9595.1
559.953	9555.33
560.316	9678.94
560.679	9681.65
561.041	9720.52
561.404	9739.5
561.767	9810.91
562.129	9800.52
562.492	9929.78
562.854	9860.63
563.217	9867.18
563.579	9910.35
563.941	9973.85
564.304	10016.78
564.666	10027.41
565.028	10110.79
565.39	10082.32
565.753	10194.86
566.115	10177.01
566.477	10204.8
566.839	10260.39
567.201	10382.88
567.563	10293.61
567.925	10438.92
568.287	10474.17
568.648	10446.83
569.01	10468.98
569.372	10574.06
569.734	10509.88
570.095	10649.08
570.457	10632.36
570.819	10664.9
571.18	10729.31
571.542	10796.43
571.903	10794.84
572.265	10867.38
572.626	10981.28
572.987	10965.46
573.349	11037.32
573.71	11089.98
574.071	11174.49
574.432	11273.7
574.794	11316.64
575.155	11311.44
575.516	11332.68
575.877	11457.2
576.238	11518.21
576.599	11613.58
576.96	11716.85
577.32	11811.99
577.681	11904.87
578.042	11969.95
578.403	12009.95
578.763	12188.93
579.124	12287.69
579.485	12386.44
579.845	12433.67
580.206	12633.44
580.566	12702.82
580.927	12787.11
581.287	12938.74
581.648	13090.83
582.008	13255.34
582.368	13298.05
582.728	13574.88
583.089	13585.05
583.449	13730.81
583.809	14042.44
584.169	14183.68
584.529	14301.19
584.889	14584.12
585.249	14729.43
585.609	14939.82
585.969	15114.96
586.329	15349.07
586.688	15541.84
587.048	15912.67
587.408	16023.41
587.768	16227.47
588.127	16486.67
588.487	16705.87
588.846	17019.09
589.206	17225.41
589.565	17478.96
589.925	17862.91
590.284	17964.15
590.643	18288.21
591.003	18540.63
591.362	18969.09
591.721	19090.22
592.08	19308.52
592.44	19735.4
592.799	19929.07
593.158	20224.2
593.517	20421.03
593.876	20784.64
594.235	21019.89
594.593	21414
594.952	21740.77
595.311	21946.87
595.67	22267.76
596.029	22853.96
596.387	23025.71
596.746	23369.43
597.104	23519.48
597.463	23805.12
597.822	24078.34
598.18	24365.56
598.538	24647.13
598.897	25151.98
599.255	25203.96
599.613	25760.33
599.972	25892.53
600.33	26272.4
600.688	26462.45
601.046	26780.64
601.404	27204.13
601.762	27373.16
602.12	27804.11
602.478	28041.62
602.836	28377.66
603.194	28475.96
603.552	28806.8
603.91	29008.83
604.268	29303.06
604.625	29467.8
604.983	29902.14
605.341	30011.06
605.698	30464.38
606.056	30668.45
606.413	30915.67
606.771	31248.09
607.128	31458.03
607.485	31594.07
607.843	31786.83
608.2	32366.03
608.557	32362.64
608.914	32566.7
609.272	32943.41
609.629	33199.45
609.986	33511.08
610.343	33470.18
610.7	33994.69
611.057	33971.18
611.414	34178.86
611.771	34537.04
612.127	34689.58
612.484	35081.66
612.841	35124.15
613.198	35328.89
613.554	35388.77
613.911	35854.98
614.267	35797.58
614.624	35947.4
614.98	36304.91
615.337	36426.49
615.693	36514.62
616.05	36789.41
616.406	37122.29
616.762	36942.4
617.118	37314.37
617.475	37282.73
617.831	37573.8
618.187	37750.97
618.543	37852.66
618.899	38152.54
619.255	38135.82
619.611	38281.35
619.967	38484.96
620.323	38710.95
620.678	38545.75
621.034	38663.49
621.39	38725.86
621.746	38756.37
622.101	39359.74
622.457	39098.05
622.812	39200.88
623.168	39410.59
623.523	39486.29
623.879	39686.51
624.234	39507.76
624.589	39740.52
624.945	39746.4
625.3	39966.28
625.655	40076.11
626.01	40088.76
626.365	40182.32
626.72	40183.9
627.075	40251.24
627.43	40181.64
627.785	40262.09
628.14	40428.87
628.495	40586.83
628.85	40562.87
629.205	40429.54
629.559	40709.76
629.914	40599.26
630.269	40785.02
630.623	40733.49
630.978	40751.12
631.332	40942.98
631.687	40958.12
632.041	40948.85
632.396	41067.04
632.75	40851
633.104	40883.09
633.459	40921.96
633.813	40971.68
634.167	40879.25
634.521	41002.86
634.875	40997.89
635.229	40982.07
635.583	40790.66
635.937	40846.71
636.291	40944.56
636.645	40851
636.999	41008.29
637.352	41040.15
637.706	40800.38
638.06	40987.5
638.413	40917.89
638.767	40868.85
639.121	40973.03
639.474	40693.49
639.828	40812.59
640.181	40733.04
640.534	40905.46
640.888	40752.47
641.241	40588.18
641.594	40758.12
641.947	40970.77
642.301	40832.7
642.654	40895.97
643.007	40859.59
643.36	40780.5
643.713	40783.66
644.066	41006.25
644.419	40738.01
644.771	40406.72
645.124	40102.55
645.477	40101.42
645.83	39802.67
646.182	39673.18
646.535	39625.72
646.888	39740.75
647.24	39462.11
647.593	39539.4
647.945	39518.38
648.298	39604.26
648.65	39539.62
649.002	39345.51
649.355	39461.43
649.707	39316.35
650.059	39688.32
650.411	40114.98
650.763	40070.23
651.115	40557.68
651.467	40387.29
651.819	40486.72
652.171	40408.3
652.523	40206.27
652.875	40300.96
653.227	40103
653.578	40391.35
653.93	40260.06
654.282	40203.79
654.633	40227.06
654.985	40280.85
655.337	40158.82
655.688	40298.47
656.039	40294.18
656.391	40024.36
656.742	39974.64
657.094	40185.48
657.445	40272.26
657.796	40234.97
658.147	40040.85
658.498	40083.79
658.849	40286.95
659.2	40086.73
659.551	40008.09
659.902	40097.58
660.253	40103.9
660.604	40162.43
660.955	39867.53
661.306	40205.14
661.656	40101.19
662.007	40107.29
662.358	40078.59
662.708	40069.78
663.059	40098.93
663.409	39765.15
663.76	40154.98
664.11	39924.47
664.461	40006.73
664.811	40027.52
665.161	40080.4
665.511	39806.28
665.862	40059.38
666.212	40143.9
666.562	40075.2
666.912	39922.21
667.262	39811.48
667.612	39868.66
667.962	39862.78
668.312	39880.18
668.662	40117.69
669.011	40023.23
669.361	39873.85
669.711	39765.83
670.06	39832.95
670.41	39798.83
670.76	39709.34
671.109	39861.2
671.459	39790.69
671.808	39733.07
672.157	39788.43
672.507	39519.29
672.856	39610.13
673.205	39613.52
673.554	39710.69
673.904	39606.74
674.253	39911.14
674.602	39716.57
674.951	39136.24
675.3	39017.6
675.649	39505.05
675.998	39460.08
676.346	39567.19
676.695	39809.9
677.044	39316.35
677.393	39566.52
677.741	39559.96
678.09	39429.34
678.438	39430.25
678.787	39614.88
679.135	39462.34
679.484	39116.36
679.832	39217.37
680.181	39115
680.529	39179.86
680.877	39176.24
681.225	39072.52
681.573	39104.16
681.922	38980.32
682.27	38877.49
682.618	38995.46
682.966	38738.29
683.314	38922.69
683.661	38759.76
684.009	38677.27
684.357	38651.74
684.705	38581.91
685.053	38597.95
685.4	38450.39
685.748	38392.54
686.095	38326.77
686.443	38164.52
686.79	38280.9
687.138	38269.38
687.485	38248.13
687.832	37976.05
688.18	38096.72
688.527	37855.15
688.874	37865.54
689.221	37883.4
689.568	37717.07
689.915	37628.49
690.262	37619.9
690.609	37586
690.956	37453.8
691.303	37404.31
691.65	37082.74
691.997	37338.78
692.344	37029.63
692.69	36963.65
693.037	37035.96
693.383	36838.23
693.73	36970.2
694.077	36568.18
694.423	36726.59
694.769	36567.05
695.116	36431.46
695.462	36472.36
695.808	36208.64
696.155	36411.8
696.501	36136.55
696.847	36045.48
697.193	35826.05
697.539	35939.94
697.885	35689.33
698.231	35586.28
698.577	35560.75
698.923	35623.79
699.269	35363.24
699.614	35387.64
699.96	35189
700.306	35346.51
700.651	34976.58
700.997	35079.4
701.342	34887.77
701.688	34833.76
702.033	34670.6
702.379	34706.76
702.724	34523.94
703.069	34792.4
703.415	34312.64
703.76	34334.56
704.105	34391.74
704.45	34222.25
704.795	34229.48
705.14	33977.74
705.485	33982.26
705.83	33761.02
706.175	33892.77
706.52	33651.42
706.865	33533.23
707.209	33614.81
707.554	33462.04
707.899	33542.95
708.243	33344.76
708.588	33376.85
708.932	33062.05
709.277	33174.14
709.621	33016.63
709.966	32965.56
710.31	33019.34
710.654	32646.92
710.998	32760.59
711.342	32677.43
711.687	32697.09
712.031	32551.33
712.375	32429.98
712.719	32555.4
713.063	32395.86
713.407	32344.56
713.75	32229.53
714.094	32291.45
714.438	32078.13
714.782	32115.19
715.125	31944.34
715.469	32020.5
715.812	31737.12
716.156	31693.73
716.499	31697.57
716.843	31728.98
717.186	31472.94
717.53	31780.05
717.873	31602.88
718.216	31617.57
718.559	31523.79
718.902	31206.51
719.246	31352.27
719.589	31176.91
719.932	31103.01
720.275	31107.08
720.617	31028.66
720.96	30969.45
721.303	30958.15
721.646	30993.41
721.989	30865.73
722.331	31012.84
722.674	30826.63
723.016	30910.92
723.359	30762.68
723.701	30811.94
724.044	30630.25
724.386	30363.82
724.729	30645.62
725.071	30601.33
725.413	30522.91
725.755	30523.36
726.097	30361.56
726.439	30211.06
726.782	30198.85
727.124	30294.44
727.465	30049.25
727.807	30191.4
728.149	30040.21
728.491	29977.62
728.833	29947.79
729.175	29905.53
729.516	29950.5
729.858	29841.8
730.199	29779.88
730.541	29854.91
730.882	29787.79
731.224	29870.05
731.565	29574.24
731.906	29681.58
732.248	29548.02
732.589	29497.4
732.93	29435.03
733.271	29333.56
733.612	29341.7
733.953	29575.14
734.294	29291.76
734.635	29218.31
734.976	29218.09
735.317	29113.91
735.658	29087.7
735.999	29157.3
736.339	29073.46
736.68	29161.59
737.021	28988.04
737.361	28876.63
737.702	28946.91
738.042	28920.47
738.383	28834.59
738.723	28934.48
739.063	28665.79
739.404	28832.56
739.744	28679.12
740.084	28596.18
740.424	28643.41
740.764	28588.27
741.104	28533.13
741.444	28435.74
741.784	28481.61
742.124	28518.9
742.464	28412.69
742.804	28444.55
743.143	28316.42
743.483	28344.21
743.823	28093.37
744.162	28205.91
744.502	28179.24
744.841	27999.81
745.181	28249.53
745.52	27949.65
745.86	28079.59
746.199	27899.03
746.538	28049.98
746.877	27973.6
747.216	27868.97
747.556	27851.34
747.895	27802.31
748.234	27769.09
748.573	27829.88
748.911	27703.33
749.25	27668.3
749.589	27537
749.928	27567.06
750.267	27641.63
750.605	27574.29
750.944	27437.57
751.283	27386.72
751.621	27461.52
751.96	27348.76
752.298	27310.79
752.636	27223.34
752.975	27110.12
753.313	27114.87
753.651	27222.43
753.989	26926.62
754.327	26997.36
754.666	26864.03
755.004	26812.05
755.342	26904.48
755.679	26715.1
756.017	26722.11
756.355	26668.1
756.693	26588.1
757.031	26650.92
757.368	26538.61
757.706	26458.84
758.044	26388.11
758.381	26419.29
758.719	26297.49
759.056	26346.07
759.394	26289.58
759.731	25995.57
