Data from hue_10_FLMS001491_78.txt Node
Date: Mon Feb 06 15:32:32 GMT 2017
User: dcchb
Spectrometer: FLMS00149
Trigger mode: 0
Integration Time (sec): 2.000000E-2
Scans to average: 10
Electric dark correction enabled: true
Nonlinearity correction enabled: false
Boxcar width: 0
XAxis mode: Wavelengths
Number of Pixels in Spectrum: 2048
>>>>>Begin Spectral Data<<<<<
341.393	-17.23
341.776	-17.23
342.16	-17.23
342.543	-80.96
342.927	-71.69
343.31	-53.61
343.693	-67.63
344.077	-74.4
344.46	-62.2
344.843	-69.21
345.226	-21.75
345.61	-45.71
345.993	-38.93
346.376	-7.74
346.759	17.8
347.142	25.25
347.525	42.43
347.908	69.32
348.291	76.78
348.674	83.33
349.057	126.27
349.44	131.01
349.823	144.35
350.206	159.49
350.588	176.66
350.971	216.66
351.354	229.99
351.737	247.85
352.119	251.24
352.502	253.72
352.884	269.99
353.267	272.03
353.65	289.65
354.032	295.98
354.414	300.27
354.797	299.82
355.179	305.47
355.562	332.82
355.944	310.67
356.326	318.81
356.709	320.16
357.091	357
357.473	352.25
357.855	331.01
358.238	348.63
358.62	348.41
359.002	341.4
359.384	348.18
359.766	349.99
360.148	335.3
360.53	344.79
360.912	339.37
361.294	335.98
361.676	341.86
362.057	326.26
362.439	330.78
362.821	316.77
363.203	352.02
363.584	304.34
363.966	328.75
364.348	310.22
364.729	314.06
365.111	330.1
365.493	314.51
365.874	305.7
366.256	331.91
366.637	330.78
367.019	319.03
367.4	321.97
367.781	314.29
368.163	321.74
368.544	307.28
368.925	326.26
369.306	315.87
369.688	312.7
370.069	327.62
370.45	309.31
370.831	309.99
371.212	298.69
371.593	301.63
371.974	309.54
372.355	305.02
372.736	333.49
373.117	312.25
373.498	325.58
373.879	314.96
374.26	305.47
374.641	309.77
375.021	317.9
375.402	321.74
375.783	322.42
376.163	325.81
376.544	333.72
376.925	329.43
377.305	326.71
377.686	328.3
378.066	307.51
378.447	319.71
378.827	341.18
379.208	297.56
379.588	310.67
379.968	304.34
380.349	337.34
380.729	307.96
381.109	323.1
381.489	354.96
381.87	322.65
382.25	344.57
382.63	336.43
383.01	328.75
383.39	323.55
383.77	319.71
384.15	340.95
384.53	320.84
384.91	346.6
385.29	333.49
385.67	335.53
386.049	351.35
386.429	341.18
386.809	358.8
387.189	330.33
387.568	341.86
387.948	351.35
388.328	355.64
388.707	328.75
389.087	348.63
389.466	342.53
389.846	358.13
390.225	366.94
390.605	362.42
390.984	350.44
391.363	351.12
391.743	363.78
392.122	351.8
392.501	376.66
392.881	360.39
393.26	367.39
393.639	353.38
394.018	350.22
394.397	352.93
394.776	360.84
395.155	364.68
395.534	347.05
395.913	379.14
396.292	376.88
396.671	381.63
397.05	391.12
397.429	370.33
397.808	346.38
398.186	357.22
398.565	364.68
398.944	373.94
399.323	393.38
399.701	360.39
400.08	366.26
400.458	383.44
400.837	372.36
401.215	372.82
401.594	368.3
401.972	375.07
402.351	410.78
402.729	364.91
403.107	379.14
403.486	382.08
403.864	374.85
404.242	378.24
404.62	385.24
404.999	408.07
405.377	395.41
405.755	395.41
406.133	385.24
406.511	396.09
406.889	394.51
407.267	404.23
407.645	401.06
408.023	404.45
408.401	393.38
408.779	393.83
409.156	422.08
409.534	433.38
409.912	405.36
410.29	424.57
410.667	418.69
411.045	401.74
411.422	425.92
411.8	400.84
412.178	415.53
412.555	418.69
412.933	405.13
413.31	422.53
413.687	425.47
414.065	419.37
414.442	436.54
414.819	427.5
415.197	448.07
415.574	439.48
415.951	425.92
416.328	458.91
416.705	434.06
417.082	444
417.46	458.46
417.837	484.9
418.214	445.13
418.591	461.4
418.967	457.78
419.344	451.68
419.721	459.37
420.098	469.99
420.475	466.82
420.852	484.22
421.228	485.81
421.605	472.7
421.982	479.7
422.358	463.21
422.735	485.13
423.111	460.5
423.488	488.52
423.864	498.91
424.241	478.12
424.617	484.22
424.994	490.1
425.37	486.03
425.746	487.39
426.123	487.61
426.499	498.46
426.875	529.2
427.251	505.47
427.627	501.63
428.003	501.63
428.379	524.9
428.756	511.57
429.132	518.12
429.507	540.72
429.883	532.58
430.259	536.2
430.635	546.14
431.011	541.85
431.387	534.62
431.763	519.48
432.138	560.83
432.514	552.92
432.89	560.83
433.265	552.25
433.641	538.69
434.016	553.38
434.392	566.26
434.767	570.78
435.143	579.36
435.518	571.68
435.894	585.46
436.269	575.52
436.644	599.93
437.02	588.63
437.395	601.51
437.77	613.49
438.145	596.09
438.52	604
438.895	616.2
439.271	600.61
439.646	634.05
440.021	625.69
440.395	629.76
440.77	625.01
441.145	637.67
441.52	636.99
441.895	633.6
442.27	643.54
442.645	642.86
443.019	655.07
443.394	647.61
443.769	645.58
444.143	651.23
444.518	659.81
444.892	671.56
445.267	648.74
445.641	683.77
446.016	674.05
446.39	681.06
446.764	675.63
447.139	663.2
447.513	648.29
447.887	667.95
448.262	693.03
448.636	662.07
449.01	699.36
449.384	691
449.758	699.81
450.132	698.91
450.506	688.06
450.88	681.73
451.254	686.03
451.628	721.96
452.002	693.03
452.376	721.73
452.75	693.48
453.123	724.9
453.497	725.8
453.871	734.16
454.244	740.71
454.618	768.28
454.992	736.87
455.365	768.96
455.739	785.91
456.112	756.76
456.486	769.87
456.859	788.17
457.232	771
457.606	792.69
457.979	781.39
458.352	780.71
458.725	808.06
459.099	829.98
459.472	820.71
459.845	807.83
460.218	831.79
460.591	833.59
460.964	824.1
461.337	844.22
461.71	881.95
462.083	880.15
462.456	877.43
462.829	873.82
463.201	884.21
463.574	894.84
463.947	886.93
464.32	926.7
464.692	897.77
465.065	924.89
465.438	922.41
465.81	930.09
466.183	968.28
466.555	968.05
466.928	966.92
467.3	1002.85
467.672	1020.48
468.045	1027.26
468.417	1023.42
468.789	1003.76
469.161	1028.39
469.534	1051.22
469.906	1107.03
470.278	1087.6
470.65	1076.53
471.022	1121.04
471.394	1125.11
471.766	1128.95
472.138	1165.34
472.51	1160.82
472.882	1191.78
473.253	1218.67
473.625	1211.66
473.997	1254.6
474.369	1277.88
474.74	1258.89
475.112	1297.99
475.484	1316.07
475.855	1351.55
476.227	1360.81
476.598	1396.06
476.97	1401.71
477.341	1443.97
477.713	1469.28
478.084	1461.15
478.455	1501.6
478.827	1527.36
479.198	1575.72
479.569	1596.96
479.94	1626.34
480.311	1655.72
480.682	1681.03
481.053	1725.77
481.424	1718.09
481.795	1748.15
482.166	1802.61
482.537	1842.83
482.908	1902.72
483.279	1886.67
483.65	1943.4
484.021	1990.17
484.391	2024.52
484.762	2040.34
485.133	2069.27
485.503	2096.39
485.874	2156.05
486.244	2191.98
486.615	2266.55
486.985	2228.13
487.356	2331.63
487.726	2364.4
488.097	2379.32
488.467	2416.83
488.837	2471.97
489.207	2510.84
489.578	2525.75
489.948	2546.77
490.318	2636.94
490.688	2640.1
491.058	2672.19
491.428	2714.67
491.798	2735.69
492.168	2817.95
492.538	2855.69
492.908	2855.46
493.278	2918.51
493.648	2924.84
494.017	2974.55
494.387	3005.51
494.757	3030.82
495.126	3085.06
495.496	3106.53
495.866	3119.41
496.235	3170.93
496.605	3198.96
496.974	3191.05
497.344	3249.8
497.713	3280.54
498.082	3293.42
498.452	3304.04
498.821	3355.56
499.19	3346.75
499.559	3417.03
499.928	3450.7
500.298	3450.7
500.667	3471.26
501.036	3473.07
501.405	3522.56
501.774	3498.38
502.143	3546.06
502.512	3565.5
502.88	3640.98
503.249	3611.15
503.618	3615.22
503.987	3674.65
504.356	3666.51
504.724	3644.59
505.093	3710.13
505.462	3688.43
505.83	3734.99
506.199	3767.08
506.567	3809.33
506.936	3764.59
507.304	3852.27
507.672	3863.57
508.041	3883.68
508.409	3840.52
508.777	3882.1
509.145	3947.41
509.514	3956.68
509.882	3977.01
510.25	3979.05
510.618	4025.37
510.986	3984.02
511.354	4005.94
511.722	4067.86
512.09	4047.29
512.458	4045.03
512.826	4047.52
513.193	4128.2
513.561	4070.8
513.929	4089.55
514.297	4159.61
514.664	4139.04
515.032	4157.57
515.4	4205.03
515.767	4199.38
516.135	4221.75
516.502	4197.12
516.869	4244.58
517.237	4239.15
517.604	4232.83
517.972	4285.25
518.339	4273.05
518.706	4244.58
519.073	4287.74
519.44	4262.43
519.808	4294.75
520.175	4315.99
520.542	4338.36
520.909	4313.73
521.276	4353.05
521.643	4362.54
522.009	4387.85
522.376	4396.21
522.743	4402.31
523.11	4433.27
523.477	4448.64
523.843	4440.05
524.21	4521.63
524.577	4538.13
524.943	4514.85
525.31	4535.87
525.676	4570.44
526.043	4585.81
526.409	4646.83
526.776	4673.94
527.142	4644.79
527.508	4742.87
527.874	4699.25
528.241	4741.51
528.607	4753.94
528.973	4789.65
529.339	4737.22
529.705	4810.21
530.071	4854.28
530.437	4835.07
530.803	4867.84
531.169	4897.89
531.535	4915.75
531.901	4924.56
532.267	4921.4
532.632	4949.19
532.998	4988.29
533.364	5028.96
533.73	4975.63
534.095	5033.71
534.461	5061.96
534.826	5144.44
535.192	5107.61
535.557	5080.94
535.923	5172.46
536.288	5158.45
536.653	5170.43
537.019	5156.19
537.384	5215.63
537.749	5260.37
538.114	5210.88
538.479	5256.3
538.845	5247.72
539.21	5331.33
539.575	5286.13
539.94	5328.62
540.305	5346.47
540.67	5394.83
541.034	5376.75
541.399	5457.65
541.764	5449.29
542.129	5475.51
542.494	5468.5
542.858	5552.34
543.223	5490.42
543.587	5587.37
543.952	5547.14
544.316	5626.46
544.681	5593.69
545.045	5637.99
545.41	5690.19
545.774	5670.08
546.138	5722.96
546.503	5711.66
546.867	5711.66
547.231	5781.94
547.595	5858.55
547.959	5775.84
548.324	5796.85
548.688	5849.73
549.052	5847.93
549.416	5880.24
549.779	5952.78
550.143	5900.81
550.507	5983.29
550.871	5975.15
551.235	5950.3
551.599	6011.31
551.962	5999.33
552.326	5986.9
552.689	6090.86
553.053	6039.78
553.417	6125.21
553.78	6142.83
554.143	6161.82
554.507	6186
554.87	6216.5
555.234	6221.25
555.597	6163.62
555.96	6174.02
556.323	6281.59
556.686	6251.08
557.05	6313.9
557.413	6293.11
557.776	6304.18
558.139	6362.04
558.502	6380.11
558.865	6374.01
559.228	6372.66
559.59	6422.6
559.953	6360.45
560.316	6446.55
560.679	6422.6
561.041	6479.32
561.404	6458.76
561.767	6539.66
562.129	6539.21
562.492	6574.69
562.854	6552.31
563.217	6627.57
563.579	6606.78
563.941	6648.58
564.304	6645.19
564.666	6702.59
565.028	6775.36
565.39	6743.27
565.753	6732.42
566.115	6712.99
566.477	6799.76
566.839	6802.93
567.201	6835.47
567.563	6831.18
567.925	6898.52
568.287	6893.77
568.648	6974.9
569.01	6962.7
569.372	7030.95
569.734	6981.68
570.095	7023.04
570.457	7053.77
570.819	7117.27
571.18	7104.84
571.542	7156.59
571.903	7212.18
572.265	7244.72
572.626	7306.64
572.987	7324.95
573.349	7393.42
573.71	7368.11
574.071	7487.43
574.432	7549.35
574.794	7589.57
575.155	7627.54
575.516	7677.03
575.877	7723.13
576.238	7854.88
576.599	7900.07
576.96	7982.33
577.32	8097.81
577.681	8117.47
578.042	8268.2
578.403	8321.53
578.763	8381.87
579.124	8483.56
579.485	8712.48
579.845	8731.69
580.206	8875.19
580.566	8959.03
580.927	9098.91
581.287	9207.61
581.648	9301.17
582.008	9516.98
582.368	9699.35
582.728	9786.58
583.089	9996.29
583.449	10184.99
583.809	10429.5
584.169	10620.46
584.529	10820
584.889	11143.15
585.249	11188.35
585.609	11340.89
585.969	11693.65
586.329	11918.05
586.688	12076.24
587.048	12466.06
587.408	12622.66
587.768	13006.83
588.127	13232.59
588.487	13480.72
588.846	13800.26
589.206	14028.5
589.565	14344.65
589.925	14661.93
590.284	14894.69
590.643	15353.44
591.003	15596.37
591.362	15989.13
591.721	16385.05
592.08	16714.76
592.44	16935.32
592.799	17436.1
593.158	17700.27
593.517	18115.17
593.876	18506.8
594.235	18756.51
594.593	19242.15
594.952	19589.71
595.311	19844.17
595.67	20249.13
596.029	20757.14
596.387	21105.38
596.746	21369.78
597.104	21644.8
597.463	22220.83
597.822	22584.66
598.18	22780.36
598.538	23235.72
598.897	23732.65
599.255	23859.2
599.613	24593.2
599.972	24839.06
600.33	25144.14
600.688	25553.62
601.046	26080.61
601.404	26282.64
601.762	26578.45
602.12	27147.48
602.478	27508.82
602.836	27643.74
603.194	28030.39
603.552	28434.68
603.91	28610.49
604.268	29209.12
604.625	29438.27
604.983	29840.74
605.341	30011.58
605.698	30502.42
606.056	30700.15
606.413	31046.36
606.771	31522.5
607.128	31798.2
607.485	31995.03
607.843	32358.19
608.2	32631.18
608.557	33153.2
608.914	33282.46
609.272	33668.89
609.629	33925.83
609.986	34357.01
610.343	34455.76
610.7	34842.64
611.057	35186.81
611.414	35318.79
611.771	35586.58
612.127	35952.22
612.484	36036.96
612.841	36519.89
613.198	36561.24
613.554	36796.26
613.911	37274.44
614.267	37324.16
614.624	37514.21
614.98	37788.33
615.337	38185.83
615.693	38275.32
616.05	38461.53
616.406	38820.62
616.762	38842.99
617.118	38751.24
617.475	39193.94
617.831	39530.66
618.187	39697.2
618.543	39810.87
618.899	40156.4
619.255	40220.35
619.611	40397.3
619.967	40583.74
620.323	40882.26
620.678	40823.5
621.034	41015.36
621.39	41077.06
621.746	41128.81
622.101	41789.81
622.457	41425.29
622.812	41711.16
623.168	41915.68
623.523	41942.57
623.879	42224.37
624.234	42031.38
624.589	42220.98
624.945	42352.05
625.3	42542.33
625.655	42645.6
626.01	42719.5
626.365	42815.77
626.72	42871.13
627.075	42908.19
627.43	43041.98
627.785	42943.45
628.14	43155.87
628.495	43410.55
628.85	43289.43
629.205	43302.53
629.559	43588.85
629.914	43466.37
630.269	43513.38
630.623	43534.17
630.978	43455.98
631.332	43761.5
631.687	43856.87
632.041	43583.2
632.396	43871.56
632.75	43703.65
633.104	43807.15
633.459	43817.55
633.813	43753.6
634.167	43858.9
634.521	43906.36
634.875	43886.7
635.229	43935.51
635.583	43742.75
635.937	43846.7
636.291	43791.79
636.645	43924.21
636.999	43867.26
637.352	44031.78
637.706	43720.38
638.06	43921.05
638.413	43919.01
638.767	43836.31
639.121	43876.53
639.474	43697.1
639.828	43778.68
640.181	43808.06
640.534	43792.01
640.888	43898
641.241	43742.52
641.594	43775.97
641.947	43948.62
642.301	43755.18
642.654	43902.52
643.007	43868.17
643.36	43731.9
643.713	43846.93
644.066	44018
644.419	43613.71
644.771	43517.9
645.124	43141.18
645.477	43001.07
645.83	42961.3
646.182	42731.02
646.535	42558.37
646.888	42719.72
647.24	42569.9
647.593	42794.3
647.945	42734.64
648.298	42534.19
648.65	42592.5
649.002	42364.71
649.355	42497.81
649.707	42303.24
650.059	42602.89
650.411	43212.14
650.763	43182.76
651.115	43538.23
651.467	43489.65
651.819	43569.87
652.171	43402.19
652.523	43306.15
652.875	43367.16
653.227	43123.78
653.578	43478.12
653.93	43338.92
654.282	43242.2
654.633	43119.26
654.985	43211.01
655.337	43257.79
655.688	43227.06
656.039	43377.11
656.391	43076.32
656.742	43314.96
657.094	43115.65
657.445	43214.85
657.796	43203.1
658.147	43037.91
658.498	42940.06
658.849	43096.66
659.2	43052.6
659.551	43010.79
659.902	43241.07
660.253	43048.98
660.604	43124.23
660.955	42847.86
661.306	43111.13
661.656	42849.89
662.007	43062.09
662.358	42821.19
662.708	42972.15
663.059	42970.11
663.409	42747.29
663.76	43012.15
664.11	42943
664.461	43011.69
664.811	43026.16
665.161	42868.87
665.511	42919.04
665.862	42916.56
666.212	43124.01
666.562	42965.59
666.912	42788.87
667.262	42945.25
667.612	42819.16
667.962	42982.54
668.312	42869.55
668.662	43051.69
669.011	42821.42
669.361	42689.22
669.711	42792.26
670.06	42754.98
670.41	42780.29
670.76	42760.4
671.109	42790.23
671.459	42847.18
671.808	42660.29
672.157	42833.85
672.507	42546.85
672.856	42526.51
673.205	42595.66
673.554	42718.37
673.904	42546.62
674.253	42840.62
674.602	42677.24
674.951	42083.36
675.3	41910.03
675.649	42496
675.998	42511.82
676.346	42427.3
676.695	42597.24
677.044	42333.07
677.393	42526.06
677.741	42553.17
678.09	42282.67
678.438	42306.63
678.787	42339.85
679.135	42386.4
679.484	42034.54
679.832	42239.28
680.181	42019.18
680.529	42129.68
680.877	42033.41
681.225	41931.04
681.573	42166.97
681.922	41876.58
682.27	41620.32
682.618	41800.65
682.966	41642.46
683.314	41655.12
683.661	41671.39
684.009	41573.54
684.357	41491.06
684.705	41424.84
685.053	41490.38
685.4	41320.44
685.748	41206.09
686.095	41135.59
686.443	41028.7
686.79	40893.78
687.138	41003.39
687.485	40968.36
687.832	40888.36
688.18	40815.59
688.527	40642.94
688.874	40636.39
689.221	40467.13
689.568	40507.13
689.915	40603.62
690.262	40489.27
690.609	40398.2
690.956	40233.24
691.303	40048.38
691.65	39947.82
691.997	39992.79
692.344	39827.14
692.69	39735.17
693.037	39693.36
693.383	39453.14
693.73	39626.7
694.077	39339.47
694.423	39337.44
694.769	39212.92
695.116	39214.28
695.462	39177.44
695.808	39074.62
696.155	39040.05
696.501	38774.97
696.847	38593.51
697.193	38600.96
697.539	38680.96
697.885	38416.79
698.231	38151.48
698.577	38316.22
698.923	38187.87
699.269	38032.84
699.614	37901.09
699.96	37777.03
700.306	37822.68
700.651	37721.44
700.997	37555.11
701.342	37417.04
701.688	37472.63
702.033	37217.72
702.379	37269.02
702.724	37086.2
703.069	37210.94
703.415	36871.97
703.76	36848.24
704.105	36830.16
704.45	36778.19
704.795	36496.16
705.14	36422.71
705.485	36353.11
705.83	36349.27
706.175	36309.72
706.52	36194.25
706.865	36146.34
707.209	36059.11
707.554	36022.73
707.899	36078.77
708.243	35803.75
708.588	35811.21
708.932	35687.14
709.277	35580.02
709.621	35450.76
709.966	35360.82
710.31	35467.26
710.654	35145.46
710.998	35193.59
711.342	35066.14
711.687	35088.74
712.031	34965.35
712.375	34796.09
712.719	34915.18
713.063	34828.86
713.407	34881.51
713.75	34725.58
714.094	34682.87
714.438	34458.47
714.782	34427.51
715.125	34310.91
715.469	34305.03
715.812	34265.94
716.156	34114.98
716.499	34133.74
716.843	34193.62
717.186	33960.63
717.53	34100.06
717.873	34078.14
718.216	33824.59
718.559	33723.58
718.902	33547.54
719.246	33664.14
719.589	33527.88
719.932	33427.31
720.275	33403.58
720.617	33342.57
720.96	33404.94
721.303	33307.09
721.646	33254.44
721.989	33188
722.331	33178.28
722.674	33105.29
723.016	33022.35
723.359	33102.8
723.701	33027.78
724.044	32848.12
724.386	32734.68
724.729	32891.73
725.071	32732.19
725.413	32753.88
725.755	32701.23
726.097	32605.41
726.439	32519.09
726.782	32450.84
727.124	32450.84
727.465	32295.82
727.807	32339.43
728.149	32128.59
728.491	32297.85
728.833	32315.48
729.175	32035.94
729.516	32093.34
729.858	31851.99
730.199	31957.75
730.541	31902.38
730.882	31753.91
731.224	31927.69
731.565	31783.06
731.906	31865.77
732.248	31734.02
732.589	31567.02
732.93	31485.22
733.271	31407.03
733.612	31468.04
733.953	31592.79
734.294	31423.98
734.635	31309.63
734.976	31331.78
735.317	31204.09
735.658	31251.33
735.999	31193.7
736.339	31160.03
736.68	31243.64
737.021	31078.45
737.361	30897.21
737.702	31080.93
738.042	30949.64
738.383	30870.77
738.723	30977.21
739.063	30793.03
739.404	30873.71
739.744	30706.03
740.084	30738.8
740.424	30745.58
740.764	30603.43
741.104	30642.08
741.444	30500.61
741.784	30443.89
742.124	30532.02
742.464	30366.15
742.804	30396.88
743.143	30353.27
743.483	30286.15
743.823	30051.58
744.162	30063.56
744.502	30115.99
744.841	30010.45
745.181	30156.21
745.52	29870.57
745.86	30104.91
746.199	29934.52
746.538	29856.33
746.877	29956.22
747.216	29888.2
747.556	29806.39
747.895	29757.35
748.234	29679.84
748.573	29423.58
748.911	29626.06
749.25	29517.13
749.589	29396.23
749.928	29425.61
750.267	29325.95
750.605	29323.01
750.944	29242.34
751.283	29242.79
751.621	29120.76
751.96	29133.64
752.298	29031.27
752.636	29116.24
752.975	28953.08
753.313	28960.76
753.651	29036.47
753.989	28777.04
754.327	28735.23
754.666	28551.51
755.004	28719.19
755.342	28686.42
755.679	28615.91
756.017	28371.85
756.355	28514
756.693	28363.72
757.031	28419.54
757.368	28125.31
757.706	28144.97
758.044	28139.54
758.381	28077.4
758.719	27895.93
759.056	27954.46
759.394	27946.78
759.731	27740.01
760.068	27751.76
760.405	27670.63
760.743	27519.9
761.08	27581.59
761.417	27417.98
