Data from hue_60_FLMS001491_3.txt Node
Date: Mon Feb 06 15:11:50 GMT 2017
User: dcchb
Spectrometer: FLMS00149
Trigger mode: 0
Integration Time (sec): 2.000000E-2
Scans to average: 10
Electric dark correction enabled: true
Nonlinearity correction enabled: false
Boxcar width: 0
XAxis mode: Wavelengths
Number of Pixels in Spectrum: 2048
>>>>>Begin Spectral Data<<<<<
341.393	24.14
341.776	24.14
342.16	24.14
342.543	-46.82
342.927	-58.12
343.31	-69.87
343.693	-77.1
344.077	-82.3
344.46	-65.13
344.843	-66.03
345.226	-34.84
345.61	-31.23
345.993	-0.49
346.376	-13.15
346.759	41.31
347.142	24.36
347.525	52.16
347.908	64.59
348.291	81.09
348.674	81.09
349.057	95.55
349.44	140.07
349.823	127.86
350.206	147.75
350.588	188.2
350.971	220.97
351.354	240.4
351.737	235.88
352.119	244.47
352.502	249.67
352.884	292.15
353.267	304.81
353.65	300.97
354.032	325.82
354.414	313.17
354.797	318.59
355.179	317.01
355.562	317.24
355.944	328.31
356.326	340.06
356.709	323.79
357.091	347.07
357.473	352.26
357.855	352.72
358.238	363.56
358.62	348.65
359.002	363.11
359.384	354.3
359.766	350.23
360.148	344.58
360.53	350.23
360.912	335.54
361.294	347.29
361.676	343.68
362.057	329.67
362.439	362.66
362.821	339.16
363.203	334.41
363.584	331.47
363.966	339.38
364.348	340.06
364.729	354.75
365.111	318.82
365.493	330.57
365.874	329.89
366.256	329.89
366.637	340.97
367.019	322.66
367.4	333.51
367.781	320.18
368.163	327.86
368.544	311.36
368.925	340.74
369.306	321.08
369.688	311.36
370.069	331.47
370.45	333.06
370.831	318.59
371.212	324.92
371.593	317.46
371.974	327.63
372.355	321.98
372.736	335.99
373.117	303
373.498	311.14
373.879	309.55
374.26	340.29
374.641	332.83
375.021	321.31
375.402	336.22
375.783	343.45
376.163	343
376.544	343.68
376.925	341.64
377.305	329.67
377.686	316.33
378.066	314.98
378.447	339.61
378.827	335.99
379.208	339.84
379.588	306.16
379.968	333.73
380.349	337.12
380.729	341.42
381.109	337.58
381.489	330.12
381.87	358.82
382.25	347.29
382.63	334.19
383.01	352.04
383.39	331.7
383.77	367.86
384.15	340.06
384.53	346.62
384.91	348.65
385.29	352.49
385.67	352.72
386.049	354.07
386.429	356.56
386.809	363.34
387.189	369.44
387.568	343.9
387.948	364.24
388.328	355.65
388.707	366.05
389.087	385.48
389.466	378.48
389.846	378.48
390.225	354.98
390.605	367.63
390.984	358.82
391.363	384.13
391.743	392.04
392.122	370.8
392.501	379.38
392.881	375.99
393.26	368.08
393.639	387.52
394.018	386.61
394.397	388.65
394.776	383.22
395.155	387.07
395.534	397.24
395.913	373.73
396.292	392.26
396.671	378.03
397.05	392.72
397.429	390
397.808	371.25
398.186	396.11
398.565	407.4
398.944	381.87
399.323	397.46
399.701	383.45
400.08	389.1
400.458	392.94
400.837	381.19
401.215	401.98
401.594	406.27
401.972	413.51
402.351	396.11
402.729	424.58
403.107	406.95
403.486	405.37
403.864	404.47
404.242	404.47
404.62	429.55
404.999	413.28
405.377	427.97
405.755	447.86
406.133	418.48
406.511	429.55
406.889	429.55
407.267	439.04
407.645	430.68
408.023	432.04
408.401	425.26
408.779	414.86
409.156	452.83
409.534	478.82
409.912	452.15
410.29	472.04
410.667	443.79
411.045	448.08
411.422	455.76
411.8	470.23
412.178	473.84
412.555	465.26
412.933	477.91
413.31	479.27
413.687	473.62
414.065	490.57
414.442	497.35
414.819	482.43
415.197	493.73
415.574	490.57
415.951	519.94
416.328	490.11
416.705	526.27
417.082	498.93
417.46	505.26
417.837	486.05
418.214	502.77
418.591	518.14
418.967	526.72
419.344	511.13
419.721	516.1
420.098	533.5
420.475	535.99
420.852	546.38
421.228	529.66
421.605	513.39
421.982	511.81
422.358	568.08
422.735	534.18
423.111	544.35
423.488	543.22
423.864	534.18
424.241	564.01
424.617	563.56
424.994	566.72
425.37	570.11
425.746	557.01
426.123	571.24
426.499	585.48
426.875	578.25
427.251	585.25
427.627	587.29
428.003	563.78
428.379	598.36
428.756	605.14
429.132	613.73
429.507	642.88
429.883	617.34
430.259	640.17
430.635	623.22
431.011	624.57
431.387	641.75
431.763	637.68
432.138	615.99
432.514	642.43
432.89	650.34
433.265	673.84
433.641	630.22
434.016	652.82
434.392	673.84
434.767	672.03
435.143	693.27
435.518	684.69
435.894	728.53
436.269	703.22
436.644	682.43
437.02	690.33
437.395	699.83
437.77	717
438.145	717.23
438.52	729.66
438.895	712.03
439.271	717.68
439.646	733.72
440.021	744.8
440.395	746.15
440.77	736.89
441.145	748.41
441.52	752.93
441.895	763.33
442.27	771.24
442.645	767.4
443.019	780.28
443.394	768.07
443.769	797.22
444.143	793.16
444.518	792.25
444.892	789.99
445.267	778.92
445.641	785.7
446.016	811.91
446.39	819.15
446.764	820.28
447.139	821.63
447.513	814.4
447.887	799.03
448.262	839.03
448.636	842.42
449.01	819.82
449.384	841.52
449.758	834.74
450.132	867.05
450.506	847.17
450.88	857.34
451.254	861.18
451.628	885.81
452.002	888.97
452.376	898.24
452.75	910.89
453.123	881.29
453.497	897.79
453.871	917.22
454.244	931.23
454.618	940.95
454.992	947.5
455.365	950.67
455.739	948.86
456.112	959.03
456.486	969.65
456.859	973.94
457.232	1011
457.606	1020.72
457.979	1006.03
458.352	1020.27
458.725	1050.1
459.099	1042.64
459.472	1063.88
459.845	1091.23
460.218	1058.46
460.591	1090.55
460.964	1078.57
461.337	1131.23
461.71	1132.13
462.083	1165.12
462.456	1181.62
462.829	1170.77
463.201	1178.68
463.574	1194.5
463.947	1227.27
464.32	1235.86
464.692	1234.73
465.065	1290.55
465.438	1269.08
465.81	1300.71
466.183	1324.22
466.555	1334.84
466.928	1330.09
467.3	1377.1
467.672	1364.67
468.045	1435.85
468.417	1439.92
468.789	1437.66
469.161	1472.91
469.534	1483.76
469.906	1520.82
470.278	1540.48
470.65	1576.19
471.022	1619.58
471.394	1656.86
471.766	1672.46
472.138	1690.76
472.51	1739.8
472.882	1765.33
473.253	1823.19
473.625	1857.31
473.997	1906.8
474.369	1940.47
474.74	1953.58
475.112	2008.49
475.484	2088.94
475.855	2147.7
476.227	2137.75
476.598	2232.67
476.97	2297.07
477.341	2358.31
477.713	2402.61
478.084	2473.56
478.455	2566.9
478.827	2612.54
479.198	2692.99
479.569	2772.99
479.94	2837.4
480.311	2909.94
480.682	2998.07
481.053	3110.61
481.424	3239.65
481.795	3264.5
482.166	3384.28
482.537	3495.23
482.908	3622.01
483.279	3658.17
483.65	3765.96
484.021	3913.3
484.391	4022.9
484.762	4126.4
485.133	4216.12
485.503	4342.44
485.874	4511.03
486.244	4595.32
486.615	4745.37
486.985	4868.3
487.356	5040.96
487.726	5141.97
488.097	5330.21
488.467	5412.7
488.837	5584.9
489.207	5741.5
489.578	5894.27
489.948	6047.93
490.318	6231.88
490.688	6388.72
491.058	6517.3
491.428	6681.36
491.798	6858.08
492.168	7058.98
492.538	7201.12
492.908	7369.93
493.278	7534.22
493.648	7676.14
494.017	7867.32
494.387	8004.72
494.757	8249.46
495.126	8410.81
495.496	8515.44
495.866	8641.31
496.235	8864.36
496.605	9089.66
496.974	9222.31
497.344	9380.5
497.713	9592.7
498.082	9758.57
498.452	9912.92
498.821	10010.99
499.19	10118.79
499.559	10382.28
499.928	10588.38
500.298	10688.72
500.667	10867.92
501.036	10965.32
501.405	11161.47
501.774	11288.25
502.143	11509.94
502.512	11563.95
502.88	11809.59
503.249	11954.22
503.618	12174.1
503.987	12232.4
504.356	12403.47
504.724	12546.29
505.093	12683.24
505.462	12860.18
505.83	13048.65
506.199	13156.9
506.567	13453.62
506.936	13568.19
507.304	13692.25
507.672	13882.3
508.041	14016.99
508.409	14184.9
508.777	14385.79
509.145	14521.16
509.514	14621.04
509.882	14854.71
510.25	14873.24
510.618	15112.1
510.986	15234.13
511.354	15402.49
511.722	15594.58
512.09	15727.23
512.458	15815.59
512.826	16045.86
513.193	16083.83
513.561	16277.27
513.929	16400.2
514.297	16688.78
514.664	16846.52
515.032	16844.03
515.4	17172.61
515.767	17113.86
516.135	17356.34
516.502	17310.24
516.869	17661.87
517.237	17733.05
517.604	17804.24
517.972	18113.15
518.339	18194.28
518.706	18335.97
519.073	18349.53
519.44	18623.65
519.808	18844.43
520.175	18827.03
520.542	19118.1
520.909	19213.24
521.276	19436.28
521.643	19657.52
522.009	19834.46
522.376	19845.09
522.743	20052.99
523.11	20172.53
523.477	20481.9
523.843	20602.58
524.21	20841.67
524.577	20959.18
524.943	21118.27
525.31	21182.45
525.676	21519.39
526.043	21594.19
526.409	21744.7
526.776	22031.69
527.142	22084.35
527.508	22198.24
527.874	22352.82
528.241	22536.09
528.607	22589.65
528.973	22864.89
529.339	22838.23
529.705	23169.74
530.071	23342.85
530.437	23360.93
530.803	23580.35
531.169	23809.95
531.535	23700.58
531.901	23880.01
532.267	24093.56
532.632	24113.22
532.998	24260.11
533.364	24341.46
533.73	24447
534.095	24666.88
534.461	24714.34
534.826	24850.15
535.192	24973.54
535.557	25175.11
535.923	25158.84
536.288	25298.05
536.653	25484.94
537.019	25407.65
537.384	25595.89
537.749	25752.73
538.114	25828.66
538.479	25744.14
538.845	25967.86
539.21	25882.89
539.575	26069.1
539.94	26184.13
540.305	26360.17
540.67	26327.85
541.034	26500.96
541.399	26596.09
541.764	26612.82
542.129	26717
542.494	26747.28
542.858	26927.61
543.223	27016.42
543.587	27152.46
543.952	27135.06
544.316	27118.34
544.681	27278.11
545.045	27399.69
545.41	27464.09
545.774	27410.99
546.138	27645.56
546.503	27827.47
546.867	27824.31
547.231	28025.89
547.595	28073.34
547.959	28136.84
548.324	28177.3
548.688	28266.11
549.052	28382.49
549.416	28424.97
549.779	28470.85
550.143	28579.09
550.507	28855.02
550.871	28848.24
551.235	28941.8
551.599	29075.58
551.962	29214.1
552.326	29195.8
552.689	29367.77
553.053	29354.44
553.417	29363.71
553.78	29826.97
554.143	29742.45
554.507	29918.72
554.87	29952.39
555.234	30238.94
555.597	30003.24
555.96	30239.84
556.323	30386.96
556.686	30418.37
557.05	30742.43
557.413	30713.27
557.776	30838.02
558.139	31038.69
558.502	30947.17
558.865	31188.29
559.228	31463.76
559.59	31534.5
559.953	31680.25
560.316	31963.86
560.679	31853.81
561.041	32059
561.404	32191.88
561.767	32363.85
562.129	32416.51
562.492	32597.97
562.854	32725.2
563.217	32768.59
563.579	32951.41
563.941	33079.77
564.304	33211.06
564.666	33485.4
565.028	33541.67
565.39	33680.88
565.753	33840.2
566.115	33918.39
566.477	34096.01
566.839	34190.25
567.201	34253.29
567.563	34414.19
567.925	34722.43
568.287	34629.33
568.648	34732.38
569.01	34966.27
569.372	35154.51
569.734	35036.1
570.095	35308.86
570.457	35391.8
570.819	35517.89
571.18	35501.4
571.542	35731.9
571.903	35767.38
572.265	35898.22
572.626	35946.81
572.987	36146.8
573.349	36218.89
573.71	36443.29
574.071	36420.02
574.432	36561.48
574.794	36828.59
575.155	36798.99
575.516	36801.25
575.877	36892.32
576.238	37018.65
576.599	37111.75
576.96	37149.04
577.32	37125.76
577.681	37271.29
578.042	37436.26
578.403	37519.42
578.763	37495.47
579.124	37576.37
579.485	37660.66
579.845	37858.85
580.206	37644.17
580.566	37716.25
580.927	37695.46
581.287	37869.47
581.648	37883.93
582.008	37980.2
582.368	38001.22
582.728	38156.92
583.089	38011.84
583.449	38062.91
583.809	38048.67
584.169	38126.86
584.529	38001.22
584.889	38379.51
585.249	38175.68
585.609	38084.83
585.969	38328.67
586.329	38137.26
586.688	38331.15
587.048	38310.81
587.408	38185.85
587.768	38264.71
588.127	38177.94
588.487	38245.73
588.846	38527.98
589.206	38127.54
589.565	38192.4
589.925	38604.14
590.284	38456.57
590.643	38457.7
591.003	38579.73
591.362	38653.18
591.721	38476.91
592.08	38585.84
592.44	38685.72
592.799	38784.02
593.158	38623.12
593.517	38716.23
593.876	38756.68
594.235	38675.1
594.593	38774.08
594.952	38926.17
595.311	38709.67
595.67	38800.29
596.029	39041.64
596.387	39032.83
596.746	39176.55
597.104	38912.61
597.463	39044.81
597.822	39172.03
598.18	39014.98
598.538	38913.28
598.897	39253.61
599.255	38851.82
599.613	39643.44
599.972	39222.2
600.33	39404.57
600.688	39220.85
601.046	39262.43
601.404	39494.29
601.762	39471.24
602.12	39592.59
602.478	39592.59
602.836	39597.11
603.194	39440.95
603.552	39678.46
603.91	39453.16
604.268	39742.19
604.625	39562.53
604.983	39906.03
605.341	39661.51
605.698	39882.75
606.056	39909.64
606.413	40030.54
606.771	40051.56
607.128	40233.48
607.485	40093.59
607.843	40097.21
608.2	40358.67
608.557	40496.52
608.914	40383.08
609.272	40494.94
609.629	40739.23
609.986	40797.3
610.343	40521.6
610.7	41077.52
611.057	40744.42
611.414	40783.52
611.771	40820.81
612.127	41085.66
612.484	41146.22
612.841	41217.86
613.198	41076.62
613.554	41181.93
613.911	41350.73
614.267	41317.06
614.624	41313.9
614.98	41474.35
615.337	41539.43
615.693	41352.09
616.05	41492.65
616.406	41688.58
616.762	41566.55
617.118	41698.52
617.475	41632.31
617.831	41858.07
618.187	41911.17
618.543	41914.11
618.899	42219.41
619.255	42199.3
619.611	42132.64
619.967	42193.65
620.323	42216.93
620.678	42207.44
621.034	42228.9
621.39	42326.53
621.746	42290.37
622.101	42715.22
622.457	42427.32
622.812	42601.1
623.168	42597.26
623.523	42584.83
623.879	42582.57
624.234	42376.7
624.589	42576.69
624.945	42567.65
625.3	42751.15
625.655	42670.02
626.01	42803.13
626.365	42827.08
626.72	42704.15
627.075	42711.38
627.43	42682.45
627.785	42757.25
628.14	42744.14
628.495	42658.5
628.85	42691.72
629.205	42619.18
629.559	42855.1
629.914	42707.99
630.269	42676.8
630.623	42654.43
630.978	42584.15
631.332	42722.22
631.687	42766.29
632.041	42568.78
632.396	42676.8
632.75	42623.47
633.104	42591.61
633.459	42379.18
633.813	42359.97
634.167	42299.86
634.521	42438.84
634.875	42414.21
635.229	42459.41
635.583	42248.11
635.937	42290.15
636.291	42304.83
636.645	42302.57
636.999	42008.12
637.352	42365.4
637.706	42136.25
638.06	42325.4
638.413	42210.37
638.767	42124.5
639.121	42121.56
639.474	41911.85
639.828	41999.31
640.181	41961.57
640.534	42144.39
640.888	41921.79
641.241	41670.05
641.594	41822.13
641.947	42047.44
642.301	41796.37
642.654	41790.95
643.007	41800.89
643.36	41866.43
643.713	41811.97
644.066	41772.42
644.419	41483.39
644.771	41409.49
645.124	41012.66
645.477	41000.46
645.83	40711.2
646.182	40566.12
646.535	40449.52
646.888	40601.38
647.24	40212.01
647.593	40625.33
647.945	40345.56
648.298	40345.34
648.65	40321.84
649.002	40156.64
649.355	40443.64
649.707	40239.35
650.059	40497.65
650.411	40806.57
650.763	40948.26
651.115	41218.31
651.467	41185.54
651.819	41113
652.171	40956.39
652.523	40981.7
652.875	40995.94
653.227	40881.37
653.578	41018.99
653.93	40929.5
654.282	40704.42
654.633	40650.19
654.985	40736.29
655.337	40762.73
655.688	40784.42
656.039	40844.53
656.391	40547.82
656.742	40609.06
657.094	40611.55
657.445	40601.6
657.796	40542.39
658.147	40535.39
658.498	40587.14
658.849	40569.06
659.2	40545.56
659.551	40417.65
659.902	40593.92
660.253	40374.49
660.604	40549.4
660.955	40401.61
661.306	40499.01
661.656	40478.89
662.007	40431.66
662.358	40407.03
662.708	40494.49
663.059	40459.46
663.409	40176.98
663.76	40445.67
664.11	40346.24
664.461	40358.22
664.811	40433.92
665.161	40322.51
665.511	40323.64
665.862	40282.51
666.212	40304.43
666.562	40484.32
666.912	40292.46
667.262	40339.24
667.612	40316.19
667.962	40254.94
668.312	40327.71
668.662	40432.11
669.011	40299.69
669.361	40284.1
669.711	40278.9
670.06	40169.07
670.41	40075.51
670.76	39919.59
671.109	40201.84
671.459	40115.06
671.808	39922.3
672.157	40108.73
672.507	39723.66
672.856	39805.69
673.205	39840.49
673.554	40081.16
673.904	39768.86
674.253	40156.87
674.602	40068.96
674.951	39449.77
675.3	39217.46
675.649	39915.74
675.998	39825.58
676.346	39803.43
676.695	39931.11
677.044	39583.32
677.393	39860.6
677.741	39939.25
678.09	39743.32
678.438	39508.98
678.787	39796.2
679.135	39670.1
679.484	39460.61
679.832	39487.73
680.181	39325.48
680.529	39402.31
680.877	39270.11
681.225	39230.11
681.573	39413.38
681.922	39150.57
682.27	39128.87
682.618	39207.51
682.966	39065.82
683.314	39192.15
683.661	38992.15
684.009	38697.02
684.357	38858.14
684.705	38652.05
685.053	38854.76
685.4	38652.05
685.748	38461.77
686.095	38515.56
686.443	38330.02
686.79	38279.18
687.138	38342.45
687.485	38349.91
687.832	38194.43
688.18	38292.74
688.527	37978.39
688.874	38031.95
689.221	37950.37
689.568	37943.14
689.915	37899.53
690.262	37669.7
690.609	37679.64
690.956	37514.45
691.303	37504.28
691.65	37302.48
691.997	37381.57
692.344	37079.89
692.69	37063.84
693.037	37176.38
693.383	36667.47
693.73	36872.43
694.077	36812.77
694.423	36809.84
694.769	36559.45
695.116	36404.42
695.462	36315.16
695.808	36350.64
696.155	36462.73
696.501	36053.02
696.847	36163.75
697.193	35861.61
697.539	35995.4
697.885	35694.39
698.231	35674.05
698.577	35598.57
698.923	35628.85
699.269	35486.71
699.614	35398.8
699.96	35303.44
700.306	35349.54
700.651	35334.62
700.997	35012.6
701.342	34949.32
701.688	34972.82
702.033	34885.82
702.379	34821.41
702.724	34721.98
703.069	34901.86
703.415	34291.49
703.76	34420.75
704.105	34404.48
704.45	34196.35
704.795	34019.4
705.14	34016.46
705.485	34002.45
705.83	33728.79
706.175	33844.04
706.52	33722.46
706.865	33723.14
707.209	33620.32
707.554	33609.92
707.899	33489.02
708.243	33355.01
708.588	33407.67
708.932	33047.45
709.277	33138.75
709.621	33165.87
709.966	32847.46
710.31	32953.67
710.654	32777.63
710.998	32696.27
711.342	32761.36
711.687	32632.09
712.031	32413.34
712.375	32315.04
712.719	32372.67
713.063	32473.68
713.407	32443.85
713.75	32271.43
714.094	32174.25
714.438	32097.87
714.782	32099.45
715.125	31975.16
715.469	31947.14
715.812	31723.42
716.156	31753.92
716.499	31720.25
716.843	31498.11
717.186	31487.04
717.53	31600.26
717.873	31670.31
718.216	31605.45
718.559	31400.94
718.902	31121.17
719.246	31120.5
719.589	31161.62
719.932	31042.53
720.275	31079.82
720.617	30942.65
720.96	31031.46
721.303	30946.04
721.646	30978.35
721.989	30853.16
722.331	30933.16
722.674	30799.37
723.016	30840.05
723.359	30700.17
723.701	30604.12
724.044	30430.34
724.386	30366.39
724.729	30429.21
725.071	30311.25
725.413	30465.6
725.755	30267.64
726.097	30309.22
726.439	30118.04
726.782	30121.65
727.124	30274.19
727.465	30130.24
727.807	29915.56
728.149	29910.81
728.491	29894.99
728.833	30048.43
729.175	29925.95
729.516	29785.16
729.858	29730.02
730.199	29633.98
730.541	29509.69
730.882	29566.86
731.224	29698.61
731.565	29415.46
731.906	29479.18
732.248	29458.62
732.589	29147.44
732.93	29209.36
733.271	29259.53
733.612	29096.82
733.953	29230.83
734.294	29054.11
734.635	28982.02
734.976	29015.24
735.317	28943.38
735.658	28970.04
735.999	28914.68
736.339	28831.29
736.68	29080.55
737.021	28640.11
737.361	28704.06
737.702	28857.05
738.042	28735.7
738.383	28764.4
738.723	28667.68
739.063	28503.84
739.404	28669.03
739.744	28523.05
740.084	28457.51
740.424	28529.83
740.764	28257.07
741.104	28387.91
741.444	28166.67
741.784	28157.64
742.124	28192.21
742.464	28173.68
742.804	28080.58
743.143	28080.35
743.483	28022.5
743.823	27939.56
744.162	27806.46
744.502	27883.74
744.841	27810.53
745.181	27818.21
745.52	27721.49
745.86	27673.13
746.199	27756.52
746.538	27647.14
746.877	27754.26
747.216	27684.2
747.556	27454.38
747.895	27413.93
748.234	27377.09
748.573	27356.53
748.911	27283.99
749.25	27375.51
749.589	27184.33
749.928	27114.05
750.267	27259.58
750.605	27202.18
750.944	27049.87
751.283	26930.77
751.621	27038.34
751.96	26873.83
752.298	26908.4
752.636	26768.07
752.975	26806.03
753.313	26704.79
753.651	26686.49
753.989	26609.2
754.327	26578.47
754.666	26492.37
755.004	26455.08
755.342	26493.27
755.679	26408.53
756.017	26199.27
756.355	26329.43
