Data from hue_190_FLMS001491_00068.txt Node
Date: Tue Feb 07 16:45:37 GMT 2017
User: dcchb
Spectrometer: FLMS00149
Trigger mode: 0
Integration Time (sec): 2.000000E-2
Scans to average: 10
Electric dark correction enabled: true
Nonlinearity correction enabled: false
Boxcar width: 0
XAxis mode: Wavelengths
Number of Pixels in Spectrum: 2048
>>>>>Begin Spectral Data<<<<<
341.393	-31.76
341.776	-31.76
342.16	-31.76
342.543	-68.6
342.927	-83.97
343.31	-70.63
343.693	-71.09
344.077	-81.48
344.46	-60.01
344.843	-52.78
345.226	-22.05
345.61	-28.15
345.993	-10.3
346.376	-8.26
346.759	5.52
347.142	34.22
347.525	37.61
347.908	61.79
348.291	62.47
348.674	87.78
349.057	115.35
349.44	109.25
349.823	134.78
350.206	175.69
350.588	187.21
350.971	203.48
351.354	228.79
351.737	221.11
352.119	242.35
352.502	234.22
352.884	271.28
353.267	283.93
353.65	303.37
354.032	308.79
354.414	309.02
354.797	303.82
355.179	325.51
355.562	307.89
355.944	320.09
356.326	302.01
356.709	324.61
357.091	332.97
357.473	332.75
357.855	336.81
358.238	345.17
358.62	321.9
359.002	354.89
359.384	329.36
359.766	355.8
360.148	322.12
360.53	320.32
360.912	330.26
361.294	348.79
361.676	313.08
362.057	343.82
362.439	309.02
362.821	320.54
363.203	318.06
363.584	357.83
363.966	325.51
364.348	324.38
364.729	320.77
365.111	326.19
365.493	322.35
365.874	309.92
366.256	290.49
366.637	295.46
367.019	319.86
367.4	324.38
367.781	318.06
368.163	301.33
368.544	312.41
368.925	318.96
369.306	299.3
369.688	303.59
370.069	300.88
370.45	312.18
370.831	318.96
371.212	308.79
371.593	309.02
371.974	311.28
372.355	301.79
372.736	309.02
373.117	297.72
373.498	305.63
373.879	318.28
374.26	304.5
374.641	295.91
375.021	305.18
375.402	311.28
375.783	313.99
376.163	316.7
376.544	332.52
376.925	309.7
377.305	316.25
377.686	334.1
378.066	302.01
378.447	322.12
378.827	325.06
379.208	312.63
379.588	306.08
379.968	327.1
380.349	334.78
380.729	331.84
381.109	327.55
381.489	332.52
381.87	363.03
382.25	325.97
382.63	330.26
383.01	328.68
383.39	323.03
383.77	327.1
384.15	336.59
384.53	344.04
384.91	356.02
385.29	344.95
385.67	346.08
386.049	332.29
386.429	344.72
386.809	342.91
387.189	347.89
387.568	351.28
387.948	345.85
388.328	333.65
388.707	334.33
389.087	354.67
389.466	355.12
389.846	363.71
390.225	371.84
390.605	348.56
390.984	367.77
391.363	345.63
391.743	342.69
392.122	393.08
392.501	358.51
392.881	375.23
393.26	368.22
393.639	386.53
394.018	378.85
394.397	373.87
394.776	367.55
395.155	388.11
395.534	374.33
395.913	372.97
396.292	368.9
396.671	385.17
397.05	373.42
397.429	386.98
397.808	371.61
398.186	402.12
398.565	376.81
398.944	398.73
399.323	390.82
399.701	407.09
400.08	403.03
400.458	384.5
400.837	401.44
401.215	417.94
401.594	420.2
401.972	411.61
402.351	417.49
402.729	423.59
403.107	414.78
403.486	431.73
403.864	404.83
404.242	423.82
404.62	446.64
404.999	423.36
405.377	433.76
405.755	448.22
406.133	473.08
406.511	440.31
406.889	442.12
407.267	459.07
407.645	483.48
408.023	456.81
408.401	471.5
408.779	495.68
409.156	499.97
409.534	486.19
409.912	497.94
410.29	513.98
410.667	499.29
411.045	527.99
411.422	529.58
411.8	519.86
412.178	538.84
412.555	532.74
412.933	555.34
413.31	562.12
413.687	552.63
414.065	575.45
414.442	571.61
414.819	607.99
415.197	598.95
415.574	614.55
415.951	636.92
416.328	616.13
416.705	638.27
417.082	625.39
417.46	642.79
417.837	644.6
418.214	667.43
418.591	669.23
418.967	696.8
419.344	688.89
419.721	671.72
420.098	715.11
420.475	686.86
420.852	702.68
421.228	738.61
421.605	748.1
421.982	737.93
422.358	790.59
422.735	784.94
423.111	824.03
423.488	797.14
423.864	836.01
424.241	846.86
424.617	854.54
424.994	887.76
425.37	872.39
425.746	896.12
426.123	930.47
426.499	914.65
426.875	950.13
427.251	957.81
427.627	966.85
428.003	985.38
428.379	977.7
428.756	983.12
429.132	1026.96
429.507	1010.92
429.883	1015.21
430.259	1029.45
430.635	1064.7
431.011	1067.19
431.387	1061.31
431.763	1102.89
432.138	1109.45
432.514	1136.34
432.89	1134.76
433.265	1153.51
433.641	1171.14
434.016	1205.26
434.392	1203.23
434.767	1254.76
435.143	1267.86
435.518	1273.74
435.894	1333.85
436.269	1332.27
436.644	1373.4
437.02	1348.99
437.395	1373.4
437.77	1403
438.145	1433.06
438.52	1450.46
438.895	1472.83
439.271	1493.62
439.646	1556.67
440.021	1537.23
440.395	1576.55
440.77	1554.18
441.145	1591.92
441.52	1641.19
441.895	1626.95
442.27	1671.24
442.645	1689.77
443.019	1709.66
443.394	1699.49
443.769	1723.67
444.143	1725.93
444.518	1782.2
444.892	1776.32
445.267	1782.65
445.641	1829.43
446.016	1791.24
446.39	1836.21
446.764	1837.34
447.139	1863.1
447.513	1904.91
447.887	1897.22
448.262	1923.21
448.636	1953.04
449.01	1920.95
449.384	1974.51
449.758	1983.55
450.132	1991.68
450.506	2005.02
450.88	2032.59
451.254	2064
451.628	2115.75
452.002	2092.02
452.376	2109.2
452.75	2125.92
453.123	2139.25
453.497	2162.3
453.871	2232.36
454.244	2263.77
454.618	2231.9
454.992	2310.55
455.365	2307.61
455.739	2374.05
456.112	2353.03
456.486	2379.02
456.859	2402.3
457.232	2455.18
457.606	2444.78
457.979	2497.21
458.352	2502.63
458.725	2563.2
459.099	2582.18
459.472	2605
459.845	2604.1
460.218	2687.49
460.591	2741.04
460.964	2734.49
461.337	2786.92
461.71	2833.02
462.083	2853.81
462.456	2862.85
462.829	2923.19
463.201	2962.96
463.574	2969.74
463.947	3004.77
464.32	3081.83
464.692	3112.11
465.065	3143.97
465.438	3193.01
465.81	3226.68
466.183	3246.79
466.555	3324.98
466.928	3342.16
467.3	3372.89
467.672	3393
468.045	3524.07
468.417	3531.53
468.789	3561.36
469.161	3591.42
469.534	3676.16
469.906	3677.29
470.278	3732.2
470.65	3820.79
471.022	3867.57
471.394	3935.36
471.766	3956.15
472.138	4042.48
472.51	4067.11
472.882	4157.5
473.253	4197.28
473.625	4274.56
473.997	4320.44
474.369	4372.41
474.74	4431.39
475.112	4520.66
475.484	4604.05
475.855	4666.64
476.227	4751.16
476.598	4805.17
476.97	4898.95
477.341	4986.41
477.713	5017.59
478.084	5084.71
478.455	5157.48
478.827	5262.11
479.198	5400.86
479.569	5430.92
479.94	5629.33
480.311	5639.5
480.682	5758.14
481.053	5914.52
481.424	5948.42
481.795	6020.96
482.166	6143.67
482.537	6198.35
482.908	6364
483.279	6392.47
483.65	6510.66
484.021	6640.38
484.391	6666.36
484.762	6768.06
485.133	6806.47
485.503	6921.5
485.874	7083.08
486.244	7188.38
486.615	7272.22
486.985	7393.58
487.356	7492.33
487.726	7547.25
488.097	7684.87
488.467	7751.53
488.837	7842.38
489.207	7968.02
489.578	8081.69
489.948	8100.22
490.318	8302.03
490.688	8311.97
491.058	8464.28
491.428	8549.03
491.798	8558.29
492.168	8755.57
492.538	8776.59
492.908	8859.98
493.278	9001.44
493.648	8981.56
494.017	9117.37
494.387	9183.36
494.757	9236.69
495.126	9318.5
495.496	9342.68
495.866	9405.5
496.235	9509.91
496.605	9536.12
496.974	9614.08
497.344	9681.65
497.713	9771.59
498.082	9715.55
498.452	9792.61
498.821	9900.4
499.19	9889.1
499.559	9937.46
499.928	10028.99
500.298	10052.26
500.667	10142.66
501.036	10130.91
501.405	10126.16
501.774	10141.3
502.143	10273.28
502.512	10258.81
502.88	10391.69
503.249	10337.23
503.618	10328.41
503.987	10379.94
504.356	10393.05
504.724	10384.68
505.093	10466.26
505.462	10490.9
505.83	10527.51
506.199	10577.45
506.567	10679.14
506.936	10696.09
507.304	10721.85
507.672	10692.7
508.041	10689.54
508.409	10825.35
508.777	10899.02
509.145	10915.52
509.514	10893.37
509.882	10927.04
510.25	10875.07
510.618	10938.57
510.986	10891.79
511.354	11018.57
511.722	10999.36
512.09	11082.07
512.458	11039.81
512.826	11118.45
513.193	11059.92
513.561	11098.56
513.929	11159.35
514.297	11234.38
514.664	11174.04
515.032	11195.06
515.4	11282.51
515.767	11252.91
516.135	11267.15
516.502	11196.87
516.869	11301.95
517.237	11290.88
517.604	11208.84
517.972	11201.84
518.339	11305.11
518.706	11267.83
519.073	11291.33
519.44	11343.98
519.808	11330.87
520.175	11331.1
520.542	11385.34
520.909	11416.75
521.276	11332
521.643	11410.19
522.009	11432.57
522.376	11344.21
522.743	11318.45
523.11	11476.18
523.477	11512.11
523.843	11455.62
524.21	11537.42
524.577	11605.67
524.943	11546.91
525.31	11519.8
525.676	11552.34
526.043	11504.88
526.409	11596.63
526.776	11598.44
527.142	11590.53
527.508	11473.92
527.874	11550.08
528.241	11553.47
528.607	11517.54
528.973	11530.87
529.339	11462.17
529.705	11458.55
530.071	11450.87
530.437	11459.91
530.803	11487.03
531.169	11438.89
531.535	11360.7
531.901	11327.26
532.267	11300.59
532.632	11323.87
532.998	11285
533.364	11347.37
533.73	11204.55
534.095	11232.57
534.461	11171.56
534.826	11186.47
535.192	11064.67
535.557	11083.65
535.923	11064.44
536.288	11021.96
536.653	11014.5
537.019	10922.75
537.384	10873.26
537.749	10802.07
538.114	10781.06
538.479	10662.19
538.845	10726.37
539.21	10601.4
539.575	10639.82
539.94	10551.23
540.305	10527.51
540.67	10480.73
541.034	10471.24
541.399	10436.89
541.764	10323.22
542.129	10349.43
542.494	10324.12
542.858	10247.29
543.223	10184.24
543.587	10156.22
543.952	10086.39
544.316	9974.07
544.681	9972.04
545.045	10000.29
545.41	9911.48
545.774	9951.25
546.138	9835.32
546.503	9741.09
546.867	9702.89
547.231	9714.19
547.595	9664.48
547.959	9571.82
548.324	9570.47
548.688	9516.01
549.052	9541.32
549.416	9365.73
549.779	9419.96
550.143	9297.93
550.507	9322.79
550.871	9311.27
551.235	9280.76
551.599	9162.34
551.962	9086.64
552.326	9096.13
552.689	9070.14
553.053	9011.84
553.417	8947.21
553.78	9062.69
554.143	8872.86
554.507	8865.18
554.87	8788.57
555.234	8922.12
555.597	8759.64
555.96	8775.24
556.323	8791.96
556.686	8634.9
557.05	8679.64
557.413	8684.84
557.776	8612.75
558.139	8598.29
558.502	8584.96
558.865	8539.54
559.228	8554.68
559.59	8547.9
559.953	8456.6
560.316	8549.03
560.679	8440.33
561.041	8465.86
561.404	8428.35
561.767	8393.55
562.129	8351.52
562.492	8417.96
562.854	8384.51
563.217	8359.43
563.579	8363.27
563.941	8400.33
564.304	8404.62
564.666	8313.33
565.028	8307.23
565.39	8333.67
565.753	8273.1
566.115	8353.55
566.477	8239.2
566.839	8261.35
567.201	8302.25
567.563	8270.84
567.925	8331.63
568.287	8262.93
568.648	8300.67
569.01	8275.59
569.372	8256.83
569.734	8329.82
570.095	8284.85
570.457	8288.02
570.819	8235.59
571.18	8310.39
571.542	8304.29
571.903	8261.35
572.265	8218.87
572.626	8282.82
572.987	8213.89
573.349	8263.61
573.71	8268.58
574.071	8279.2
574.432	8264.97
574.794	8313.78
575.155	8276.94
575.516	8255.02
575.877	8222.71
576.238	8262.71
576.599	8278.07
576.96	8214.35
577.32	8220.45
577.681	8261.12
578.042	8218.64
578.403	8193.56
578.763	8207.79
579.124	8155.82
579.485	8198.53
579.845	8189.94
580.206	8147.23
580.566	8196.04
580.927	8190.84
581.287	8240.11
581.648	8177.51
582.008	8188.81
582.368	8125.31
582.728	8171.86
583.089	8191.3
583.449	8159.21
583.809	8121.47
584.169	8168.92
584.529	8084.63
584.889	8161.24
585.249	8091.19
585.609	8086.67
585.969	8115.59
586.329	8046.44
586.688	8105.42
587.048	8038.08
587.408	8082.37
587.768	8027.46
588.127	8003.28
588.487	8000.79
588.846	8058.87
589.206	8033.33
589.565	7991.08
589.925	8027.46
590.284	7970.74
590.643	7975.93
591.003	8001.24
591.362	7911.08
591.721	7978.65
592.08	7928.93
592.44	7901.13
592.799	7936.39
593.158	7883.06
593.517	7949.72
593.876	7931.87
594.235	7906.11
594.593	7894.13
594.952	7866.56
595.311	7887.8
595.67	7870.17
596.029	7915.6
596.387	7869.72
596.746	7937.07
597.104	7878.76
597.463	7826.79
597.822	7862.94
598.18	7826.79
598.538	7799.67
598.897	7835.15
599.255	7747.01
599.613	7850.06
599.972	7803.06
600.33	7805.32
600.688	7782.95
601.046	7793.34
601.404	7801.93
601.762	7814.36
602.12	7805.32
602.478	7820.23
602.836	7808.71
603.194	7778.88
603.552	7784.53
603.91	7757.18
604.268	7805.32
604.625	7716.73
604.983	7744.08
605.341	7718.09
605.698	7770.06
606.056	7751.53
606.413	7738.88
606.771	7749.05
607.128	7820.91
607.485	7745.88
607.843	7720.35
608.2	7796.73
608.557	7787.92
608.914	7783.4
609.272	7775.26
609.629	7818.65
609.986	7850.29
610.343	7824.53
610.7	7847.12
611.057	7812.77
611.414	7833.79
611.771	7841.93
612.127	7798.76
612.484	7809.84
612.841	7926.9
613.198	7813.45
613.554	7806.67
613.911	7825.43
614.267	7884.41
614.624	7881.02
614.98	7831.31
615.337	7831.31
615.693	7835.83
616.05	7871.08
616.406	7907.46
616.762	7808.71
617.118	7833.11
617.475	7857.75
617.831	7893.9
618.187	7879.44
618.543	7860.91
618.899	7886.22
619.255	7877.41
619.611	7860.23
619.967	7932.77
620.323	7913.34
620.678	7888.93
621.034	7910.4
621.39	7914.24
621.746	7869.27
622.101	7945.43
622.457	7835.83
622.812	7852.77
623.168	7938.42
623.523	7862.72
623.879	7880.8
624.234	7857.52
624.589	7867.69
624.945	7907.01
625.3	7918.31
625.655	7877.41
626.01	7810.06
626.365	7888.03
626.72	7869.95
627.075	7883.28
627.43	7827.69
627.785	7882.15
628.14	7864.3
628.495	7891.87
628.85	7843.06
629.205	7866.33
629.559	7872.43
629.914	7785.66
630.269	7833.57
630.623	7850.29
630.978	7839.89
631.332	7766.22
631.687	7843.73
632.041	7801.25
632.396	7782.27
632.75	7783.17
633.104	7744.53
633.459	7766.67
633.813	7747.24
634.167	7747.47
634.521	7662.72
634.875	7743.85
635.229	7718.31
635.583	7644.87
635.937	7718.54
636.291	7631.76
636.645	7631.08
636.999	7647.81
637.352	7577.98
637.706	7589.73
638.06	7631.08
638.413	7572.1
638.767	7580.24
639.121	7548.6
639.474	7556.51
639.828	7551.54
640.181	7564.65
640.534	7560.8
640.888	7500.47
641.241	7492.78
641.594	7527.58
641.947	7590.41
642.301	7523.74
642.654	7518.09
643.007	7520.81
643.36	7479.22
643.713	7483.97
644.066	7514.48
644.419	7430.41
644.771	7410.07
645.124	7372.33
645.477	7360.36
645.83	7339.79
646.182	7321.26
646.535	7239.91
646.888	7322.39
647.24	7252.34
647.593	7250.98
647.945	7243.75
648.298	7208.95
648.65	7229.51
649.002	7198.33
649.355	7222.96
649.707	7293.24
650.059	7296.63
650.411	7327.59
650.763	7343.41
651.115	7419.56
651.467	7437.64
651.819	7394.03
652.171	7430.64
652.523	7405.1
652.875	7415.5
653.227	7373.24
653.578	7414.59
653.93	7375.95
654.282	7417.76
654.633	7334.6
654.985	7346.35
655.337	7412.33
655.688	7419.34
656.039	7434.25
656.391	7425.89
656.742	7404.65
657.094	7440.13
657.445	7430.19
657.796	7424.08
658.147	7409.62
658.498	7474.93
658.849	7450.52
659.2	7439.9
659.551	7423.86
659.902	7495.5
660.253	7438.32
660.604	7432.67
660.955	7411.66
661.306	7473.12
661.656	7412.33
662.007	7480.58
662.358	7474.93
662.708	7442.16
663.059	7493.01
663.409	7420.02
663.76	7460.69
664.11	7510.64
664.461	7564.19
664.811	7499.79
665.161	7509.51
665.511	7493.91
665.862	7479.22
666.212	7496.17
666.562	7537.53
666.912	7515.61
667.262	7526.91
667.612	7500.47
667.962	7488.26
668.312	7430.41
668.662	7507.7
669.011	7540.92
669.361	7538.66
669.711	7512.22
670.06	7446
670.41	7489.85
670.76	7475.61
671.109	7535.72
671.459	7437.42
671.808	7455.5
672.157	7537.3
672.507	7404.2
672.856	7435.38
673.205	7478.32
673.554	7469.73
673.904	7467.93
674.253	7503.63
674.602	7464.76
674.951	7385.89
675.3	7328.49
675.649	7374.37
675.998	7397.87
676.346	7445.1
676.695	7414.59
677.044	7326.01
677.393	7405.33
677.741	7379.57
678.09	7363.3
678.438	7353.8
678.787	7316.97
679.135	7391.77
679.484	7321.04
679.832	7280.81
680.181	7264.09
680.529	7255.05
680.877	7266.8
681.225	7293.24
681.573	7284.2
681.922	7210.53
682.27	7174.37
682.618	7161.04
682.966	7181.83
683.314	7186.58
683.661	7162.85
684.009	7137.31
684.357	7154.49
684.705	7133.7
685.053	7103.87
685.4	7080.14
685.748	7105.45
686.095	7047.37
686.443	7007.82
686.79	6994.49
687.138	7050.31
687.485	7030.65
687.832	6930.54
688.18	6981.38
688.527	6930.76
688.874	7010.08
689.221	6927.37
689.568	6858.68
689.915	6908.17
690.262	6875.4
690.609	6877.21
690.956	6795.63
691.303	6822.74
691.65	6747.49
691.997	6781.16
692.344	6650.32
692.69	6674.05
693.037	6712.69
693.383	6683.31
693.73	6600.38
694.077	6583.2
694.423	6623.65
694.769	6540.04
695.116	6556.31
695.462	6541.4
695.808	6488.97
696.155	6491.45
696.501	6489.65
696.847	6461.4
697.193	6399.93
697.539	6440.61
697.885	6286.71
698.231	6367.62
698.577	6316.54
698.923	6313.15
699.269	6301.18
699.614	6183.21
699.96	6233.16
700.306	6208.75
700.651	6148.19
700.997	6161.97
701.342	6152.93
701.688	6059.6
702.033	6075.65
702.379	6028.87
702.724	6026.16
703.069	6060.73
703.415	5935.99
703.76	5981.86
704.105	5947.97
704.45	5939.6
704.795	5910.45
705.14	5891.47
705.485	5910.45
705.83	5846.72
706.175	5895.09
706.52	5870.23
706.865	5843.79
707.209	5783.22
707.554	5781.87
707.899	5785.71
708.243	5762.66
708.588	5739.61
708.932	5671.36
709.277	5702.77
709.621	5687.86
709.966	5683.11
710.31	5650.35
710.654	5669.33
710.998	5634.75
711.342	5631.82
711.687	5603.57
712.031	5576.22
712.375	5568.54
712.719	5564.47
713.063	5526.28
713.407	5564.47
713.75	5485.83
714.094	5540.52
714.438	5501.42
714.782	5556.56
715.125	5477.47
715.469	5481.54
715.812	5457.58
716.156	5417.36
716.499	5469.56
716.843	5424.14
717.186	5406.06
717.53	5422.1
717.873	5395.44
718.216	5406.74
718.559	5406.28
718.902	5343.91
719.246	5376.68
719.589	5378.04
719.932	5312.73
720.275	5306.63
720.617	5357.7
720.96	5380.52
721.303	5319.96
721.646	5359.05
721.989	5290.36
722.331	5326.06
722.674	5333.74
723.016	5301.43
723.359	5337.13
723.701	5315.89
724.044	5297.59
724.386	5240.87
724.729	5292.39
725.071	5272.95
725.413	5278.6
725.755	5245.16
726.097	5236.35
726.439	5205.61
726.782	5217.14
727.124	5282.22
727.465	5210.13
727.807	5247.64
728.149	5257.14
728.491	5189.34
728.833	5239.28
729.175	5196.57
729.516	5239.74
729.858	5239.28
730.199	5298.72
730.541	5243.35
730.882	5239.28
731.224	5237.93
731.565	5259.62
731.906	5278.83
732.248	5264.82
732.589	5232.05
732.93	5212.62
733.271	5199.06
733.612	5249.45
733.953	5253.75
734.294	5259.4
734.635	5204.03
734.976	5272.5
735.317	5256.46
735.658	5244.25
735.999	5283.35
736.339	5291.26
736.68	5322.67
737.021	5310.69
737.361	5291.94
737.702	5299.17
738.042	5249.9
738.383	5271.6
738.723	5351.82
739.063	5360.18
739.404	5382.56
739.744	5313.86
740.084	5337.59
740.424	5360.86
740.764	5373.52
741.104	5411.03
741.444	5376.91
741.784	5362.67
742.124	5392.05
742.464	5445.83
742.804	5510.91
743.143	5454.64
743.483	5531.48
743.823	5535.55
744.162	5519.05
744.502	5566.05
744.841	5583.23
745.181	5561.31
745.52	5655.09
745.86	5714.98
746.199	5675.88
746.538	5789.55
746.877	5839.95
747.216	5844.69
747.556	5912.03
747.895	5928.76
748.234	5940.06
748.573	6024.35
748.911	6018.47
749.25	6096.89
749.589	6154.74
749.928	6272.48
750.267	6270.44
750.605	6335.75
750.944	6403.09
751.283	6493.49
751.621	6546.82
751.96	6689.64
752.298	6714.5
752.636	6858.68
752.975	6892.35
753.313	6987.03
753.651	7153.81
753.989	7162.85
754.327	7304.77
754.666	7420.02
755.004	7533.23
755.342	7671.76
755.679	7814.36
756.017	7879.67
756.355	8036.95
756.693	8222.48
757.031	8358.3
757.368	8380.22
757.706	8580.44
758.044	8751.51
758.381	8862.46
758.719	9060.2
759.056	9264.71
759.394	9328.89
759.731	9462.67
760.068	9612.73
760.405	9846.17
760.743	9931.82
761.08	10127.06
761.417	10283.22
761.754	10475.53
762.091	10587.17
762.428	10796.65
762.765	10943.31
763.102	11213.82
763.438	11376.07
763.775	11504.66
764.112	11746
764.449	11909.62
764.785	12086.56
765.122	12247.23
765.458	12253.11
765.795	12479.09
766.131	12661.01
766.467	12901.45
