Data from hue_290_FLMS001491_00028.txt Node
Date: Tue Feb 07 15:52:32 GMT 2017
User: dcchb
Spectrometer: FLMS00149
Trigger mode: 0
Integration Time (sec): 2.000000E-2
Scans to average: 10
Electric dark correction enabled: true
Nonlinearity correction enabled: false
Boxcar width: 0
XAxis mode: Wavelengths
Number of Pixels in Spectrum: 2048
>>>>>Begin Spectral Data<<<<<
341.393	11.98
341.776	11.98
342.16	11.98
342.543	-73.67
342.927	-69.38
343.31	-60.34
343.693	-61.92
344.077	-79.09
344.46	-56.27
344.843	-56.5
345.226	-33.9
345.61	-31.41
345.993	-9.94
346.376	-19.21
346.759	0.23
347.142	43.39
347.525	44.29
347.908	61.02
348.291	66.44
348.674	96.95
349.057	96.27
349.44	141.92
349.823	127.91
350.206	179.66
350.588	197.28
350.971	200.22
351.354	200.22
351.737	237.51
352.119	264.17
352.502	248.58
352.884	267.34
353.267	287.22
353.65	286.32
354.032	290.84
354.414	309.37
354.797	315.47
355.179	314.79
355.562	324.74
355.944	333.1
356.326	327.22
356.709	336.04
357.091	314.57
357.473	347.79
357.855	327.45
358.238	330.39
358.62	325.42
359.002	328.58
359.384	307.11
359.766	341.69
360.148	317.51
360.53	348.01
360.912	344.17
361.294	319.31
361.676	321.12
362.057	344.4
362.439	325.64
362.821	319.31
363.203	336.71
363.584	337.39
363.966	320.67
364.348	315.7
364.729	329.03
365.111	323.83
365.493	316.15
365.874	323.16
366.256	338.75
366.637	308.47
367.019	319.09
367.4	315.02
367.781	339.43
368.163	293.55
368.544	320.9
368.925	281.57
369.306	348.01
369.688	325.19
370.069	324.96
370.45	323.16
370.831	281.8
371.212	297.17
371.593	320.67
371.974	319.31
372.355	310.27
372.736	318.64
373.117	320.9
373.498	326.09
373.879	331.52
374.26	310.73
374.641	299.43
375.021	294.91
375.402	316.6
375.783	315.47
376.163	327.67
376.544	310.5
376.925	321.12
377.305	306.21
377.686	333.1
378.066	327.67
378.447	342.36
378.827	340.56
379.208	325.19
379.588	330.39
379.968	307.34
380.349	337.84
380.729	332.42
381.109	358.41
381.489	335.81
381.87	322.93
382.25	346.66
382.63	343.04
383.01	356.37
383.39	369.03
383.77	362.25
384.15	347.11
384.53	331.29
384.91	321.8
385.29	353.44
385.67	326.32
386.049	337.39
386.429	347.11
386.809	340.1
387.189	329.93
387.568	348.01
387.948	357.5
388.328	364.74
388.707	374
389.087	357.5
389.466	349.14
389.846	366.54
390.225	372.65
390.605	384.85
390.984	375.81
391.363	380.78
391.743	372.87
392.122	374.68
392.501	395.02
392.881	392.76
393.26	383.72
393.639	382.59
394.018	369.03
394.397	391.4
394.776	386.2
395.155	408.12
395.534	407.67
395.913	376.71
396.292	388.69
396.671	404.28
397.05	403.15
397.429	383.49
397.808	406.32
398.186	405.41
398.565	404.51
398.944	398.41
399.323	418.07
399.701	408.35
400.08	428.46
400.458	408.12
400.837	422.59
401.215	446.77
401.594	423.72
401.972	419.88
402.351	428.01
402.729	442.7
403.107	438.18
403.486	438.41
403.864	439.08
404.242	439.08
404.62	456.71
404.999	470.95
405.377	452.42
405.755	461.46
406.133	475.92
406.511	451.74
406.889	480.89
407.267	480.44
407.645	489.7
408.023	486.77
408.401	484.06
408.779	484.73
409.156	520.21
409.534	509.37
409.912	508.01
410.29	515.01
410.667	506.65
411.045	532.64
411.422	573.54
411.8	527.22
412.178	550.27
412.555	549.82
412.933	561.34
413.31	574.9
413.687	560.89
414.065	596.14
414.442	608.12
414.819	591.62
415.197	622.58
415.574	627.1
415.951	607.22
416.328	619.87
416.705	650.15
417.082	647.44
417.46	623.49
417.837	649.7
418.214	658.06
418.591	666.65
418.967	673.65
419.344	682.02
419.721	697.38
420.098	682.92
420.475	722.01
420.852	713.2
421.228	734.44
421.605	728.57
421.982	721.79
422.358	742.81
422.735	761.56
423.111	781.22
423.488	790.04
423.864	777.61
424.241	806.76
424.617	807.89
424.994	824.16
425.37	830.49
425.746	840.43
426.123	845.4
426.499	847.44
426.875	860.99
427.251	869.36
427.627	875.23
428.003	896.02
428.379	915.68
428.756	912.97
429.132	942.12
429.507	947.09
429.883	961.33
430.259	966.98
430.635	955.91
431.011	969.69
431.387	990.71
431.763	1004.27
432.138	1014.66
432.514	982.12
432.89	1036.36
433.265	1044.27
433.641	1060.31
434.016	1065.51
434.392	1104.83
434.767	1102.8
435.143	1110.93
435.518	1098.95
435.894	1126.3
436.269	1127.65
436.644	1161.55
437.02	1185.96
437.395	1190.7
437.77	1189.57
438.145	1224.15
438.52	1235.45
438.895	1221.66
439.271	1256.92
439.646	1265.05
440.021	1291.49
440.395	1305.28
440.77	1298.72
441.145	1287.88
441.52	1303.47
441.895	1306.86
442.27	1345.95
442.645	1351.15
443.019	1330.36
443.394	1362.68
443.769	1355.67
444.143	1376.01
444.518	1378.27
444.892	1368.55
445.267	1371.94
445.641	1393.41
446.016	1394.54
446.39	1388.89
446.764	1415.78
447.139	1397.7
447.513	1427.76
447.887	1422.34
448.262	1432.73
448.636	1446.52
449.01	1481.54
449.384	1431.6
449.758	1458.27
450.132	1474.09
450.506	1463.46
450.88	1477.02
451.254	1487.64
451.628	1516.57
452.002	1538.26
452.376	1512.05
452.75	1525.84
453.123	1513.18
453.497	1559.96
453.871	1541.2
454.244	1601.77
454.618	1581.88
454.992	1605.38
455.365	1617.81
455.739	1634.99
456.112	1629.79
456.486	1662.78
456.859	1663.69
457.232	1691.03
457.606	1703.46
457.979	1730.35
458.352	1759.5
458.725	1751.37
459.099	1753.17
459.472	1783.68
459.845	1798.82
460.218	1816
460.591	1812.16
460.964	1807.41
461.337	1860.74
461.71	1877.24
462.083	1898.48
462.456	1884.47
462.829	1882.44
463.201	1907.07
463.574	1938.03
463.947	1943.45
464.32	1988.42
464.692	1944.36
465.065	1974.64
465.438	2012.15
465.81	2023.68
466.183	2036.1
466.555	2081.3
466.928	2091.47
467.3	2089.44
467.672	2093.96
468.045	2139.83
468.417	2180.51
468.789	2175.99
469.161	2179.6
469.534	2213.95
469.906	2258.25
470.278	2248.08
470.65	2277
471.022	2273.84
471.394	2322.88
471.766	2358.36
472.138	2346.38
472.51	2371.69
472.882	2407.39
473.253	2428.18
473.625	2468.18
473.997	2457.34
474.369	2515.41
474.74	2569.65
475.112	2535.3
475.484	2567.39
475.855	2629.76
476.227	2636.09
476.598	2709.53
476.97	2731.68
477.341	2740.94
477.713	2788.4
478.084	2780.72
478.455	2847.83
478.827	2851.45
479.198	2900.71
479.569	2929.19
479.94	3018.45
480.311	3033.59
480.682	3046.47
481.053	3088.28
481.424	3134.61
481.795	3161.5
482.166	3177.32
482.537	3206.02
482.908	3272.23
483.279	3326.47
483.65	3329.86
484.021	3374.15
484.391	3399.01
484.762	3410.53
485.133	3464.32
485.503	3469.06
485.874	3552.9
486.244	3561.49
486.615	3602.17
486.985	3631.54
487.356	3679
487.726	3719.45
488.097	3782.5
488.467	3756.96
488.837	3880.58
489.207	3836.28
489.578	3920.35
489.948	3925.32
490.318	3955.38
490.688	3985.66
491.058	4019.1
491.428	4061.14
491.798	4111.3
492.168	4186.1
492.538	4187.01
492.908	4215.48
493.278	4232.21
493.648	4262.26
494.017	4276.27
494.387	4284.86
494.757	4318.08
495.126	4388.81
495.496	4386.55
495.866	4441.01
496.235	4419.54
496.605	4455.93
496.974	4487.11
497.344	4491.41
497.713	4519.66
498.082	4516.27
498.452	4574.79
498.821	4596.94
499.19	4659.31
499.559	4620.67
499.928	4624.74
500.298	4674.23
500.667	4714.45
501.036	4727.11
501.405	4723.72
501.774	4738.41
502.143	4771.85
502.512	4795.35
502.88	4796.26
503.249	4841.23
503.618	4819.53
503.987	4850.72
504.356	4875.58
504.724	4924.62
505.093	4864.28
505.462	4948.8
505.83	4935.69
506.199	4917.84
506.567	5032.18
506.936	4986.76
507.304	5081.45
507.672	5062.92
508.041	5085.97
508.409	5090.26
508.777	5198.06
509.145	5151.05
509.514	5155.57
509.882	5190.15
510.25	5173.42
510.618	5234.21
510.986	5236.25
511.354	5239.64
511.722	5259.52
512.09	5344.04
512.458	5278.73
512.826	5349.46
513.193	5319.86
513.561	5333.42
513.929	5364.83
514.297	5411.84
514.664	5447.54
515.032	5384.94
515.4	5471.27
515.767	5481.66
516.135	5494.09
516.502	5425.39
516.869	5567.54
517.237	5543.58
517.604	5525.73
517.972	5557.37
518.339	5580.42
518.706	5605.05
519.073	5554.43
519.44	5612.96
519.808	5652.51
520.175	5678.49
520.542	5695.67
520.909	5715.78
521.276	5680.3
521.643	5789
522.009	5786.74
522.376	5782.45
522.743	5793.29
523.11	5827.19
523.477	5907.64
523.843	5946.96
524.21	5972.72
524.577	5972.72
524.943	5989.67
525.31	5979.96
525.676	6047.52
526.043	6038.71
526.409	6102.89
526.776	6140.86
527.142	6155.32
527.508	6167.75
527.874	6197.58
528.241	6233.06
528.607	6246.39
528.973	6276.22
529.339	6280.74
529.705	6379.49
530.071	6390.11
530.437	6377.01
530.803	6421.53
531.169	6438.7
531.535	6426.27
531.901	6450.23
532.267	6519.38
532.632	6524.8
532.998	6489.77
533.364	6541.97
533.73	6544.46
534.095	6629.88
534.461	6607.96
534.826	6689.99
535.192	6657.23
535.557	6703.55
535.923	6619.04
536.288	6720.05
536.653	6779.71
537.019	6750.78
537.384	6818.8
537.749	6807.05
538.114	6838.92
538.479	6806.37
538.845	6853.83
539.21	6798.92
539.575	6852.93
539.94	6870.78
540.305	6955.3
540.67	6926.15
541.034	7012.24
541.399	6980.38
541.764	6992.36
542.129	7081.17
542.494	7031.91
542.858	7040.49
543.223	7051.57
543.587	7089.53
543.952	7103.32
544.316	7144.9
544.681	7140.15
545.045	7114.39
545.41	7216.53
545.774	7207.04
546.138	7242.97
546.503	7232.35
546.867	7248.17
547.231	7269.87
547.595	7239.36
547.959	7309.64
548.324	7300.37
548.688	7299.92
549.052	7369.52
549.416	7393.25
549.779	7419.47
550.143	7401.84
550.507	7499.69
550.871	7448.39
551.235	7433.02
551.599	7443.42
551.962	7535.4
552.326	7536.07
552.689	7599.12
553.053	7517.09
553.417	7587.6
553.78	7665.56
554.143	7500.82
554.507	7643.41
554.87	7651.55
555.234	7711.89
555.597	7705.11
555.96	7714.83
556.323	7760.7
556.686	7704.88
557.05	7765.67
557.413	7806.8
557.776	7819.46
558.139	7838.89
558.502	7845.22
558.865	7827.36
559.228	7837.31
559.59	7848.83
559.953	7940.13
560.316	8008.6
560.679	7945.55
561.041	8017.87
561.404	8018.55
561.767	8111.65
562.129	8065.1
562.492	8116.85
562.854	8154.14
563.217	8095.38
563.579	8195.94
563.941	8190.75
564.304	8198.43
564.666	8300.8
565.028	8247.92
565.39	8283.4
565.753	8320.23
566.115	8370.63
566.477	8329.05
566.839	8440.91
567.201	8486.56
567.563	8465.09
567.925	8559.32
568.287	8503.51
568.648	8532.43
569.01	8631.86
569.372	8671.64
569.734	8613.11
570.095	8677.74
570.457	8768.58
570.819	8707.79
571.18	8726.78
571.542	8766.1
571.903	8828.47
572.265	8884.96
572.626	8887.22
572.987	8908.69
573.349	8923.38
573.71	8974.45
574.071	9091.29
574.432	9123.6
574.794	9176.03
575.155	9175.35
575.516	9161.12
575.877	9270.49
576.238	9225.97
576.599	9352.3
576.96	9405.4
577.32	9392.52
577.681	9529.69
578.042	9553.65
578.403	9554.55
578.763	9579.41
579.124	9648.11
579.485	9760.65
579.845	9851.72
580.206	9853.07
580.566	9930.81
580.927	10022.79
581.287	10086.29
581.648	10149.56
582.008	10288.32
582.368	10384.13
582.728	10472.72
583.089	10471.82
583.449	10551.81
583.809	10627.74
584.169	10790
584.529	10860.51
584.889	10994.97
585.249	11069.09
585.609	11145.47
585.969	11293.94
586.329	11374.16
586.688	11467.95
587.048	11596.76
587.408	11673.14
587.768	11823.87
588.127	11978.89
588.487	12042.62
588.846	12261.37
589.206	12304.99
589.565	12493.91
589.925	12605.32
590.284	12763.73
590.643	12806.67
591.003	13068.36
591.362	13165.53
591.721	13274.91
592.08	13424.05
592.44	13523.49
592.799	13633.09
593.158	13792.63
593.517	13946.75
593.876	14034.43
594.235	14256.12
594.593	14405.5
594.952	14535.44
595.311	14649.11
595.67	14703.79
596.029	14972.26
596.387	15070.34
596.746	15153.27
597.104	15294.06
597.463	15432.81
597.822	15508.97
598.18	15723.65
598.538	15723.65
598.897	15958.45
599.255	15971.78
599.613	16409.29
599.972	16398.89
600.33	16534.48
600.688	16530.64
601.046	16738.54
601.404	16950.97
601.762	16998.65
602.12	17162.94
602.478	17253.11
602.836	17347.34
603.194	17303.05
603.552	17480.9
603.91	17509.6
604.268	17758.86
604.625	17704.39
604.983	17879.08
605.341	17927.89
605.698	18025.51
606.056	18152.29
606.413	18174.89
606.771	18442
607.128	18521.77
607.485	18518.16
607.843	18559.06
608.2	18755.89
608.557	18841.99
608.914	18877.7
609.272	19110.91
609.629	19095.09
609.986	19298.25
610.343	19223
610.7	19472.03
611.057	19367.4
611.414	19518.36
611.771	19524.68
612.127	19756.32
612.484	19676.77
612.841	19843.55
613.198	19877.22
613.554	19933.04
613.911	20042.86
614.267	20014.39
614.624	20121.96
614.98	20242.63
615.337	20340.71
615.693	20389.29
616.05	20415.06
616.406	20549.97
616.762	20467.94
617.118	20641.72
617.475	20651.43
617.831	20728.04
618.187	20830.86
618.543	20832.67
618.899	20949.28
619.255	20864.99
619.611	20926
619.967	21034.93
620.323	21104.98
620.678	20999.67
621.034	21143.4
621.39	21089.39
621.746	21050.52
622.101	21321.93
622.457	21186.56
622.812	21264.3
623.168	21409.38
623.523	21351.75
623.879	21547.91
624.234	21301.81
624.589	21402.6
624.945	21500
625.3	21504.52
625.655	21524.86
626.01	21551.07
626.365	21610.96
626.72	21616.61
627.075	21612.54
627.43	21573.22
627.785	21581.81
628.14	21636.27
628.495	21671.97
628.85	21650.73
629.205	21641.92
629.559	21742.71
629.914	21591.07
630.269	21596.95
630.623	21571.18
630.978	21555.59
631.332	21547
631.687	21655.02
632.041	21552.2
632.396	21647.34
632.75	21585.2
633.104	21607.57
633.459	21546.1
633.813	21538.19
634.167	21580.9
634.521	21608.7
634.875	21605.08
635.229	21606.66
635.583	21422.04
635.937	21576.83
636.291	21475.14
636.645	21558.76
636.999	21576.83
637.352	21634.23
637.706	21403.05
638.06	21510.39
638.413	21434.01
638.767	21383.84
639.121	21515.82
639.474	21307.91
639.828	21329.16
640.181	21463.62
640.534	21441.7
640.888	21278.99
641.241	21318.08
641.594	21311.3
641.947	21334.81
642.301	21342.72
642.654	21204.19
643.007	21365.99
643.36	21220.91
643.713	21222.04
644.066	21286.45
644.419	21121.25
644.771	21055.49
645.124	20853.01
645.477	20851.43
645.83	20761.26
646.182	20650.53
646.535	20654.82
646.888	20716.97
647.24	20565.56
647.593	20645.11
647.945	20654.37
648.298	20582.74
648.65	20546.58
649.002	20519.46
649.355	20562.62
649.707	20627.71
650.059	20739.34
650.411	20986.79
650.763	20913.12
651.115	21227.01
651.467	21110.41
651.819	21094.81
652.171	21087.81
652.523	21081.93
652.875	21107.47
653.227	20986.79
653.578	21241.25
653.93	21147.24
654.282	21044.64
654.633	20945.66
654.985	21095.72
655.337	21113.57
655.688	21086.45
656.039	21170.74
656.391	21061.82
656.742	21020.92
657.094	21058.43
657.445	21143.4
657.796	21033.57
658.147	21089.16
658.498	21009.62
658.849	21102.04
659.2	21199.89
659.551	20923.52
659.902	21130.07
660.253	21012.55
660.604	21098.88
660.955	20997.87
661.306	21065.66
661.656	21051.42
662.007	21158.99
662.358	21182.04
662.708	21164.87
663.059	21156.05
663.409	21021.82
663.76	21207.35
664.11	21249.16
664.461	21157.64
664.811	21269.5
665.161	21157.41
665.511	21122.83
665.862	21074.02
666.212	21060.01
666.562	21230.63
666.912	21158.09
667.262	21129.39
667.612	21111.54
667.962	21175.04
668.312	21103.85
668.662	21262.72
669.011	21092.33
669.361	21161.7
669.711	21148.82
670.06	20956.29
670.41	20999.9
670.76	21085.55
671.109	21122.61
671.459	20949.28
671.808	21070.86
672.157	21107.69
672.507	20964.87
672.856	20932.1
673.205	20983.18
673.554	21079.67
673.904	20882.16
674.253	21025.44
674.602	20938.88
674.951	20687.37
675.3	20512
675.649	20892.11
675.998	20897.98
676.346	20914.7
676.695	20959.67
677.044	20721.94
677.393	20860.24
677.741	20912.67
678.09	20764.43
678.438	20772.11
678.787	20802.39
679.135	20843.97
679.484	20579.35
679.832	20707.03
680.181	20560.36
680.529	20588.61
680.877	20592.45
681.225	20567.37
681.573	20642.17
681.922	20523.75
682.27	20335.28
682.618	20488.73
682.966	20393.81
683.314	20409.86
683.661	20434.49
684.009	20248.28
684.357	20257.09
684.705	20206.02
685.053	20255.29
685.4	20184.55
685.748	20006.48
686.095	20029.08
686.443	19982.53
686.79	19925.58
687.138	20070.88
687.485	19905.24
687.832	19847.16
688.18	19904.56
688.527	19789.31
688.874	19787.5
689.221	19720.16
689.568	19750.22
689.915	19637.45
690.262	19544.8
690.609	19550.22
690.956	19464.12
691.303	19462.77
691.65	19303.67
691.997	19338.02
692.344	19224.81
692.69	19175.99
693.037	19201.3
693.383	18948.2
693.73	19040.86
694.077	18865.72
694.423	19024.81
694.769	18785.49
695.116	18834.08
695.462	18766.51
695.808	18680.86
696.155	18694.65
696.501	18556.57
696.847	18531.26
697.193	18380.08
697.539	18448.55
697.885	18262.8
698.231	18296.02
698.577	18167.66
698.923	18081.78
699.269	17999.53
699.614	17981.67
699.96	17911.39
700.306	17814.22
700.651	17821
700.997	17761.57
701.342	17822.58
701.688	17624.85
702.033	17717.05
702.379	17630.5
702.724	17545.08
703.069	17534.91
703.415	17410.62
703.76	17356.83
704.105	17410.16
704.45	17296.95
704.795	17209.27
705.14	17047.01
705.485	17108.93
705.83	17011.3
706.175	17049.04
706.52	16993.45
706.865	16842.27
707.209	16906.67
707.554	16773.57
707.899	16890.18
708.243	16779.67
708.588	16667.58
708.932	16726.34
709.277	16505.1
709.621	16611.99
709.966	16441.83
710.31	16446.57
710.654	16305.79
710.998	16320.47
711.342	16378.33
711.687	16313.47
712.031	16222.85
712.375	16048.39
712.719	16207.94
713.063	16130.42
713.407	16195.51
713.75	16096.75
714.094	16063.31
714.438	16037.32
714.782	16007.94
715.125	15906.02
715.469	15974.95
715.812	15874.61
716.156	15778.12
716.499	15822.86
716.843	15768.17
717.186	15758.91
717.53	15915.06
717.873	15805.69
718.216	15734.28
718.559	15740.15
718.902	15660.38
719.246	15595.75
719.589	15670.32
719.932	15541.96
720.275	15644.79
720.617	15561.62
720.96	15508.74
721.303	15589.42
721.646	15521.85
721.989	15413.15
722.331	15427.39
722.674	15452.02
723.016	15482.76
723.359	15409.99
723.701	15419.03
724.044	15396.66
724.386	15262.42
724.729	15409.31
725.071	15276.21
725.413	15320.05
725.755	15270.56
726.097	15201.63
726.439	15125.93
726.782	15128.64
727.124	15158.02
727.465	15082.77
727.807	15136.78
728.149	15049.55
728.491	15031.92
728.833	15059.04
729.175	15052.94
729.516	15080.73
729.858	15072.15
730.199	14995.31
730.541	15049.32
730.882	15010.68
731.224	15124.8
731.565	15095.2
731.906	15026.95
732.248	15031.02
732.589	14956.44
732.93	14958.7
733.271	14918.7
733.612	15003.22
733.953	14970.91
734.294	14930.45
734.635	14904.92
734.976	14887.29
735.317	14843.23
735.658	14952.15
735.999	14950.12
736.339	14954.86
736.68	14932.94
737.021	14897.01
737.361	14814.75
737.702	14998.02
738.042	14891.81
738.383	14950.79
738.723	14940.17
739.063	14888.65
739.404	14966.61
739.744	14895.43
740.084	14887.52
740.424	14986.5
740.764	15018.36
741.104	14990.34
741.444	14977.01
741.784	14908.76
742.124	14935.65
742.464	14951.25
742.804	15019.94
743.143	14983.56
743.483	14993.28
743.823	14929.1
744.162	15044.58
744.502	15067.63
744.841	15007.29
745.181	15164.12
745.52	15124.12
745.86	15149.66
746.199	15091.35
746.538	15212.93
746.877	15340.39
747.216	15392.82
747.556	15322.99
747.895	15354.85
748.234	15375.64
748.573	15529.54
748.911	15541.06
749.25	15675.52
749.589	15613.83
749.928	15692.92
750.267	15862.86
750.605	15819.02
750.944	15912.12
751.283	15899.02
751.621	16067.6
751.96	16093.14
752.298	16204.55
752.636	16372.9
752.975	16384.43
753.313	16345.11
753.651	16524.99
753.989	16591.65
754.327	16694.48
754.666	16801.59
755.004	16962.72
755.342	17027.12
755.679	17097.18
756.017	17122.49
756.355	17340.79
756.693	17355.02
757.031	17463.04
757.368	17488.13
757.706	17659.2
758.044	17721.79
758.381	17909.36
758.719	17903.48
759.056	18030.94
759.394	18171.73
