Data from hue_90_FLMS001491_61.txt Node
Date: Mon Feb 06 15:25:27 GMT 2017
User: dcchb
Spectrometer: FLMS00149
Trigger mode: 0
Integration Time (sec): 2.000000E-2
Scans to average: 10
Electric dark correction enabled: true
Nonlinearity correction enabled: false
Boxcar width: 0
XAxis mode: Wavelengths
Number of Pixels in Spectrum: 2048
>>>>>Begin Spectral Data<<<<<
341.393	-27.22
341.776	-27.22
342.16	-27.22
342.543	-68.12
342.927	-44.62
343.31	-83.03
343.693	-73.54
344.077	-53.2
344.46	-52.3
344.843	-54.79
345.226	-43.04
345.61	-24.05
345.993	-11.62
346.376	-11.85
346.759	9.84
347.142	26.34
347.525	54.59
347.908	66.57
348.291	49.17
348.674	97.3
349.057	103.63
349.44	121.03
349.823	144.08
350.206	155.15
350.588	181.14
350.971	216.84
351.354	213.45
351.737	248.03
352.119	255.49
352.502	273.11
352.884	278.09
353.267	291.42
353.65	297.75
354.032	292.77
354.414	298.65
354.797	295.26
355.179	344.07
355.562	313.34
355.944	319.67
356.326	330.29
356.709	348.37
357.091	346.11
357.473	340.91
357.855	329.61
358.238	356.95
358.62	365.77
359.002	358.99
359.384	342.72
359.766	338.65
360.148	339.1
360.53	340.23
360.912	354.02
361.294	344.3
361.676	345.65
362.057	341.59
362.439	336.16
362.821	340.01
363.203	337.07
363.584	320.34
363.966	328.93
364.348	321.93
364.729	307.69
365.111	329.38
365.493	321.7
365.874	321.25
366.256	333
366.637	319.67
367.019	325.99
367.4	324.19
367.781	322.6
368.163	325.99
368.544	318.31
368.925	323.06
369.306	318.31
369.688	310.4
370.069	301.59
370.45	314.47
370.831	310.18
371.212	306.33
371.593	323.73
371.974	340.46
372.355	321.7
372.736	320.34
373.117	321.02
373.498	333.23
373.879	314.47
374.26	316.5
374.641	305.66
375.021	305.43
375.402	317.63
375.783	330.29
376.163	323.96
376.544	333.68
376.925	342.72
377.305	338.65
377.686	347.69
378.066	338.42
378.447	338.42
378.827	342.04
379.208	326.67
379.588	347.46
379.968	325.77
380.349	338.65
380.729	346.33
381.109	331.19
381.489	360.8
381.87	339.33
382.25	342.72
382.63	342.72
383.01	340.01
383.39	347.24
383.77	333.9
384.15	328.03
384.53	318.76
384.91	356.95
385.29	355.6
385.67	358.31
386.049	347.69
386.429	346.11
386.809	368.25
387.189	360.12
387.568	382.49
387.948	371.64
388.328	363.96
388.707	360.57
389.087	384.07
389.466	378.42
389.846	368.93
390.225	384.98
390.605	356.95
390.984	358.08
391.363	367.35
391.743	391.08
392.122	367.8
392.501	393.56
392.881	377.07
393.26	375.71
393.639	402.83
394.018	367.8
394.397	392.66
394.776	383.39
395.155	382.49
395.534	370.51
395.913	384.52
396.292	420.68
396.671	413.9
397.05	394.02
397.429	398.99
397.808	390.17
398.186	395.37
398.565	413.22
398.944	417.07
399.323	413.68
399.701	406.44
400.08	411.64
400.458	396.73
400.837	417.29
401.215	420
401.594	408.48
401.972	418.42
402.351	417.07
402.729	428.82
403.107	423.62
403.486	434.24
403.864	415.03
404.242	446.9
404.62	438.76
404.999	446.22
405.377	423.62
405.755	428.59
406.133	441.02
406.511	456.61
406.889	445.99
407.267	443.28
407.645	455.93
408.023	457.52
408.401	446.22
408.779	436.05
409.156	477.85
409.534	459.55
409.912	444.86
410.29	468.14
410.667	493.9
411.045	470.62
411.422	502.03
411.8	477.4
412.178	471.75
412.555	491.19
412.933	491.41
413.31	495.48
413.687	494.35
414.065	508.36
414.442	514.24
414.819	513.56
415.197	489.38
415.574	506.78
415.951	522.37
416.328	515.14
416.705	516.05
417.082	523.96
417.46	533.9
417.837	506.55
418.214	532.77
418.591	540.9
418.967	535.25
419.344	530.28
419.721	542.49
420.098	554.46
420.475	542.71
420.852	560.56
421.228	565.99
421.605	552.65
421.982	554.24
422.358	590.17
422.735	559.89
423.111	573.9
423.488	597.17
423.864	572.99
424.241	596.04
424.617	588.13
424.994	586.1
425.37	596.04
425.746	596.95
426.123	615.25
426.499	611.41
426.875	611.41
427.251	615.93
427.627	626.33
428.003	636.27
428.379	648.47
428.756	625.87
429.132	632.43
429.507	659.32
429.883	640.11
430.259	658.19
430.635	668.81
431.011	664.97
431.387	678.75
431.763	695.93
432.138	681.69
432.514	700.67
432.89	690.28
433.265	708.81
433.641	723.72
434.016	715.81
434.392	733.44
434.767	730.5
435.143	730.96
435.518	743.84
435.894	767.11
436.269	751.75
436.644	739.99
437.02	777.51
437.395	773.67
437.77	790.16
438.145	778.19
438.52	787.9
438.895	816.38
439.271	788.81
439.646	809.82
440.021	825.42
440.395	838.98
440.77	825.19
441.145	849.14
441.52	840.33
441.895	849.37
442.27	806.66
442.645	845.98
443.019	860.67
443.394	854.57
443.769	875.58
444.143	865.64
444.518	880.56
444.892	868.13
445.267	885.53
445.641	882.14
446.016	855.7
446.39	911.52
446.764	909.26
447.139	927.56
447.513	933.66
447.887	919.2
448.262	928.92
448.636	914
449.01	925.75
449.384	937.28
449.758	956.94
450.132	955.36
450.506	961.46
450.88	974.34
451.254	963.72
451.628	975.02
452.002	988.8
452.376	1027.9
452.75	1012.76
453.123	1023.6
453.497	1036.03
453.871	1054.34
454.244	1064.28
454.618	1072.42
454.992	1094.79
455.365	1106.54
455.739	1094.79
456.112	1130.94
456.486	1107.89
456.859	1132.98
457.232	1155.12
457.606	1152.87
457.979	1164.39
458.352	1205.75
458.725	1187.21
459.099	1231.96
459.472	1225.63
459.845	1235.8
460.218	1255.24
460.591	1238.51
460.964	1250.94
461.337	1287.32
461.71	1320.77
462.083	1356.48
462.456	1330.71
462.829	1340.43
463.201	1389.7
463.574	1368
463.947	1408.68
464.32	1446.87
464.692	1484.38
465.065	1458.85
465.438	1484.61
465.81	1502.69
466.183	1537.04
466.555	1540.43
466.928	1574.32
467.3	1602.12
467.672	1615.9
468.045	1616.13
468.417	1698.39
468.789	1692.06
469.161	1728.22
469.534	1746.07
469.906	1798.95
470.278	1805.5
470.65	1830.59
471.022	1882.34
471.394	1953.75
471.766	1942.45
472.138	1969.34
472.51	2053.63
472.882	2054.99
473.253	2095.44
473.625	2164.36
473.997	2206.4
474.369	2212.95
474.74	2247.98
475.112	2361.87
475.484	2391.02
475.855	2447.52
476.227	2478.03
476.598	2572.26
476.97	2596.89
477.341	2652.71
477.713	2761.86
478.084	2817.91
478.455	2941.52
478.827	2935.19
479.198	3071.01
479.569	3106.94
479.94	3225.58
480.311	3282.98
480.682	3380.83
481.053	3481.62
481.424	3594.16
481.795	3680.93
482.166	3783.08
482.537	3841.83
482.908	3986.01
483.279	4061.49
483.65	4175.38
484.021	4319.34
484.391	4428.49
484.762	4503.51
485.133	4589.61
485.503	4744.18
485.874	4875.71
486.244	4974.91
486.615	5134.91
486.985	5289.25
487.356	5404.28
487.726	5547.1
488.097	5690.6
488.467	5758.17
488.837	5939.86
489.207	6077.03
489.578	6250.58
489.948	6373.74
490.318	6520.18
490.688	6619.16
491.058	6821.19
491.428	6945.03
491.798	7134.85
492.168	7338.47
492.538	7413.72
492.908	7579.59
493.278	7694.39
493.648	7800.83
494.017	7993.36
494.387	8113.59
494.757	8164.66
495.126	8488.94
495.496	8522.84
495.866	8717.64
496.235	8814.36
496.605	8958.08
496.974	9090.96
497.344	9226.55
497.713	9289.15
498.082	9446.66
498.452	9544.96
498.821	9714
499.19	9815.46
499.559	9937.94
499.928	10031.05
500.298	10179.07
500.667	10236.24
501.036	10342
501.405	10526.18
501.774	10558.72
502.143	10725.95
502.512	10753.52
502.88	10960.74
503.249	10998.93
503.618	11092.49
503.987	11198.7
504.356	11299.72
504.724	11405.93
505.093	11391.47
505.462	11602.08
505.83	11592.36
506.199	11807.73
506.567	11879.36
506.936	11893.15
507.304	12074.84
507.672	12173.14
508.041	12200.26
508.409	12222.86
508.777	12355.51
509.145	12484.77
509.514	12433.25
509.882	12555.5
510.25	12629.63
510.618	12773.12
510.986	12722.28
511.354	12882.5
511.722	13006.34
512.09	13131.76
512.458	13101.03
512.826	13119.56
513.193	13164.75
513.561	13217.41
513.929	13285.43
514.297	13433.9
514.664	13430.96
515.032	13532.2
515.4	13595.25
515.767	13564.06
516.135	13615.36
516.502	13517.74
516.869	13848.12
517.237	13840.44
517.604	13793.44
517.972	13909.59
518.339	13971.96
518.706	13949.14
519.073	13922.02
519.44	14133.31
519.808	14158.85
520.175	14166.99
520.542	14182.13
520.909	14279.75
521.276	14176.03
521.643	14324.95
522.009	14410.6
522.376	14413.08
522.743	14486.3
523.11	14592.29
523.477	14590.93
523.843	14712.28
524.21	14677.26
524.577	14810.36
524.943	14757.48
525.31	14837.25
525.676	14897.36
526.043	14933.07
526.409	15020.3
526.776	15072.05
527.142	14970.81
527.508	14994.08
527.874	15037.92
528.241	15142.78
528.607	15070.92
528.973	15191.37
529.339	15096.68
529.705	15132.38
530.071	15214.87
530.437	15205.38
530.803	15217.81
531.169	15255.32
531.535	15184.13
531.901	15251.25
532.267	15201.08
532.632	15279.5
532.998	15166.73
533.364	15302.78
533.73	15193.17
534.095	15266.39
534.461	15310.01
534.826	15371.7
535.192	15186.85
535.557	15337.12
535.923	15141.65
536.288	15115.44
536.653	15247.18
537.019	15127.64
537.384	15060.97
537.749	15136.45
538.114	15155.43
538.479	15089.22
538.845	15065.95
539.21	15020.52
539.575	14983.69
539.94	14971.03
540.305	14952.5
540.67	14929
541.034	14854.88
541.399	14901.88
541.764	14785.28
542.129	14865.95
542.494	14778.95
542.858	14778.5
543.223	14777.59
543.587	14705.73
543.952	14700.76
544.316	14716.58
544.681	14623.47
545.045	14556.58
545.41	14553.19
545.774	14560.65
546.138	14431.16
546.503	14481.78
546.867	14407.43
547.231	14503.47
547.595	14315.91
547.959	14432.74
548.324	14356.59
548.688	14203.14
549.052	14256.02
549.416	14227.55
549.779	14252.41
550.143	14127.89
550.507	14204.05
550.871	14150.26
551.235	14111.17
551.599	14172.86
551.962	14123.6
552.326	14079.3
552.689	14077.5
553.053	13970.38
553.417	13966.54
553.78	14026.42
554.143	13994.11
554.507	13924.28
554.87	13919.76
555.234	14006.54
555.597	13859.2
555.96	13869.14
556.323	13772.87
556.686	13769.48
557.05	13847.45
557.413	13802.93
557.776	13657.62
558.139	13838.18
558.502	13752.53
558.865	13820.33
559.228	13804.51
559.59	13782.36
559.953	13823.04
560.316	13903.72
560.679	13819.88
561.041	13789.6
561.404	13768.58
561.767	13914.34
562.129	13802.02
562.492	13869.82
562.854	13780.56
563.217	13831.85
563.579	13799.99
563.941	13860.55
564.304	13839.31
564.666	13948.91
565.028	13917.05
565.39	13879.31
565.753	13847.22
566.115	13921.34
566.477	13923.6
566.839	13939.65
567.201	13971.96
567.563	13907.56
567.925	14045.86
568.287	13942.59
568.648	13988.91
569.01	14093.77
569.372	14108.68
569.734	13968.12
570.095	14046.09
570.457	14091.51
570.819	14111.39
571.18	14032.3
571.542	14074.11
571.903	14074.33
572.265	14155.46
572.626	14202.01
572.987	14188.23
573.349	14087.21
573.71	14260.54
574.071	14133.31
574.432	14272.75
574.794	14288.79
575.155	14208.57
575.516	14175.35
575.877	14194.56
576.238	14259.64
576.599	14205.86
576.96	14243.37
577.32	14262.58
577.681	14262.8
578.042	14319.52
578.403	14238.4
578.763	14275.01
579.124	14246.76
579.485	14389.13
579.845	14341.9
580.206	14291.5
580.566	14302.58
580.927	14263.25
581.287	14322.46
581.648	14276.59
582.008	14304.61
582.368	14268.9
582.728	14276.59
583.089	14268.45
583.449	14253.54
583.809	14225.52
584.169	14247.89
584.529	14198.4
584.889	14287.21
585.249	14202.01
585.609	14229.81
585.969	14206.99
586.329	14260.77
586.688	14179.19
587.048	14219.87
587.408	14113.88
587.768	14115.46
588.127	14117.27
588.487	14019.42
588.846	14164.27
589.206	14046.99
589.565	14098.97
589.925	14090.38
590.284	14137.83
590.643	14108.23
591.003	14180.55
591.362	14144.84
591.721	14099.19
592.08	14052.86
592.44	14059.87
592.799	14103.03
593.158	13990.04
593.517	14079.98
593.876	14132.41
594.235	13995.69
594.593	13981.23
594.952	14019.87
595.311	13980.78
595.67	13984.39
596.029	14027.33
596.387	14009.7
596.746	14043.6
597.104	14022.58
597.463	13938.74
597.822	14037.05
598.18	13897.16
598.538	13910.04
598.897	14027.1
599.255	13868.91
599.613	14017.39
599.972	13963.38
600.33	13967.67
600.688	13820.1
601.046	13912.98
601.404	13997.73
601.762	13925.64
602.12	13931.74
602.478	13917.28
602.836	13946.43
603.194	13866.88
603.552	13903.94
603.91	13840.44
604.268	13889.03
604.625	13907.11
604.983	13879.76
605.341	13816.71
605.698	13962.92
606.056	13935.35
606.413	13847.67
606.771	13951.4
607.128	13989.14
607.485	13878.86
607.843	13865.53
608.2	13965.18
608.557	13948.01
608.914	13913.21
609.272	13979.65
609.629	14047.44
609.986	13982.81
610.343	13911.63
610.7	14018.29
611.057	14065.07
611.414	14050.15
611.771	14044.28
612.127	14161.11
612.484	14114.11
612.841	14204.05
613.198	14087.89
613.554	14107.1
613.911	14199.08
614.267	14224.61
614.624	14077.27
614.98	14212.63
615.337	14214.44
615.693	14124.5
616.05	14163.37
616.406	14223.93
616.762	14188
617.118	14190.04
617.475	14166.08
617.831	14234.78
618.187	14276.59
618.543	14281.11
618.899	14352.29
619.255	14275.23
619.611	14219.64
619.967	14292.41
620.323	14337.15
620.678	14316.36
621.034	14279.53
621.39	14238.17
621.746	14337.83
622.101	14400.88
622.457	14320.2
622.812	14319.75
623.168	14351.61
623.523	14325.85
623.879	14427.77
624.234	14242.46
624.589	14351.61
624.945	14304.38
625.3	14393.87
625.655	14296.47
626.01	14275.68
626.365	14296.93
626.72	14234.78
627.075	14326.98
627.43	14255.57
627.785	14350.71
628.14	14277.27
628.495	14270.94
628.85	14281.11
629.205	14195.01
629.559	14265.74
629.914	14229.58
630.269	14185.74
630.623	14106.87
630.978	14119.53
631.332	14161.79
631.687	14265.06
632.041	14146.42
632.396	14073.88
632.75	14118.63
633.104	14142.58
633.459	14091.51
633.813	14039.76
634.167	14115.24
634.521	14021.23
634.875	14041.57
635.229	14127.89
635.583	13894.68
635.937	13992.08
636.291	13944.17
636.645	13936.48
636.999	13913.89
637.352	13983.26
637.706	13951.85
638.06	14012.19
638.413	13871.17
638.767	13863.94
639.121	13893.1
639.474	13811.74
639.828	13905.98
640.181	13842.25
640.534	13708.24
640.888	13814.23
641.241	13790.5
641.594	13788.01
641.947	13817.84
642.301	13703.95
642.654	13742.59
643.007	13735.36
643.36	13701.91
643.713	13690.39
644.066	13799.76
644.419	13650.16
644.771	13570.84
645.124	13435.03
645.477	13446.1
645.83	13370.4
646.182	13267.12
646.535	13206.79
646.888	13262.38
647.24	13242.94
647.593	13334.92
647.945	13227.12
648.298	13188.48
648.65	13143.28
649.002	13120.46
649.355	13214.92
649.707	13181.25
650.059	13224.41
650.411	13407.46
650.763	13398.42
651.115	13559.32
651.467	13536.72
651.819	13562.93
652.171	13491.07
652.523	13518.19
652.875	13506.21
653.227	13403.84
653.578	13520.45
653.93	13507.79
654.282	13477.96
654.633	13453.78
654.985	13451.75
655.337	13500.56
655.688	13492.2
656.039	13618.53
656.391	13470.06
656.742	13483.61
657.094	13507.34
657.445	13451.52
657.796	13515.7
658.147	13436.61
658.498	13524.97
658.849	13508.47
659.2	13563.16
659.551	13484.97
659.902	13517.06
660.253	13463.73
660.604	13520.9
660.955	13471.41
661.306	13495.82
661.656	13528.13
662.007	13586.21
662.358	13438.64
662.708	13466.89
663.059	13527.46
663.409	13513.9
663.76	13557.28
664.11	13551.64
664.461	13604.29
664.811	13551.41
665.161	13478.19
665.511	13555.93
665.862	13614.91
666.212	13631.18
666.562	13685.64
666.912	13660.78
667.262	13628.47
667.612	13573.56
667.962	13584.85
668.312	13619.88
668.662	13687.45
669.011	13598.41
669.361	13552.77
669.711	13586.21
670.06	13564.74
670.41	13516.38
670.76	13529.26
671.109	13585.98
671.459	13604.74
671.808	13512.77
672.157	13500.79
672.507	13390.96
672.856	13422.83
673.205	13484.52
673.554	13487
673.904	13430.06
674.253	13547.34
674.602	13414.69
674.951	13293.34
675.3	13173.11
675.649	13386.44
675.998	13410.85
676.346	13362.94
676.695	13420.79
677.044	13325.2
677.393	13324.52
677.741	13402.49
678.09	13366.78
678.438	13334.01
678.787	13363.84
679.135	13255.15
679.484	13201.81
679.832	13250.17
680.181	13115.26
680.529	13205.2
680.877	13115.26
681.225	13138.09
681.573	13180.8
681.922	13088.14
682.27	13055.15
682.618	13069.84
682.966	12936.74
683.314	12993.46
683.661	12988.26
684.009	12989.62
684.357	12869.85
684.705	12928.37
685.053	12916.85
685.4	12855.61
685.748	12832.33
686.095	12819.23
686.443	12734.03
686.79	12761.83
687.138	12712.34
687.485	12732.67
687.832	12614.26
688.18	12631.89
688.527	12575.84
688.874	12515.28
689.221	12534.94
689.568	12436.86
689.915	12466.01
690.262	12460.14
690.609	12376.3
690.956	12358.45
691.303	12239.58
691.65	12237.55
691.997	12273.48
692.344	12151.45
692.69	12145.34
693.037	12122.97
693.383	12075.97
693.73	12093.82
694.077	12060.37
694.423	12011.11
694.769	11911.9
695.116	11921.17
695.462	11826.03
695.808	11831.68
696.155	11832.58
696.501	11693.38
696.847	11715.75
697.193	11667.84
697.539	11571.8
697.885	11517.79
698.231	11444.35
698.577	11530.67
698.923	11434.85
699.269	11377.46
699.614	11364.35
699.96	11273.5
700.306	11307.85
700.651	11226.05
700.997	11194.41
701.342	11234.18
701.688	11158.03
702.033	11163.45
702.379	11116.44
702.724	11028.54
703.069	11011.59
703.415	10910.8
703.76	10880.74
704.105	10870.12
704.45	10846.17
704.795	10783.35
705.14	10688.21
705.485	10703.57
705.83	10707.87
706.175	10668.77
706.52	10599.85
706.865	10605.5
707.209	10568.89
707.554	10508.78
707.899	10579.74
708.243	10439.63
708.588	10479.85
708.932	10407.54
709.277	10422.23
709.621	10362.11
709.966	10288.44
710.31	10355.34
710.654	10247.99
710.998	10282.79
711.342	10271.95
711.687	10207.77
712.031	10121.89
712.375	10149.69
712.719	10079.18
713.063	10110.37
713.407	10131.84
713.75	10055.91
714.094	9992.41
714.438	10062.01
714.782	10040.09
715.125	9996.02
715.469	10000.77
715.812	10002.58
716.156	9859.3
716.499	9883.26
716.843	9855.91
717.186	9845.97
717.53	9836.03
717.873	9857.04
718.216	9834.67
718.559	9800.32
718.902	9761.45
719.246	9744.96
719.589	9779.76
719.932	9709.93
720.275	9740.66
720.617	9680.1
720.96	9681.91
721.303	9721.23
721.646	9653.66
721.989	9605.52
722.331	9620.21
722.674	9655.47
723.016	9618.18
723.359	9596.26
723.701	9647.56
724.044	9546.54
724.386	9456.38
724.729	9552.64
725.071	9553.55
725.413	9587.9
725.755	9543.38
726.097	9433.55
726.439	9509.71
726.782	9490.27
727.124	9502.93
727.465	9492.31
727.807	9430.16
728.149	9414.34
728.491	9461.57
728.833	9489.14
729.175	9445.53
729.516	9391.52
729.858	9398.98
730.199	9443.04
730.541	9397.85
730.882	9480.1
731.224	9425.64
731.565	9403.04
731.906	9445.08
732.248	9432.2
732.589	9392.65
732.93	9320.56
733.271	9433.33
733.612	9379.09
733.953	9354.01
734.294	9358.75
734.635	9343.38
734.976	9463.61
735.317	9394.23
735.658	9379.32
735.999	9399.65
736.339	9377.28
736.68	9407.34
737.021	9427.68
737.361	9457.73
737.702	9448.24
738.042	9444.85
738.383	9415.25
738.723	9502.02
739.063	9427.45
739.404	9429.26
739.744	9528.24
740.084	9434.91
740.424	9512.87
740.764	9474.91
741.104	9534.34
741.444	9486.43
741.784	9541.12
742.124	9536.15
742.464	9621.34
742.804	9567.56
743.143	9638.52
743.483	9659.31
743.823	9611.4
744.162	9702.92
744.502	9706.99
744.841	9678.06
745.181	9827.44
745.52	9770.27
745.86	9910.83
746.199	9825.86
746.538	9921
746.877	10024.27
747.216	10037.83
747.556	10066.53
747.895	10139.07
748.234	10123.25
748.573	10158.5
748.911	10220.65
749.25	10344.49
749.589	10357.82
749.928	10461.55
750.267	10522.11
750.605	10621.09
750.944	10670.13
751.283	10741.09
751.621	10870.12
751.96	10835.77
752.298	11015.66
752.636	11238.48
752.975	11151.47
753.313	11278.93
753.651	11468.53
753.989	11496.55
754.327	11720.95
754.666	11782.42
755.004	11885.46
755.342	12086.14
755.679	12225.34
756.017	12320.93
756.355	12438.44
756.693	12632.79
757.031	12752.79
757.368	12840.02
757.706	12951.65
