Data from hue_130_FLMS001491_00054.txt Node
Date: Tue Feb 07 16:57:47 GMT 2017
User: dcchb
Spectrometer: FLMS00149
Trigger mode: 0
Integration Time (sec): 2.000000E-2
Scans to average: 10
Electric dark correction enabled: true
Nonlinearity correction enabled: false
Boxcar width: 0
XAxis mode: Wavelengths
Number of Pixels in Spectrum: 2048
>>>>>Begin Spectral Data<<<<<
341.393	-0.72
341.776	-0.72
342.16	-0.72
342.543	-61.06
342.927	-56.31
343.31	-40.72
343.693	-82.07
344.077	-74.62
344.46	-61.96
344.843	-75.07
345.226	-39.14
345.61	-28.97
345.993	-23.09
346.376	-28.74
346.759	32.95
347.142	33.86
347.525	33.86
347.908	61.2
348.291	70.92
348.674	102.33
349.057	119.28
349.44	125.83
349.823	127.64
350.206	158.37
350.588	185.94
350.971	184.59
351.354	227.07
351.737	245.37
352.119	243.34
352.502	262.78
352.884	268.43
353.267	270.91
353.65	288.54
354.032	280.63
354.414	301.87
354.797	321.31
355.179	305.49
355.562	306.39
355.944	294.41
356.326	309.33
356.709	325.37
357.091	312.94
357.473	337.35
357.855	349.1
358.238	356.11
358.62	329.67
359.002	330.8
359.384	338.93
359.766	351.59
360.148	331.47
360.53	326.73
360.912	304.58
361.294	344.81
361.676	322.66
362.057	323.11
362.439	308.2
362.821	315.2
363.203	321.98
363.584	323.56
363.966	306.84
364.348	332.38
364.729	326.5
365.111	327.18
365.493	312.72
365.874	313.62
366.256	298.03
366.637	338.71
367.019	311.36
367.4	310.68
367.781	306.39
368.163	308.88
368.544	319.72
368.925	304.58
369.306	305.94
369.688	320.18
370.069	332.6
370.45	299.16
370.831	298.71
371.212	306.62
371.593	293.51
371.974	319.5
372.355	318.37
372.736	316.79
373.117	336.45
373.498	290.57
373.879	316.56
374.26	326.95
374.641	324.69
375.021	295.77
375.402	305.49
375.783	311.81
376.163	345.03
376.544	333.73
376.925	328.54
377.305	349.78
377.686	340.97
378.066	342.1
378.447	330.8
378.827	341.19
379.208	318.82
379.588	347.29
379.968	355.43
380.349	335.77
380.729	343.9
381.109	342.32
381.489	340.51
381.87	350.46
382.25	345.49
382.63	345.26
383.01	349.1
383.39	352.94
383.77	331.93
384.15	327.41
384.53	360.63
384.91	345.94
385.29	331.25
385.67	357.24
386.049	366.95
386.429	372.83
386.809	375.99
387.189	356.78
387.568	355.43
387.948	358.59
388.328	340.06
388.707	386.16
389.087	378.48
389.466	375.54
389.846	364.02
390.225	368.08
390.605	384.13
390.984	368.99
391.363	371.47
391.743	365.37
392.122	378.93
392.501	359.27
392.881	379.16
393.26	382.32
393.639	398.37
394.018	395.65
394.397	396.56
394.776	373.28
395.155	382.55
395.534	396.11
395.913	397.91
396.292	384.81
396.671	404.47
397.05	394.07
397.429	394.98
397.808	389.33
398.186	402.66
398.565	420.74
398.944	394.98
399.323	406.27
399.701	402.88
400.08	400.63
400.458	426.16
400.837	429.78
401.215	394.75
401.594	413.73
401.972	414.64
402.351	425.48
402.729	409.66
403.107	420.51
403.486	435.65
403.864	426.61
404.242	413.73
404.62	431.58
404.999	439.95
405.377	427.74
405.755	427.74
406.133	432.71
406.511	443.79
406.889	419.38
407.267	453.96
407.645	444.69
408.023	458.93
408.401	444.47
408.779	441.08
409.156	453.51
409.534	472.26
409.912	461.64
410.29	466.61
410.667	454.18
411.045	487.63
411.422	479.04
411.8	493.73
412.178	467.06
412.555	453.28
412.933	497.12
413.31	488.76
413.687	515.2
414.065	502.32
414.442	489.44
414.819	512.26
415.197	508.64
415.574	507.06
415.951	518.36
416.328	523.11
416.705	507.97
417.082	527.85
417.46	523.79
417.837	557.01
418.214	550.68
418.591	527.85
418.967	513.39
419.344	539.83
419.721	553.39
420.098	554.29
420.475	535.76
420.852	555.88
421.228	564.69
421.605	572.6
421.982	559.49
422.358	579.15
422.735	564.24
423.111	551.58
423.488	585.7
423.864	579.38
424.241	590
424.617	590.22
424.994	578.47
425.37	605.59
425.746	594.07
426.123	625.7
426.499	591.81
426.875	603.78
427.251	602.2
427.627	640.39
428.003	636.1
428.379	640.17
428.756	634.52
429.132	653.27
429.507	663.89
429.883	647.85
430.259	658.02
430.635	653.95
431.011	674.52
431.387	669.09
431.763	697.57
432.138	685.82
432.514	709.54
432.89	710
433.265	708.64
433.641	725.14
434.016	718.81
434.392	717.9
434.767	748.64
435.143	745.02
435.518	736.66
435.894	762.65
436.269	764.46
436.644	774.17
437.02	765.14
437.395	781.41
437.77	801.52
438.145	802.42
438.52	807.85
438.895	801.29
439.271	792.25
439.646	824.12
440.021	815.98
440.395	815.76
440.77	833.16
441.145	839.03
441.52	845.81
441.895	860.27
442.27	862.08
442.645	867.96
443.019	877.67
443.394	895.3
443.769	888.3
444.143	884.91
444.518	884
444.892	898.01
445.267	899.59
445.641	889.2
446.016	916.32
446.39	930.33
446.764	929.88
447.139	931.23
447.513	964.23
447.887	928.29
448.262	942.53
448.636	945.92
449.01	948.18
449.384	972.59
449.758	961.06
450.132	971.23
450.506	987.05
450.88	992.47
451.254	992.7
451.628	997.22
452.002	1022.3
452.376	1023.21
452.75	1029.99
453.123	1033.38
453.497	1086.26
453.871	1060.49
454.244	1058.23
454.618	1057.1
454.992	1102.75
455.365	1091.91
455.739	1142.98
456.112	1162.64
456.486	1155.18
456.859	1147.72
457.232	1173.26
457.606	1162.64
457.979	1169.42
458.352	1196.31
458.725	1218.91
459.099	1235.41
459.472	1243.54
459.845	1257.1
460.218	1269.98
460.591	1273.82
460.964	1284.67
461.337	1312.69
461.71	1346.59
462.083	1370.09
462.456	1376.64
462.829	1417.1
463.201	1417.1
463.574	1407.15
463.947	1420.94
464.32	1475.4
464.692	1493.7
465.065	1476.75
465.438	1523.76
465.81	1545.91
466.183	1524.44
466.555	1582.29
466.928	1582.06
467.3	1627.49
467.672	1643.53
468.045	1693.7
468.417	1681.04
468.789	1706.58
469.161	1730.53
469.534	1750.65
469.906	1824.54
470.278	1820.02
470.65	1837.42
471.022	1886.01
471.394	1932.11
471.766	1968.49
472.138	1996.97
472.51	2081.26
472.882	2077.87
473.253	2151.09
473.625	2126
473.997	2230.63
474.369	2262.72
474.74	2287.13
475.112	2345.66
475.484	2383.17
475.855	2474.69
476.227	2500.23
476.598	2603.05
476.97	2617.52
477.341	2712.88
477.713	2794.46
478.084	2817.96
478.455	2941.35
478.827	2976.6
479.198	3091.4
479.569	3137.5
479.94	3248.69
480.311	3294.11
480.682	3438.06
481.053	3536.59
481.424	3626.08
481.795	3701.1
482.166	3771.16
482.537	3876.92
482.908	4009.57
483.279	4077.82
483.65	4231.94
484.021	4338.37
484.391	4416.11
484.762	4518.48
485.133	4603.68
485.503	4758.48
485.874	4873.73
486.244	4947.4
486.615	5165.7
486.985	5293.38
487.356	5425.35
487.726	5473.26
488.097	5690.2
488.467	5768.62
488.837	5929.75
489.207	6078.44
489.578	6243.64
489.948	6344.2
490.318	6531.76
490.688	6585.1
491.058	6795.03
491.428	6922.04
491.798	7082.94
492.168	7270.05
492.538	7348.69
492.908	7528.35
493.278	7763.37
493.648	7814.22
494.017	7955
494.387	8045.62
494.757	8261.44
495.126	8360.64
495.496	8485.84
495.866	8557.25
496.235	8806.05
496.605	8857.8
496.974	9039.27
497.344	9173.95
497.713	9282.43
498.082	9348.86
498.452	9561.74
498.821	9654.17
499.19	9766.71
499.559	9865.69
499.928	10010.32
500.298	10136.19
500.667	10226.13
501.036	10286.01
501.405	10419.34
501.774	10498.21
502.143	10643.75
502.512	10692.33
502.88	10878.54
503.249	10878.99
503.618	11002.15
503.987	11062.94
504.356	11227.46
504.724	11292.77
505.093	11339.55
505.462	11444.18
505.83	11544.29
506.199	11631.29
506.567	11750.61
506.936	11800.55
507.304	11947.44
507.672	11997.61
508.041	12045.29
508.409	12149.92
508.777	12315.79
509.145	12389.24
509.514	12403.47
509.882	12482.79
510.25	12513.3
510.618	12591.26
510.986	12668.33
511.354	12712.62
511.722	12807.98
512.09	12904.93
512.458	12797.81
512.826	12986.28
513.193	13033.29
513.561	12993.74
513.929	13163.23
514.297	13309.21
514.664	13293.62
515.032	13295.43
515.4	13367.06
515.767	13443.9
516.135	13535.19
516.502	13461.75
516.869	13632.59
517.237	13637.11
517.604	13558.02
517.972	13798.69
518.339	13739.94
518.706	13754.4
519.073	13749.43
519.44	13835.98
519.808	13918.46
520.175	13962.75
520.542	13965.01
520.909	14056.76
521.276	14056.09
521.643	14150.32
522.009	14224.89
522.376	14237.55
522.743	14242.52
523.11	14439.13
523.477	14409.52
523.843	14435.06
524.21	14572
524.577	14627.14
524.943	14489.75
525.31	14550.76
525.676	14713.7
526.043	14708.5
526.409	14729.29
526.776	14847.25
527.142	14842.96
527.508	14890.64
527.874	14893.58
528.241	14922.96
528.607	14900.13
528.973	14985.33
529.339	14884.31
529.705	15023.29
530.071	15107.81
530.437	15042.95
530.803	15087.92
531.169	15072.1
531.535	14988.72
531.901	15032.78
532.267	14985.33
532.632	15092.67
532.998	15071.2
533.364	15039.11
533.73	15058.77
534.095	15191.87
534.461	15107.81
534.826	15141.48
535.192	15068.26
535.557	15167.92
535.923	15101.71
536.288	15097.87
536.653	15087.02
537.019	14968.6
537.384	15073.23
537.749	14935.84
538.114	14979
538.479	14904.88
538.845	14859.68
539.21	14781.49
539.575	14771.09
539.94	14717.76
540.305	14800.92
540.67	14706.01
541.034	14759.8
541.399	14772
541.764	14724.09
542.129	14794.6
542.494	14684.77
542.858	14637.31
543.223	14598.22
543.587	14561.38
543.952	14580.82
544.316	14627.6
544.681	14458.33
545.045	14464.89
545.41	14523.19
545.774	14416.98
546.138	14385.12
546.503	14368.17
546.867	14308.96
547.231	14368.39
547.595	14319.58
547.959	14245.91
548.324	14303.31
548.688	14251.33
549.052	14221.5
549.416	14225.57
549.779	14090.43
550.143	14072.36
550.507	14114.39
550.871	13986.93
551.235	13999.82
551.599	14022.64
551.962	14101.28
552.326	13958.01
552.689	13987.84
553.053	13907.61
553.417	13770.44
553.78	14055.41
554.143	13859.25
554.507	13829.65
554.87	13919.14
555.234	13944.9
555.597	13801.85
555.96	13800.95
556.323	13877.11
556.686	13778.13
557.05	13771.35
557.413	13820.16
557.776	13835.07
558.139	13829.2
558.502	13788.97
558.865	13776.32
559.228	13852.02
559.59	13821.52
559.953	13764.57
560.316	13871.01
560.679	13781.29
561.041	13913.94
561.404	13887.5
561.767	13942.42
562.129	13808.41
562.492	13946.26
562.854	13929.76
563.217	13876.43
563.579	13918.46
563.941	13979.03
564.304	13965.24
564.666	13899.93
565.028	13939.25
565.39	13957.56
565.753	14041.17
566.115	14085.01
566.477	13977.44
566.839	14032.58
567.201	14183.31
567.563	14101.73
567.925	14160.49
568.287	14116.65
568.648	14163.2
569.01	14156.2
569.372	14233.93
569.734	14108.74
570.095	14179.7
570.457	14250.43
570.819	14241.39
571.18	14282.29
571.542	14299.02
571.903	14224.67
572.265	14329.75
572.626	14235.97
572.987	14335.4
573.349	14362.07
573.71	14384.89
574.071	14352.8
574.432	14392.35
574.794	14468.73
575.155	14393.03
575.516	14369.75
575.877	14401.39
576.238	14396.64
576.599	14345.34
576.96	14508.28
577.32	14497.43
577.681	14456.3
578.042	14400.93
578.403	14436.87
578.763	14474.83
579.124	14511.67
579.485	14556.19
579.845	14583.53
580.206	14523.87
580.566	14484.32
580.927	14535.17
581.287	14539.01
581.648	14461.72
582.008	14555.73
582.368	14490.42
582.728	14475.28
583.089	14488.62
583.449	14439.8
583.809	14405
584.169	14435.74
584.529	14490.42
584.889	14560.7
585.249	14473.25
585.609	14438.67
585.969	14494.27
586.329	14500.82
586.688	14427.6
587.048	14443.87
587.408	14379.69
587.768	14348.73
588.127	14321.84
588.487	14376.53
588.846	14374.72
589.206	14377.66
589.565	14368.85
589.925	14327.94
590.284	14249.3
590.643	14324.1
591.003	14437.32
591.362	14364.33
591.721	14371.33
592.08	14301.5
592.44	14424.44
592.799	14394.83
593.158	14301.95
593.517	14244.33
593.876	14340.37
594.235	14295.17
594.593	14254.27
594.952	14292.24
595.311	14170.88
595.67	14273.71
596.029	14347.15
596.387	14311.9
596.746	14287.27
597.104	14163.43
597.463	14179.92
597.822	14180.15
598.18	14171.79
598.538	14194.39
598.897	14187.61
599.255	14194.16
599.613	14303.54
599.972	14205.46
600.33	14230.09
600.688	14216.08
601.046	14339.47
601.404	14282.75
601.762	14246.59
602.12	14358.45
602.478	14191.67
602.836	14325.23
603.194	14220.6
603.552	14213.82
603.91	14135.86
604.268	14175.4
604.625	14212.47
604.983	14264.67
605.341	14125.69
605.698	14279.36
606.056	14332.46
606.413	14199.36
606.771	14324.78
607.128	14289.53
607.485	14219.47
607.843	14301.28
608.2	14421.5
608.557	14418.34
608.914	14386.7
609.272	14361.39
609.629	14398
609.986	14416.75
610.343	14421.05
610.7	14323.2
611.057	14341.28
611.414	14331.33
611.771	14363.42
612.127	14453.36
612.484	14453.81
612.841	14571.33
613.198	14427.15
613.554	14464.21
613.911	14548.73
614.267	14485
614.624	14528.16
614.98	14468.73
615.337	14583.3
615.693	14508.5
616.05	14483.19
616.406	14628.73
616.762	14522.97
617.118	14562.29
617.475	14623.3
617.831	14683.64
618.187	14615.62
618.543	14581.95
618.899	14805.44
619.255	14640.25
619.611	14663.53
619.967	14765.22
620.323	14780.59
620.678	14705.56
621.034	14660.36
621.39	14663.98
621.746	14644.54
622.101	14734.94
622.457	14599.57
622.812	14731.32
623.168	14714.37
623.523	14731.55
623.879	14795.95
624.234	14740.14
624.589	14681.61
624.945	14818.55
625.3	14752.56
625.655	14719.34
626.01	14613.36
626.365	14677.76
626.72	14657.88
627.075	14684.09
627.43	14716.18
627.785	14673.92
628.14	14649.74
628.495	14673.92
628.85	14646.8
629.205	14616.07
629.559	14639.57
629.914	14616.97
630.269	14667.82
630.623	14554.6
630.978	14551.21
631.332	14663.98
631.687	14706.46
632.041	14525.68
632.396	14628.05
632.75	14570.87
633.104	14570.65
633.459	14431.89
633.813	14508.95
634.167	14500.59
634.521	14461.5
634.875	14500.14
635.229	14389.64
635.583	14374.49
635.937	14486.36
636.291	14442.74
636.645	14350.77
636.999	14338.79
637.352	14369.75
637.706	14334.5
638.06	14354.61
638.413	14353.03
638.767	14188.29
639.121	14289.98
639.474	14171.79
639.828	14225.8
640.181	14187.83
640.534	14247.72
640.888	14142.18
641.241	14077.33
641.594	14255.85
641.947	14132.92
642.301	14153.03
642.654	14163.43
643.007	14083.88
643.36	14145.8
643.713	14025.13
644.066	14102.86
644.419	14024.67
644.771	13935.18
645.124	13879.59
645.477	13824.68
645.83	13728.86
646.182	13638.02
646.535	13625.59
646.888	13701.74
647.24	13613.61
647.593	13581.52
647.945	13586.95
648.298	13634.85
648.65	13511.92
649.002	13560.51
649.355	13552.6
649.707	13568.64
650.059	13565.48
650.411	13861.97
650.763	13801.85
651.115	13940.83
651.467	13831.91
651.819	13848.63
652.171	13904.22
652.523	13920.95
652.875	13853.15
653.227	13778.35
653.578	13885.92
653.93	13859.25
654.282	13810.89
654.633	13791.69
654.985	13817.45
655.337	13844.79
655.688	13924.56
656.039	13821.97
656.391	13794.85
656.742	13784.68
657.094	13814.74
657.445	13933.38
657.796	13864
658.147	13862.42
658.498	13850.44
658.849	13836.66
659.2	13815.41
659.551	13861.51
659.902	13869.88
660.253	13921.4
660.604	13945.81
660.955	13916.2
661.306	13902.64
661.656	13883.66
662.007	13908.74
662.358	13923.43
662.708	13880.5
663.059	13952.59
663.409	13816.09
663.76	13975.18
664.11	13918.91
664.461	13949.2
664.811	13972.92
665.161	13910.33
665.511	13895.41
665.862	13969.99
666.212	13996.2
666.562	13919.37
666.912	13853.15
667.262	13902.64
667.612	13919.82
667.962	13925.24
668.312	13946.48
668.662	14068.97
669.011	13938.35
669.361	13943.77
669.711	13918.01
670.06	13869.88
670.41	13918.69
670.76	13853.15
671.109	13890.44
671.459	13917.11
671.808	13880.5
672.157	13811.35
672.507	13778.58
672.856	13778.58
673.205	13774.51
673.554	13841.63
673.904	13757.79
674.253	13853.15
674.602	13762.99
674.951	13628.98
675.3	13517.34
675.649	13771.57
675.998	13701.29
676.346	13771.8
676.695	13694.06
677.044	13675.98
677.393	13732.03
677.741	13678.92
678.09	13625.59
678.438	13606.61
678.787	13649.09
679.135	13599.37
679.484	13511.69
679.832	13595.08
680.181	13383.33
680.529	13506.72
680.877	13488.19
681.225	13433.5
681.573	13545.36
681.922	13445.93
682.27	13431.47
682.618	13405.71
682.966	13335.65
683.314	13412.49
683.661	13327.97
684.009	13285.94
684.357	13256.33
684.705	13124.58
685.053	13224.02
685.4	13178.59
685.748	13110.35
686.095	13198.48
686.443	13036.45
686.79	12983.12
687.138	13033.29
687.485	13056.56
687.832	13012.95
688.18	12967.75
688.527	12885.72
688.874	12908.09
689.221	12893.4
689.568	12811.6
689.915	12794.42
690.262	12810.92
690.609	12756.68
690.956	12645.95
691.303	12678.95
691.65	12584.03
691.997	12596.91
692.344	12526.63
692.69	12549.23
693.037	12466.52
693.383	12363.25
693.73	12361.44
694.077	12266.98
694.423	12346.07
694.769	12180.2
695.116	12171.61
695.462	12185.4
695.808	12182.69
696.155	12152.41
696.501	11990.6
696.847	12025.63
697.193	11890.27
697.539	11970.49
697.885	11893.66
698.231	11888.23
698.577	11867.89
698.923	11865.41
699.269	11806.2
699.614	11646.88
699.96	11623.61
700.306	11658.86
700.651	11603.95
700.997	11556.94
701.342	11511.75
701.688	11541.12
702.033	11443.72
702.379	11427.45
702.724	11346.55
703.069	11361.69
703.415	11246.89
703.76	11238.76
704.105	11280.11
704.45	11240.11
704.795	11146.78
705.14	11102.72
705.485	11077.63
705.83	10940.01
706.175	11032.89
706.52	10988.82
706.865	11008.26
707.209	10916.73
707.554	10931.2
707.899	10922.61
708.243	10808.26
708.588	10840.58
708.932	10733.46
709.277	10753.12
709.621	10743.86
709.966	10628.15
710.31	10756.96
710.654	10585.22
710.998	10587.93
711.342	10559.91
711.687	10552.22
712.031	10537.53
712.375	10483.07
712.719	10477.2
713.063	10498.44
713.407	10535.95
713.75	10422.06
714.094	10413.47
714.438	10360.36
714.782	10388.39
715.125	10324.43
715.469	10347.93
715.812	10246.47
716.156	10272.91
716.499	10192.91
716.843	10306.58
717.186	10166.92
717.53	10237.43
717.873	10155.85
718.216	10194.49
718.559	10176.87
718.902	10035.4
719.246	10113.14
719.589	10081.73
719.932	10128.05
720.275	10028.17
720.617	10094.38
720.96	10018.23
721.303	10012.35
721.646	10011.9
721.989	9998.11
722.331	9980.03
722.674	9950.43
723.016	9938
723.359	9990.66
723.701	9935.06
724.044	9886.7
724.386	9877.66
724.729	9990.43
725.071	9938.45
725.413	9908.17
725.755	9972.58
726.097	9818
726.439	9803.77
726.782	9824.78
727.124	9851.22
727.465	9830.66
727.807	9832.47
728.149	9786.82
728.491	9825.69
728.833	9825.69
729.175	9815.52
729.516	9810.1
729.858	9805.12
730.199	9757.89
730.541	9704.11
730.882	9729.65
731.224	9768.29
731.565	9695.3
731.906	9790.89
732.248	9715.18
732.589	9706.6
732.93	9687.61
733.271	9701.17
733.612	9723.77
733.953	9765.12
734.294	9672.47
734.635	9722.87
734.976	9684.9
735.317	9644.45
735.658	9690.78
735.999	9716.31
736.339	9641.29
736.68	9792.47
737.021	9732.36
737.361	9690.78
737.702	9778.91
738.042	9695.3
738.383	9705.92
738.723	9738.01
739.063	9750.44
739.404	9742.75
739.744	9755.86
740.084	9758.35
740.424	9774.39
740.764	9776.88
741.104	9911.11
741.444	9849.42
741.784	9795.63
742.124	9894.84
742.464	9907.27
742.804	9893.93
743.143	9916.99
743.483	9930.77
743.823	9832.02
744.162	9940.04
744.502	9956.53
744.841	9996.3
745.181	9994.27
745.52	10082.4
745.86	10070.88
746.199	10122.4
746.538	10147.94
746.877	10189.29
747.216	10226.36
747.556	10216.41
747.895	10309.29
748.234	10374.6
748.573	10392.9
748.911	10454.37
749.25	10487.14
749.589	10590.41
749.928	10716.51
750.267	10712.67
750.605	10742.73
750.944	10837.64
751.283	10938.43
751.621	11073.56
751.96	11077.18
752.298	11181.36
752.636	11307.23
752.975	11381.58
753.313	11378.64
753.651	11608.01
753.989	11679.2
754.327	11758.29
754.666	11898.4
755.004	11932.53
755.342	12143.59
755.679	12245.06
756.017	12360.08
756.355	12523.92
756.693	12618.83
757.031	12870.58
757.368	12913.06
757.706	13012.04
758.044	13192.38
