Data from hue_320_FLMS001491_76.txt Node
Date: Mon Feb 06 15:47:41 GMT 2017
User: dcchb
Spectrometer: FLMS00149
Trigger mode: 0
Integration Time (sec): 2.000000E-2
Scans to average: 10
Electric dark correction enabled: true
Nonlinearity correction enabled: false
Boxcar width: 0
XAxis mode: Wavelengths
Number of Pixels in Spectrum: 2048
>>>>>Begin Spectral Data<<<<<
341.393	-25.1
341.776	-25.1
342.16	-25.1
342.543	-42.27
342.927	-59.45
343.31	-73.91
343.693	-78.66
344.077	-77.07
344.46	-51.76
344.843	-33.23
345.226	-49.5
345.61	-35.27
345.993	-14.7
346.376	-14.93
346.759	21.91
347.142	38.85
347.525	44.5
347.908	39.76
348.291	82.92
348.674	92.41
349.057	108.68
349.44	146.65
349.823	132.41
350.206	161.11
350.588	183.94
350.971	223.03
351.354	230.49
351.737	236.36
352.119	258.96
352.502	248.34
352.884	270.04
353.267	282.01
353.65	312.07
354.032	306.87
354.414	291.73
354.797	325.4
355.179	322.69
355.562	318.17
355.944	311.39
356.326	322.24
356.709	326.76
357.091	356.36
357.473	338.06
357.855	339.19
358.238	341.67
358.62	341.9
359.002	319.53
359.384	304.16
359.766	334.44
360.148	330.6
360.53	332.18
360.912	336.7
361.294	335.8
361.676	350.03
362.057	339.64
362.439	333.54
362.821	314.55
363.203	316.36
363.584	342.8
363.966	312.75
364.348	312.97
364.729	312.97
365.111	311.62
365.493	313.65
365.874	319.3
366.256	322.24
366.637	329.02
367.019	307.32
367.4	341.22
367.781	299.86
368.163	310.49
368.544	320.88
368.925	316.14
369.306	325.63
369.688	325.85
370.069	302.35
370.45	305.97
370.831	316.14
371.212	316.36
371.593	315.46
371.974	311.84
372.355	313.88
372.736	328.11
373.117	299.41
373.498	322.24
373.879	321.79
374.26	336.93
374.641	314.1
375.021	303.93
375.402	339.41
375.783	314.33
376.163	333.08
376.544	317.04
376.925	347.32
377.305	312.52
377.686	307.32
378.066	322.46
378.447	321.79
378.827	330.82
379.208	339.41
379.588	332.86
379.968	324.72
380.349	318.17
380.729	319.53
381.109	319.75
381.489	326.76
381.87	343.93
382.25	331.05
382.63	322.92
383.01	345.97
383.39	343.03
383.77	334.44
384.15	329.02
384.53	333.08
384.91	357.49
385.29	347.32
385.67	343.48
386.049	333.99
386.429	360.88
386.809	342.12
387.189	334.67
387.568	343.93
387.948	362.91
388.328	360.2
388.707	351.84
389.087	362.91
389.466	362.24
389.846	352.29
390.225	363.14
390.605	350.03
390.984	357.04
391.363	363.82
391.743	365.63
392.122	351.16
392.501	365.63
392.881	352.74
393.26	376.7
393.639	371.05
394.018	355
394.397	355.91
394.776	369.92
395.155	369.92
395.534	371.5
395.913	375.57
396.292	396.13
396.671	380.09
397.05	386.87
397.429	367.21
397.808	412.18
398.186	396.13
398.565	384.61
398.944	395.68
399.323	401.78
399.701	396.36
400.08	405.4
400.458	392.97
400.837	409.69
401.215	400.43
401.594	408.56
401.972	394.33
402.351	397.04
402.729	395.23
403.107	407.66
403.486	395.68
403.864	418.96
404.242	408.56
404.62	416.02
404.999	424.61
405.377	426.87
405.755	396.13
406.133	430.03
406.511	437.04
406.889	424.38
407.267	432.52
407.645	433.87
408.023	433.65
408.401	433.87
408.779	467.77
409.156	453.31
409.534	457.15
409.912	456.47
410.29	494.21
410.667	476.36
411.045	474.1
411.422	483.14
411.8	482.46
412.178	495.79
412.555	507.32
412.933	489.69
413.31	512.97
413.687	515.23
414.065	493.76
414.442	515.45
414.819	536.47
415.197	522.46
415.574	547.77
415.951	542.57
416.328	549.58
416.705	552.51
417.082	558.39
417.46	560.42
417.837	587.09
418.214	583.7
418.591	600.2
418.967	604.26
419.344	585.06
419.721	593.87
420.098	577.6
420.475	630.7
420.852	607.88
421.228	620.31
421.605	612.17
421.982	640.87
422.358	648.78
422.735	649.91
423.111	634.77
423.488	684.71
423.864	669.35
424.241	681.1
424.617	708.89
424.994	681.55
425.37	721.55
425.746	716.13
426.123	724.49
426.499	709.8
426.875	702.11
427.251	718.39
427.627	731.49
428.003	731.94
428.379	745.95
428.756	749.57
429.132	762.23
429.507	760.64
429.883	771.72
430.259	772.17
430.635	782.56
431.011	804.03
431.387	808.1
431.763	851.94
432.138	807.42
432.514	875.9
432.89	864.6
433.265	851.71
433.641	836.57
434.016	852.62
434.392	874.77
434.767	904.59
435.143	891.04
435.518	899.4
435.894	893.75
436.269	899.17
436.644	941.66
437.02	938.49
437.395	954.76
437.77	955.44
438.145	943.01
438.52	958.38
438.895	990.24
439.271	969.9
439.646	991.6
440.021	991.6
440.395	1003.8
440.77	975.1
441.145	981.88
441.52	1029.34
441.895	1037.47
442.27	1026.4
442.645	1003.58
443.019	1044.93
443.394	1063.69
443.769	1062.56
444.143	1034.76
444.518	1068.21
444.892	1020.52
445.267	1069.11
445.641	1074.08
446.016	1072.95
446.39	1095.78
446.764	1078.15
447.139	1058.72
447.513	1101.88
447.887	1067.08
448.262	1097.58
448.636	1091.71
449.01	1115.44
449.384	1096
449.758	1115.44
450.132	1150.01
450.506	1136.23
450.88	1136
451.254	1133.06
451.628	1153.85
452.002	1155.66
452.376	1140.75
452.75	1132.84
453.123	1158.15
453.497	1185.72
453.871	1171.25
454.244	1207.41
454.618	1181.65
454.992	1178.94
455.365	1221.65
455.739	1225.26
456.112	1231.14
456.486	1248.54
456.859	1258.26
457.232	1261.2
457.606	1278.6
457.979	1276.79
458.352	1309.33
458.725	1300.97
459.099	1311.14
459.472	1309.78
459.845	1335.77
460.218	1326.05
460.591	1355.66
460.964	1349.55
461.337	1342.32
461.71	1347.3
462.083	1387.29
462.456	1404.02
462.829	1393.17
463.201	1395.88
463.574	1401.53
463.947	1409.67
464.32	1442.21
464.692	1453.51
465.065	1461.42
465.438	1480.62
465.81	1505.93
466.183	1490.34
466.555	1504.13
466.928	1512.26
467.3	1524.69
467.672	1543.67
468.045	1573.5
468.417	1575.31
468.789	1567.85
469.161	1585.93
469.534	1622.77
469.906	1625.71
470.278	1625.25
470.65	1645.59
471.022	1687.17
471.394	1676.55
471.766	1690.34
472.138	1714.74
472.51	1754.52
472.882	1772.82
473.253	1786.61
473.625	1773.27
473.997	1823.44
474.369	1833.84
474.74	1810.79
475.112	1856.89
475.484	1872.25
475.855	1889.65
476.227	1939.37
476.598	1963.55
476.97	1968.75
477.341	1994.96
477.713	2006.49
478.084	2006.94
478.455	2064.79
478.827	2107.5
479.198	2114.51
479.569	2062.76
479.94	2147.05
480.311	2172.81
480.682	2208.74
481.053	2242.19
481.424	2261.85
481.795	2291.45
482.166	2301.62
482.537	2330.32
482.908	2391.56
483.279	2377.1
483.65	2382.97
484.021	2448.74
484.391	2449.19
484.762	2477.89
485.133	2480.15
485.503	2507.72
485.874	2541.16
486.244	2578.45
486.615	2577.55
486.985	2615.06
487.356	2657.77
487.726	2682.85
488.097	2735.73
488.467	2710.2
488.837	2751.78
489.207	2797.65
489.578	2848.95
489.948	2844.88
490.318	2892.11
490.688	2846.46
491.058	2905.22
491.428	2918.1
491.798	2962.17
492.168	3036.29
492.538	3006.91
492.908	3013.47
493.278	3117.19
493.648	3088.27
494.017	3094.82
494.387	3120.81
494.757	3158.77
495.126	3171.88
495.496	3186.79
495.866	3182.05
496.235	3200.13
496.605	3198.77
496.974	3268.6
497.344	3282.84
497.713	3272.89
498.082	3293.68
498.452	3324.42
498.821	3342.27
499.19	3342.72
499.559	3355.38
499.928	3375.49
500.298	3376.85
500.667	3410.52
501.036	3419.56
501.405	3405.32
501.774	3427.47
502.143	3450.52
502.512	3491.19
502.88	3494.36
503.249	3506.79
503.618	3486.22
503.987	3523.06
504.356	3526.67
504.724	3568.25
505.093	3533.45
505.462	3580.23
505.83	3618.2
506.199	3596.28
506.567	3593.34
506.936	3659.1
507.304	3700.23
507.672	3650.06
508.041	3666.33
508.409	3672.21
508.777	3682.37
509.145	3688.48
509.514	3779.55
509.882	3755.82
510.25	3749.04
510.618	3768.7
510.986	3726.67
511.354	3795.14
511.722	3773.67
512.09	3821.35
512.458	3819.32
512.826	3829.49
513.193	3865.87
513.561	3848.47
513.929	3886.89
514.297	3851.86
514.664	3909.26
515.032	3893.67
515.4	3902.93
515.767	3937.96
516.135	3931.41
516.502	3878.98
516.869	3961.46
517.237	3954.01
517.604	3956.49
517.972	3994.91
518.339	4002.37
518.706	4001.91
519.073	4003.95
519.44	3985.19
519.808	4030.84
520.175	4049.6
520.542	4038.75
520.909	4064.51
521.276	4059.54
521.643	4057.73
522.009	4101.8
522.376	4159.65
522.743	4160.33
523.11	4194.45
523.477	4210.27
523.843	4186.09
524.21	4231.74
524.577	4285.75
524.943	4252.3
525.31	4273.09
525.676	4318.97
526.043	4321
526.409	4360.78
526.776	4326.65
527.142	4380.66
527.508	4408.68
527.874	4392.86
528.241	4365.75
528.607	4437.84
528.973	4486.65
529.339	4489.59
529.705	4528
530.071	4588.34
530.437	4544.05
530.803	4558.28
531.169	4619.3
531.535	4640.09
531.901	4612.52
532.267	4665.17
532.632	4658.17
532.998	4679.64
533.364	4728.9
533.73	4671.95
534.095	4709.69
534.461	4773.87
534.826	4778.84
535.192	4836.69
535.557	4830.82
535.923	4838.28
536.288	4856.13
536.653	4906.07
537.019	4872.63
537.384	4895
537.749	4853.64
538.114	4904.49
538.479	4932.29
538.845	4953.75
539.21	4963.47
539.575	4935
539.94	4984.04
540.305	5048.89
540.67	5042.79
541.034	5118.5
541.399	5132.28
541.764	5104.03
542.129	5123.02
542.494	5168.66
542.858	5203.46
543.223	5228.55
543.587	5258.83
543.952	5218.38
544.316	5285.95
544.681	5269.45
545.045	5310.35
545.41	5323.01
545.774	5400.75
546.138	5409.11
546.503	5371.14
546.867	5424.93
547.231	5457.47
547.595	5508.77
547.959	5485.27
548.324	5502.89
548.688	5526.17
549.052	5556.45
549.416	5572.27
549.779	5495.43
550.143	5560.29
550.507	5599.84
550.871	5598.71
551.235	5588.09
551.599	5691.59
551.962	5709.89
552.326	5699.95
552.689	5751.7
553.053	5717.35
553.417	5722.1
553.78	5772.94
554.143	5777.46
554.507	5791.47
554.87	5797.35
555.234	5812.04
555.597	5770.23
555.96	5871.92
556.323	5886.84
556.686	5910.34
557.05	5937.91
557.413	5965.93
557.776	5946.27
558.139	5995.31
558.502	6033.5
558.865	6018.36
559.228	6051.35
559.59	5983.33
559.953	5996.44
560.316	6109.66
560.679	6066.04
561.041	6108.75
561.404	6155.98
561.767	6169.09
562.129	6139.71
562.492	6206.38
562.854	6256.32
563.217	6188.3
563.579	6252.25
563.941	6297.9
564.304	6300.84
564.666	6295.64
565.028	6338.12
565.39	6357.56
565.753	6352.81
566.115	6362.98
566.477	6451.79
566.839	6420.61
567.201	6478.23
567.563	6477.78
567.925	6567.04
568.287	6520.72
568.648	6556.88
569.01	6623.54
569.372	6626.25
569.734	6631
570.095	6691.79
570.457	6743.31
570.819	6679.36
571.18	6755.97
571.542	6831.44
571.903	6847.94
572.265	6885
572.626	6859.69
572.987	6933.81
573.349	6976.98
573.71	7016.3
574.071	7073.92
574.432	7047.94
574.794	7182.4
575.155	7164.32
575.516	7205.67
575.877	7305.78
576.238	7350.98
576.599	7413.35
576.96	7473.46
577.32	7529.73
577.681	7633.46
578.042	7681.37
578.403	7765.43
578.763	7796.17
579.124	7863.96
579.485	8064.18
579.845	8137.4
580.206	8205.87
580.566	8293.1
580.927	8398.64
581.287	8590.04
581.648	8622.58
582.008	8834.33
582.368	8918.85
582.728	8992.74
583.089	9115
583.449	9314.32
583.809	9422.34
584.169	9638.83
584.529	9752.5
584.889	9957.92
585.249	10091.47
585.609	10272.48
585.969	10543.21
586.329	10684.45
586.688	10901.62
587.048	11128.96
587.408	11240.14
587.768	11429.97
588.127	11716.29
588.487	11945.89
588.846	12161.7
589.206	12373.22
589.565	12562.14
589.925	12924.62
590.284	13130.49
590.643	13387.43
591.003	13705.16
591.362	13916.23
591.721	14262.66
592.08	14469.89
592.44	14777.45
592.799	15042.98
593.158	15223.09
593.517	15536.75
593.876	15709.63
594.235	16091.09
594.593	16343.74
594.952	16648.36
595.311	16908.02
595.67	17306.42
596.029	17593.2
596.387	17877.03
596.746	18197.7
597.104	18370.12
597.463	18632.72
597.822	19019.82
598.18	19368.06
598.538	19427.05
598.897	19971.21
599.255	20036.07
599.613	20554.93
599.972	20752.66
600.33	20985.2
600.688	21194.46
601.046	21505.41
601.404	21974.32
601.762	22187.2
602.12	22504.7
602.478	22788.54
602.836	23069.44
603.194	23153.73
603.552	23439.6
603.91	23624.68
604.268	23990.09
604.625	24099.92
604.983	24519.34
605.341	24651.32
605.698	25021.47
606.056	25193.22
606.413	25344.86
606.771	25788.01
607.128	25844.96
607.485	26187.77
607.843	26340.31
608.2	26746.63
608.557	26995.21
608.914	27106.62
609.272	27299.16
609.629	27699.14
609.986	27970.55
610.343	28012.36
610.7	28336.64
611.057	28439.69
611.414	28662.74
611.771	28832.67
612.127	29145.89
612.484	29303.4
612.841	29544.07
613.198	29567.34
613.554	29685.76
613.911	30157.61
614.267	30093.66
614.624	30265.63
614.98	30475.79
615.337	30761.44
615.693	30814.32
616.05	30936.35
616.406	31265.15
616.762	31260.18
617.118	31532.72
617.475	31632.15
617.831	31787.62
618.187	31829.88
618.543	32019.03
618.899	32356.88
619.255	32332.47
619.611	32555.97
619.967	32762.97
620.323	33010.64
620.678	32854.49
621.034	32979.01
621.39	33129.28
621.746	33075.73
622.101	33609.5
622.457	33507.58
622.812	33569.05
623.168	33746.9
623.523	33715.94
623.879	33997.06
624.234	33916.38
624.589	34033.89
624.945	34052.42
625.3	34240.22
625.655	34223.04
626.01	34467.33
626.365	34453.54
626.72	34386.43
627.075	34634.78
627.43	34609.92
627.785	34693.76
628.14	34766.98
628.495	34785.96
628.85	34877.94
629.205	34732.18
629.559	34937.37
629.914	34979.63
630.269	35117.48
630.623	35052.17
630.978	35031.61
631.332	35184.37
631.687	35228.21
632.041	35144.15
632.396	35219.4
632.75	35142.11
633.104	35315.67
633.459	35161.55
633.813	35225.05
634.167	35484.02
634.521	35232.51
634.875	35444.93
635.229	35406.29
635.583	35216.91
635.937	35339.62
636.291	35274.99
636.645	35414.2
636.999	35331.26
637.352	35367.42
637.706	35278.83
638.06	35410.13
638.413	35318.15
638.767	35149.57
639.121	35341.2
639.474	35298.49
639.828	35278.38
640.181	35316.12
640.534	35354.54
640.888	35274.99
641.241	35099.4
641.594	35239.29
641.947	35349.56
642.301	35134.2
642.654	35195.44
643.007	35353.41
643.36	35315.22
643.713	35258.49
644.066	35348.21
644.419	35028.22
644.771	35002.91
645.124	34662.13
645.477	34666.64
645.83	34357.95
646.182	34324.73
646.535	34319.31
646.888	34308.24
647.24	34116.6
647.593	34387.56
647.945	34173.55
648.298	34116.38
648.65	34068.24
649.002	34053.78
649.355	34068.47
649.707	34081.12
650.059	34378.52
650.411	34612.64
650.763	34658.96
651.115	34978.95
651.467	34959.52
651.819	34882.68
652.171	34877.03
652.523	34789.58
652.875	34783.03
653.227	34660.54
653.578	34925.4
653.93	34938.28
654.282	34668.45
654.633	34637.49
654.985	34634.1
655.337	34825.51
655.688	34830.03
656.039	34827.54
656.391	34552.75
656.742	34671.39
657.094	34660.54
657.445	34781.44
657.796	34842.46
658.147	34657.83
658.498	34627.32
658.849	34598.85
659.2	34636.36
659.551	34477.05
659.902	34652.18
660.253	34555.69
660.604	34670.26
660.955	34557.5
661.306	34663.93
661.656	34625.52
662.007	34537.83
662.358	34671.39
662.708	34628
663.059	34519.76
663.409	34492.41
663.76	34579.19
664.11	34555.01
664.461	34570.6
664.811	34615.57
665.161	34585.52
665.511	34404.5
665.862	34676.81
666.212	34646.08
666.562	34551.62
666.912	34491.28
667.262	34345.3
667.612	34578.29
667.962	34594.33
668.312	34526.99
668.662	34624.61
669.011	34501.23
669.361	34562.01
669.711	34391.4
670.06	34501.23
670.41	34324.96
670.76	34505.07
671.109	34523.6
671.459	34493.77
671.808	34359.99
672.157	34499.64
672.507	34230.5
672.856	34310.95
673.205	34275.24
673.554	34299.2
673.904	34256.03
674.253	34403.6
674.602	34276.15
674.951	33794.8
675.3	33689.72
675.649	34174.68
675.998	34234.79
676.346	34300.55
676.695	34253.77
677.044	34037.06
677.393	34167
677.741	34224.4
678.09	34098.98
678.438	33984.63
678.787	34048.36
679.135	33993.67
679.484	33664.86
679.832	33873.22
680.181	33850.85
680.529	34046.1
680.877	33824.63
681.225	33698.31
681.573	33929.04
681.922	33742.15
682.27	33685.65
682.618	33656.95
682.966	33586.9
683.314	33609.5
683.661	33539.89
684.009	33236.63
684.357	33416.73
684.705	33256.51
685.053	33279.11
685.4	33409.95
685.748	33006.35
686.095	33108.72
686.443	33015.16
686.79	33018.55
687.138	33011.1
687.485	33038.21
687.832	32854.04
688.18	32847.94
688.527	32636.42
688.874	32757.99
689.221	32572.01
689.568	32618.34
689.915	32454.5
690.262	32405.69
690.609	32492.69
690.956	32296.09
691.303	32327.95
691.65	32175.64
691.997	32127.05
692.344	31901.29
692.69	31855.65
693.037	31901.29
693.383	31646.16
693.73	31805.93
694.077	31600.51
694.423	31527.07
694.769	31385.15
695.116	31373.85
695.462	31437.58
695.808	31390.57
696.155	31240.52
696.501	31233.06
696.847	31117.36
697.193	30976.12
697.539	31050.47
697.885	30860.87
698.231	30667.43
698.577	30689.8
698.923	30648.45
699.269	30441.67
699.614	30363.26
699.96	30328.45
700.306	30240.32
700.651	30110.38
700.997	30078.74
701.342	30088.91
701.688	30028.12
702.033	29976.6
702.379	30022.02
702.724	29793.1
703.069	29852.08
703.415	29599.43
703.76	29500.91
704.105	29530.96
704.45	29454.58
704.795	29347.69
705.14	29276.28
705.485	29304.53
705.83	29053.01
706.175	29286.67
706.52	29069.73
706.865	29036.51
707.209	28971.43
707.554	28889.4
707.899	28916.74
708.243	28729.63
708.588	28630.19
708.932	28528.28
709.277	28553.13
709.621	28444.21
709.966	28451.89
710.31	28559.01
710.654	28208.96
710.998	28348.39
711.342	28314.27
711.687	28199.02
712.031	27999.25
712.375	27967.39
712.719	28028.18
713.063	27966.93
713.407	27899.59
713.75	27722.42
714.094	27834.28
714.438	27683.33
714.782	27693.72
715.125	27612.14
715.469	27633.38
715.812	27473.39
716.156	27334.86
716.499	27323.56
716.843	27425.71
717.186	27171.7
717.53	27338.7
717.873	27284.47
718.216	27125.6
718.559	27160.18
718.902	26977.36
719.246	27021.87
719.589	26951.59
719.932	26876.12
720.275	26875.89
720.617	26794.76
720.96	26738.49
721.303	26756.34
721.646	26716.57
721.989	26460.76
722.331	26718.38
722.674	26594.09
723.016	26516.8
723.359	26524.94
723.701	26583.24
724.044	26260.54
724.386	26185.51
724.729	26417.14
725.071	26244.27
725.413	26296.7
725.755	26148.22
726.097	26088.57
726.439	26010.15
726.782	26002.92
727.124	26159.75
727.465	25846.76
727.807	25917.27
728.149	25881.11
728.491	25854.22
728.833	25885.41
729.175	25669.59
729.516	25778.74
729.858	25659.2
730.199	25734.68
730.541	25595.92
730.882	25557.05
731.224	25705.3
731.565	25392.09
731.906	25450.84
732.248	25433.89
732.589	25323.84
732.93	25282.71
733.271	25383.95
733.612	25291.07
733.953	25371.75
734.294	25096.73
734.635	25165.88
734.976	25099.44
735.317	25013.11
735.658	25017.18
735.999	24961.14
736.339	25002.72
736.68	25055.82
737.021	24866.9
737.361	24811.99
737.702	24994.81
738.042	24871.65
738.383	24823.51
738.723	24821.25
739.063	24711.88
739.404	24765.21
739.744	24682.27
740.084	24587.59
740.424	24718.66
740.764	24534.48
741.104	24638.89
741.444	24545.1
741.784	24391.66
742.124	24460.13
742.464	24412.45
742.804	24367.93
743.143	24329.06
743.483	24318.22
743.823	24065.12
744.162	24136.75
744.502	24324.77
744.841	24083.19
745.181	24099.92
745.52	24058.11
745.86	24027.83
746.199	23997.77
746.538	23978.11
746.877	23905.12
747.216	24002.07
747.556	23842.75
747.895	23823.31
748.234	23751.9
748.573	23788.29
748.911	23792.13
749.25	23662.87
749.589	23597.56
749.928	23666.71
750.267	23614.28
750.605	23463.55
750.944	23567.28
751.283	23491.57
751.621	23416.77
751.96	23352.14
752.298	23274.63
752.636	23324.57
752.975	23158.02
753.313	23123.45
753.651	23170.68
753.989	23147.63
754.327	23070.57
754.666	22979.27
755.004	22938.14
755.342	22923.45
755.679	22861.31
756.017	22783.57
756.355	22808.2
756.693	22756.68
757.031	22779.73
757.368	22553.97
757.706	22583.8
758.044	22426.06
758.381	22521.65
758.719	22427.42
759.056	22343.35
759.394	22225.16
759.731	22175.45
760.068	22232.4
760.405	22071.72
