Data from hue_40_FLMS001491_94.txt Node
Date: Mon Feb 06 15:08:51 GMT 2017
User: dcchb
Spectrometer: FLMS00149
Trigger mode: 0
Integration Time (sec): 2.000000E-2
Scans to average: 10
Electric dark correction enabled: true
Nonlinearity correction enabled: false
Boxcar width: 0
XAxis mode: Wavelengths
Number of Pixels in Spectrum: 2048
>>>>>Begin Spectral Data<<<<<
341.393	11.19
341.776	11.19
342.16	11.19
342.543	-64.29
342.927	-65.87
343.31	-74.46
343.693	-67
344.077	-72.2
344.46	-65.65
344.843	-63.84
345.226	-45.76
345.61	-24.75
345.993	-35.59
346.376	8.02
346.759	7.34
347.142	22.71
347.525	44.86
347.908	60.9
348.291	85.53
348.674	99.09
349.057	120.79
349.44	114.69
349.823	149.71
350.206	164.18
350.588	208.24
350.971	197.17
351.354	224.97
351.737	237.62
352.119	246.43
352.502	265.42
352.884	288.24
353.267	299.31
353.65	291.4
354.032	304.06
354.414	306.77
354.797	314.23
355.179	309.26
355.562	317.84
355.944	323.49
356.326	348.35
356.709	353.55
357.091	340.44
357.473	358.3
357.855	365.53
358.238	352.19
358.62	339.09
359.002	336.38
359.384	340.44
359.766	352.87
360.148	325.08
360.53	339.09
360.912	338.41
361.294	321.91
361.676	326.43
362.057	340.22
362.439	348.58
362.821	342.93
363.203	342.48
363.584	322.59
363.966	325.75
364.348	320.78
364.729	359.2
365.111	347.67
365.493	347.9
365.874	344.96
366.256	340.67
366.637	318.3
367.019	329.82
367.4	318.07
367.781	312.42
368.163	308.13
368.544	321.46
368.925	324.62
369.306	324.62
369.688	319.65
370.069	312.42
370.45	318.3
370.831	315.13
371.212	310.39
371.593	326.43
371.974	338.86
372.355	311.52
372.736	342.7
373.117	316.04
373.498	321.69
373.879	331.4
374.26	316.71
374.641	331.63
375.021	333.89
375.402	330.73
375.783	340.89
376.163	352.19
376.544	332.31
376.925	335.7
377.305	350.84
377.686	355.13
378.066	330.05
378.447	353.1
378.827	353.1
379.208	341.35
379.588	333.44
379.968	363.49
380.349	372.31
380.729	346.54
381.109	353.1
381.489	350.61
381.87	342.02
382.25	341.35
382.63	314.91
383.01	351.74
383.39	338.41
383.77	354.45
384.15	347.45
384.53	354.68
384.91	388.58
385.29	359.65
385.67	379.76
386.049	345.19
386.429	359.2
386.809	357.17
387.189	366.88
387.568	387
387.948	357.39
388.328	372.53
388.707	376.83
389.087	380.67
389.466	366.66
389.846	371.18
390.225	367.56
390.605	373.44
390.984	375.24
391.363	370.5
391.743	396.26
392.122	401.68
392.501	390.84
392.881	395.13
393.26	382.7
393.639	383.83
394.018	380.44
394.397	402.81
394.776	385.19
395.155	395.13
395.534	409.59
395.913	405.3
396.292	405.75
396.671	394.45
397.05	397.62
397.429	395.81
397.808	396.03
398.186	399.88
398.565	397.84
398.944	426.77
399.323	411.4
399.701	430.61
400.08	417.5
400.458	417.96
400.837	429.48
401.215	424.73
401.594	407.33
401.972	420.67
402.351	407.11
402.729	442.36
403.107	424.51
403.486	433.32
403.864	433.1
404.242	436.94
404.62	430.16
404.999	398.07
405.377	443.49
405.755	424.96
406.133	442.81
406.511	434.45
406.889	438.29
407.267	464.28
407.645	446.88
408.023	450.04
408.401	447.33
408.779	457.73
409.156	479.87
409.534	464.28
409.912	471.29
410.29	473.55
410.667	471.96
411.045	454.11
411.422	490.72
411.8	496.82
412.178	510.61
412.555	477.16
412.933	486.88
413.31	510.61
413.687	527.33
414.065	501.12
414.442	526.2
414.819	504.05
415.197	511.51
415.574	515.58
415.951	515.58
416.328	535.24
416.705	505.64
417.082	536.14
417.46	515.35
417.837	545.41
418.214	537.95
418.591	546.54
418.967	548.8
419.344	545.18
419.721	532.53
420.098	543.83
420.475	557.84
420.852	556.03
421.228	560.55
421.605	549.25
421.982	541.12
422.358	573.88
422.735	569.36
423.111	576.6
423.488	600.32
423.864	584.28
424.241	588.35
424.617	584.73
424.994	581.34
425.37	607.33
425.746	575.92
426.123	608.91
426.499	612.53
426.875	621.57
427.251	618.18
427.627	632.86
428.003	660.89
428.379	640.1
428.756	645.07
429.132	655.91
429.507	660.43
429.883	653.66
430.259	672.64
430.635	655.69
431.011	687.33
431.387	678.29
431.763	685.52
432.138	680.77
432.514	695.69
432.89	709.47
433.265	737.95
433.641	700.66
434.016	724.84
434.392	707.89
434.767	747.89
435.143	751.28
435.518	735.23
435.894	764.39
436.269	763.93
436.644	771.39
437.02	777.04
437.395	793.31
437.77	781.56
438.145	747.66
438.52	785.63
438.895	791.73
439.271	783.14
439.646	806.65
440.021	838.51
440.395	806.19
440.77	813.88
441.145	824.05
441.52	821.11
441.895	856.59
442.27	852.97
442.645	852.75
443.019	855.01
443.394	830.6
443.769	854.1
444.143	856.81
444.518	867.89
444.892	868.79
445.267	862.46
445.641	871.5
446.016	893.87
446.39	917.6
446.764	903.14
447.139	888.45
447.513	899.75
447.887	899.75
448.262	906.98
448.636	928
449.01	903.14
449.384	953.31
449.758	956.47
450.132	952.63
450.506	921.67
450.88	947.43
451.254	942.24
451.628	951.73
452.002	979.97
452.376	1004.38
452.75	996.47
453.123	1009.58
453.497	1008.22
453.871	1012.52
454.244	1055.68
454.618	1039.18
454.992	1042.8
455.365	1046.41
455.739	1074.66
456.112	1081.44
456.486	1101.55
456.859	1121.21
457.232	1126.19
457.606	1160.08
457.979	1132.29
458.352	1162.79
458.725	1166.64
459.099	1191.95
459.472	1182.45
459.845	1207.09
460.218	1214.54
460.591	1216.13
460.964	1205.96
461.337	1240.53
461.71	1254.09
462.083	1292.96
462.456	1288.67
462.829	1288.44
463.201	1294.09
463.574	1316.91
463.947	1327.31
464.32	1359.4
464.692	1376.35
465.065	1384.94
465.438	1415.67
465.81	1448.89
466.183	1452.05
466.555	1470.81
466.928	1494.09
467.3	1506.06
467.672	1509.45
468.045	1546.96
468.417	1546.74
468.789	1549.22
469.161	1598.49
469.534	1631.48
469.906	1665.61
470.278	1682.1
470.65	1694.31
471.022	1729.33
471.394	1795.09
471.766	1788.77
472.138	1836.45
472.51	1866.5
472.882	1897.69
473.253	1928.42
473.625	1965.94
473.997	2005.26
474.369	2023.34
474.74	2032.6
475.112	2089.55
475.484	2139.04
475.855	2181.52
476.227	2271.24
476.598	2269.88
476.97	2331.8
477.341	2388.75
477.713	2433.72
478.084	2472.59
478.455	2556.43
478.827	2570.89
479.198	2676.65
479.569	2680.72
479.94	2809.08
480.311	2843.88
480.682	2961.39
481.053	3016.08
481.424	3085
481.795	3163.87
482.166	3242.51
482.537	3286.35
482.908	3415.84
483.279	3464.2
483.65	3523.18
484.021	3656.74
484.391	3705.33
484.762	3740.81
485.133	3882.27
485.503	3967.47
485.874	4080.68
486.244	4146.67
486.615	4255.37
486.985	4338.76
487.356	4446.78
487.726	4533.78
488.097	4645.87
488.467	4745.75
488.837	4874.56
489.207	4966.31
489.578	5111.62
489.948	5203.59
490.318	5289.01
490.688	5336.7
491.058	5507.09
491.428	5597.48
491.798	5694.43
492.168	5835.44
492.538	5921.99
492.908	6063.46
493.278	6154.53
493.648	6211.93
494.017	6333.05
494.387	6439.27
494.757	6580.28
495.126	6662.54
495.496	6762.87
495.866	6851.01
496.235	6975.97
496.605	7115.63
496.974	7136.2
497.344	7268.17
497.713	7419.8
498.082	7429.07
498.452	7567.82
498.821	7615.28
499.19	7723.98
499.559	7862.28
499.928	7956.29
500.298	8013.69
500.667	8190.18
501.036	8112.67
501.405	8300.46
501.774	8275.83
502.143	8448.48
502.512	8552.2
502.88	8649.38
503.249	8691.86
503.618	8819.32
503.987	8896.6
504.356	9011.18
504.724	9021.12
505.093	9077.84
505.462	9126.43
505.83	9298.85
506.199	9315.12
506.567	9493.65
506.936	9473.99
507.304	9675.11
507.672	9651.16
508.041	9684.6
508.409	9859.29
508.777	9878.95
509.145	10010.25
509.514	10134.76
509.882	10176.34
510.25	10186.96
510.618	10345.15
510.986	10380.63
511.354	10414.98
511.722	10584.69
512.09	10653.39
512.458	10647.29
512.826	10770.68
513.193	10768.64
513.561	10849.09
513.929	11012.03
514.297	11045.25
514.664	11175.64
515.032	11183.77
515.4	11290.44
515.767	11305.8
516.135	11348.97
516.502	11327.5
516.869	11525.69
517.237	11583.31
517.604	11533.14
517.972	11673.03
518.339	11816.75
518.706	11768.62
519.073	11865.11
519.44	12007.25
519.808	12203.18
520.175	12085.9
520.542	12274.59
520.909	12330.86
521.276	12325.66
521.643	12558.2
522.009	12496.96
522.376	12588.71
522.743	12696.5
523.11	12807.91
523.477	12893.56
523.843	13047.91
524.21	13097.4
524.577	13165.42
524.943	13294.45
525.31	13350.95
525.676	13436.14
526.043	13537.84
526.409	13606.76
526.776	13634.56
527.142	13763.37
527.508	13829.58
527.874	13966.98
528.241	14037.94
528.607	14127.88
528.973	14232.73
529.339	14198.38
529.705	14355.67
530.071	14467.76
530.437	14501.88
530.803	14637.02
531.169	14632.5
531.535	14602.44
531.901	14797.24
532.267	14861.42
532.632	14988.87
532.998	14926.05
533.364	15042.43
533.73	15058.7
534.095	15220.28
534.461	15213.72
534.826	15294.63
535.192	15438.35
535.557	15497.56
535.923	15449.42
536.288	15622.53
536.653	15706.82
537.019	15658.01
537.384	15715.86
537.749	15845.57
538.114	15852.8
538.479	15860.26
538.845	15908.17
539.21	15952.46
539.575	16016.64
539.94	16215.51
540.305	16245.79
540.67	16213.92
541.034	16321.94
541.399	16398.1
541.764	16365.56
542.129	16550.19
542.494	16594.48
542.858	16598.55
543.223	16704.08
543.587	16853.46
543.952	16785.43
544.316	16884.41
544.681	16936.62
545.045	16991.98
545.41	17105.43
545.774	17193.79
546.138	17229.94
546.503	17245.54
546.867	17352.65
547.231	17372.54
547.595	17410.73
547.959	17536.38
548.324	17473.1
548.688	17560.56
549.052	17641.01
549.416	17695.01
549.779	17715.13
550.143	17819.31
550.507	17836.25
550.871	17841.23
551.235	17990.37
551.599	18167.32
551.962	18155.34
552.326	18219.75
552.689	18413.19
553.053	18283.93
553.417	18406.86
553.78	18589.45
554.143	18558.5
554.507	18660.41
554.87	18666.06
555.234	18782.22
555.597	18633.07
555.96	18868.09
556.323	18867.64
556.686	18817.92
557.05	18987.86
557.413	19121.42
557.776	19139.95
558.139	19229.21
558.502	19325.93
558.865	19365.03
559.228	19484.12
559.59	19503.1
559.953	19479.83
560.316	19805.02
560.679	19761.4
561.041	19849.76
561.404	19943.54
561.767	20010.43
562.129	20065.35
562.492	20272.57
562.854	20183.31
563.217	20216.08
563.579	20308.96
563.941	20434.83
564.304	20476.41
564.666	20658.1
565.028	20695.61
565.39	20692.68
565.753	20883.86
566.115	20835.27
566.477	21029.39
566.839	20969.96
567.201	21082.5
567.563	21153.91
567.925	21247.92
568.287	21378.99
568.648	21412.21
569.01	21413.56
569.372	21665.76
569.734	21593.22
570.095	21883.38
570.457	21935.81
570.819	21901.68
571.18	21922.02
571.542	22117.27
571.903	22223.03
572.265	22363.37
572.626	22293.99
572.987	22457.38
573.349	22510.03
573.71	22657.82
574.071	22616.02
574.432	22763.81
574.794	22892.39
575.155	22856.91
575.516	22978.72
575.877	23204.02
576.238	23383.45
576.599	23318.14
576.96	23547.29
577.32	23642.66
577.681	23919.26
578.042	23833.84
578.403	24077.9
578.763	24106.82
579.124	24290.77
579.485	24533.93
579.845	24709.52
580.206	24600.82
580.566	24838.78
580.927	24985.9
581.287	25270.63
581.648	25262.27
582.008	25537.07
582.368	25700
582.728	25685.77
583.089	25900
583.449	26125.75
583.809	26296.6
584.169	26466.31
584.529	26608.68
584.889	26975.45
585.249	26957.82
585.609	27149.68
585.969	27471.03
586.329	27535.21
586.688	27856.56
587.048	28029.21
587.408	28133.16
587.768	28376.09
588.127	28535.86
588.487	28707.83
588.846	29096.98
589.206	29115.73
589.565	29336.74
589.925	29638.43
590.284	29724.98
590.643	29998.87
591.003	30360.9
591.362	30618.97
591.721	30777.38
592.08	30863.03
592.44	31332.85
592.799	31460.98
593.158	31500.08
593.517	31799.5
593.876	32013.51
594.235	32220.51
594.593	32405.14
594.952	32512.7
595.311	32649.2
595.67	32898.01
596.029	33275.17
596.387	33420.03
596.746	33690.07
597.104	33676.97
597.463	33764.87
597.822	34137.52
598.18	34155.6
598.538	34411.86
598.897	34805.75
599.255	34596.27
599.613	35172.3
599.972	35088
600.33	35343.14
600.688	35509.01
601.046	35756.23
601.404	35915.78
601.762	35978.15
602.12	36332.27
602.478	36389.21
602.836	36686.83
603.194	36549.43
603.552	36793.95
603.91	36828.07
604.268	37112.58
604.625	37198.46
604.983	37379.47
605.341	37438.22
605.698	37679.57
606.056	37836.86
606.413	37996.18
606.771	38208.15
607.128	38446.11
607.485	38380.35
607.843	38437.75
608.2	38883.84
608.557	39027.34
608.914	38816.49
609.272	39240.21
609.629	39324.28
609.986	39433.43
610.343	39503.03
610.7	39731.95
611.057	39814.89
611.414	39889.91
611.771	39908.89
612.127	40077.25
612.484	40257.59
612.841	40432.04
613.198	40364.02
613.554	40429.56
613.911	40782.77
614.267	40894.63
614.624	40806.05
614.98	40999.26
615.337	41266.82
615.693	41147.05
616.05	41336.2
616.406	41481.28
616.762	41475.18
617.118	41545.01
617.475	41553.37
617.831	41753.59
618.187	41836.53
618.543	41873.36
618.899	42065.9
619.255	42233.13
619.611	42251.43
619.967	42401.48
620.323	42360.36
620.678	42273.13
621.034	42412.78
621.39	42387.47
621.746	42452.33
622.101	42908.36
622.457	42574.81
622.812	42801.25
623.168	42803.28
623.523	42820
623.879	43023.39
624.234	42742.27
624.589	43002.82
624.945	43062.94
625.3	43020.68
625.655	43103.16
626.01	43259.09
626.365	43132.09
626.72	43237.39
627.075	43103.39
627.43	43297.28
627.785	43101.13
628.14	43371.4
628.495	43311.97
628.85	43341.35
629.205	43119.43
629.559	43555.35
629.914	43243.5
630.269	43322.14
630.623	43303.38
630.978	43220.9
631.332	43373.21
631.687	43508.35
632.041	43545.18
632.396	43435.13
632.75	43391.29
633.104	43479.65
633.459	43211.18
633.813	43366.66
634.167	43266.09
634.521	43392.42
634.875	43528.69
635.229	43251.18
635.583	43310.39
635.937	43205.3
636.291	43152.2
636.645	43266.55
636.999	43147.68
637.352	43245.3
637.706	43041.92
638.06	43246.66
638.413	43124.18
638.767	43014.12
639.121	43176.38
639.474	42853
639.828	43009.38
640.181	43035.82
640.534	42985.65
640.888	42679.22
641.241	42784.75
641.594	42843.05
641.947	42883.28
642.301	42746.11
642.654	42885.54
643.007	42925.09
643.36	42880.12
643.713	42680.8
644.066	42818.87
644.419	42545.89
644.771	42330.98
645.124	42084.88
645.477	41971.44
645.83	41763.08
646.182	41543.88
646.535	41422.53
646.888	41571.68
647.24	41224.34
647.593	41469.08
647.945	41429.98
648.298	41272.93
648.65	41178.47
649.002	41182.08
649.355	41264.34
649.707	41215.98
650.059	41343.88
650.411	41969.18
650.763	41892.57
651.115	42329.62
651.467	42287.36
651.819	42219.57
652.171	42171.43
652.523	42029.74
652.875	41979.57
653.227	41973.7
653.578	42080.59
653.93	41952
654.282	41763.76
654.633	41732.12
654.985	41806.02
655.337	41926.69
655.688	42039.91
656.039	42037.65
656.391	41561.51
656.742	41738
657.094	41723.76
657.445	41818.22
657.796	41748.62
658.147	41703.2
658.498	41663.2
658.849	41723.31
659.2	41682.18
659.551	41723.08
659.902	41771.22
660.253	41634.27
660.604	41713.37
660.955	41557.21
661.306	41815.74
661.656	41640.15
662.007	41513.37
662.358	41528.96
662.708	41476.08
663.059	41489.87
663.409	41166.49
663.76	41507.95
664.11	41730.54
664.461	41558.79
664.811	41557.66
665.161	41621.17
665.511	41444.22
665.862	41459.14
666.212	41482.86
666.562	41579.13
666.912	41526.03
667.262	41407.61
667.612	41371.68
667.962	41526.7
668.312	41337.56
668.662	41702.75
669.011	41515.18
669.361	41409.19
669.711	41324.22
670.06	41225.47
670.41	41236.09
670.76	41201.29
671.109	41347.27
671.459	41393.15
671.808	41271.12
672.157	41229.76
672.507	41010.56
672.856	41146.15
673.205	41112.93
673.554	41299.82
673.904	41093.72
674.253	41189.31
674.602	41184.57
674.951	40584.13
675.3	40609.21
675.649	41079.94
675.998	41062.54
676.346	40939.38
676.695	41129.2
677.044	40877
677.393	40972.37
677.741	41040.39
678.09	40789.55
678.438	40788.19
678.787	40807.85
679.135	40900.05
679.484	40594.53
679.832	40844.69
680.181	40403.34
680.529	40724.24
680.877	40584.13
681.225	40440.18
681.573	40672.49
681.922	40348.43
682.27	40383.23
682.618	40298.04
682.966	40062.11
683.314	40241.54
683.661	40060.75
684.009	39992.51
684.357	39996.8
684.705	39864.6
685.053	39943.92
685.4	39977.14
685.748	39591.16
686.095	39585.29
686.443	39555.46
686.79	39473.2
687.138	39602.01
687.485	39620.54
687.832	39300.32
688.18	39435.91
688.527	39211.06
688.874	39186.2
689.221	38991.4
689.568	38943.95
689.915	38977.17
690.262	38973.33
690.609	38822.37
690.956	38566.1
691.303	38716.84
691.65	38504.86
691.997	38447.69
692.344	38319.11
692.69	38278.65
693.037	38335.15
693.383	38064.2
693.73	38157.98
694.077	37958.89
694.423	37971.54
694.769	37780.36
695.116	37618.11
695.462	37613.36
695.808	37550.09
696.155	37678.22
696.501	37270.32
696.847	37434.83
697.193	37065.81
697.539	37210.66
697.885	36913.94
698.231	36811.35
698.577	36794.4
698.923	36691.35
699.269	36638.47
699.614	36400.06
699.96	36300.63
700.306	36264.7
700.651	36019.5
700.997	36142.44
701.342	35980.18
701.688	35976.34
702.033	35852.73
702.379	35704.71
702.724	35710.81
703.069	35749.91
703.415	35264.95
703.76	35413.87
704.105	35336.58
704.45	35242.58
704.795	35083.94
705.14	35003.94
705.485	35088.23
705.83	34756.71
706.175	34857.95
706.52	34783.61
706.865	34612.76
707.209	34701.35
707.554	34476.27
707.899	34579.99
708.243	34343.62
708.588	34270.85
708.932	34067.69
709.277	34021.14
709.621	34213
709.966	33896.4
710.31	34003.51
710.654	33835.83
710.998	33893.01
711.342	33830.18
711.687	33708.38
712.031	33431.78
712.375	33502.06
712.719	33513.81
713.063	33307.03
713.407	33551.32
713.75	33316.3
714.094	33181.16
714.438	33105.46
714.782	33155.17
715.125	33003.99
715.469	33058.9
715.812	32851
716.156	32732.59
716.499	32740.72
716.843	32666.15
717.186	32609.43
717.53	32691.68
717.873	32686.26
718.216	32610.55
718.559	32353.39
718.902	32188.87
719.246	32327.85
719.589	32145.03
719.932	32116.78
720.275	32088.99
720.617	32009.67
720.96	31940.52
721.303	31939.61
721.646	31848.54
721.989	31702.56
722.331	31835.89
722.674	31771.48
723.016	31788.66
723.359	31669.34
723.701	31694.42
724.044	31465.95
724.386	31379.63
724.729	31389.8
725.071	31416.46
725.413	31320.65
725.755	31270.48
726.097	31072.97
726.439	30987.09
726.782	31076.58
727.124	31145.06
727.465	30953.2
727.807	31042.69
728.149	30892.63
728.491	30872.97
728.833	30890.37
729.175	30784.61
729.516	30657.16
729.858	30645.86
730.199	30645.86
730.541	30642.7
730.882	30560.44
731.224	30600.66
731.565	30373.55
731.906	30493.32
732.248	30468.92
732.589	30146.89
732.93	30276.61
733.271	30094.69
733.612	30218.53
733.953	30205.87
734.294	30164.29
734.635	30011.75
734.976	30061.7
735.317	29870.06
735.658	30008.59
735.999	29950.74
736.339	29776.51
736.68	29862.38
737.021	29846.33
737.361	29583.06
737.702	29738.99
738.042	29649.95
738.383	29585.78
738.723	29693.8
739.063	29543.97
739.404	29481.15
739.744	29502.84
740.084	29477.08
740.424	29418.77
740.764	29283.41
741.104	29364.09
741.444	29221.27
741.784	29189.85
742.124	29142.17
742.464	29126.13
742.804	29117.99
743.143	29009.52
743.483	28950.54
743.823	28788.06
744.162	28848.39
744.502	28914.61
744.841	28815.63
745.181	28848.62
745.52	28744.44
745.86	28738.79
746.199	28724.78
746.538	28638.23
746.877	28748.51
747.216	28609.76
747.556	28561.62
747.895	28673.26
748.234	28548.29
748.573	28404.79
748.911	28276.43
749.25	28388.52
749.589	28084.8
749.928	28107.17
750.267	28124.57
750.605	27984.24
750.944	28050.67
751.283	28053.61
751.621	28016.33
751.96	27918.7
752.298	27790.57
752.636	27842.77
752.975	27804.35
753.313	27583.57
753.651	27707.86
753.989	27617.47
754.327	27560.74
754.666	27467.19
755.004	27432.39
755.342	27487.07
755.679	27498.15
756.017	27315.1
756.355	27276.68
756.693	27174.77
757.031	27297.02
