Data from hue_150_FLMS001491_00040.txt Node
Date: Tue Feb 07 16:53:58 GMT 2017
User: dcchb
Spectrometer: FLMS00149
Trigger mode: 0
Integration Time (sec): 2.000000E-2
Scans to average: 10
Electric dark correction enabled: true
Nonlinearity correction enabled: false
Boxcar width: 0
XAxis mode: Wavelengths
Number of Pixels in Spectrum: 2048
>>>>>Begin Spectral Data<<<<<
341.393	-19.56
341.776	-19.56
342.16	-19.56
342.543	-41.71
342.927	-62.05
343.31	-65.21
343.693	-66.57
344.077	-87.13
344.46	-52.78
344.843	-47.58
345.226	-43.97
345.61	-26.12
345.993	-30.86
346.376	-8.71
346.759	-1.48
347.142	28.57
347.525	35.8
347.908	49.36
348.291	97.05
348.674	105.86
349.057	113.77
349.44	124.84
349.823	144.95
350.206	157.83
350.588	180.21
350.971	198.51
351.354	228.79
351.737	237.15
352.119	229.7
352.502	269.24
352.884	261.56
353.267	284.84
353.65	274.22
354.032	297.94
354.414	299.3
354.797	337.72
355.179	329.36
355.562	319.41
355.944	321.22
356.326	345.17
356.709	345.17
357.091	335.01
357.473	335.68
357.855	338.85
358.238	355.12
358.62	358.73
359.002	346.98
359.384	335.68
359.766	319.64
360.148	341.33
360.53	357.15
360.912	326.64
361.294	339.07
361.676	351.73
362.057	356.25
362.439	341.11
362.821	330.94
363.203	315.34
363.584	313.54
363.966	338.85
364.348	328.9
364.729	328.68
365.111	309.7
365.493	320.77
365.874	335.91
366.256	300.2
366.637	319.86
367.019	317.38
367.4	303.82
367.781	311.96
368.163	321.67
368.544	321.67
368.925	344.72
369.306	310.83
369.688	310.15
370.069	316.93
370.45	315.34
370.831	304.5
371.212	325.97
371.593	343.82
371.974	325.51
372.355	335.23
372.736	321.45
373.117	314.89
373.498	335.23
373.879	328.68
374.26	318.28
374.641	322.35
375.021	319.64
375.402	299.75
375.783	328.68
376.163	331.16
376.544	337.49
376.925	341.11
377.305	330.71
377.686	331.39
378.066	333.42
378.447	345.17
378.827	334.1
379.208	335.23
379.588	340.43
379.968	343.59
380.349	332.52
380.729	328.9
381.109	338.85
381.489	344.72
381.87	343.14
382.25	355.8
382.63	356.93
383.01	341.11
383.39	345.85
383.77	349.47
384.15	353.99
384.53	344.72
384.91	346.98
385.29	344.27
385.67	365.29
386.049	354.67
386.429	356.25
386.809	362.12
387.189	360.32
387.568	369.35
387.948	342.46
388.328	357.15
388.707	374.33
389.087	372.74
389.466	364.61
389.846	386.08
390.225	364.61
390.605	384.95
390.984	371.61
391.363	371.84
391.743	387.43
392.122	371.39
392.501	390.82
392.881	394.89
393.26	384.95
393.639	361.45
394.018	386.3
394.397	377.04
394.776	393.99
395.155	381.11
395.534	383.14
395.913	398.73
396.292	390.37
396.671	368.9
397.05	391.05
397.429	389.69
397.808	401.22
398.186	409.13
398.565	372.97
398.944	402.8
399.323	401.9
399.701	400.09
400.08	384.04
400.458	403.03
400.837	386.08
401.215	395.34
401.594	397.83
401.972	437.15
402.351	430.82
402.729	419.75
403.107	428.11
403.486	414.78
403.864	422.46
404.242	415.23
404.62	429.24
404.999	440.09
405.377	440.77
405.755	430.6
406.133	434.66
406.511	438.05
406.889	452.52
407.267	455.45
407.645	451.61
408.023	422.69
408.401	447.32
408.779	453.65
409.156	465.62
409.534	459.3
409.912	465.4
410.29	480.09
410.667	470.37
411.045	465.85
411.422	485.96
411.8	461.78
412.178	488.67
412.555	493.42
412.933	508.11
413.31	496.36
413.687	491.61
414.065	509.46
414.442	506.3
414.819	521.22
415.197	511.05
415.574	520.76
415.951	504.94
416.328	514.44
416.705	523.02
417.082	536.36
417.46	514.44
417.837	538.62
418.214	529.8
418.591	532.06
418.967	541.78
419.344	545.17
419.721	557.37
420.098	553.3
420.475	551.72
420.852	560.31
421.228	542.23
421.605	577.26
421.982	575.9
422.358	582.68
422.735	579.07
423.111	591.95
423.488	586.98
423.864	602.12
424.241	579.97
424.617	620.42
424.994	592.17
425.37	607.31
425.746	604.83
426.123	619.97
426.499	615.45
426.875	594.89
427.251	622.46
427.627	637.37
428.003	668.1
428.379	638.5
428.756	648.44
429.132	676.92
429.507	646.18
429.883	658.39
430.259	668.78
430.635	685.5
431.011	691.61
431.387	691.38
431.763	697.71
432.138	697.93
432.514	712.62
432.89	714.66
433.265	719.63
433.641	723.02
434.016	742.45
434.392	750.14
434.767	758.05
435.143	733.64
435.518	744.26
435.894	755.56
436.269	743.13
436.644	762.79
437.02	765.5
437.395	783.13
437.77	817.7
438.145	804.6
438.52	825.39
438.895	822.22
439.271	809.34
439.646	830.81
440.021	827.2
440.395	841.21
440.77	840.3
441.145	833.75
441.52	860.19
441.895	857.48
442.27	866.29
442.645	868.1
443.019	906.97
443.394	885.73
443.769	896.8
444.143	921.88
444.518	913.07
444.892	915.78
445.267	905.84
445.641	902.45
446.016	936.35
446.39	952.16
446.764	938.15
447.139	953.29
447.513	941.77
447.887	952.84
448.262	956.01
448.636	964.37
449.01	977.7
449.384	975.21
449.758	989.9
450.132	1019.28
450.506	993.07
450.88	1004.14
451.254	993.29
451.628	1029.22
452.002	1048.43
452.376	1034.65
452.75	1032.16
453.123	1083.91
453.497	1042.56
453.871	1096.34
454.244	1099.5
454.618	1098.6
454.992	1125.49
455.365	1132.5
455.739	1164.81
456.112	1157.81
456.486	1181.99
456.859	1188.77
457.232	1200.07
457.606	1236.9
457.979	1217.02
458.352	1220.41
458.725	1256.79
459.099	1236.9
459.472	1278.48
459.845	1261.53
460.218	1314.41
460.591	1319.16
460.964	1328.65
461.337	1356.67
461.71	1378.82
462.083	1400.74
462.456	1404.13
462.829	1412.04
463.201	1441.19
463.574	1435.99
463.947	1455.65
464.32	1481.42
464.692	1514.41
465.065	1518.25
465.438	1547.4
465.81	1582.66
466.183	1584.46
466.555	1642.54
466.928	1630.79
467.3	1642.09
467.672	1692.94
468.045	1728.19
468.417	1777.45
468.789	1784.01
469.161	1784.23
469.534	1812.25
469.906	1867.62
470.278	1883.67
470.65	1928.18
471.022	1951.91
471.394	1974.96
471.766	2015.19
472.138	2057.22
472.51	2085.92
472.882	2146.26
473.253	2184.67
473.625	2235.97
473.997	2293.82
474.369	2331.56
474.74	2374.95
475.112	2409.3
475.484	2492.91
475.855	2525
476.227	2568.84
476.598	2659.69
476.97	2720.25
477.341	2781.95
477.713	2846.58
478.084	2899.91
478.455	2995.73
478.827	3067.81
479.198	3205.21
479.569	3221.26
479.94	3261.71
480.311	3368.6
480.682	3453.34
481.053	3586.9
481.424	3688.14
481.795	3773.11
482.166	3858.75
482.537	3953.89
482.908	4054
483.279	4193.21
483.65	4289.7
484.021	4368.35
484.391	4476.82
484.762	4581.67
485.133	4667.09
485.503	4741.9
485.874	4933.08
486.244	5011.72
486.615	5186.4
486.985	5249.45
487.356	5366.51
487.726	5538.48
488.097	5675.88
488.467	5783.22
488.837	5914.75
489.207	6115.87
489.578	6248.97
489.948	6348.18
490.318	6488.29
490.688	6574.39
491.058	6765.34
491.428	6876.75
491.798	7020.03
492.168	7172.57
492.538	7296.86
492.908	7447.13
493.278	7625.66
493.648	7704.08
494.017	7870.4
494.387	8001.02
494.757	8114.46
495.126	8217.28
495.496	8377.73
495.866	8420.67
496.235	8627.89
496.605	8758.29
496.974	8864.72
497.344	8992.18
497.713	9076.7
498.082	9147.43
498.452	9272.17
498.821	9405.5
499.19	9515.33
499.559	9645.72
499.928	9726.4
500.298	9779.73
500.667	9949.89
501.036	9968.65
501.405	10140.62
501.774	10183.79
502.143	10278.47
502.512	10351.69
502.88	10516.88
503.249	10557.34
503.618	10673.04
503.987	10679.37
504.356	10791.45
504.724	10939.47
505.093	10916.2
505.462	11028.06
505.83	11060.82
506.199	11223.53
506.567	11407.03
506.936	11353.7
507.304	11530.64
507.672	11459.46
508.041	11580.81
508.409	11634.14
508.777	11793.24
509.145	11787.81
509.514	11844.53
509.882	11956.17
510.25	11983.29
510.618	12050.4
510.986	12103.74
511.354	12218.99
511.722	12233.9
512.09	12315.93
512.458	12354.12
512.826	12421.69
513.193	12511.41
513.561	12555.93
513.929	12590.28
514.297	12558.41
514.664	12686.09
515.032	12734.23
515.4	12847.9
515.767	12756.83
516.135	12884.96
516.502	12774.9
516.869	12943.71
517.237	13062.81
517.604	12957.27
517.972	13021.9
518.339	13160.66
518.706	13167.44
519.073	13093.77
519.44	13212.63
519.808	13345.74
520.175	13228
520.542	13418.96
520.909	13362.69
521.276	13387.54
521.643	13535.34
522.009	13468.22
522.376	13545.51
522.743	13562.23
523.11	13649.23
523.477	13691.26
523.843	13789.79
524.21	13817.36
524.577	13882.9
524.943	13851.26
525.31	13849.9
525.676	14031.14
526.043	14012.39
526.409	13980.52
526.776	14129.44
527.142	14024.59
527.508	14082.44
527.874	14108.43
528.241	14141.65
528.607	14122.89
528.973	14260.29
529.339	14194.53
529.705	14223.23
530.071	14287.41
530.437	14278.37
530.803	14290.57
531.169	14296.9
531.535	14223.68
531.901	14235.88
532.267	14191.82
532.632	14315.65
532.998	14161.53
533.364	14294.41
533.73	14190.91
534.095	14246.28
534.461	14250.57
534.826	14225.04
535.192	14307.97
535.557	14270.68
535.923	14229.56
536.288	14135.32
536.653	14190.69
537.019	14151.59
537.384	14138.03
537.749	14190.01
538.114	14162.89
538.479	14024.81
538.845	14112.72
539.21	14035.44
539.575	14011.48
539.94	14020.52
540.305	13951.14
540.67	13882.9
541.034	13872.95
541.399	13950.47
541.764	13841.54
542.129	13844.48
542.494	13881.77
542.858	13771.26
543.223	13800.19
543.587	13773.97
543.952	13729
544.316	13676.58
544.681	13648.55
545.045	13543.47
545.41	13641.32
545.774	13607.65
546.138	13526.07
546.503	13479.74
546.867	13492.17
547.231	13557.26
547.595	13435.45
547.959	13435.23
548.324	13336.47
548.688	13357.26
549.052	13314.33
549.416	13319.3
549.779	13248.34
550.143	13249.92
550.507	13187.55
550.871	13234.78
551.235	13075.91
551.599	13138.06
551.962	13168.79
552.326	13179.19
552.689	13157.49
553.053	13020.1
553.417	13020.77
553.78	13136.25
554.143	13024.16
554.507	13003.37
554.87	13006.54
555.234	13068.68
555.597	12963.37
555.96	12955.24
556.323	13019.19
556.686	12850.83
557.05	12878.18
557.413	12881.57
557.776	12886.54
558.139	12979.42
558.502	12829.82
558.865	12914.56
559.228	12898.74
559.59	12902.13
559.953	12861.23
560.316	12925.18
560.679	12865.75
561.041	12960.21
561.404	12962.24
561.767	13035.69
562.129	12985.97
562.492	12948.23
562.854	13022.58
563.217	12897.61
563.579	12961.79
563.941	13053.54
564.304	13002.92
564.666	13062.35
565.028	13032.75
565.39	13066.2
565.753	13108
566.115	13078.63
566.477	13039.08
566.839	13111.17
567.201	13220.77
567.563	13132.86
567.925	13146.87
568.287	13120.43
568.648	13163.37
569.01	13245.4
569.372	13237.26
569.734	13143.71
570.095	13228.23
570.457	13300.54
570.819	13316.81
571.18	13228.9
571.542	13304.61
571.903	13267.77
572.265	13336.25
572.626	13367.66
572.987	13295.57
573.349	13326.3
573.71	13241.33
574.071	13369.92
574.432	13385.51
574.794	13553.64
575.155	13431.84
575.516	13408.79
575.877	13337.6
576.238	13423.02
576.599	13467.09
576.96	13426.19
577.32	13470.25
577.681	13466.19
578.042	13479.52
578.403	13459.63
578.763	13433.42
579.124	13439.97
579.485	13493.08
579.845	13542.12
580.206	13376.7
580.566	13414.21
580.927	13492.85
581.287	13503.47
581.648	13541.66
582.008	13540.31
582.368	13477.26
582.728	13497.15
583.089	13437.49
583.449	13484.26
583.809	13451.04
584.169	13450.82
584.529	13419.41
584.889	13480.87
585.249	13429.58
585.609	13385.06
585.969	13443.81
586.329	13390.71
586.688	13405.17
587.048	13366.3
587.408	13339.41
587.768	13366.75
588.127	13306.42
588.487	13307.09
588.846	13321.78
589.206	13324.72
589.565	13371.5
589.925	13281.56
590.284	13312.29
590.643	13264.16
591.003	13261.45
591.362	13389.8
591.721	13293.31
592.08	13340.99
592.44	13254.67
592.799	13395.9
593.158	13298.28
593.517	13237.26
593.876	13246.3
594.235	13281.56
594.593	13356.81
594.952	13270.48
595.311	13205.85
595.67	13262.12
596.029	13310.26
596.387	13298.51
596.746	13225.29
597.104	13267.32
597.463	13137.15
597.822	13292.86
598.18	13212.63
598.538	13208.11
598.897	13228.45
599.255	13060.32
599.613	13328.34
599.972	13258.51
600.33	13232.75
600.688	13164.95
601.046	13248.79
601.404	13241.56
601.762	13191.16
602.12	13242.24
602.478	13273.2
602.836	13294.44
603.194	13201.79
603.552	13153.88
603.91	13146.87
604.268	13184.38
604.625	13185.97
604.983	13242.24
605.341	13193.42
605.698	13282.24
606.056	13206.08
606.413	13277.04
606.771	13251.5
607.128	13239.98
607.485	13272.52
607.843	13238.39
608.2	13291.73
608.557	13377.6
608.914	13279.98
609.272	13315.23
609.629	13380.99
609.986	13404.27
610.343	13303.25
610.7	13393.42
611.057	13431.84
611.414	13355.68
611.771	13291.27
612.127	13486.52
612.484	13322.23
612.841	13446.52
613.198	13441.55
613.554	13431.16
613.911	13501.21
614.267	13429.35
614.624	13424.38
614.98	13454.21
615.337	13478.61
615.693	13528.78
616.05	13500.53
616.406	13641.55
616.762	13521.55
617.118	13508.9
617.475	13584.15
617.831	13639.97
618.187	13552.96
618.543	13550.25
618.899	13599.74
619.255	13619.18
619.611	13566.75
619.967	13577.14
620.323	13648.1
620.678	13599.06
621.034	13592.28
621.39	13630.47
621.746	13561.32
622.101	13677.93
622.457	13589.8
622.812	13622.79
623.168	13707.76
623.523	13571.27
623.879	13678.61
624.234	13590.48
624.589	13623.7
624.945	13678.61
625.3	13620.98
625.655	13658.5
626.01	13675.45
626.365	13559.06
626.72	13660.3
627.075	13606.29
627.43	13533.53
627.785	13590.7
628.14	13637.25
628.495	13637.93
628.85	13567.88
629.205	13582.11
629.559	13595.9
629.914	13498.73
630.269	13503.92
630.623	13500.76
630.978	13512.06
631.332	13554.09
631.687	13551.15
632.041	13533.53
632.396	13508.9
632.75	13479.07
633.104	13448.11
633.459	13437.49
633.813	13354.78
634.167	13368.33
634.521	13451.04
634.875	13411.27
635.229	13352.74
635.583	13300.99
635.937	13328.79
636.291	13324.95
636.645	13314.78
636.999	13230.94
637.352	13244.04
637.706	13224.61
638.06	13310.48
638.413	13169.7
638.767	13264.61
639.121	13238.62
639.474	13119.08
639.828	13166.98
640.181	13141
640.534	13260.99
640.888	13082.69
641.241	13090.83
641.594	13085.4
641.947	13113.65
642.301	13001.79
642.654	13007.21
643.007	13111.39
643.36	13098.96
643.713	13047.21
644.066	13045.41
644.419	13043.6
644.771	12947.78
645.124	12849.48
645.477	12923.37
645.83	12695.36
646.182	12719.99
646.535	12651.29
646.888	12698.07
647.24	12571.97
647.593	12633.89
647.945	12517.74
648.298	12547.57
648.65	12569.49
649.002	12590.5
649.355	12586.21
649.707	12583.5
650.059	12581.91
650.411	12772.19
650.763	12820.55
651.115	12948.46
651.467	12862.81
651.819	12950.27
652.171	12851.06
652.523	12918.18
652.875	12856.94
653.227	12813.77
653.578	12869.14
653.93	12882.7
654.282	12810.61
654.633	12831.4
654.985	12801.34
655.337	12818.07
655.688	12797.5
656.039	12828.24
656.391	12790.95
656.742	12757.28
657.094	12769.25
657.445	12933.09
657.796	12918.63
658.147	12785.98
658.498	12862.36
658.849	12847.67
659.2	12850.16
659.551	12813.32
659.902	12969.02
660.253	12839.31
660.604	12905.3
660.955	12821.23
661.306	12785.07
661.656	12886.54
662.007	12853.09
662.358	12923.37
662.708	12897.84
663.059	12875.47
663.409	12849.03
663.76	12921.57
664.11	12903.71
664.461	12883.38
664.811	12914.79
665.161	12862.81
665.511	12841.34
665.862	12863.49
666.212	12874.11
666.562	12905.52
666.912	12823.26
667.262	12861.91
667.612	12895.35
667.962	12978.29
668.312	12889.93
668.662	12866.2
669.011	12865.3
669.361	12806.77
669.711	12851.96
670.06	12854.9
670.41	12816.49
670.76	12854.68
671.109	12818.07
671.459	12807.22
671.808	12813.55
672.157	12863.94
672.507	12759.09
672.856	12781.01
673.205	12709.82
673.554	12763.83
673.904	12696.26
674.253	12835.47
674.602	12867.56
674.951	12595.02
675.3	12445.65
675.649	12709.82
675.998	12702.59
676.346	12641.8
676.695	12669.14
677.044	12609.94
677.393	12614.23
677.741	12663.72
678.09	12595.7
678.438	12569.71
678.787	12616.94
679.135	12610.16
679.484	12491.52
679.832	12578.07
680.181	12545.98
680.529	12551.18
680.877	12524.06
681.225	12471.41
681.573	12447
681.922	12415.59
682.27	12407.68
682.618	12421.47
682.966	12352.99
683.314	12310.28
683.661	12383.5
684.009	12255.14
684.357	12247.46
684.705	12207.69
685.053	12210.4
685.4	12224.86
685.748	12169.5
686.095	12129.72
686.443	12071.42
686.79	12082.49
687.138	12122.27
687.485	12114.58
687.832	12050.4
688.18	12069.39
688.527	11984.19
688.874	11969.05
689.221	11940.35
689.568	11890.86
689.915	11817.64
690.262	11838.21
690.609	11713.01
690.956	11723.41
691.303	11654.03
691.65	11637.98
691.997	11682.96
692.344	11593.47
692.69	11597.53
693.037	11491.77
693.383	11396.18
693.73	11506.46
694.077	11386.69
694.423	11388.95
694.769	11293.14
695.116	11277.32
695.462	11245
695.808	11245.45
696.155	11272.34
696.501	11206.58
696.847	11141.27
697.193	11100.15
697.539	11099.47
697.885	11042.97
698.231	11007.95
698.577	10955.07
698.923	10889.53
699.269	10948.51
699.614	10781.06
699.96	10785.35
700.306	10753.04
700.651	10668.74
700.997	10729.08
701.342	10633.72
701.688	10625.58
702.033	10561.18
702.379	10503.78
702.724	10527.73
703.069	10530.67
703.415	10471.91
703.76	10420.62
704.105	10352.37
704.45	10346.72
704.795	10286.83
705.14	10352.37
705.485	10248.19
705.83	10220.4
706.175	10209.32
706.52	10179.94
706.865	10115.77
707.209	10082.55
707.554	10010.91
707.899	10126.61
708.243	10076.44
708.588	10004.13
708.932	9972.27
709.277	9859.95
709.621	9892.04
709.966	9848.65
710.31	9887.97
710.654	9752.84
710.998	9793.06
711.342	9768.43
711.687	9730.69
712.031	9730.46
712.375	9709.22
712.719	9614.31
713.063	9645.95
713.407	9707.87
713.75	9640.75
714.094	9636
714.438	9633.52
714.782	9535.89
715.125	9535.22
715.469	9555.55
715.812	9560.3
716.156	9457.03
716.499	9423.35
716.843	9468.78
717.186	9447.08
717.53	9515.55
717.873	9459.74
718.216	9415.9
718.559	9362.11
718.902	9354.66
719.246	9386.07
719.589	9309.01
719.932	9340.87
720.275	9319.85
720.617	9294.32
720.96	9278.05
721.303	9285.96
721.646	9301.1
721.989	9245.28
722.331	9252.28
722.674	9207.09
723.016	9267.43
723.359	9221.1
723.701	9230.59
724.044	9081.22
724.386	9111.05
724.729	9197.6
725.071	9150.59
725.413	9180.42
725.755	9161.89
726.097	9110.59
726.439	9072.18
726.782	9120.76
727.124	9113.31
727.465	9047.32
727.807	9025.17
728.149	9024.27
728.491	9029.01
728.833	9044.83
729.175	9087.32
729.516	8993.99
729.858	9026.08
730.199	9064.72
730.541	9085.96
730.882	8951.73
731.224	9007.32
731.565	8954.44
731.906	8968.68
732.248	9052.52
732.589	8929.36
732.93	8993.08
733.271	8937.72
733.612	8969.58
733.953	9016.58
734.294	8963.48
734.635	8988.34
734.976	8941.33
735.317	8882.35
735.658	8877.61
735.999	8972.74
736.339	8924.84
736.68	8981.33
737.021	8941.11
737.361	8993.99
737.702	9003.7
738.042	8966.42
738.383	8982.24
738.723	9002.35
739.063	9049.8
739.404	9040.99
739.744	8996.47
740.084	8989.02
740.424	9030.82
740.764	9001.44
741.104	9130.71
741.444	9052.52
741.784	9010.03
742.124	9052.74
742.464	9052.74
742.804	9170.71
743.143	9171.84
743.483	9196.92
743.823	9118.5
744.162	9204.15
744.502	9255.9
744.841	9152.85
745.181	9311.27
745.52	9292.06
745.86	9295.22
746.199	9393.3
746.538	9427.87
746.877	9451.6
747.216	9458.83
747.556	9562.56
747.895	9596
748.234	9636
748.573	9661.54
748.911	9687.08
749.25	9735.44
749.589	9788.99
749.928	9953.51
750.267	9906.05
750.605	10009.55
750.944	10112.38
751.283	10112.15
751.621	10231.47
751.96	10283.44
752.298	10345.59
752.636	10477.11
752.975	10549.43
753.313	10598.24
753.651	10713.72
753.989	10745.81
754.327	10888.4
754.666	10969.75
755.004	11131.56
755.342	11233.48
755.679	11344.89
756.017	11435.28
756.355	11647.93
756.693	11679.79
757.031	11871.88
757.368	11971.99
757.706	12178.54
758.044	12235.71
758.381	12457.4
758.719	12598.64
