Data from hue_240_FLMS001491_00082.txt Node
Date: Tue Feb 07 16:36:03 GMT 2017
User: dcchb
Spectrometer: FLMS00149
Trigger mode: 0
Integration Time (sec): 2.000000E-2
Scans to average: 10
Electric dark correction enabled: true
Nonlinearity correction enabled: false
Boxcar width: 0
XAxis mode: Wavelengths
Number of Pixels in Spectrum: 2048
>>>>>Begin Spectral Data<<<<<
341.393	-4.83
341.776	-4.83
342.16	-4.83
342.543	-69.24
342.927	-68.11
343.31	-71.72
343.693	-67.88
344.077	-61.55
344.46	-75.79
344.843	-49.12
345.226	-51.61
345.61	-23.13
345.993	-4.6
346.376	-10.48
346.759	16.86
347.142	28.16
347.525	47.37
347.908	50.76
348.291	75.85
348.674	86.92
349.057	109.97
349.44	117.2
349.823	134.6
350.206	166.24
350.588	197.65
350.971	204.88
351.354	204.66
351.737	226.8
352.119	272
352.502	255.05
352.884	264.77
353.267	266.35
353.65	302.73
354.032	286.24
354.414	295.27
354.797	288.72
355.179	303.86
355.562	310.64
355.944	309.96
356.326	329.85
356.709	306.57
357.091	316.52
357.473	332.56
357.855	316.52
358.238	339.57
358.62	319.23
359.002	331.66
359.384	331.43
359.766	311.77
360.148	327.82
360.53	339.12
360.912	315.16
361.294	337.53
361.676	328.27
362.057	319.68
362.439	310.64
362.821	316.29
363.203	313.13
363.584	326.69
363.966	322.17
364.348	300.02
364.729	304.77
365.111	303.18
365.493	309.74
365.874	301.38
366.256	310.42
366.637	323.52
367.019	298.89
367.4	308.83
367.781	293.24
368.163	313.35
368.544	313.81
368.925	283.75
369.306	294.82
369.688	301.15
370.069	287.82
370.45	304.09
370.831	295.73
371.212	294.82
371.593	298.44
371.974	296.18
372.355	310.87
372.736	302.28
373.117	304.31
373.498	323.52
373.879	307.03
374.26	302.51
374.641	302.28
375.021	295.73
375.402	295.73
375.783	330.53
376.163	312.22
376.544	329.4
376.925	321.71
377.305	309.96
377.686	326.69
378.066	327.14
378.447	308.16
378.827	326.46
379.208	319.91
379.588	319.68
379.968	317.42
380.349	344.76
380.729	347.25
381.109	311.55
381.489	314.03
381.87	347.02
382.25	326.91
382.63	318.1
383.01	324.43
383.39	341.15
383.77	330.75
384.15	350.41
384.53	339.57
384.91	321.49
385.29	360.36
385.67	332.11
386.049	333.47
386.429	323.97
386.809	341.15
387.189	336.4
387.568	343.41
387.948	355.39
388.328	351.54
388.707	339.79
389.087	335.27
389.466	328.04
389.846	342.96
390.225	367.14
390.605	348.83
390.984	347.02
391.363	374.59
391.743	342.28
392.122	365.1
392.501	354.93
392.881	373.92
393.26	372.56
393.639	369.62
394.018	367.59
394.397	357.65
394.776	356.74
395.155	373.24
395.534	372.11
395.913	373.24
396.292	382.96
396.671	370.3
397.05	375.05
397.429	379.34
397.808	394.93
398.186	393.13
398.565	377.53
398.944	392.67
399.323	396.74
399.701	397.87
400.08	370.75
400.458	386.8
400.837	409.17
401.215	412.56
401.594	408.72
401.972	404.65
402.351	406.68
402.729	423.86
403.107	396.97
403.486	392
403.864	425.21
404.242	434.93
404.62	412.33
404.999	430.19
405.377	424.31
405.755	432.45
406.133	450.75
406.511	435.61
406.889	417.53
407.267	457.3
407.645	441.49
408.023	465.89
408.401	447.14
408.779	459.11
409.156	480.81
409.534	467.02
409.912	466.12
410.29	488.49
410.667	486.68
411.045	482.84
411.422	493.46
411.8	512.67
412.178	504.76
412.555	511.99
412.933	510.64
413.31	520.58
413.687	507.7
414.065	530.3
414.442	510.86
414.819	532.33
415.197	554.02
415.574	575.04
415.951	563.06
416.328	557.64
416.705	584.98
417.082	566.23
417.46	566.68
417.837	578.43
418.214	580.46
418.591	596.96
418.967	619.33
419.344	609.16
419.721	627.24
420.098	630.18
420.475	646.9
420.852	625.44
421.228	627.47
421.605	669.28
421.982	664.98
422.358	677.64
422.735	690.74
423.111	709.73
423.488	688.48
423.864	717.18
424.241	724.42
424.617	713.57
424.994	710.86
425.37	717.64
425.746	733.91
426.123	767.13
426.499	763.06
426.875	755.15
427.251	764.87
427.627	787.47
428.003	809.84
428.379	816.62
428.756	796.96
429.132	825.66
429.507	842.83
429.883	837.63
430.259	828.14
430.635	837.86
431.011	867.46
431.387	889.38
431.763	869.04
432.138	904.98
432.514	932.09
432.89	921.7
433.265	941.36
433.641	953.11
434.016	958.53
434.392	971.87
434.767	983.62
435.143	1003.73
435.518	1034.46
435.894	1045.31
436.269	1038.53
436.644	1057.29
437.02	1100.45
437.395	1067.01
437.77	1084.18
438.145	1131.64
438.52	1111.07
438.895	1112.2
439.271	1142.48
439.646	1182.93
440.021	1162.82
440.395	1223.39
440.77	1202.82
441.145	1200.56
441.52	1223.61
441.895	1219.09
442.27	1249.83
442.645	1246.66
443.019	1261.58
443.394	1286.21
443.769	1299.99
444.143	1290.05
444.518	1306.55
444.892	1284.18
445.267	1327.79
445.641	1349.94
446.016	1345.19
446.39	1362.14
446.764	1338.41
447.139	1358.52
447.513	1396.04
447.887	1350.39
448.262	1380.67
448.636	1422.25
449.01	1410.95
449.384	1432.87
449.758	1427.9
450.132	1472.42
450.506	1453.44
450.88	1479.2
451.254	1504.51
451.628	1492.98
452.002	1499.54
452.376	1538.41
452.75	1534.34
453.123	1549.25
453.497	1577.5
453.871	1593.09
454.244	1586.77
454.618	1635.58
454.992	1630.38
455.365	1621.79
455.739	1674.9
456.112	1712.19
456.486	1706.54
456.859	1753.99
457.232	1770.26
457.606	1726.65
457.979	1734.33
458.352	1786.99
458.725	1801.22
459.099	1851.39
459.472	1851.17
459.845	1886.19
460.218	1854.78
460.591	1895.91
460.964	1907.44
461.337	1944.27
461.71	1940.88
462.083	1989.47
462.456	1970.48
462.829	2004.61
463.201	2034.89
463.574	2028.11
463.947	2053.19
464.32	2116.47
464.692	2119.41
465.065	2110.14
465.438	2126.64
465.81	2205.73
466.183	2229.24
466.555	2246.64
466.928	2272.4
467.3	2213.64
467.672	2292.28
468.045	2358.72
468.417	2340.42
468.789	2384.94
469.161	2400.76
469.534	2411.6
469.906	2478.27
470.278	2486.86
470.65	2520.98
471.022	2521.43
471.394	2576.34
471.766	2626.96
472.138	2652.73
472.51	2703.35
472.882	2714.87
473.253	2750.58
473.625	2744.48
473.997	2820.18
474.369	2834.42
474.74	2853.85
475.112	2906.28
475.484	2966.39
475.855	2995.99
476.227	3043.45
476.598	3095.65
476.97	3085.48
477.341	3183.11
477.713	3217.68
478.084	3230.34
478.455	3324.8
478.827	3341.3
479.198	3362.76
479.569	3376.1
479.94	3509.2
480.311	3535.42
480.682	3566.83
481.053	3671.91
481.424	3694.06
481.795	3748.52
482.166	3765.24
482.537	3828.29
482.908	3899.93
483.279	3896.99
483.65	3965.46
484.021	4037.1
484.391	4089.53
484.762	4116.87
485.133	4133.59
485.503	4165.68
485.874	4226.24
486.244	4296.07
486.615	4367.48
486.985	4420.36
487.356	4524.09
487.726	4496.75
488.097	4596.18
488.467	4641.15
488.837	4660.13
489.207	4713.46
489.578	4802.05
489.948	4847.7
490.318	4875.04
490.688	4879.79
491.058	4907.81
491.428	5022.38
491.798	5036.39
492.168	5087.01
492.538	5102.15
492.908	5149.61
493.278	5237.97
493.648	5209.5
494.017	5357.06
494.387	5327.46
494.757	5345.99
495.126	5410.62
495.496	5415.59
495.866	5462.82
496.235	5504.86
496.605	5561.35
496.974	5568.36
497.344	5645.64
497.713	5654
498.082	5692.42
498.452	5727
498.821	5732.65
499.19	5720.89
499.559	5762.48
499.928	5836.82
500.298	5822.81
500.667	5868.46
501.036	5870.27
501.405	5907.56
501.774	5892.42
502.143	5948.23
502.512	5969.48
502.88	5998.4
503.249	6066.42
503.618	6105.97
503.987	6052.41
504.356	6098.51
504.724	6119.75
505.093	6103.94
505.462	6105.29
505.83	6173.31
506.199	6231.84
506.567	6297.6
506.936	6320.65
507.304	6305.29
507.672	6319.52
508.041	6395.45
508.409	6363.82
508.777	6382.8
509.145	6413.31
509.514	6424.83
509.882	6424.15
510.25	6483.59
510.618	6537.14
510.986	6511.16
511.354	6599.29
511.722	6591.38
512.09	6595.22
512.458	6574.66
512.826	6623.7
513.193	6719.29
513.561	6659.18
513.929	6704.6
514.297	6748.21
514.664	6739.85
515.032	6666.41
515.4	6792.28
515.767	6742.56
516.135	6803.58
516.502	6731.72
516.869	6877.47
517.237	6817.14
517.604	6816.46
517.972	6887.19
518.339	6919.28
518.706	6835.22
519.073	6897.59
519.44	6923.58
519.808	6980.07
520.175	6980.97
520.542	7009.22
520.909	7013.29
521.276	6996.12
521.643	7082.21
522.009	7047.41
522.376	6986.4
522.743	7089.67
523.11	7114.53
523.477	7163.79
523.843	7172.16
524.21	7152.95
524.577	7212.83
524.943	7233.85
525.31	7182.55
525.676	7263.68
526.043	7312.94
526.409	7325.37
526.776	7362.21
527.142	7317.24
527.508	7347.29
527.874	7395.2
528.241	7344.58
528.607	7425.03
528.973	7409.66
529.339	7376.22
529.705	7489.66
530.071	7457.12
530.437	7481.98
530.803	7500.96
531.169	7513.16
531.535	7452.6
531.901	7449.44
532.267	7468.65
532.632	7442.21
532.998	7550.68
533.364	7502.32
533.73	7477.46
534.095	7530.56
534.461	7490.34
534.826	7523.33
535.192	7500.51
535.557	7514.07
535.923	7487.63
536.288	7496.89
536.653	7504.35
537.019	7481.75
537.384	7517.46
537.749	7511.58
538.114	7470.45
538.479	7488.08
538.845	7489.44
539.21	7399.04
539.575	7475.42
539.94	7460.51
540.305	7444.47
540.67	7453.28
541.034	7476.33
541.399	7409.21
541.764	7431.58
542.129	7392.94
542.494	7401.98
542.858	7388.42
543.223	7481.98
543.587	7435.43
543.952	7361.53
544.316	7430.68
544.681	7427.29
545.045	7371.92
545.41	7385.71
545.774	7398.59
546.138	7302.77
546.503	7379.61
546.867	7360.63
547.231	7426.61
547.595	7336.67
547.959	7352.04
548.324	7340.51
548.688	7319.95
549.052	7310.91
549.416	7308.2
549.779	7353.39
550.143	7326.05
550.507	7335.77
550.871	7380.29
551.235	7261.65
551.599	7273.4
551.962	7314.75
552.326	7260.97
552.689	7332.15
553.053	7285.6
553.417	7251.02
553.78	7312.49
554.143	7324.02
554.507	7319.72
554.87	7263.45
555.234	7305.03
555.597	7268.88
555.96	7271.59
556.323	7310.68
556.686	7289.22
557.05	7306.84
557.413	7283.57
557.776	7311.36
558.139	7371.7
558.502	7327.63
558.865	7340.97
559.228	7380.29
559.59	7388.65
559.953	7383.22
560.316	7428.65
560.679	7384.58
561.041	7436.78
561.404	7409.89
561.767	7396.56
562.129	7442.88
562.492	7477.68
562.854	7450.34
563.217	7517.01
563.579	7543.45
563.941	7547.74
564.304	7498.25
564.666	7499.38
565.028	7560.85
565.39	7540.96
565.753	7605.14
566.115	7629.77
566.477	7649.21
566.839	7665.02
567.201	7641.75
567.563	7634.52
567.925	7727.85
568.287	7705.02
568.648	7781.86
569.01	7730.11
569.372	7736.89
569.734	7737.79
570.095	7800.61
570.457	7746.15
570.819	7795.42
571.18	7898.92
571.542	7844.45
571.903	7858.47
572.265	7941.63
572.626	7903.21
572.987	7945.02
573.349	7924
573.71	7931.01
574.071	7936.66
574.432	8043.32
574.794	8049.2
575.155	8024.79
575.516	8041.51
575.877	8086.48
576.238	8037.67
576.599	8114.5
576.96	8053.49
577.32	8186.14
577.681	8167.16
578.042	8170.55
578.403	8165.35
578.763	8254.84
579.124	8220.94
579.485	8164.9
579.845	8273.37
580.206	8220.49
580.566	8194.5
580.927	8196.54
581.287	8301.62
581.648	8272.92
582.008	8339.36
582.368	8310.66
582.728	8364.22
583.089	8330.09
583.449	8300.26
583.809	8360.6
584.169	8373.71
584.529	8287.83
584.889	8443.08
585.249	8378.23
585.609	8356.98
585.969	8408.28
586.329	8417.32
586.688	8409.64
587.048	8438.34
587.408	8410.09
587.768	8413.71
588.127	8426.36
588.487	8355.18
588.846	8525.79
589.206	8465
589.565	8509.75
589.925	8500.48
590.284	8515.4
590.643	8456.64
591.003	8547.71
591.362	8535.28
591.721	8482.4
592.08	8529.18
592.44	8565.34
592.799	8530.99
593.158	8538.9
593.517	8550.65
593.876	8585.45
594.235	8585.68
594.593	8601.05
594.952	8556.3
595.311	8553.81
595.67	8599.92
596.029	8645.79
596.387	8633.13
596.746	8663.19
597.104	8657.54
597.463	8625.68
597.822	8615.73
598.18	8587.03
598.538	8653.92
598.897	8682.4
599.255	8601.72
599.613	8712
599.972	8702.06
600.33	8611.89
600.688	8617.77
601.046	8639.01
601.404	8611.89
601.762	8679.24
602.12	8701.83
602.478	8718.1
602.836	8724.88
603.194	8690.99
603.552	8716.75
603.91	8638.78
604.268	8722.17
604.625	8673.59
604.983	8715.17
605.341	8696.86
605.698	8755.39
606.056	8717.43
606.413	8732.57
606.771	8708.61
607.128	8797.2
607.485	8744.77
607.843	8799.01
608.2	8765.11
608.557	8881.72
608.914	8806.24
609.272	8794.26
609.629	8823.64
609.986	8901.83
610.343	8804.66
610.7	8872
611.057	8894.14
611.414	8821.83
611.771	8857.31
612.127	8816.41
612.484	8866.35
612.841	8903.18
613.198	8889.63
613.554	8882.85
613.911	8885.56
614.267	8870.19
614.624	8896.18
614.98	8961.71
615.337	8984.99
615.693	8948.38
616.05	8983.18
616.406	9040.58
616.762	8914.48
617.118	9010.98
617.475	8921.49
617.831	8954.48
618.187	8996.29
618.543	9056.85
618.899	8999.9
619.255	9032.9
619.611	9027.25
619.967	9051.88
620.323	9080.58
620.678	9035.38
621.034	9003.97
621.39	8977.08
621.746	9075.38
622.101	9135.04
622.457	8981.15
622.812	9043.07
623.168	9084.87
623.523	9069.73
623.879	9146.57
624.234	9063.18
624.589	9075.38
624.945	9083.74
625.3	9076.96
625.655	9056.17
626.01	9076.06
626.365	8997.87
626.72	9067.02
627.075	9029.73
627.43	9057.08
627.785	8999
628.14	9011.88
628.495	9045.1
628.85	8984.99
629.205	9028.38
629.559	9032.67
629.914	9000.81
630.269	8961.49
630.623	8926.01
630.978	9011.2
631.332	8995.84
631.687	9001.71
632.041	8942.05
632.396	9000.13
632.75	8907.25
633.104	8916.97
633.459	8874.48
633.813	8863.86
634.167	8880.13
634.521	8895.5
634.875	8898.44
635.229	8833.58
635.583	8765.56
635.937	8864.54
636.291	8815.73
636.645	8843.07
636.999	8860.93
637.352	8818.44
637.706	8809.63
638.06	8809.63
638.413	8773.47
638.767	8723.75
639.121	8768.5
639.474	8727.14
639.828	8717.43
640.181	8671.1
640.534	8657.31
640.888	8699.12
641.241	8703.87
641.594	8660.93
641.947	8653.02
642.301	8577.54
642.654	8690.99
643.007	8640.14
643.36	8641.27
643.713	8611.67
644.066	8657.09
644.419	8621.38
644.771	8528.5
645.124	8448.96
645.477	8499.13
645.83	8427.49
646.182	8333.48
646.535	8384.33
646.888	8327.38
647.24	8337.1
647.593	8383.88
647.945	8328.96
648.298	8347.04
648.65	8334.84
649.002	8222.75
649.355	8241.51
649.707	8288.51
650.059	8332.58
650.411	8472.69
650.763	8480.82
651.115	8536.19
651.467	8459.58
651.819	8497.09
652.171	8456.64
652.523	8526.24
652.875	8432.91
653.227	8479.47
653.578	8486.25
653.93	8482.63
654.282	8383.88
654.633	8397.66
654.985	8448.05
655.337	8462.97
655.688	8439.24
656.039	8443.54
656.391	8386.36
656.742	8469.3
657.094	8414.38
657.445	8446.02
657.796	8418.68
658.147	8447.38
658.498	8459.58
658.849	8505.68
659.2	8441.73
659.551	8453.48
659.902	8461.61
660.253	8422.07
660.604	8462.97
660.955	8464.1
661.306	8455.06
661.656	8451.67
662.007	8406.25
662.358	8436.76
662.708	8440.6
663.059	8430.43
663.409	8400.15
663.76	8471.56
664.11	8468.62
664.461	8456.87
664.811	8428.85
665.161	8386.14
665.511	8453.03
665.862	8497.32
666.212	8503.19
666.562	8465
666.912	8462.29
667.262	8387.72
667.612	8450.09
667.962	8483.99
668.312	8454.83
668.662	8453.7
669.011	8408.28
669.361	8421.39
669.711	8389.75
670.06	8398.56
670.41	8366.02
670.76	8340.71
671.109	8411.9
671.459	8397.21
671.808	8345.23
672.157	8410.77
672.507	8423.42
672.856	8314.5
673.205	8335.29
673.554	8344.78
673.904	8363.99
674.253	8353.37
674.602	8346.59
674.951	8202.86
675.3	8227.95
675.649	8303.88
675.998	8274.27
676.346	8322.86
676.695	8352.46
677.044	8229.3
677.393	8281.96
677.741	8263.43
678.09	8213.26
678.438	8232.69
678.787	8249.42
679.135	8242.86
679.484	8190.89
679.832	8277.44
680.181	8152.92
680.529	8179.59
680.877	8227.04
681.225	8119.48
681.573	8206.03
681.922	8129.87
682.27	8086.93
682.618	8168.06
682.966	8091.68
683.314	8063.21
683.661	8066.6
684.009	7998.35
684.357	8031.57
684.705	7996.77
685.053	7950.21
685.4	8064.34
685.748	7965.13
686.095	7941.85
686.443	7880.39
686.79	7912.7
687.138	7970.1
687.485	7914.28
687.832	7865.02
688.18	7885.36
688.527	7782.99
688.874	7804.46
689.221	7717
689.568	7773.72
689.915	7758.36
690.262	7691.01
690.609	7693.05
690.956	7620.73
691.303	7736.89
691.65	7657.79
691.997	7613.27
692.344	7606.72
692.69	7571.47
693.037	7561.07
693.383	7522.88
693.73	7534.86
694.077	7512.94
694.423	7518.36
694.769	7407.86
695.116	7377.8
695.462	7388.42
695.808	7425.93
696.155	7392.94
696.501	7326.28
696.847	7330.12
697.193	7261.87
697.539	7267.52
697.885	7200.86
698.231	7194.98
698.577	7221.19
698.923	7219.84
699.269	7180.29
699.614	7127.64
699.96	7125.15
700.306	7085.83
700.651	6999.73
700.997	6999.28
701.342	7028.88
701.688	6988.43
702.033	6996.79
702.379	6999.96
702.724	6938.49
703.069	6909.79
703.415	6888.32
703.76	6876.8
704.105	6868.66
704.45	6828.66
704.795	6814.2
705.14	6778.04
705.485	6777.14
705.83	6716.57
706.175	6725.39
706.52	6702.11
706.865	6679.74
707.209	6641.55
707.554	6629.12
707.899	6685.84
708.243	6636.58
708.588	6587.99
708.932	6590.48
709.277	6503.7
709.621	6587.09
709.966	6529.46
710.31	6567.65
710.654	6451.05
710.998	6464.38
711.342	6517.03
711.687	6449.92
712.031	6443.59
712.375	6390.48
712.719	6415.79
713.063	6454.89
713.407	6393.42
713.75	6412.18
714.094	6393.87
714.438	6312.74
714.782	6378.28
715.125	6358.84
715.469	6351.61
715.812	6304.83
716.156	6277.72
716.499	6280.43
716.843	6327.43
717.186	6269.13
717.53	6312.97
717.873	6282.46
718.216	6243.82
718.559	6235.23
718.902	6227.1
719.246	6230.49
719.589	6172.86
719.932	6171.5
720.275	6186.65
720.617	6201.79
720.96	6143.26
721.303	6157.49
721.646	6178.74
721.989	6100.77
722.331	6144.84
722.674	6101.68
723.016	6164.27
723.359	6105.29
723.701	6109.81
724.044	6062.35
724.386	6032.75
724.729	6109.13
725.071	6058.96
725.413	6101.22
725.755	6049.02
726.097	6051.73
726.439	6055.58
726.782	5978.29
727.124	6073.43
727.465	6035.91
727.807	6036.37
728.149	5929.7
728.491	6011.73
728.833	6003.15
729.175	6005.63
729.516	6034.11
729.858	5972.64
730.199	6025.75
730.541	5981
730.882	5952.98
731.224	6024.16
731.565	5994.11
731.906	5953.43
732.248	6000.89
732.589	5948.01
732.93	5930.83
733.271	5917.05
733.612	5919.31
733.953	5967.67
734.294	5946.65
734.635	5950.95
734.976	5960.21
735.317	5956.14
735.658	5957.27
735.999	5952.98
736.339	5963.37
736.68	6003.83
737.021	5950.27
737.361	5926.77
737.702	5957.05
738.042	5885.18
738.383	5951.62
738.723	5960.21
739.063	5959.08
739.404	5942.81
739.744	5946.65
740.084	5947.78
740.424	5993.43
740.764	5971.06
741.104	6026.65
741.444	5987.33
741.784	5964.73
742.124	6029.59
742.464	5987.33
742.804	5998.4
743.143	6027.33
743.483	6049.47
743.823	6011.96
744.162	6057.16
744.502	6053.99
744.841	6086.99
745.181	6089.02
745.52	6080.21
745.86	6149.81
746.199	6124.95
746.538	6140.09
746.877	6154.56
747.216	6223.48
747.556	6227.55
747.895	6259.64
748.234	6271.84
748.573	6260.77
748.911	6264.84
749.25	6296.25
749.589	6375.11
749.928	6451.27
750.267	6481.78
750.605	6505.05
750.944	6513.42
751.283	6536.69
751.621	6649.23
751.96	6679.97
752.298	6777.59
752.636	6732.62
752.975	6798.38
753.313	6862.11
753.651	6994.76
753.989	7003.8
754.327	7081.54
754.666	7112.04
755.004	7133.96
755.342	7268.65
755.679	7338.48
756.017	7401.98
756.355	7487.85
756.693	7573.05
757.031	7622.77
757.368	7720.62
757.706	7774.85
758.044	7923.1
758.381	7984.11
758.719	7992.7
759.056	8175.07
759.394	8262.07
759.731	8303.43
760.068	8397.66
760.405	8439.47
760.743	8513.14
761.08	8647.37
761.417	8742.51
761.754	8837.87
762.091	8957.65
762.428	8997.19
762.765	9117.42
763.102	9206
763.438	9316.28
763.775	9337.07
764.112	9471.76
764.449	9554.24
764.785	9635.82
765.122	9669.49
765.458	9725.54
765.795	9845.08
766.131	9960.33
766.467	10074
766.804	10073.32
767.14	10181.12
767.476	10184.73
767.812	10320.77
768.148	10381.11
768.485	10446.42
768.821	10418.4
769.157	10572.07
769.492	10606.42
