Data from hue_140_FLMS001491_00048.txt Node
Date: Tue Feb 07 16:55:59 GMT 2017
User: dcchb
Spectrometer: FLMS00149
Trigger mode: 0
Integration Time (sec): 2.000000E-2
Scans to average: 10
Electric dark correction enabled: true
Nonlinearity correction enabled: false
Boxcar width: 0
XAxis mode: Wavelengths
Number of Pixels in Spectrum: 2048
>>>>>Begin Spectral Data<<<<<
341.393	-16.17
341.776	-16.17
342.16	-16.17
342.543	-64.76
342.927	-85.55
343.31	-60.69
343.693	-70.41
344.077	-96.62
344.46	-66.11
344.843	-45.32
345.226	-21.82
345.61	-44.87
345.993	-22.95
346.376	-11.88
346.759	16.14
347.142	46.88
347.525	58.63
347.908	68.35
348.291	64.05
348.674	96.37
349.057	90.27
349.44	101.34
349.823	131.17
350.206	150.38
350.588	196.7
350.971	207.78
351.354	220.21
351.737	237.61
352.119	254.33
352.502	261.56
352.884	270.83
353.267	274.22
353.65	295.91
354.032	297.94
354.414	305.4
354.797	311.96
355.179	337.72
355.562	329.36
355.944	343.59
356.326	326.19
356.709	314.67
357.091	329.36
357.473	351.05
357.855	321.67
358.238	334.55
358.62	327.32
359.002	333.2
359.384	328.9
359.766	357.38
360.148	338.85
360.53	339.98
360.912	335.68
361.294	325.29
361.676	336.36
362.057	334.55
362.439	336.81
362.821	330.49
363.203	327.1
363.584	340.43
363.966	324.16
364.348	312.86
364.729	295.01
365.111	306.31
365.493	343.37
365.874	310.15
366.256	310.83
366.637	302.69
367.019	322.58
367.4	336.14
367.781	313.54
368.163	309.47
368.544	319.86
368.925	314.44
369.306	306.08
369.688	308.79
370.069	311.05
370.45	293.65
370.831	318.06
371.212	291.16
371.593	302.24
371.974	295.68
372.355	308.34
372.736	321.22
373.117	323.03
373.498	309.92
373.879	324.38
374.26	304.5
374.641	304.72
375.021	302.01
375.402	318.51
375.783	314.67
376.163	322.8
376.544	302.46
376.925	311.05
377.305	331.84
377.686	303.14
378.066	326.64
378.447	310.83
378.827	331.62
379.208	309.92
379.588	333.65
379.968	335.46
380.349	338.4
380.729	347.66
381.109	338.62
381.489	339.75
381.87	346.53
382.25	337.27
382.63	320.09
383.01	340.2
383.39	353.76
383.77	337.27
384.15	346.3
384.53	332.29
384.91	341.56
385.29	341.33
385.67	357.15
386.049	332.07
386.429	349.69
386.809	333.88
387.189	340.88
387.568	345.4
387.948	359.64
388.328	377.26
388.707	357.6
389.087	355.34
389.466	343.59
389.846	372.97
390.225	368.22
390.605	382.01
390.984	379.07
391.363	379.3
391.743	383.59
392.122	381.56
392.501	399.86
392.881	374.1
393.26	360.99
393.639	368.9
394.018	359.41
394.397	352.18
394.776	384.95
395.155	369.13
395.534	374.55
395.913	371.84
396.292	405.06
396.671	397.6
397.05	390.15
397.429	392.63
397.808	390.37
398.186	383.82
398.565	389.47
398.944	406.42
399.323	370.48
399.701	384.95
400.08	404.38
400.458	409.35
400.837	406.64
401.215	401.9
401.594	404.83
401.972	427.43
402.351	389.02
402.729	392.18
403.107	408
403.486	424.27
403.864	402.57
404.242	410.48
404.62	417.94
404.999	405.06
405.377	402.57
405.755	426.08
406.133	416.81
406.511	420.88
406.889	417.72
407.267	447.77
407.645	429.69
408.023	406.87
408.401	412.97
408.779	439.41
409.156	428.56
409.534	475.79
409.912	444.83
410.29	451.61
410.667	458.17
411.045	461.56
411.422	468.34
411.8	466.98
412.178	460.2
412.555	477.15
412.933	475.57
413.31	473.08
413.687	478.05
414.065	478.28
414.442	477.83
414.819	494.32
415.197	490.26
415.574	491.61
415.951	482.12
416.328	490.93
416.705	493.19
417.082	478.05
417.46	507.2
417.837	509.46
418.214	521.22
418.591	533.87
418.967	535.68
419.344	512.63
419.721	517.6
420.098	504.72
420.475	503.14
420.852	510.59
421.228	527.09
421.605	530.03
421.982	544.72
422.358	545.17
422.735	556.24
423.111	546.98
423.488	549.01
423.864	544.04
424.241	546.98
424.617	563.02
424.994	555.79
425.37	563.7
425.746	563.25
426.123	572.29
426.499	550.82
426.875	550.14
427.251	585.39
427.627	604.83
428.003	571.84
428.379	586.52
428.756	626.52
429.132	600.54
429.507	605.05
429.883	606.86
430.259	629.91
430.635	626.98
431.011	622.46
431.387	626.52
431.763	660.65
432.138	641.44
432.514	647.77
432.89	643.7
433.265	663.13
433.641	665.84
434.016	681.44
434.392	660.19
434.767	690.02
435.143	673.98
435.518	684.83
435.894	679.63
436.269	713.3
436.644	735.22
437.02	694.32
437.395	740.19
437.77	717.82
438.145	739.74
438.52	741.32
438.895	735.22
439.271	726.63
439.646	752.85
440.021	749.23
440.395	732.73
440.77	753.98
441.145	751.04
441.52	765.73
441.895	796.01
442.27	792.62
442.645	784.94
443.019	778.61
443.394	801.66
443.769	790.81
444.143	805.95
444.518	803.69
444.892	811.6
445.267	819.29
445.641	806.63
446.016	837.36
446.39	846.4
446.764	828.78
447.139	820.19
447.513	851.15
447.887	850.92
448.262	845.27
448.636	851.38
449.01	867.19
449.384	860.19
449.758	853.41
450.132	880.53
450.506	885.5
450.88	891.6
451.254	909.23
451.628	934.31
452.002	912.62
452.376	928.66
452.75	936.8
453.123	924.82
453.497	932.28
453.871	955.78
454.244	982.22
454.618	969.11
454.992	979.51
455.365	975.44
455.739	990.13
456.112	986.29
456.486	1005.04
456.859	1023.57
457.232	1049.11
457.606	1039.17
457.979	1062.44
458.352	1073.29
458.725	1086.17
459.099	1101.31
459.472	1110.8
459.845	1124.14
460.218	1142.89
460.591	1150.35
460.964	1160.07
461.337	1210.46
461.71	1191.48
462.083	1210.91
462.456	1214.98
462.829	1216.56
463.201	1212.04
463.574	1246.62
463.947	1284.36
464.32	1280.07
464.692	1307.86
465.065	1333.85
465.438	1356.9
465.81	1379.72
466.183	1370.46
466.555	1391.02
466.928	1414.3
467.3	1429.21
467.672	1437.35
468.045	1481.64
468.417	1465.37
468.789	1535.65
469.161	1542.43
469.534	1564.58
469.906	1601.86
470.278	1602.54
470.65	1635.76
471.022	1654.97
471.394	1681.18
471.766	1739.71
472.138	1765.93
472.51	1827.62
472.882	1816.77
473.253	1842.99
473.625	1889.31
473.997	1968.41
474.369	1983.32
474.74	1982.65
475.112	2036.88
475.484	2104.45
475.855	2157.1
476.227	2162.3
476.598	2282.52
476.97	2261.06
477.341	2339.7
477.713	2400.71
478.084	2467.15
478.455	2551.44
478.827	2626.7
479.198	2696.3
479.569	2726.81
479.94	2806.35
480.311	2883.86
480.682	2939.68
481.053	3089.06
481.424	3122.05
481.795	3173.57
482.166	3287.02
482.537	3371.99
482.908	3470.06
483.279	3555.03
483.65	3672.32
484.021	3790.73
484.391	3884.97
484.762	3884.29
485.133	4036.15
485.503	4130.39
485.874	4272.3
486.244	4347.1
486.615	4431.85
486.985	4606.98
487.356	4666.64
487.726	4757.49
488.097	4924.94
488.467	5024.6
488.837	5171.49
489.207	5340.3
489.578	5425.49
489.948	5465.04
490.318	5654.64
490.688	5732.83
491.058	5878.81
491.428	5979.6
491.798	6155.64
492.168	6262.31
492.538	6438.35
492.908	6516.09
493.278	6709.98
493.648	6729.41
494.017	6887.83
494.387	6992.91
494.757	7190.42
495.126	7279.68
495.496	7372.56
495.866	7521.03
496.235	7621.82
496.605	7763.06
496.974	7862.94
497.344	7972.77
497.713	8107.91
498.082	8216.15
498.452	8321.01
498.821	8436.04
499.19	8459.31
499.559	8619.99
499.928	8728.68
500.298	8744.95
500.667	8916.47
501.036	8936.59
501.405	9083.02
501.774	9135.68
502.143	9207.77
502.512	9324.15
502.88	9509.91
503.249	9457.48
503.618	9565.5
503.987	9639.85
504.356	9740.86
504.724	9805.94
505.093	9875.77
505.462	9948.54
505.83	10014.75
506.199	10146.95
506.567	10311.92
506.936	10272.82
507.304	10418.81
507.672	10404.12
508.041	10487.28
508.409	10561.63
508.777	10649.76
509.145	10712.59
509.514	10829.64
509.882	10860.83
510.25	10949.42
510.618	10969.98
510.986	10956.65
511.354	11059.92
511.722	11080.49
512.09	11169.75
512.458	11215.17
512.826	11321.84
513.193	11289.75
513.561	11358.67
513.929	11428.95
514.297	11497.65
514.664	11503.98
515.032	11566.35
515.4	11670.98
515.767	11780.13
516.135	11746.46
516.502	11595.27
516.869	11780.35
517.237	11815.16
517.604	11745.78
517.972	11795.49
518.339	11931.99
518.706	11890.18
519.073	11891.76
519.44	11958.43
519.808	12082.72
520.175	11984.19
520.542	12152.32
520.909	12140.8
521.276	12142.38
521.643	12247.69
522.009	12195.94
522.376	12221.25
522.743	12223.73
523.11	12337.85
523.477	12437.51
523.843	12436.83
524.21	12500.34
524.577	12526.1
524.943	12517.96
525.31	12551.63
525.676	12647.9
526.043	12635.02
526.409	12689.71
526.776	12700.56
527.142	12790.72
527.508	12661.23
527.874	12765.86
528.241	12737.62
528.607	12756.37
528.973	12779.65
529.339	12700.33
529.705	12747.79
530.071	12774.45
530.437	12936.48
530.803	12896.93
531.169	12878.4
531.535	12784.17
531.901	12793.66
532.267	12854.22
532.632	12790.72
532.998	12804.06
533.364	12870.04
533.73	12752.98
534.095	12844.05
534.461	12800.89
534.826	12778.75
535.192	12844.73
535.557	12824.17
535.923	12723.61
536.288	12781.91
536.653	12799.54
537.019	12688.8
537.384	12686.54
537.749	12619.43
538.114	12630.95
538.479	12702.36
538.845	12654.68
539.21	12453.1
539.575	12530.84
539.94	12531.52
540.305	12517.06
540.67	12367.91
541.034	12477.96
541.399	12397.06
541.764	12325.88
542.129	12386.89
542.494	12370.85
542.858	12345.99
543.223	12235.94
543.587	12305.54
543.952	12224.86
544.316	12263.28
544.681	12127.01
545.045	12191.87
545.41	12183.73
545.774	12129.72
546.138	12009.27
546.503	11996.17
546.867	12049.5
547.231	11986.9
547.595	12042.04
547.959	12000.91
548.324	11889.73
548.688	11845.44
549.052	11919.56
549.416	11840.92
549.779	11767.02
550.143	11768.6
550.507	11848.83
550.871	11746.46
551.235	11654.48
551.599	11748.26
551.962	11687.02
552.326	11705.33
552.689	11643.63
553.053	11653.13
553.417	11638.21
553.78	11675.72
554.143	11612.9
554.507	11584.43
554.87	11544.88
555.234	11561.6
555.597	11504.2
555.96	11453.13
556.323	11489.51
556.686	11425.34
557.05	11468.72
557.413	11503.98
557.776	11445.9
558.139	11507.59
558.502	11423.75
558.865	11469.85
559.228	11429.18
559.59	11456.29
559.953	11412
560.316	11488.84
560.679	11464.43
561.041	11481.83
561.404	11567.03
561.767	11562.28
562.129	11473.24
562.492	11480.47
562.854	11482.06
563.217	11511.43
563.579	11444.09
563.941	11488.61
564.304	11485.22
564.666	11560.25
565.028	11524.99
565.39	11552.79
565.753	11621.26
566.115	11579.91
566.477	11635.73
566.839	11653.58
567.201	11694.93
567.563	11636.4
567.925	11650.41
568.287	11720.92
568.648	11675.27
569.01	11685.89
569.372	11776.06
569.734	11713.92
570.095	11746.68
570.457	11701.26
570.819	11800.24
571.18	11722.5
571.542	11779.9
571.903	11838.66
572.265	11847.47
572.626	11885.89
572.987	11840.92
573.349	11870.75
573.71	11883.63
574.071	11883.85
574.432	11870.75
574.794	11945.77
575.155	11916.85
575.516	11870.75
575.877	11851.99
576.238	11918.2
576.599	11983.51
576.96	11928.6
577.32	11864.19
577.681	11967.02
578.042	11963.4
578.403	11995.94
578.763	11960.01
579.124	11980.12
579.485	11960.46
579.845	12016.96
580.206	11890.18
580.566	11924.98
580.927	11964.08
581.287	12051.08
581.648	11886.79
582.008	11995.26
582.368	11961.37
582.728	11998.65
583.089	11997.07
583.449	11911.65
583.809	11927.24
584.169	11993.91
584.529	11887.02
584.889	12016.28
585.249	11941.71
585.609	11927.24
585.969	11931.99
586.329	11931.76
586.688	11882.95
587.048	11887.24
587.408	11878.43
587.768	11827.13
588.127	11814.48
588.487	11825.55
588.846	11965.43
589.206	11951.42
589.565	11768.6
589.925	11926.11
590.284	11826.45
590.643	11813.8
591.003	11809.05
591.362	11828.04
591.721	11863.29
592.08	11770.18
592.44	11799.34
592.799	11888.6
593.158	11781.26
593.517	11776.06
593.876	11831.88
594.235	11753.46
594.593	11743.97
594.952	11852.44
595.311	11737.19
595.67	11693.12
596.029	11780.13
596.387	11794.14
596.746	11810.41
597.104	11778.77
597.463	11739.45
597.822	11766.12
598.18	11734.25
598.538	11689.74
598.897	11749.39
599.255	11659.68
599.613	11844.08
599.972	11739.45
600.33	11716.63
600.688	11696.97
601.046	11776.29
601.404	11820.13
601.762	11837.75
602.12	11838.21
602.478	11813.12
602.836	11797.98
603.194	11728.15
603.552	11799.79
603.91	11712.33
604.268	11781.48
604.625	11701.26
604.983	11818.09
605.341	11794.59
605.698	11838.43
606.056	11798.43
606.413	11764.76
606.771	11754.37
607.128	11881.37
607.485	11727.93
607.843	11708.72
608.2	11801.37
608.557	11882.95
608.914	11779
609.272	11873.23
609.629	11901.93
609.986	11874.14
610.343	11778.09
610.7	11969.95
611.057	11904.19
611.414	11853.57
611.771	11920.46
612.127	11941.03
612.484	11966.79
612.841	11923.85
613.198	11883.18
613.554	11902.84
613.911	11988.71
614.267	11996.17
614.624	11992.1
614.98	11977.41
615.337	11996.39
615.693	11957.75
616.05	11940.12
616.406	12073.91
616.762	12007.24
617.118	12054.02
617.475	11984.87
617.831	12115.71
618.187	12028.48
618.543	12019.44
618.899	12197.97
619.255	12154.36
619.611	12083.17
619.967	12182.6
620.323	12168.59
620.678	12166.78
621.034	12148.48
621.39	12124.75
621.746	12109.38
622.101	12171.53
622.457	12078.65
622.812	12144.41
623.168	12114.81
623.523	12142.6
623.879	12176.73
624.234	12057.86
624.589	12133.79
624.945	12117.75
625.3	12111.42
625.655	12126.33
626.01	12131.98
626.365	12066
626.72	12146.67
627.075	12075.94
627.43	12068.93
627.785	12103.74
628.14	12160.91
628.495	12123.62
628.85	12162.72
629.205	12035.49
629.559	12158.88
629.914	12075.26
630.269	12046.34
630.623	12086.33
630.978	12006.79
631.332	12095.37
631.687	12067.35
632.041	11983.06
632.396	12124.75
632.75	12002.72
633.104	12006.34
633.459	11912.78
633.813	11878.43
634.167	11850.86
634.521	11941.93
634.875	11972.21
635.229	11922.72
635.583	11904.87
635.937	11909.39
636.291	11856.06
636.645	11835.04
636.999	11855.83
637.352	11842.5
637.706	11783.52
638.06	11853.35
638.413	11788.04
638.767	11765.44
639.121	11744.65
639.474	11753.46
639.828	11714.37
640.181	11747.59
640.534	11693.35
640.888	11680.92
641.241	11654.03
641.594	11616.52
641.947	11710.98
642.301	11597.76
642.654	11764.08
643.007	11682.05
643.36	11652.22
643.713	11610.19
644.066	11655.61
644.419	11565.22
644.771	11538.1
645.124	11432.57
645.477	11466.46
645.83	11341.95
646.182	11232.12
646.535	11257.66
646.888	11294.94
647.24	11142.18
647.593	11226.92
647.945	11307.6
648.298	11214.27
648.65	11185.34
649.002	11146.92
649.355	11234.61
649.707	11215.85
650.059	11283.64
650.411	11355.96
650.763	11340.37
651.115	11528.16
651.467	11495.62
651.819	11467.59
652.171	11480.7
652.523	11413.36
652.875	11498.78
653.227	11396.18
653.578	11508.5
653.93	11433.7
654.282	11400.93
654.633	11398.22
654.985	11404.54
655.337	11422.62
655.688	11442.06
656.039	11478.89
656.391	11371.1
656.742	11421.95
657.094	11456.52
657.445	11512.79
657.796	11478.44
658.147	11398.44
658.498	11394.83
658.849	11424.43
659.2	11416.75
659.551	11365
659.902	11460.14
660.253	11461.49
660.604	11453.36
660.955	11355.28
661.306	11443.19
661.656	11437.09
662.007	11415.62
662.358	11517.54
662.708	11465.79
663.059	11493.13
663.409	11410.87
663.76	11522.73
664.11	11520.25
664.461	11531.77
664.811	11496.97
665.161	11548.5
665.511	11493.13
665.862	11505.11
666.212	11539.23
666.562	11543.07
666.912	11515.5
667.262	11480.93
667.612	11503.53
667.962	11474.6
668.312	11440.93
668.662	11515.73
669.011	11554.37
669.361	11402.28
669.711	11457.65
670.06	11448.61
670.41	11448.16
670.76	11391.66
671.109	11510.76
671.459	11439.35
671.808	11422.62
672.157	11392.57
672.507	11376.07
672.856	11404.77
673.205	11355.96
673.554	11429.85
673.904	11404.32
674.253	11458.1
674.602	11321.84
674.951	11266.7
675.3	11233.93
675.649	11303.98
675.998	11311.67
676.346	11333.59
676.695	11293.59
677.044	11261.05
677.393	11245.68
677.741	11314.6
678.09	11290.88
678.438	11268.5
678.787	11289.07
679.135	11228.05
679.484	11134.95
679.832	11230.76
680.181	11179.92
680.529	11125.46
680.877	11114.83
681.225	11101.28
681.573	11120.26
681.922	11084.1
682.27	11052.01
682.618	11083.88
682.966	10973.82
683.314	11035.97
683.661	10953.71
684.009	10951.45
684.357	10973.82
684.705	10891.11
685.053	10888.17
685.4	10949.64
685.748	10878.91
686.095	10819.93
686.443	10856.54
686.79	10746.93
687.138	10786.03
687.485	10762.3
687.832	10676.65
688.18	10722.53
688.527	10628.75
688.874	10644.34
689.221	10587.62
689.568	10575.64
689.915	10538.58
690.262	10551.91
690.609	10502.42
690.956	10441.63
691.303	10448.19
691.65	10462.42
691.997	10424.91
692.344	10317.79
692.69	10370.45
693.037	10287.96
693.383	10198.7
693.73	10250.22
694.077	10249.32
694.423	10140.4
694.769	10153.5
695.116	10132.04
695.462	10110.34
695.808	10074.64
696.155	10050.23
696.501	9983.34
696.847	9983.79
697.193	9841.42
697.539	9862.89
697.885	9809.11
698.231	9796
698.577	9805.26
698.923	9784.47
699.269	9706.74
699.614	9646.85
699.96	9616.8
700.306	9648.88
700.651	9614.31
700.997	9605.95
701.342	9547.42
701.688	9494.76
702.033	9431.26
702.379	9444.37
702.724	9409.34
703.069	9473.97
703.415	9328.89
703.76	9309.23
704.105	9341.32
704.45	9321.44
704.795	9247.31
705.14	9199.18
705.485	9196.47
705.83	9167.54
706.175	9182
706.52	9113.76
706.865	9054.1
707.209	9055.45
707.554	9035.34
707.899	9012.29
708.243	8964.83
708.588	8902.01
708.932	8875.57
709.277	8846.65
709.621	8916.25
709.966	8784.05
710.31	8819.75
710.654	8761.22
710.998	8816.82
711.342	8785.18
711.687	8702.47
712.031	8692.07
712.375	8703.6
712.719	8668.12
713.063	8680.32
713.407	8741.34
713.75	8633.09
714.094	8600.1
714.438	8581.57
714.782	8614.11
715.125	8580.44
715.469	8513.55
715.812	8540.67
716.156	8525.52
716.499	8504.06
716.843	8518.52
717.186	8431.29
717.53	8484.17
717.873	8523.94
718.216	8487.56
718.559	8461.12
718.902	8404.17
719.246	8408.92
719.589	8273.33
719.932	8292.54
720.275	8360.11
720.617	8298.19
720.96	8307.45
721.303	8325.98
721.646	8297.06
721.989	8332.31
722.331	8318.98
722.674	8297.51
723.016	8288.92
723.359	8259.09
723.701	8262.25
724.044	8187
724.386	8204.18
724.729	8209.37
725.071	8222.26
725.413	8214.57
725.755	8183.61
726.097	8163.05
726.439	8145.42
726.782	8193.33
727.124	8184.52
727.465	8085.76
727.807	8100.22
728.149	8179.32
728.491	8158.53
728.833	8124.86
729.175	8148.81
729.516	8126.89
729.858	8109.49
730.199	8151.75
730.541	8116.04
730.882	8156.04
731.224	8119.21
731.565	8118.53
731.906	8071.07
732.248	8102.03
732.589	8094.35
732.93	8052.77
733.271	8061.81
733.612	8053.67
733.953	7992.21
734.294	8007.35
734.635	8113.11
734.976	8074.91
735.317	8019.78
735.658	8020.45
735.999	8032.43
736.339	8039.89
736.68	8095.48
737.021	8052.32
737.361	7973.22
737.702	8058.87
738.042	8067.23
738.383	8099.32
738.723	8121.47
739.063	8119.43
739.404	8147.23
739.744	8125.53
740.084	8124.41
740.424	8152.43
740.764	8162.14
741.104	8210.05
741.444	8103.39
741.784	8118.08
742.124	8197.17
742.464	8220.45
742.804	8215.25
743.143	8227.68
743.483	8272.42
743.823	8180
744.162	8257.96
744.502	8290.5
744.841	8343.16
745.181	8396.26
745.52	8426.09
745.86	8486.66
746.199	8475.58
746.538	8479.65
746.877	8517.84
747.216	8587.44
747.556	8587.9
747.895	8650.04
748.234	8629.02
748.573	8735.01
748.911	8778.85
749.25	8811.84
749.589	8871.05
749.928	8948.56
750.267	9010.03
750.605	9077.15
750.944	9187.65
751.283	9163.7
751.621	9199.41
751.96	9395.11
752.298	9437.14
752.636	9541.54
752.975	9577.25
753.313	9607.3
753.651	9745.61
753.989	9878.94
754.327	9889.1
754.666	10009.55
755.004	10202.99
755.342	10245.03
755.679	10312.14
756.017	10439.37
756.355	10554.4
756.693	10682.53
757.031	10854.95
757.368	10949.64
757.706	11101.5
758.044	11152.8
758.381	11303.3
758.719	11497.65
759.056	11637.53
759.394	11734.93
759.731	11881.37
