Data from hue_130_FLMS001491_00030.txt Node
Date: Tue Feb 07 16:57:24 GMT 2017
User: dcchb
Spectrometer: FLMS00149
Trigger mode: 0
Integration Time (sec): 2.000000E-2
Scans to average: 10
Electric dark correction enabled: true
Nonlinearity correction enabled: false
Boxcar width: 0
XAxis mode: Wavelengths
Number of Pixels in Spectrum: 2048
>>>>>Begin Spectral Data<<<<<
341.393	-29.65
341.776	-29.65
342.16	-29.65
342.543	-76.42
342.927	-53.6
343.31	-70.77
343.693	-56.31
344.077	-73.49
344.46	-68.74
344.843	-47.05
345.226	-32.36
345.61	-51.34
345.993	-26.03
346.376	3.35
346.759	4.48
347.142	17.81
347.525	36.11
347.908	70.24
348.291	86.28
348.674	89.9
349.057	117.92
349.44	114.53
349.823	118.15
350.206	181.42
350.588	191.14
350.971	195.21
351.354	217.58
351.737	231.36
352.119	236.34
352.502	253.74
352.884	267.07
353.267	305.49
353.65	296.67
354.032	305.94
354.414	315.43
354.797	316.56
355.179	326.73
355.562	320.63
355.944	317.24
356.326	338.93
356.709	332.15
357.091	318.37
357.473	331.7
357.855	344.81
358.238	327.18
358.62	328.08
359.002	366.05
359.384	343
359.766	343.23
360.148	340.51
360.53	335.54
360.912	326.95
361.294	330.57
361.676	317.01
362.057	335.09
362.439	350.91
362.821	331.93
363.203	323.34
363.584	333.28
363.966	320.4
364.348	345.71
364.729	316.56
365.111	303.23
365.493	319.95
365.874	324.69
366.256	321.53
366.637	281.98
367.019	310.68
367.4	310.23
367.781	321.08
368.163	315.88
368.544	324.47
368.925	329.89
369.306	340.51
369.688	310.68
370.069	316.11
370.45	312.49
370.831	314.75
371.212	307.07
371.593	324.24
371.974	308.88
372.355	296.9
372.736	325.82
373.117	323.79
373.498	315.2
373.879	320.63
374.26	304.36
374.641	310.01
375.021	313.85
375.402	318.37
375.783	307.52
376.163	335.32
376.544	332.6
376.925	336.67
377.305	347.52
377.686	340.74
378.066	324.92
378.447	338.03
378.827	353.17
379.208	334.19
379.588	340.06
379.968	315.66
380.349	334.64
380.729	340.29
381.109	323.11
381.489	349.55
381.87	327.63
382.25	338.48
382.63	368.99
383.01	333.51
383.39	366.73
383.77	347.29
384.15	361.08
384.53	350.23
384.91	362.43
385.29	340.74
385.67	371.7
386.049	331.93
386.429	342.77
386.809	358.14
387.189	364.69
387.568	356.56
387.948	354.3
388.328	376.22
388.707	381.64
389.087	343
389.466	338.03
389.846	365.82
390.225	362.21
390.605	381.19
390.984	369.44
391.363	377.12
391.743	366.05
392.122	376.22
392.501	398.37
392.881	387.29
393.26	396.33
393.639	377.12
394.018	387.29
394.397	391.36
394.776	388.65
395.155	366.28
395.534	401.3
395.913	391.81
396.292	421.19
396.671	398.59
397.05	396.33
397.429	411.47
397.808	412.15
398.186	401.08
398.565	397.24
398.944	398.59
399.323	394.75
399.701	421.87
400.08	415.77
400.458	414.18
400.837	409.66
401.215	405.14
401.594	435.65
401.972	427.74
402.351	413.28
402.729	410.57
403.107	418.48
403.486	438.82
403.864	428.65
404.242	429.55
404.62	427.97
404.999	442.21
405.377	407.4
405.755	432.94
406.133	444.92
406.511	432.04
406.889	457.8
407.267	458.93
407.645	468.42
408.023	457.8
408.401	453.51
408.779	482.43
409.156	465.71
409.534	474.07
409.912	469.55
410.29	466.61
410.667	461.19
411.045	483.11
411.422	482.2
411.8	475.88
412.178	480.17
412.555	477.23
412.933	500.51
413.31	491.92
413.687	487.4
414.065	519.94
414.442	509.55
414.819	523.33
415.197	510
415.574	497.35
415.951	535.54
416.328	538.02
416.705	526.72
417.082	509.1
417.46	529.21
417.837	544.12
418.214	526.05
418.591	531.24
418.967	541.41
419.344	545.71
419.721	532.82
420.098	559.94
420.475	552.26
420.852	566.5
421.228	569.43
421.605	558.81
421.982	580.73
422.358	595.87
422.735	563.78
423.111	587.51
423.488	578.25
423.864	573.28
424.241	590.9
424.617	583.22
424.994	603.11
425.37	594.29
425.746	598.81
426.123	609.21
426.499	623.22
426.875	626.83
427.251	633.39
427.627	632.26
428.003	615.08
428.379	667.28
428.756	632.26
429.132	649.43
429.507	643.33
429.883	680.17
430.259	661.18
430.635	678.81
431.011	690.79
431.387	709.77
431.763	701.18
432.138	689.88
432.514	732.59
432.89	697.11
433.265	726.04
433.641	703.22
434.016	740.73
434.392	756.1
434.767	750.45
435.143	734.63
435.518	733.5
435.894	745.02
436.269	753.61
436.644	790.67
437.02	802.42
437.395	788.86
437.77	798.35
438.145	780.73
438.52	814.63
438.895	797.22
439.271	826.6
439.646	846.94
440.021	842.42
440.395	821.86
440.77	838.35
441.145	834.51
441.52	848.52
441.895	861.18
442.27	879.03
442.645	889.43
443.019	901.18
443.394	850.56
443.769	891.91
444.143	861.63
444.518	914.51
444.892	897.11
445.267	876.54
445.641	914.51
446.016	924.91
446.39	921.74
446.764	923.55
447.139	937.33
447.513	943.21
447.887	953.15
448.262	962.42
448.636	982.08
449.01	985.02
449.384	983.43
449.758	1018.91
450.132	982.98
450.506	986.6
450.88	989.31
451.254	997.9
451.628	1023.89
452.002	1002.42
452.376	1028.63
452.75	1037.67
453.123	1083.32
453.497	1103.43
453.871	1102.53
454.244	1065.69
454.618	1081.74
454.992	1104.79
455.365	1141.62
455.739	1137.1
456.112	1172.81
456.486	1156.99
456.859	1170.32
457.232	1192.69
457.606	1183.66
457.979	1221.17
458.352	1227.95
458.725	1234.95
459.099	1258.23
459.472	1291.9
459.845	1297.1
460.218	1341.62
460.591	1320.37
460.964	1323.76
461.337	1364.67
461.71	1366.25
462.083	1397.89
462.456	1383.65
462.829	1422.97
463.201	1443.31
463.574	1456.42
463.947	1453.93
464.32	1494.16
464.692	1509.3
465.065	1533.02
465.438	1531.44
465.81	1554.94
466.183	1586.36
466.555	1629.97
466.928	1643.3
467.3	1657.09
467.672	1683.53
468.045	1721.04
468.417	1731.44
468.789	1743.87
469.161	1780.02
469.534	1812.57
469.906	1871.09
470.278	1883.52
470.65	1911.55
471.022	1982.28
471.394	1989.96
471.766	2046.68
472.138	2056.4
472.51	2113.8
472.882	2168.71
473.253	2176.85
473.625	2234.48
473.997	2293.46
474.369	2313.34
474.74	2352.66
475.112	2425.66
475.484	2503.85
475.855	2553.56
476.227	2603.5
476.598	2660.23
476.97	2717.17
477.341	2819.77
477.713	2846.89
478.084	2892.08
478.455	3016.6
478.827	3057.73
479.198	3158.97
479.569	3174.11
479.94	3338.85
480.311	3377.72
480.682	3510.15
481.053	3608.68
481.424	3716.92
481.795	3752.4
482.166	3866.75
482.537	3951.27
482.908	4080.75
483.279	4180.64
483.65	4335.66
484.021	4462.67
484.391	4533.17
484.762	4690.68
485.133	4709.21
485.503	4847.74
485.874	5004.35
486.244	5102.42
486.615	5269.88
486.985	5366.6
487.356	5516.2
487.726	5658.57
488.097	5809.75
488.467	5882.06
488.837	6107.82
489.207	6215.61
489.578	6348.72
489.948	6500.8
490.318	6629.61
490.688	6728.82
491.058	6881.58
491.428	7051.52
491.798	7188.92
492.168	7383.04
492.538	7456.71
492.908	7682.02
493.278	7799.07
493.648	7904.61
494.017	8012.63
494.387	8173.53
494.757	8292.39
495.126	8523.12
495.496	8559.28
495.866	8639.05
496.235	8891.02
496.605	8977.35
496.974	9123.11
497.344	9261.41
497.713	9329.43
498.082	9514.28
498.452	9639.25
498.821	9716.09
499.19	9771
499.559	9965.35
499.928	10105.68
500.298	10176.87
500.667	10315.17
501.036	10362.85
501.405	10514.48
501.774	10559.45
502.143	10714.25
502.512	10745.89
502.88	10931.87
503.249	11013
503.618	11131.87
503.987	11163.28
504.356	11151.53
504.724	11407.34
505.093	11431.75
505.462	11465.87
505.83	11613.89
506.199	11704.96
506.567	11826.31
506.936	11835.13
507.304	12047.78
507.672	12085.97
508.041	12162.58
508.409	12302.68
508.777	12324.38
509.145	12443.7
509.514	12412.51
509.882	12524.37
510.25	12577.71
510.618	12659.74
510.986	12745.61
511.354	12809.79
511.722	12974.76
512.09	13089.56
512.458	13032.38
512.826	13143.11
513.193	13177.69
513.561	13206.39
513.929	13355.31
514.297	13375.43
514.664	13438.7
515.032	13518.25
515.4	13606.38
515.767	13567.96
516.135	13638.47
516.502	13539.26
516.869	13806.15
517.237	13784.23
517.604	13715.53
517.972	13866.71
518.339	13901.96
518.706	13837.11
519.073	13867.16
519.44	14046.14
519.808	14172.47
520.175	14143.54
520.542	14229.19
520.909	14348.51
521.276	14259.7
521.643	14278.23
522.009	14485.45
522.376	14425.34
522.743	14508.28
523.11	14582.63
523.477	14710.76
523.843	14680.48
524.21	14885.67
524.577	14801.83
524.943	14843.18
525.31	14988.94
525.676	14933.12
526.043	14990.98
526.409	15050.86
526.776	15084.08
527.142	15062.84
527.508	15189.84
527.874	15120.24
528.241	15208.15
528.607	15193.91
528.973	15278.2
529.339	15183.97
529.705	15248.37
530.071	15326.33
530.437	15379.89
530.803	15328.14
531.169	15395.49
531.535	15374.02
531.901	15343.51
532.267	15394.36
532.632	15407.91
532.998	15376.05
533.364	15356.84
533.73	15338.31
534.095	15386.9
534.461	15497.18
534.826	15412.21
535.192	15424.86
535.557	15486.1
535.923	15450.17
536.288	15382.6
536.653	15390.51
537.019	15329.27
537.384	15248.82
537.749	15424.64
538.114	15317.07
538.479	15377.18
538.845	15350.51
539.21	15151.88
539.575	15240.01
539.94	15190.74
540.305	15218.54
540.67	15036.62
541.034	15119.79
541.399	15070.97
541.764	15077.75
542.129	15091.31
542.494	15050.41
542.858	15143.51
543.223	15024.87
543.587	15036.4
543.952	14901.03
544.316	15006.57
544.681	14814.94
545.045	14801.38
545.41	14880.7
545.774	14843.86
546.138	14820.13
546.503	14785.33
546.867	14793.01
547.231	14799.57
547.595	14767.03
547.959	14724.54
548.324	14709.18
548.688	14685.9
549.052	14675.96
549.416	14591.21
549.779	14557.99
550.143	14503.76
550.507	14561.83
550.871	14509.86
551.235	14456.75
551.599	14491.55
551.962	14512.12
552.326	14436.19
552.689	14439.13
553.053	14237.32
553.417	14312.35
553.78	14476.19
554.143	14348.05
554.507	14317.1
554.87	14348.51
555.234	14454.27
555.597	14217.44
555.96	14292.46
556.323	14338.79
556.686	14244.1
557.05	14279.36
557.413	14204.1
557.776	14211.34
558.139	14289.98
558.502	14259.7
558.865	14231.9
559.228	14283.2
559.59	14255.85
559.953	14257.89
560.316	14254.95
560.679	14215.4
561.041	14320.26
561.404	14355.06
561.767	14320.26
562.129	14265.57
562.492	14412.69
562.854	14360.71
563.217	14248.4
563.579	14326.81
563.941	14394.38
564.304	14503.08
564.666	14384.44
565.028	14499.24
565.39	14375.4
565.753	14410.88
566.115	14496.75
566.477	14480.25
566.839	14523.42
567.201	14549.86
567.563	14499.46
567.925	14582.17
568.287	14603.87
568.648	14612
569.01	14660.14
569.372	14636.86
569.734	14532.23
570.095	14699.01
570.457	14662.17
570.819	14668.95
571.18	14672.79
571.542	14818.33
571.903	14724.99
572.265	14789.63
572.626	14795.95
572.987	14771.32
573.349	14823.52
573.71	14852
574.071	14820.81
574.432	14819.23
574.794	14930.86
575.155	14989.85
575.516	14800.47
575.877	14917.31
576.238	14913.46
576.599	14946.23
576.96	14937.87
577.32	14883.41
577.681	14960.02
578.042	14937.64
578.403	14915.95
578.763	14944.2
579.124	14983.29
579.485	14968.15
579.845	15037.53
580.206	14912.56
580.566	14935.16
580.927	14995.72
581.287	14946.68
581.648	14935.84
582.008	14946.01
582.368	14878.66
582.728	14965.44
583.089	14916.85
583.449	14921.15
583.809	14981.03
584.169	14955.72
584.529	14895.84
584.889	15080.24
585.249	14922.5
585.609	14866.91
585.969	14982.16
586.329	14849.51
586.688	14917.76
587.048	14892
587.408	14834.82
587.768	14801.83
588.127	14765.67
588.487	14765.45
588.846	14913.46
589.206	14834.82
589.565	14765.67
589.925	14781.72
590.284	14767.93
590.643	14770.19
591.003	14819.91
591.362	14812.9
591.721	14751.66
592.08	14720.7
592.44	14781.26
592.799	14780.59
593.158	14748.04
593.517	14756.86
593.876	14811.55
594.235	14655.39
594.593	14804.54
594.952	14753.47
595.311	14632.79
595.67	14687.93
596.029	14754.37
596.387	14772.45
596.746	14766.8
597.104	14689.97
597.463	14710.08
597.822	14726.8
598.18	14688.16
598.538	14663.3
598.897	14732.68
599.255	14544.21
599.613	14767.7
599.972	14637.31
600.33	14678.22
600.688	14664.66
601.046	14693.81
601.404	14757.31
601.762	14719.57
602.12	14758.21
602.478	14681.15
602.836	14725.9
603.194	14647.03
603.552	14731.1
603.91	14749.17
604.268	14748.27
604.625	14609.74
604.983	14683.87
605.341	14700.36
605.698	14666.69
606.056	14745.11
606.413	14790.08
606.771	14751.89
607.128	14709.63
607.485	14686.35
607.843	14653.81
608.2	14711.89
608.557	14763.64
608.914	14724.32
609.272	14700.36
609.629	14766.58
609.986	14863.75
610.343	14739.01
610.7	14824.2
611.057	14792.56
611.414	14775.16
611.771	14850.19
612.127	14937.19
612.484	14937.42
612.841	14943.29
613.198	14855.84
613.554	14828.72
613.911	14983.97
614.267	14959.11
614.624	14959.56
614.98	14922.96
615.337	15008.38
615.693	15020.35
616.05	14981.94
616.406	14985.1
616.762	15007.7
617.118	14957.3
617.475	15016.06
617.831	14993.46
618.187	15056.74
618.543	15077.98
618.899	15107.36
619.255	15079.56
619.611	15071.2
619.967	15129.28
620.323	15101.26
620.678	15149.16
621.034	15064.19
621.39	15098.32
621.746	15099
622.101	15209.95
622.457	15071.2
622.812	15116.17
623.168	15063.29
623.523	15067.13
623.879	15262.83
624.234	15119.56
624.589	15217.86
624.945	15109.62
625.3	15202.27
625.655	15122.27
626.01	15100.35
626.365	15164.53
626.72	15113.91
627.075	15134.47
627.43	15108.94
627.785	15169.28
628.14	15109.39
628.495	15209.95
628.85	15128.37
629.205	15059.9
629.559	15117.98
629.914	15035.95
630.269	15134.7
630.623	15002.28
630.978	15035.04
631.332	15144.64
631.687	15068.49
632.041	14973.12
632.396	15069.84
632.75	14962.95
633.104	15118.88
633.459	14917.98
633.813	14934.71
634.167	14920.24
634.521	14963.63
634.875	14891.77
635.229	14824.2
635.583	14724.54
635.937	14883.63
636.291	14790.08
636.645	14690.64
636.999	14644.09
637.352	14790.08
637.706	14730.42
638.06	14721.38
638.413	14703.98
638.767	14675.5
639.121	14728.38
639.474	14558.22
639.828	14542.17
640.181	14681.15
640.534	14717.76
640.888	14633.25
641.241	14553.02
641.594	14589.86
641.947	14589.86
642.301	14642.96
642.654	14585.56
643.007	14641.38
643.36	14581.04
643.713	14565.22
644.066	14583.98
644.419	14495.17
644.771	14458.11
645.124	14388.96
645.477	14327.49
645.83	14086.59
646.182	14122.98
646.535	14073.26
646.888	14103.54
647.24	13961.17
647.593	14086.14
647.945	14070.1
648.298	13941.51
648.65	13904.22
649.002	13964.79
649.355	14022.87
649.707	14007.5
650.059	14156.65
650.411	14193.03
650.763	14231.67
651.115	14378.56
651.467	14304.44
651.819	14278.23
652.171	14357.32
652.523	14257.89
652.875	14312.8
653.227	14228.96
653.578	14366.36
653.93	14323.65
654.282	14251.79
654.633	14234.61
654.985	14268.28
655.337	14302.86
655.688	14215.86
656.039	14422.63
656.391	14255.4
656.742	14219.92
657.094	14305.8
657.445	14331.33
657.796	14364.78
658.147	14333.14
658.498	14292.69
658.849	14374.49
659.2	14301.5
659.551	14352.35
659.902	14379.92
660.253	14375.4
660.604	14335.85
660.955	14304.89
661.306	14417.88
661.656	14368.17
662.007	14383.31
662.358	14360.71
662.708	14339.02
663.059	14327.49
663.409	14270.32
663.76	14371.11
664.11	14411.56
664.461	14449.52
664.811	14356.19
665.161	14398
665.511	14398.22
665.862	14433.93
666.212	14402.74
666.562	14315.06
666.912	14365.91
667.262	14365
667.612	14345.12
667.962	14337.21
668.312	14447.49
668.662	14382.18
669.011	14432.8
669.361	14376.98
669.711	14252.69
670.06	14186.25
670.41	14371.11
670.76	14222.86
671.109	14284.55
671.459	14321.61
671.808	14352.35
672.157	14426.7
672.507	14197.32
672.856	14218.11
673.205	14369.75
673.554	14294.5
673.904	14269.41
674.253	14357.77
674.602	14242.75
674.951	14032.13
675.3	13938.12
675.649	14235.06
675.998	14127.04
676.346	14187.38
676.695	14147.83
677.044	14031
677.393	14034.39
677.741	14216.98
678.09	14053.6
678.438	13958.23
678.787	14104.45
679.135	14042.53
679.484	13856.32
679.832	14071.9
680.181	13944.22
680.529	13968.18
680.877	13908.07
681.225	13823.55
681.573	13990.1
681.922	13877.11
682.27	13756.88
682.618	13801.4
682.966	13793.04
683.314	13891.8
683.661	13772.02
684.009	13726.15
684.357	13686.6
684.705	13680.05
685.053	13684.12
685.4	13640.5
685.748	13554.63
686.095	13547.17
686.443	13525.7
686.79	13461.3
687.138	13535.42
687.485	13516.66
687.832	13389.89
688.18	13429.66
688.527	13332.04
688.874	13310.12
689.221	13233.96
689.568	13213.17
689.915	13193.74
690.262	13233.96
690.609	13139.73
690.956	13102.44
691.303	13143.34
691.65	13069.67
691.997	13005.94
692.344	12949.67
692.69	12834.2
693.037	12818.83
693.383	12769.79
693.73	12784.48
694.077	12704.03
694.423	12673.97
694.769	12661.09
695.116	12581.1
695.462	12573.86
695.808	12572.51
696.155	12515.33
696.501	12457.03
696.847	12455.9
697.193	12332.06
697.539	12400.08
697.885	12262.01
698.231	12303.36
698.577	12176.13
698.923	12226.53
699.269	12084.39
699.614	12057.04
699.96	12067.89
700.306	12035.57
700.651	11934.79
700.997	11885.52
701.342	11866.99
701.688	11820.89
702.033	11843.94
702.379	11778.4
702.724	11716.49
703.069	11723.04
703.415	11574.12
703.76	11583.83
704.105	11599.65
704.45	11528.92
704.795	11534.12
705.14	11406.89
705.485	11360.34
705.83	11358.3
706.175	11365.08
706.52	11279.21
706.865	11265.65
707.209	11268.81
707.554	11161.47
707.899	11221.58
708.243	11192.88
708.588	11145.43
708.932	11049.84
709.277	11032.21
709.621	11075.6
709.966	10950.4
710.31	11041.7
710.654	10898.2
710.998	10910.18
711.342	10848.03
711.687	10891.2
712.031	10783.63
712.375	10737.08
712.719	10823.18
713.063	10776.85
713.407	10811.65
713.75	10690.75
714.094	10673.58
714.438	10673.8
714.782	10690.52
715.125	10637.42
715.469	10682.16
715.812	10580.24
716.156	10571.88
716.499	10492.56
716.843	10501.38
717.186	10581.83
717.53	10551.77
717.873	10509.74
718.216	10429.06
718.559	10479.91
718.902	10319.69
719.246	10335.51
719.589	10346.13
719.932	10279.01
720.275	10332.34
720.617	10344.32
720.96	10344.77
721.303	10253.47
721.646	10326.01
721.989	10250.76
722.331	10270.42
722.674	10239.01
723.016	10271.78
723.359	10290.08
723.701	10241.72
724.044	10152.46
724.386	10136.64
724.729	10217.77
725.071	10172.12
725.413	10205.34
725.755	10172.57
726.097	10141.84
726.439	10120.37
726.782	10107.49
727.124	10180.25
727.465	10123.76
727.807	10084.89
728.149	10115.17
728.491	10048.51
728.833	10094.16
729.175	10128.96
729.516	10029.75
729.858	10021.39
730.199	10003.76
730.541	9994.27
730.882	10038.11
731.224	10029.3
731.565	9942.07
731.906	10001.05
732.248	9936.19
732.589	9934.61
732.93	9938
733.271	9900.49
733.612	9995.85
733.953	9947.94
734.294	9919.02
734.635	9925.8
734.976	10020.94
735.317	9970.99
735.658	9944.78
735.999	10022.74
736.339	10000.15
736.68	10065.68
737.021	10034.5
737.361	9939.36
737.702	10019.36
738.042	10062.07
738.383	9919.02
738.723	10038.11
739.063	10005.12
739.404	10042.41
739.744	9953.82
740.084	10069.3
740.424	10036.76
740.764	10140.48
741.104	10070.2
741.444	10094.38
741.784	10073.14
742.124	10130.99
742.464	10112.23
742.804	10145
743.143	10146.81
743.483	10169.86
743.823	10143.87
744.162	10169.63
744.502	10230.42
744.841	10175.06
745.181	10284.88
745.52	10262.51
745.86	10376.86
746.199	10345
746.538	10435.62
746.877	10498.89
747.216	10467.03
747.556	10528.27
747.895	10601.26
748.234	10649.4
748.573	10599.68
748.911	10782.5
749.25	10826.11
749.589	10861.59
749.928	10904.08
750.267	11037.18
750.605	11051.64
750.944	11104.75
751.283	11145.43
751.621	11301.81
751.96	11230.62
752.298	11442.14
752.636	11507.68
752.975	11594
753.313	11725.3
753.651	11827.22
753.989	11822.7
754.327	12086.19
754.666	12162.58
755.004	12290.48
755.342	12352.18
755.679	12532.96
756.017	12586.07
756.355	12780.86
756.693	12930.01
757.031	13073.06
