Data from hue_130_FLMS001491_00065.txt Node
Date: Tue Feb 07 16:57:56 GMT 2017
User: dcchb
Spectrometer: FLMS00149
Trigger mode: 0
Integration Time (sec): 2.000000E-2
Scans to average: 10
Electric dark correction enabled: true
Nonlinearity correction enabled: false
Boxcar width: 0
XAxis mode: Wavelengths
Number of Pixels in Spectrum: 2048
>>>>>Begin Spectral Data<<<<<
341.393	-5.01
341.776	-5.01
342.16	-5.01
342.543	-81.62
342.927	-71
343.31	-70.32
343.693	-64.22
344.077	-59.25
344.46	-67.39
344.843	-54.96
345.226	-40.49
345.61	-38.69
345.993	-26.93
346.376	-19.25
346.759	33.18
347.142	32.95
347.525	49.45
347.908	54.87
348.291	69.79
348.674	88.09
349.057	113.17
349.44	107.53
349.823	149.11
350.206	157.92
350.588	183
350.971	208.54
351.354	229.78
351.737	245.6
352.119	246.05
352.502	272.94
352.884	278.14
353.267	266.84
353.65	303
354.032	293.96
354.414	289.67
354.797	299.61
355.179	327.63
355.562	319.27
355.944	331.25
356.326	341.19
356.709	354.52
357.091	344.13
357.473	324.02
357.855	326.5
358.238	352.94
358.62	349.33
359.002	330.34
359.384	341.42
359.766	321.31
360.148	336.45
360.53	338.48
360.912	338.25
361.294	327.63
361.676	331.7
362.057	326.05
362.439	326.28
362.821	313.4
363.203	306.16
363.584	318.82
363.966	335.99
364.348	338.48
364.729	344.81
365.111	330.8
365.493	318.82
365.874	342.1
366.256	317.24
366.637	326.95
367.019	316.33
367.4	317.46
367.781	323.34
368.163	324.47
368.544	306.62
368.925	317.01
369.306	333.28
369.688	305.71
370.069	326.73
370.45	320.85
370.831	317.24
371.212	323.79
371.593	328.54
371.974	320.63
372.355	309.55
372.736	321.08
373.117	325.15
373.498	336.45
373.879	304.81
374.26	296
374.641	316.79
375.021	321.31
375.402	330.8
375.783	338.71
376.163	354.75
376.544	323.11
376.925	327.63
377.305	333.96
377.686	333.28
378.066	325.82
378.447	344.58
378.827	345.49
379.208	339.61
379.588	329.67
379.968	366.05
380.349	373.51
380.729	342.77
381.109	327.41
381.489	349.78
381.87	331.93
382.25	333.96
382.63	338.71
383.01	338.71
383.39	370.8
383.77	339.84
384.15	356.78
384.53	371.02
384.91	351.13
385.29	362.21
385.67	354.3
386.049	373.51
386.429	361.98
386.809	363.56
387.189	370.57
387.568	335.99
387.948	368.31
388.328	361.76
388.707	353.85
389.087	367.86
389.466	391.13
389.846	382.09
390.225	373.28
390.605	386.16
390.984	391.13
391.363	377.35
391.743	365.82
392.122	383
392.501	375.54
392.881	393.39
393.26	407.63
393.639	387.74
394.018	399.95
394.397	386.61
394.776	405.6
395.155	396.11
395.534	398.37
395.913	394.3
396.292	406.5
396.671	398.82
397.05	404.69
397.429	400.4
397.808	408.08
398.186	401.53
398.565	398.59
398.944	395.88
399.323	419.83
399.701	392.26
400.08	427.07
400.458	423.45
400.837	427.97
401.215	429.78
401.594	419.61
401.972	418.93
402.351	427.29
402.729	394.3
403.107	409.21
403.486	431.36
403.864	448.31
404.242	412.6
404.62	439.27
404.999	436.56
405.377	424.81
405.755	446.73
406.133	434.52
406.511	450.12
406.889	444.24
407.267	460.51
407.645	453.96
408.023	471.36
408.401	453.73
408.779	451.02
409.156	478.14
409.534	448.76
409.912	457.57
410.29	445.6
410.667	468.42
411.045	476.33
411.422	497.35
411.8	481.3
412.178	512.26
412.555	482.88
412.933	505.93
413.31	492.6
413.687	517.46
414.065	513.16
414.442	506.38
414.819	491.24
415.197	510.45
415.574	491.92
415.951	520.4
416.328	536.89
416.705	520.17
417.082	553.84
417.46	553.16
417.837	536.44
418.214	540.28
418.591	515.2
418.967	559.72
419.344	526.72
419.721	557.46
420.098	562.43
420.475	549.77
420.852	558.59
421.228	574.18
421.605	565.59
421.982	589.09
422.358	571.69
422.735	586.83
423.111	591.13
423.488	595.65
423.864	589.32
424.241	628.42
424.617	598.59
424.994	609.89
425.37	622.31
425.746	601.52
426.123	618.7
426.499	631.81
426.875	641.75
427.251	617.12
427.627	656.66
428.003	651.47
428.379	644.01
428.756	636.33
429.132	652.82
429.507	668.87
429.883	682.43
430.259	669.09
430.635	689.43
431.011	650.34
431.387	706.15
431.763	702.76
432.138	698.02
432.514	714.29
432.89	698.02
433.265	712.03
433.641	730.11
434.016	722.42
434.392	707.51
434.767	766.94
435.143	733.5
435.518	763.55
435.894	766.49
436.269	772.14
436.644	750.9
437.02	772.37
437.395	800.39
437.77	786.38
438.145	808.98
438.52	810.78
438.895	829.54
439.271	811.69
439.646	841.52
440.021	856.21
440.395	854.4
440.77	848.75
441.145	836.32
441.52	864.12
441.895	842.42
442.27	887.17
442.645	877.67
443.019	860.27
443.394	898.24
443.769	929.65
444.143	897.11
444.518	899.59
444.892	932.36
445.267	934.62
445.641	919.03
446.016	942.98
446.39	922.87
446.764	954.06
447.139	956.99
447.513	925.58
447.887	956.77
448.262	966.71
448.636	957.9
449.01	993.38
449.384	967.62
449.758	961.97
450.132	965.81
450.506	1000.84
450.88	1003.32
451.254	993.15
451.628	1048.29
452.002	1044
452.376	1045.58
452.75	1048.52
453.123	1069.31
453.497	1064.34
453.871	1080.61
454.244	1073.6
454.618	1121.28
454.992	1131
455.365	1124.9
455.739	1161.51
456.112	1166.48
456.486	1157.22
456.859	1182.53
457.232	1215.29
457.606	1203.09
457.979	1208.97
458.352	1232.02
458.725	1241.73
459.099	1267.04
459.472	1288.29
459.845	1279.02
460.218	1287.16
460.591	1291.22
460.964	1305.91
461.337	1335.97
461.71	1374.61
462.083	1388.85
462.456	1397.21
462.829	1382.52
463.201	1419.81
463.574	1459.13
463.947	1460.26
464.32	1505.23
464.692	1504.78
465.065	1526.02
465.438	1533.48
465.81	1558.11
466.183	1603.31
466.555	1644.66
466.928	1622.29
467.3	1658.45
467.672	1664.32
468.045	1707.26
468.417	1742.06
468.789	1738.44
469.161	1777.76
469.534	1820.93
469.906	1865.9
470.278	1878.1
470.65	1908.38
471.022	1928.27
471.394	1979.34
471.766	2025.22
472.138	2058.21
472.51	2093.91
472.882	2143.63
473.253	2165.55
473.625	2211.2
473.997	2276.51
474.369	2293.23
474.74	2314.47
475.112	2361.93
475.484	2455.94
475.855	2472.89
476.227	2573.45
476.598	2657.97
476.97	2689.15
477.341	2796.27
477.713	2829.94
478.084	2869.03
478.455	3022.7
478.827	3007.56
479.198	3112.19
479.569	3162.81
479.94	3254.79
480.311	3356.48
480.682	3466.31
481.053	3581.78
481.424	3623.14
481.795	3761.89
482.166	3816.81
482.537	3946.29
482.908	4039.85
483.279	4100.64
483.65	4270.58
484.021	4411.82
484.391	4477.13
484.762	4563.45
485.133	4664.02
485.503	4796.22
485.874	4974.97
486.244	5111.69
486.615	5193.49
486.985	5296.54
487.356	5485.92
487.726	5599.36
488.097	5799.58
488.467	5800.26
488.837	6024.43
489.207	6117.99
489.578	6256.52
489.948	6425.55
490.318	6587.81
490.688	6651.08
491.058	6779.89
491.428	6947.12
491.798	7113.22
492.168	7280.67
492.538	7385.07
492.908	7541.91
493.278	7706.42
493.648	7847.89
494.017	7985.06
494.387	8113.42
494.757	8298.95
495.126	8353.41
495.496	8492.39
495.866	8602.22
496.235	8765.38
496.605	8865.04
496.974	9028.65
497.344	9121.3
497.713	9279.04
498.082	9365.81
498.452	9476.54
498.821	9598.35
499.19	9701.85
499.559	9894.39
499.928	9910.88
500.298	10046.7
500.667	10233.36
501.036	10254.83
501.405	10434.49
501.774	10455.28
502.143	10661.6
502.512	10636.29
502.88	10799.22
503.249	10874.25
503.618	11008.71
503.987	11066.33
504.356	11143.39
504.724	11226.1
505.093	11307
505.462	11455.7
505.83	11448.24
506.199	11568.47
506.567	11714.45
506.936	11707.45
507.304	11918.51
507.672	11964.16
508.041	12008.46
508.409	12141.56
508.777	12211.16
509.145	12251.39
509.514	12279.41
509.882	12400.54
510.25	12394.66
510.618	12455.9
510.986	12491.83
511.354	12612.73
511.722	12676.23
512.09	12826.29
512.458	12801.2
512.826	12940.63
513.193	12956.23
513.561	13013.4
513.929	13096.34
514.297	13073.74
514.664	13234.64
515.032	13273.05
515.4	13340.85
515.767	13359.83
516.135	13432.37
516.502	13270.34
516.869	13466.95
517.237	13523.44
517.604	13574.29
517.972	13674.17
518.339	13616.77
518.706	13612.03
519.073	13711.24
519.44	13754.4
519.808	13903.09
520.175	13808.86
520.542	14033.49
520.909	13995.07
521.276	13948.29
521.643	14206.36
522.009	14102.86
522.376	14154.16
522.743	14185.57
523.11	14221.5
523.477	14297.43
523.843	14314.61
524.21	14436.87
524.577	14485.9
524.943	14477.32
525.31	14510.99
525.676	14561.61
526.043	14617.2
526.409	14636.18
526.776	14787.14
527.142	14751.21
527.508	14758.67
527.874	14874.59
528.241	14749.85
528.607	14882.05
528.973	14903.29
529.339	14845.89
529.705	14914.14
530.071	14901.03
530.437	14877.98
530.803	14960.92
531.169	14995.5
531.535	14869.17
531.901	14864.43
532.267	14956.17
532.632	14988.04
532.998	14959.11
533.364	14928.38
533.73	14895.61
534.095	14926.34
534.461	14920.24
534.826	14980.81
535.192	14877.98
535.557	15021.48
535.923	14995.95
536.288	14927.93
536.653	14927.47
537.019	14815.61
537.384	14816.97
537.749	14808.16
538.114	14896.29
538.479	14815.84
538.845	14775.39
539.21	14745.78
539.575	14658.33
539.94	14765.45
540.305	14712.34
540.67	14633.7
541.034	14665.11
541.399	14699.01
541.764	14662.4
542.129	14613.58
542.494	14572.68
542.858	14517.32
543.223	14516.64
543.587	14549.18
543.952	14516.41
544.316	14440.03
544.681	14406.36
545.045	14352.12
545.41	14378.56
545.774	14409.07
546.138	14364.1
546.503	14297.66
546.867	14246.14
547.231	14273.48
547.595	14294.05
547.959	14284.78
548.324	14220.6
548.688	14111.45
549.052	14107.16
549.416	14089.76
549.779	14021.06
550.143	13997.78
550.507	14077.55
550.871	14014.5
551.235	13927.95
551.599	14045.69
551.962	13971.57
552.326	13922.98
552.689	14032.58
553.053	13877.33
553.417	13762.76
553.78	13950.78
554.143	13812.25
554.507	13864
554.87	13810.89
555.234	13931.12
555.597	13762.76
555.96	13728.64
556.323	13795.3
556.686	13719.82
557.05	13787.62
557.413	13744
557.776	13772.7
558.139	13870.78
558.502	13686.38
558.865	13742.2
559.228	13764.34
559.59	13750.33
559.953	13736.09
560.316	13819.71
560.679	13779.93
561.041	13831.68
561.404	13782.87
561.767	13833.27
562.129	13735.64
562.492	13922.76
562.854	13817.22
563.217	13785.81
563.579	13837.79
563.941	13919.59
564.304	13966.82
564.666	13920.04
565.028	13919.82
565.39	13863.77
565.753	13994.17
566.115	14002.75
566.477	14012.92
566.839	14037.78
567.201	14122.75
567.563	13964.56
567.925	14156.65
568.287	14049.08
568.648	14063.09
569.01	14128.17
569.372	14083.43
569.734	14096.31
570.095	14207.72
570.457	14214.5
570.819	14226.7
571.18	14188.06
571.542	14275.74
571.903	14294.95
572.265	14281.84
572.626	14340.82
572.987	14313.93
573.349	14322.74
573.71	14348.51
574.071	14421.5
574.432	14436.64
574.794	14466.7
575.155	14423.31
575.516	14438.45
575.877	14463.31
576.238	14463.31
576.599	14511.21
576.96	14453.81
577.32	14490.42
577.681	14546.69
578.042	14477.77
578.403	14481.84
578.763	14533.59
579.124	14462.63
579.485	14515.96
579.845	14497.2
580.206	14485.68
580.566	14565.9
580.927	14536.52
581.287	14552.12
581.648	14478.67
582.008	14582.17
582.368	14545.11
582.728	14520.03
583.089	14466.47
583.449	14391.9
583.809	14484.77
584.169	14605.45
584.529	14418.56
584.889	14565.9
585.249	14478.22
585.609	14401.16
585.969	14491.33
586.329	14399.13
586.688	14474.61
587.048	14473.93
587.408	14283.65
587.768	14317.1
588.127	14350.31
588.487	14269.64
588.846	14441.16
589.206	14317.32
589.565	14280.71
589.925	14435.28
590.284	14342.41
590.643	14395.74
591.003	14386.02
591.362	14364.78
591.721	14269.41
592.08	14304.44
592.44	14310.99
592.799	14306.25
593.158	14261.96
593.517	14301.73
593.876	14325.91
594.235	14313.71
594.593	14303.99
594.952	14286.81
595.311	14261.96
595.67	14221.28
596.029	14298.56
596.387	14221.05
596.746	14299.92
597.104	14243.65
597.463	14313.48
597.822	14184.9
598.18	14185.12
598.538	14208.17
598.897	14254.05
599.255	14131.34
599.613	14407.04
599.972	14249.75
600.33	14280.26
600.688	14308.96
601.046	14256.76
601.404	14260.15
601.762	14279.58
602.12	14319.36
602.478	14307.38
602.836	14299.02
603.194	14201.39
603.552	14292.01
603.91	14142.41
604.268	14297.21
604.625	14325.91
604.983	14268.28
605.341	14238.45
605.698	14255.18
606.056	14369.07
606.413	14438
606.771	14293.37
607.128	14356.64
607.485	14323.2
607.843	14327.49
608.2	14348.28
608.557	14404.1
608.914	14369.98
609.272	14384.89
609.629	14414.49
609.986	14428.28
610.343	14440.93
610.7	14458.33
611.057	14418.56
611.414	14351.22
611.771	14437.32
612.127	14514.83
612.484	14527.49
612.841	14541.27
613.198	14517.09
613.554	14459.46
613.911	14574.04
614.267	14627.14
614.624	14465.79
614.98	14489.75
615.337	14612.91
615.693	14546.69
616.05	14583.3
616.406	14643.19
616.762	14587.14
617.118	14607.03
617.475	14613.81
617.831	14660.36
618.187	14688.84
618.543	14645
618.899	14747.82
619.255	14660.59
619.611	14628.95
619.967	14798.66
620.323	14769.29
620.678	14750.3
621.034	14716.41
621.39	14621.72
621.746	14572.91
622.101	14717.99
622.457	14755.73
622.812	14713.02
623.168	14702.17
623.523	14778.33
623.879	14762.06
624.234	14662.17
624.589	14697.2
624.945	14701.72
625.3	14808.61
625.655	14819.91
626.01	14779.68
626.365	14730.42
626.72	14783.52
627.075	14670.98
627.43	14681.38
627.785	14648.84
628.14	14661.04
628.495	14704.43
628.85	14757.08
629.205	14587.37
629.559	14676.41
629.914	14652
630.269	14714.37
630.623	14579.91
630.978	14546.47
631.332	14572.68
631.687	14595.96
632.041	14612.68
632.396	14585.11
632.75	14536.75
633.104	14598.9
633.459	14509.63
633.813	14546.24
634.167	14537.43
634.521	14449.52
634.875	14484.77
635.229	14415.17
635.583	14384.66
635.937	14405.91
636.291	14369.75
636.645	14419.69
636.999	14341.73
637.352	14333.59
637.706	14308.51
638.06	14398.68
638.413	14361.84
638.767	14322.07
639.121	14318.45
639.474	14221.73
639.828	14292.24
640.181	14200.49
640.534	14234.16
640.888	14194.16
641.241	14131.11
641.594	14192.13
641.947	14149.64
642.301	14104.9
642.654	14195.74
643.007	14223.09
643.36	14209.08
643.713	14073.94
644.066	14158.46
644.419	14082.98
644.771	13944.9
645.124	13864.9
645.477	13824.68
645.83	13790.33
646.182	13671.69
646.535	13671.01
646.888	13661.29
647.24	13603.22
647.593	13670.56
647.945	13621.75
648.298	13567.28
648.65	13578.36
649.002	13544.69
649.355	13584.23
649.707	13655.42
650.059	13680.05
650.411	13740.61
650.763	13825.36
651.115	13939.25
651.467	13905.81
651.819	13909.2
652.171	13896.09
652.523	13789.2
652.875	13924.34
653.227	13792.82
653.578	13846.37
653.93	13850.21
654.282	13827.39
654.633	13863.32
654.985	13883.66
655.337	13917.33
655.688	13930.21
656.039	13969.53
656.391	13711.69
656.742	13841.63
657.094	13895.41
657.445	13894.96
657.796	13898.58
658.147	13858.12
658.498	13829.2
658.849	13889.08
659.2	13899.93
659.551	13876.88
659.902	13890.89
660.253	13991.91
660.604	13947.84
660.955	13906.26
661.306	13924.34
661.656	13915.07
662.007	13914.39
662.358	13962.3
662.708	13941.74
663.059	13932.25
663.409	13793.95
663.76	13938.12
664.11	13954.39
664.461	13955.75
664.811	13868.97
665.161	13871.01
665.511	13898.35
665.862	13911.68
666.212	13975.86
666.562	13915.98
666.912	13941.51
667.262	13862.42
667.612	13843.66
667.962	13969.99
668.312	13897.45
668.662	13947.61
669.011	13874.17
669.361	13925.69
669.711	13925.02
670.06	13853.6
670.41	13865.36
670.76	13802.76
671.109	13836.66
671.459	13810.67
671.808	13821.52
672.157	13878.91
672.507	13774.96
672.856	13799.14
673.205	13812.02
673.554	13810.44
673.904	13803.44
674.253	13875.3
674.602	13855.41
674.951	13643.89
675.3	13553.5
675.649	13730.22
675.998	13729.99
676.346	13653.38
676.695	13761.86
677.044	13615.64
677.393	13665.59
677.741	13708.3
678.09	13706.94
678.438	13704.23
678.787	13678.92
679.135	13664.68
679.484	13470.11
679.832	13557.79
680.181	13553.05
680.529	13517.57
680.877	13543.1
681.225	13418.59
681.573	13437.57
681.922	13398.48
682.27	13335.88
682.618	13363.22
682.966	13409.77
683.314	13318.48
683.661	13320.51
684.009	13264.24
684.357	13197.35
684.705	13143.11
685.053	13293.62
685.4	13212.94
685.748	13059.05
686.095	13123
686.443	13049.11
686.79	13056.11
687.138	13110.57
687.485	13027.86
687.832	13006.17
688.18	12998.49
688.527	12914.65
688.874	12915.55
689.221	12815.89
689.568	12854.76
689.915	12778.83
690.262	12779.96
690.609	12744.93
690.956	12659.29
691.303	12674.2
691.65	12645.05
691.997	12654.99
692.344	12525.96
692.69	12507.65
693.037	12576.12
693.383	12262.69
693.73	12354.66
694.077	12225.85
694.423	12348.33
694.769	12229.01
695.116	12242.35
695.462	12268.79
695.808	12146.53
696.155	12146.3
696.501	12032.41
696.847	12071.5
697.193	11958.29
697.539	12066.76
697.885	11915.8
698.231	11952.64
698.577	11861.11
698.923	11858.63
699.269	11817.95
699.614	11695.7
699.96	11718.97
700.306	11702.25
700.651	11582.7
700.997	11505.42
701.342	11450.28
701.688	11511.52
702.033	11459.77
702.379	11411.18
702.724	11359.88
703.069	11404.86
703.415	11219.78
703.76	11221.58
704.105	11241.7
704.45	11259.32
704.795	11225.43
705.14	11092.55
705.485	11115.82
705.83	11085.99
706.175	11087.58
706.52	10985.66
706.865	10892.33
707.209	10918.54
707.554	10937.52
707.899	10959.67
708.243	10881.93
708.588	10809.39
708.932	10758.77
709.277	10821.14
709.621	10727.81
709.966	10703.18
710.31	10748.38
710.654	10561.71
710.998	10619.11
711.342	10647.81
711.687	10522.17
712.031	10589.28
712.375	10443.3
712.719	10555.16
713.063	10479.46
713.407	10504.31
713.75	10466.12
714.094	10439.46
714.438	10357.43
714.782	10372.57
715.125	10353.81
715.469	10369.85
715.812	10353.58
716.156	10291.44
716.499	10284.66
716.843	10333.47
717.186	10199.69
717.53	10348.16
717.873	10248.73
718.216	10140.03
718.559	10203.53
718.902	10159.46
719.246	10155.4
719.589	10105.91
719.932	10131.89
720.275	10104.55
720.617	10093.7
720.96	10079.24
721.303	10011.9
721.646	10051.9
721.989	9983.88
722.331	10053.93
722.674	10032.46
723.016	10015.74
723.359	9980.26
723.701	10000.6
724.044	9915.86
724.386	9894.16
724.729	9938.68
725.071	9874.27
725.413	9895.52
725.755	9903.43
726.097	9887.16
726.439	9883.31
726.782	9896.19
727.124	9831.56
727.465	9814.84
727.807	9868.4
728.149	9831.11
728.491	9782.53
728.833	9817.1
729.175	9814.16
729.516	9816.65
729.858	9811.23
730.199	9862.75
730.541	9771.68
730.882	9678.8
731.224	9723.77
731.565	9738.01
731.906	9665.92
732.248	9738.46
732.589	9693.26
732.93	9736.65
733.271	9675.64
733.612	9743.2
733.953	9709.53
734.294	9692.81
734.635	9718.57
734.976	9682.64
735.317	9675.86
735.658	9695.52
735.999	9655.97
736.339	9723.77
736.68	9745.01
737.021	9656.43
737.361	9667.95
737.702	9748.18
738.042	9680.83
738.383	9709.98
738.723	9748.63
739.063	9729.19
739.404	9712.47
739.744	9783.88
740.084	9734.39
740.424	9782.53
740.764	9739.36
741.104	9814.61
741.444	9795.86
741.784	9832.47
742.124	9788.85
742.464	9825.01
742.804	9801.06
743.143	9813.94
743.483	9864.56
743.823	9894.39
744.162	9873.82
744.502	9957.21
744.841	9935.74
745.181	10058.9
745.52	9991.56
745.86	10112.69
746.199	10089.18
746.538	10085.12
746.877	10206.47
747.216	10291.21
747.556	10251.21
747.895	10225.68
748.234	10354.26
748.573	10372.34
748.911	10459.12
749.25	10468.83
749.589	10551.09
749.928	10622.28
750.267	10706.79
750.605	10731.2
750.944	10813.91
751.283	10800.8
751.621	10958.54
751.96	11071.3
752.298	11120.34
752.636	11276.27
752.975	11299.1
753.313	11350.85
753.651	11535.47
753.989	11587
754.327	11667.22
754.666	11765.52
755.004	11948.34
755.342	12077.61
755.679	12243.48
756.017	12283.93
756.355	12451.38
756.693	12638.5
757.031	12638.5
757.368	12836.23
757.706	12925.49
