Data from hue_240_FLMS001491_00021.txt Node
Date: Tue Feb 07 16:35:14 GMT 2017
User: dcchb
Spectrometer: FLMS00149
Trigger mode: 0
Integration Time (sec): 2.000000E-2
Scans to average: 10
Electric dark correction enabled: true
Nonlinearity correction enabled: false
Boxcar width: 0
XAxis mode: Wavelengths
Number of Pixels in Spectrum: 2048
>>>>>Begin Spectral Data<<<<<
341.393	-28.76
341.776	-28.76
342.16	-28.76
342.543	-86.83
342.927	-75.31
343.31	-67.17
343.693	-60.62
344.077	-47.51
344.46	-51.13
344.843	-33.5
345.226	-30.11
345.61	-44.35
345.993	-9.77
346.376	-19.72
346.759	-0.96
347.142	21.19
347.525	51.69
347.908	37.68
348.291	70.45
348.674	83.33
349.057	100.51
349.44	135.08
349.823	152.93
350.206	185.93
350.588	195.64
350.971	173.05
351.354	207.62
351.737	258.69
352.119	253.27
352.502	264.8
352.884	266.6
353.267	274.96
353.65	300.05
354.032	285.81
354.414	277.9
354.797	300.73
355.179	310.22
355.562	321.74
355.944	315.64
356.326	340.27
356.709	349.54
357.091	336.43
357.473	332.36
357.855	331.46
358.238	339.6
358.62	349.09
359.002	325.58
359.384	353.83
359.766	333.27
360.148	360.16
360.53	323.1
360.912	310.44
361.294	326.71
361.676	325.58
362.057	334.17
362.439	351.57
362.821	336.21
363.203	323.1
363.584	312.48
363.966	347.28
364.348	326.94
364.729	316.77
365.111	333.49
365.493	310.22
365.874	318.58
366.256	318.35
366.637	299.82
367.019	321.97
367.4	301.18
367.781	325.36
368.163	317.45
368.544	314.51
368.925	302.99
369.306	309.54
369.688	314.74
370.069	289.65
370.45	285.59
370.831	297.11
371.212	314.51
371.593	296.88
371.974	308.64
372.355	305.02
372.736	295.08
373.117	305.92
373.498	309.99
373.879	294.85
374.26	302.08
374.641	318.13
375.021	283.55
375.402	309.99
375.783	323.32
376.163	330.33
376.544	312.48
376.925	314.06
377.305	301.4
377.686	298.24
378.066	328.07
378.447	313.16
378.827	341.86
379.208	325.13
379.588	325.13
379.968	315.64
380.349	314.06
380.729	338.24
381.109	318.81
381.489	330.1
381.87	328.3
382.25	317.22
382.63	339.82
383.01	348.18
383.39	348.18
383.77	338.92
384.15	332.59
384.53	328.97
384.91	344.34
385.29	349.76
385.67	359.93
386.049	352.93
386.429	360.84
386.809	349.09
387.189	355.19
387.568	349.31
387.948	335.3
388.328	342.31
388.707	354.28
389.087	373.49
389.466	382.98
389.846	373.27
390.225	350.44
390.605	364.68
390.984	358.8
391.363	359.48
391.743	361.06
392.122	377.56
392.501	395.41
392.881	368.75
393.26	346.38
393.639	382.98
394.018	374.17
394.397	347.73
394.776	358.35
395.155	382.53
395.534	387.05
395.913	396.77
396.292	374.62
396.671	361.97
397.05	383.44
397.429	412.14
397.808	404.23
398.186	375.3
398.565	389.76
398.944	395.41
399.323	394.74
399.701	431.34
400.08	410.55
400.458	420.72
400.837	417.11
401.215	412.81
401.594	410.1
401.972	410.78
402.351	418.69
402.729	408.75
403.107	425.24
403.486	405.81
403.864	419.59
404.242	427.28
404.62	434.28
404.999	433.83
405.377	456.43
405.755	438.58
406.133	444.23
406.511	459.37
406.889	459.14
407.267	468.18
407.645	471.12
408.023	461.17
408.401	470.89
408.779	475.41
409.156	476.32
409.534	474.73
409.912	500.27
410.29	528.07
410.667	524.45
411.045	492.81
411.422	505.47
411.8	509.31
412.178	518.12
412.555	526.48
412.933	555.64
413.31	551.79
413.687	559.48
414.065	561.74
414.442	570.1
414.819	562.64
415.197	579.36
415.574	579.14
415.951	609.87
416.328	565.8
416.705	559.7
417.082	578.01
417.46	606.93
417.837	643.54
418.214	606.26
418.591	636.76
418.967	639.25
419.344	634.96
419.721	639.25
420.098	655.29
420.475	664.11
420.852	652.13
421.228	684.22
421.605	662.98
421.982	694.84
422.358	711.79
422.735	687.84
423.111	696.65
423.488	721.05
423.864	736.87
424.241	749.75
424.617	756.31
424.994	769.41
425.37	730.77
425.746	782.97
426.123	789.08
426.499	811.22
426.875	808.28
427.251	817.55
427.627	820.26
428.003	836.53
428.379	842.41
428.756	866.81
429.132	858.23
429.507	844.44
429.883	859.58
430.259	898.9
430.635	908.17
431.011	905.91
431.387	920.37
431.763	965.79
432.138	946.81
432.514	952.69
432.89	953.82
433.265	983.19
433.641	1010.76
434.016	1015.74
434.392	1029.52
434.767	1054.61
435.143	1041.95
435.518	1057.32
435.894	1065.9
436.269	1093.25
436.644	1094.38
437.02	1104.77
437.395	1129.63
437.77	1115.85
438.145	1176.64
438.52	1199.23
438.895	1186.58
439.271	1215.73
439.646	1232.91
440.021	1250.08
440.395	1247.37
440.77	1232.91
441.145	1262.74
441.52	1312.45
441.895	1310.19
442.27	1308.16
442.645	1338.67
443.019	1344.77
443.394	1344.77
443.769	1352.68
444.143	1359.23
444.518	1377.53
444.892	1376.86
445.267	1389.06
445.641	1404.65
446.016	1388.83
446.39	1416.18
446.764	1437.87
447.139	1420.47
447.513	1470.19
447.887	1453.46
448.262	1433.13
448.636	1484.88
449.01	1499.79
449.384	1504.76
449.758	1521.49
450.132	1539.56
450.506	1544.76
450.88	1549.06
451.254	1574.14
451.628	1585.66
452.002	1586.12
452.376	1624.99
452.75	1642.39
453.123	1621.6
453.497	1641.71
453.871	1662.05
454.244	1701.59
454.618	1712.67
454.992	1702.95
455.365	1709.96
455.739	1783.4
456.112	1762.61
456.486	1748.82
456.859	1788.37
457.232	1859.33
457.606	1824.08
457.979	1839.67
458.352	1894.81
458.725	1918.09
459.099	1940.01
459.472	1915.37
459.845	1963.73
460.218	1958.08
460.591	2002.6
460.964	2026.56
461.337	2048.7
461.71	2065.2
462.083	2094.35
462.456	2096.84
462.829	2126.22
463.201	2148.59
463.574	2146.33
463.947	2151.75
464.32	2222.48
464.692	2254.12
465.065	2245.99
465.438	2282.14
465.81	2332.54
466.183	2330.28
466.555	2370.05
466.928	2387.45
467.3	2404.17
467.672	2403.04
468.045	2497.73
468.417	2484.62
468.789	2455.25
469.161	2549.26
469.534	2556.26
469.906	2589.25
470.278	2631.51
470.65	2648.46
471.022	2701.57
471.394	2773.43
471.766	2750.15
472.138	2818.85
472.51	2840.55
472.882	2896.59
473.253	2933.65
473.625	2933.88
473.997	3016.36
474.369	3000.99
474.74	3056.59
475.112	3129.35
475.484	3125.29
475.855	3198.28
476.227	3201.89
476.598	3244.83
476.97	3274.43
477.341	3417.48
477.713	3429.91
478.084	3451.6
478.455	3497.93
478.827	3547.65
479.198	3600.3
479.569	3618.61
479.94	3758.71
480.311	3726.4
480.682	3838.94
481.053	3860.86
481.424	3940.4
481.795	3975.88
482.166	4033.96
482.537	4049.78
482.908	4144.02
483.279	4164.13
483.65	4261.3
484.021	4321.64
484.391	4331.58
484.762	4408.87
485.133	4453.61
485.503	4471.46
485.874	4546.72
486.244	4575.87
486.615	4664.91
486.985	4685.92
487.356	4748.07
487.726	4784.68
488.097	4942.41
488.467	4948.74
488.837	5029.42
489.207	5059.02
489.578	5131.11
489.948	5163.88
490.318	5212.69
490.688	5235.74
491.058	5333.81
491.428	5326.13
491.798	5390.76
492.168	5486.13
492.538	5516.18
492.908	5573.58
493.278	5647.48
493.648	5616.07
494.017	5706.23
494.387	5742.62
494.757	5799.79
495.126	5813.8
495.496	5868.94
495.866	5870.75
496.235	5930.18
496.605	5963.4
496.974	6007.92
497.344	6031.2
497.713	6056.28
498.082	6081.59
498.452	6094.47
498.821	6178.76
499.19	6178.09
499.559	6279.78
499.928	6243.17
500.298	6254.02
500.667	6364.97
501.036	6269.61
501.405	6348.93
501.774	6360.23
502.143	6445.88
502.512	6441.81
502.88	6515.48
503.249	6517.06
503.618	6569.26
503.987	6588.47
504.356	6613.1
504.724	6625.98
505.093	6629.83
505.462	6608.13
505.83	6711.63
506.199	6735.81
506.567	6836.6
506.936	6784.62
507.304	6816.04
507.672	6884.96
508.041	6845.87
508.409	6865.07
508.777	6936.71
509.145	6979.2
509.514	6898.07
509.882	7011.74
510.25	6999.31
510.618	7025.75
510.986	7036.59
511.354	7090.38
511.722	7130.38
512.09	7169.02
512.458	7142.81
512.826	7221
513.193	7198.4
513.561	7176.48
513.929	7190.26
514.297	7236.36
514.664	7257.15
515.032	7319.98
515.4	7367.89
515.767	7359.07
516.135	7428.45
516.502	7341.22
516.869	7467.77
517.237	7427.32
517.604	7438.17
517.972	7373.53
518.339	7497.6
518.706	7494.44
519.073	7439.52
519.44	7508.9
519.808	7623.7
520.175	7545.28
520.542	7647.43
520.909	7663.47
521.276	7608.56
521.643	7721.77
522.009	7717.48
522.376	7721.1
522.743	7743.92
523.11	7821.43
523.477	7858.95
523.843	7855.56
524.21	7884.26
524.577	7911.83
524.943	7955.44
525.31	7908.89
525.676	7976.23
526.043	8009.68
526.409	8034.99
526.776	8063.46
527.142	8109.79
527.508	8090.8
527.874	8155.89
528.241	8157.7
528.607	8168.77
528.973	8192.5
529.339	8108.43
529.705	8219.84
530.071	8193.17
530.437	8271.14
530.803	8263.46
531.169	8260.74
531.535	8220.07
531.901	8198.37
532.267	8231.37
532.632	8255.77
532.998	8236.79
533.364	8279.5
533.73	8290.8
534.095	8329.44
534.461	8312.72
534.826	8364.7
535.192	8328.76
535.557	8366.73
535.923	8338.26
536.288	8329.89
536.653	8339.16
537.019	8345.26
537.384	8319.95
537.749	8277.47
538.114	8333.74
538.479	8287.41
538.845	8302.55
539.21	8292.61
539.575	8299.16
539.94	8307.75
540.305	8324.92
540.67	8303.68
541.034	8292.83
541.399	8232.5
541.764	8314.3
542.129	8305.04
542.494	8287.64
542.858	8305.71
543.223	8268.2
543.587	8258.71
543.952	8241.08
544.316	8270.01
544.681	8234.53
545.045	8211.7
545.41	8238.6
545.774	8323.34
546.138	8230.69
546.503	8352.49
546.867	8199.95
547.231	8297.8
547.595	8290.57
547.959	8299.39
548.324	8279.95
548.688	8277.47
549.052	8257.58
549.416	8239.27
549.779	8215.77
550.143	8248.09
550.507	8272.49
550.871	8276.11
551.235	8205.83
551.599	8287.86
551.962	8219.61
552.326	8214.64
552.689	8260.52
553.053	8217.81
553.417	8255.55
553.78	8264.58
554.143	8201.54
554.507	8252.61
554.87	8296
555.234	8320.18
555.597	8258.48
555.96	8267.52
556.323	8319.72
556.686	8304.58
557.05	8319.27
557.413	8338.03
557.776	8327.86
558.139	8377.35
558.502	8364.92
558.865	8366.28
559.228	8401.98
559.59	8402.21
559.953	8407.18
560.316	8491.02
560.679	8469.78
561.041	8497.57
561.404	8476.56
561.767	8532.37
562.129	8469.1
562.492	8569.66
562.854	8541.19
563.217	8590.9
563.579	8563.11
563.941	8619.6
564.304	8573.5
564.666	8613.73
565.028	8703.9
565.39	8707.51
565.753	8720.62
566.115	8689.88
566.477	8779.83
566.839	8771.46
567.201	8819.6
567.563	8786.15
567.925	8891.46
568.287	8898.01
568.648	8808.75
569.01	8959.93
569.372	8949.09
569.734	8917.22
570.095	9002.42
570.457	9009.2
570.819	9041.97
571.18	9033.83
571.542	9036.99
571.903	9054.62
572.265	9069.99
572.626	9137.1
572.987	9102.53
573.349	9198.8
573.71	9204.67
574.071	9175.97
574.432	9203.54
574.794	9255.75
575.155	9232.02
575.516	9301.17
575.877	9243.09
576.238	9286.03
576.599	9415.52
576.96	9296.42
577.32	9415.06
577.681	9361.73
578.042	9351.34
578.403	9423.65
578.763	9499.13
579.124	9452.35
579.485	9508.39
579.845	9538
580.206	9526.25
580.566	9492.12
580.927	9492.8
581.287	9551.56
581.648	9582.97
582.008	9621.84
582.368	9619.58
582.728	9636.07
583.089	9645.11
583.449	9636.53
583.809	9635.17
584.169	9679.69
584.529	9542.52
584.889	9695.73
585.249	9630.88
585.609	9648.28
585.969	9764.66
586.329	9639.69
586.688	9679.46
587.048	9727.15
587.408	9721.72
587.768	9748.16
588.127	9733.92
588.487	9747.26
588.846	9775.73
589.206	9707.03
589.565	9778.44
589.925	9847.37
590.284	9782.29
590.643	9793.58
591.003	9830.19
591.362	9882.62
591.721	9849.85
592.08	9857.31
592.44	9845.33
592.799	9770.76
593.158	9847.14
593.517	9819.12
593.876	9926.91
594.235	9832
594.593	9843.53
594.952	9869.74
595.311	9814.37
595.67	9855.73
596.029	9994.03
596.387	9977.99
596.746	9975.95
597.104	9919.23
597.463	9909.06
597.822	9951.32
598.18	9912.45
598.538	9956.74
598.897	10008.04
599.255	9917.65
599.613	10004.65
599.972	9985.9
600.33	10050.75
600.688	9991.32
601.046	9949.96
601.404	10069.51
601.762	10020.92
602.12	10091.88
602.478	10027.93
602.836	10099.56
603.194	10010.3
603.552	10007.14
603.91	10008.95
604.268	10071.77
604.625	9971.43
604.983	10055.27
605.341	10006.91
605.698	10083.75
606.056	10080.81
606.413	10076.51
606.771	10121.71
607.128	10067.93
607.485	10064.54
607.843	10040.58
608.2	10116.29
608.557	10087.36
608.914	10108.15
609.272	10119.9
609.629	10194.93
609.986	10244.87
610.343	10185.21
610.7	10204.19
611.057	10211.65
611.414	10196.51
611.771	10238.32
612.127	10254.36
612.484	10242.16
612.841	10241.93
613.198	10127.13
613.554	10222.5
613.911	10322.38
614.267	10257.07
614.624	10304.53
614.98	10262.72
615.337	10348.6
615.693	10408.71
616.05	10339.33
616.406	10359.9
616.762	10347.24
617.118	10331.65
617.475	10329.84
617.831	10387.02
618.187	10423.17
618.543	10362.61
618.899	10432.21
619.255	10375.49
619.611	10338.2
619.967	10452.1
620.323	10453.23
620.678	10483.51
621.034	10368.48
621.39	10400.12
621.746	10434.7
622.101	10528.48
622.457	10438.99
622.812	10436.96
623.168	10505.43
623.523	10451.65
623.879	10432.21
624.234	10369.61
624.589	10460.01
624.945	10383.17
625.3	10450.29
625.655	10405.32
626.01	10479.22
626.365	10505.43
626.72	10489.39
627.075	10481.02
627.43	10393.57
627.785	10396.28
628.14	10432.89
628.495	10368.48
628.85	10414.36
629.205	10382.95
629.559	10390.4
629.914	10364.64
630.269	10346.11
630.623	10336.62
630.978	10336.17
631.332	10288.26
631.687	10378.43
632.041	10347.24
632.396	10334.59
632.75	10246.91
633.104	10241.93
633.459	10278.77
633.813	10252.78
634.167	10307.7
634.521	10267.02
634.875	10226.34
635.229	10246
635.583	10203.29
635.937	10178.21
636.291	10132.56
636.645	10118.77
636.999	10123.97
637.352	10152.9
637.706	10100.24
638.06	10100.47
638.413	10091.66
638.767	10107.93
639.121	10031.09
639.474	10111.77
639.828	10002.84
640.181	10059.34
640.534	10014.82
640.888	10085.78
641.241	9928.72
641.594	9962.39
641.947	9992
642.301	9950.64
642.654	9969.85
643.007	10020.92
643.36	9940.7
643.713	9923.75
644.066	9990.87
644.419	9886.01
644.771	9830.87
645.124	9727.37
645.477	9711.1
645.83	9646.47
646.182	9678.79
646.535	9552.01
646.888	9624.1
647.24	9514.72
647.593	9614.15
647.945	9594.27
648.298	9527.83
648.65	9487.6
649.002	9525.79
649.355	9532.57
649.707	9515.17
650.059	9617.32
650.411	9659.35
650.763	9726.02
651.115	9790.65
651.467	9770.31
651.819	9760.14
652.171	9741.38
652.523	9692.8
652.875	9764.88
653.227	9780.7
653.578	9782.96
653.93	9719.91
654.282	9654.6
654.633	9663.87
654.985	9721.04
655.337	9618.22
655.688	9726.47
656.039	9778.9
656.391	9667.26
656.742	9682.85
657.094	9649.86
657.445	9721.95
657.796	9640.82
658.147	9695.51
658.498	9645.34
658.849	9713.13
659.2	9714.49
659.551	9658.45
659.902	9672.68
660.253	9726.69
660.604	9703.64
660.955	9602.18
661.306	9718.11
661.656	9680.14
662.007	9676.75
662.358	9665.68
662.708	9747.48
663.059	9685.11
663.409	9568.96
663.76	9748.61
664.11	9634.04
664.461	9708.61
664.811	9725.79
665.161	9635.17
665.511	9601.27
665.862	9688.5
666.212	9630.88
666.562	9669.52
666.912	9650.09
667.262	9625.23
667.612	9690.08
667.962	9615.28
668.312	9672.68
668.662	9673.14
669.011	9653.25
669.361	9620.71
669.711	9552.91
670.06	9599.92
670.41	9655.06
670.76	9652.12
671.109	9555.62
671.459	9590.2
671.808	9635.17
672.157	9614.38
672.507	9593.36
672.856	9578
673.205	9557.21
673.554	9571.22
673.904	9528.28
674.253	9629.75
674.602	9599.47
674.951	9432.46
675.3	9371
675.649	9512.69
675.998	9490.99
676.346	9555.4
676.695	9562.86
677.044	9421.39
677.393	9509.07
677.741	9401.05
678.09	9469.75
678.438	9479.92
678.787	9405.57
679.135	9420.71
679.484	9363.31
679.832	9432.24
680.181	9338.68
680.529	9357.89
680.877	9395.4
681.225	9320.6
681.573	9406.93
681.922	9323.54
682.27	9220.94
682.618	9298.46
682.966	9263.88
683.314	9314.73
683.661	9257.1
684.009	9131.68
684.357	9179.14
684.705	9143.43
685.053	9193.83
685.4	9179.59
685.748	9096.88
686.095	9065.47
686.443	9083.77
686.79	9049.65
687.138	9040.38
687.485	9044.9
687.832	9013.49
688.18	9076.99
688.527	8978.24
688.874	8916.55
689.221	8934.4
689.568	8885.81
689.915	8921.29
690.262	8848.3
690.609	8861.86
690.956	8842.65
691.303	8783.44
691.65	8782.09
691.997	8710.9
692.344	8660.05
692.69	8768.53
693.037	8694.18
693.383	8603.33
693.73	8620.06
694.077	8595.65
694.423	8599.04
694.769	8552.94
695.116	8557.23
695.462	8489.44
695.808	8466.84
696.155	8442.66
696.501	8448.99
696.847	8397.91
697.193	8391.14
697.539	8373.06
697.885	8351.36
698.231	8320.85
698.577	8242.21
698.923	8231.59
699.269	8260.07
699.614	8114.53
699.96	8164.93
700.306	8132.39
700.651	8113.4
700.997	8106.85
701.342	8093.29
701.688	8038.83
702.033	7991.15
702.379	8051.71
702.724	7913.63
703.069	7962.22
703.415	7903.01
703.76	7877.25
704.105	7862.34
704.45	7864.14
704.795	7836.35
705.14	7802.45
705.485	7825.05
705.83	7723.13
706.175	7725.39
706.52	7757.25
706.865	7635
707.209	7705.5
707.554	7630.03
707.899	7645.84
708.243	7550.93
708.588	7605.17
708.932	7540.99
709.277	7522.23
709.621	7532.63
709.966	7523.59
710.31	7512.74
710.654	7440.88
710.998	7435
711.342	7398.62
711.687	7382.57
712.031	7392.97
712.375	7346.64
712.719	7412.63
713.063	7338.51
713.407	7387.32
713.75	7305.51
714.094	7317.49
714.438	7246.53
714.782	7303.93
715.125	7238.17
715.469	7263.71
715.812	7230.26
716.156	7238.85
716.499	7206.31
716.843	7149.13
717.186	7128.34
717.53	7170.38
717.873	7192.3
718.216	7173.31
718.559	7165.63
718.902	7118.85
719.246	7116.37
719.589	7042.7
719.932	6986.2
720.275	7095.35
720.617	7038.4
720.96	7048.57
721.303	7006.09
721.646	7058.29
721.989	7006.31
722.331	6970.61
722.674	6959.76
723.016	7002.02
723.359	6945.98
723.701	6980.55
724.044	7014.22
724.386	6874.79
724.729	6911.85
725.071	6947.56
725.413	6898.75
725.755	6926.32
726.097	6943.04
726.439	6894.68
726.782	6923.38
727.124	6891.74
727.465	6893.77
727.807	6880.67
728.149	6891.97
728.491	6812.19
728.833	6908.24
729.175	6855.13
729.516	6845.87
729.858	6784.85
730.199	6809.48
730.541	6811.97
730.882	6768.13
731.224	6850.61
731.565	6782.82
731.906	6827.79
732.248	6859.2
732.589	6755.47
732.93	6753.89
733.271	6782.82
733.612	6720.44
733.953	6822.14
734.294	6763.16
734.635	6761.35
734.976	6741.69
735.317	6781.69
735.658	6727.45
735.999	6738.3
736.339	6744.85
736.68	6799.31
737.021	6721.12
737.361	6770.16
737.702	6819.88
738.042	6738.52
738.383	6729.03
738.723	6748.47
739.063	6782.59
739.404	6851.06
739.744	6748.92
740.084	6764.06
740.424	6811.52
740.764	6752.53
741.104	6805.64
741.444	6782.36
741.784	6843.15
742.124	6824.62
742.464	6807.22
742.804	6809.03
743.143	6842.48
743.483	6871.18
743.823	6817.39
744.162	6886.77
744.502	6882.7
744.841	6866.43
745.181	6890.61
745.52	6859.42
745.86	6978.97
746.199	6952.76
746.538	6921.34
746.877	7018.74
747.216	7041.34
747.556	7035.46
747.895	7104.84
748.234	7077.05
748.573	7105.97
748.911	7077.72
749.25	7194.33
749.589	7231.17
749.928	7190.94
750.267	7255.35
750.605	7300.54
750.944	7430.26
751.283	7347.09
751.621	7468.45
751.96	7468.67
752.298	7491.27
752.636	7602.91
752.975	7561.78
753.313	7663.7
753.651	7787.31
753.989	7759.97
754.327	7834.09
754.666	7882.9
755.004	7973.97
755.342	8093.74
755.679	8097.13
756.017	8196.11
756.355	8258.94
756.693	8332.38
757.031	8381.42
757.368	8488.31
757.706	8589.32
758.044	8535.76
758.381	8744.12
758.719	8822.54
759.056	8980.05
759.394	9013.27
759.731	9138.91
760.068	9157.67
760.405	9204
760.743	9295.07
761.08	9442.18
761.417	9471.78
761.754	9611.22
762.091	9740.25
762.428	9799.01
762.765	9854.6
763.102	9988.61
763.438	10070.64
763.775	10117.64
764.112	10137.98
764.449	10351.99
764.785	10297.98
765.122	10407.81
765.458	10476.5
765.795	10626.33
766.131	10639.44
766.467	10710.4
766.804	10752.66
767.14	10802.6
