Data from hue_220_FLMS001491_00078.txt Node
Date: Tue Feb 07 16:39:56 GMT 2017
User: dcchb
Spectrometer: FLMS00149
Trigger mode: 0
Integration Time (sec): 2.000000E-2
Scans to average: 10
Electric dark correction enabled: true
Nonlinearity correction enabled: false
Boxcar width: 0
XAxis mode: Wavelengths
Number of Pixels in Spectrum: 2048
>>>>>Begin Spectral Data<<<<<
341.393	-31.68
341.776	-31.68
342.16	-31.68
342.543	-58.57
342.927	-67.84
343.31	-71.23
343.693	-60.38
344.077	-60.38
344.46	-61.28
344.843	-53.83
345.226	-52.02
345.61	-21.96
345.993	-14.28
346.376	-33.49
346.759	-2.98
347.142	14.65
347.525	51.71
347.908	51.71
348.291	89.45
348.674	97.58
349.057	126.73
349.44	129.45
349.823	146.62
350.206	173.06
350.588	192.27
350.971	228.2
351.354	238.6
351.737	244.24
352.119	252.38
352.502	245.83
352.884	278.14
353.267	269.33
353.65	308.65
354.032	296.22
354.414	319.95
354.797	314.3
355.179	305.71
355.562	322.44
355.944	337.58
356.326	330.12
356.709	345.26
357.091	338.93
357.473	332.83
357.855	356.11
358.238	357.01
358.62	372.83
359.002	355.88
359.384	325.37
359.766	332.38
360.148	326.95
360.53	354.3
360.912	325.6
361.294	334.19
361.676	332.15
362.057	339.16
362.439	321.98
362.821	343.68
363.203	341.64
363.584	329.67
363.966	315.88
364.348	335.32
364.729	307.52
365.111	318.59
365.493	321.98
365.874	326.95
366.256	289.44
366.637	320.18
367.019	293.74
367.4	334.41
367.781	303.9
368.163	320.85
368.544	329.21
368.925	310.68
369.306	309.78
369.688	305.26
370.069	298.03
370.45	318.82
370.831	313.4
371.212	315.88
371.593	319.5
371.974	302.55
372.355	330.34
372.736	313.4
373.117	326.95
373.498	302.55
373.879	319.05
374.26	316.11
374.641	321.76
375.021	316.56
375.402	312.27
375.783	338.93
376.163	332.38
376.544	346.39
376.925	333.96
377.305	327.41
377.686	321.76
378.066	333.28
378.447	329.67
378.827	335.54
379.208	311.59
379.588	343
379.968	325.82
380.349	340.97
380.729	328.76
381.109	349.78
381.489	357.69
381.87	342.1
382.25	339.38
382.63	335.54
383.01	329.89
383.39	340.29
383.77	338.93
384.15	364.92
384.53	365.82
384.91	358.37
385.29	356.33
385.67	364.02
386.049	357.01
386.429	335.32
386.809	372.6
387.189	329.44
387.568	346.39
387.948	357.91
388.328	369.21
388.707	360.4
389.087	362.89
389.466	357.24
389.846	367.18
390.225	373.73
390.605	379.38
390.984	346.39
391.363	365.37
391.743	368.08
392.122	390
392.501	374.19
392.881	401.3
393.26	376.67
393.639	379.83
394.018	365.37
394.397	384.35
394.776	385.48
395.155	389.78
395.534	376.67
395.913	404.01
396.292	389.1
396.671	394.75
397.05	384.35
397.429	379.38
397.808	397.69
398.186	395.2
398.565	409.21
398.944	424.13
399.323	402.88
399.701	398.14
400.08	421.87
400.458	441.08
400.837	408.53
401.215	423.9
401.594	412.15
401.972	423.9
402.351	419.83
402.729	427.74
403.107	422.55
403.486	430.91
403.864	443.56
404.242	434.52
404.62	447.86
404.999	451.25
405.377	452.38
405.755	457.35
406.133	466.84
406.511	468.42
406.889	465.71
407.267	474.07
407.645	501.87
408.023	489.44
408.401	504.13
408.779	497.57
409.156	509.55
409.534	498.93
409.912	510.9
410.29	511.36
410.667	547.97
411.045	546.38
411.422	554.29
411.8	539.15
412.178	557.01
412.555	579.38
412.933	581.19
413.31	588.19
413.687	583.9
414.065	595.87
414.442	591.13
414.819	587.51
415.197	623.67
415.574	641.07
415.951	643.78
416.328	627.74
416.705	635.42
417.082	675.65
417.46	679.26
417.837	676.55
418.214	677.45
418.591	686.27
418.967	695.53
419.344	698.24
419.721	726.94
420.098	719.03
420.475	713.16
420.852	744.34
421.228	778.47
421.605	772.59
421.982	802.87
422.358	808.52
422.735	785.02
423.111	814.17
423.488	818.47
423.864	840.16
424.241	865.02
424.617	852.14
424.994	858.69
425.37	884.91
425.746	872.03
426.123	923.1
426.499	943.44
426.875	944.11
427.251	965.13
427.627	951.12
428.003	966.49
428.379	987.28
428.756	1010.33
429.132	1010.1
429.507	1027.28
429.883	1014.17
430.259	1054.39
430.635	1044
431.011	1062.08
431.387	1085.8
431.763	1113.37
432.138	1117.44
432.514	1139.36
432.89	1135.3
433.265	1196.54
433.641	1198.8
434.016	1208.29
434.392	1220.26
434.767	1249.19
435.143	1276.76
435.518	1271.11
435.894	1309.98
436.269	1324.67
436.644	1338
437.02	1362.41
437.395	1383.88
437.77	1371.67
438.145	1461.61
438.52	1453.7
438.895	1457.32
439.271	1480.82
439.646	1520.37
440.021	1542.06
440.395	1569.18
440.77	1540.71
441.145	1605.79
441.52	1618.22
441.895	1642.85
442.27	1673.59
442.645	1631.55
443.019	1659.12
443.394	1714.26
443.769	1710.65
444.143	1684.89
444.518	1732.12
444.892	1751.55
445.267	1742.96
445.641	1742.06
446.016	1746.8
446.39	1810.53
446.764	1828.61
447.139	1824.99
447.513	1825.45
447.887	1853.02
448.262	1828.16
448.636	1885.11
449.01	1902.96
449.384	1886.69
449.758	1919.91
450.132	1948.61
450.506	1958.1
450.88	1961.94
451.254	1970.3
451.628	1978.89
452.002	2029.06
452.376	2016.85
452.75	2045.1
453.123	2060.92
453.497	2067.25
453.871	2092.78
454.244	2139.56
454.618	2154.93
454.992	2173.46
455.365	2187.24
455.739	2210.29
456.112	2253.23
456.486	2241.03
456.859	2288.03
457.232	2337.98
457.606	2309.5
457.979	2370.29
458.352	2414.13
458.725	2401.48
459.099	2431.76
459.472	2459.33
459.845	2510.4
460.218	2488.48
460.591	2532.55
460.964	2563.96
461.337	2593.34
461.71	2619.55
462.083	2660.68
462.456	2655.93
462.829	2680.79
463.201	2730.73
463.574	2710.85
463.947	2729.83
464.32	2796.72
464.692	2836.72
465.065	2842.14
465.438	2907
465.81	2954.46
466.183	2968.69
466.555	3022.7
466.928	3024.96
467.3	3010.27
467.672	3067.22
468.045	3145.41
468.417	3124.85
468.789	3171.63
469.161	3176.37
469.534	3221.34
469.906	3291.17
470.278	3325.75
470.65	3344.05
471.022	3386.99
471.394	3465.86
471.766	3504.05
472.138	3524.84
472.51	3591.5
472.882	3656.36
473.253	3634.66
473.625	3714.44
473.997	3763.47
474.369	3783.59
474.74	3813.87
475.112	3904.26
475.484	3960.76
475.855	3976.35
476.227	4022
476.598	4110.13
476.97	4119.4
477.341	4218.15
477.713	4279.62
478.084	4268.77
478.455	4351.48
478.827	4388.09
479.198	4513.06
479.569	4547.86
479.94	4603.9
480.311	4667.63
480.682	4782.88
481.053	4847.06
481.424	4923.9
481.795	4877.34
482.166	5005.7
482.537	5038.92
482.908	5165.7
483.279	5212.48
483.65	5297.67
484.021	5344.45
484.391	5387.39
484.762	5417.67
485.133	5465.12
485.503	5564.78
485.874	5630.77
486.244	5687.94
486.615	5791.22
486.985	5818.79
487.356	5968.16
487.726	5937.43
488.097	6021.49
488.467	6049.29
488.837	6197.99
489.207	6244.99
489.578	6335.38
489.948	6364.31
490.318	6390.98
490.688	6413.35
491.058	6490.86
491.428	6566.56
491.798	6583.29
492.168	6696.28
492.538	6749.38
492.908	6817.86
493.278	6907.57
493.648	6876.61
494.017	6972.43
494.387	7028.25
494.757	6972.66
495.126	7092.88
495.496	7063.95
495.866	7174.91
496.235	7179.43
496.605	7287.45
496.974	7282.03
497.344	7331.74
497.713	7360.44
498.082	7394.79
498.452	7455.35
498.821	7470.5
499.19	7460.33
499.559	7559.53
499.928	7562.47
500.298	7619.19
500.667	7710.94
501.036	7646.99
501.405	7662.13
501.774	7679.3
502.143	7688.57
502.512	7739.19
502.88	7803.59
503.249	7774.67
503.618	7795.68
503.987	7909.35
504.356	7938.28
504.724	7898.06
505.093	7830.03
505.462	7953.87
505.83	8008.79
506.199	7998.84
506.567	8061.67
506.936	8030.03
507.304	8176.69
507.672	8149.8
508.041	8195.45
508.409	8234.32
508.777	8216.46
509.145	8245.84
509.514	8225.05
509.882	8289.23
510.25	8264.37
510.618	8338.27
510.986	8285.16
511.354	8346.86
511.722	8372.39
512.09	8380.98
512.458	8405.84
512.826	8412.84
513.193	8421.88
513.561	8451.71
513.929	8525.16
514.297	8489.68
514.664	8514.99
515.032	8512.5
515.4	8538.04
515.767	8557.7
516.135	8591.6
516.502	8469.34
516.869	8633.4
517.237	8580.07
517.604	8523.58
517.972	8595.21
518.339	8620.07
518.706	8584.14
519.073	8614.19
519.44	8585.95
519.808	8682.67
520.175	8614.19
520.542	8695.32
520.909	8730.12
521.276	8654.19
521.643	8751.82
522.009	8677.7
522.376	8743.91
522.743	8720.86
523.11	8782.78
523.477	8852.83
523.843	8778.03
524.21	8841.08
524.577	8897.58
524.943	8870.23
525.31	8933.51
525.676	8971.25
526.043	8887.86
526.409	9004.47
526.776	8947.29
527.142	8888.54
527.508	8983.68
527.874	8976.67
528.241	8987.52
528.607	8965.82
528.973	8911.14
529.339	8938.48
529.705	8996.56
530.071	9012.83
530.437	9030.68
530.803	9030.68
531.169	8980.06
531.535	9041.3
531.901	8999.04
532.267	8965.37
532.632	9015.09
532.998	9018.7
533.364	9049.66
533.73	9000.17
534.095	9026.84
534.461	9048.08
534.826	9032.71
535.192	9011.25
535.557	8971.7
535.923	8949.1
536.288	9001.08
536.653	8977.35
537.019	8837.01
537.384	8892.38
537.749	8889.89
538.114	8910.23
538.479	8833.85
538.845	8872.94
539.21	8813.74
539.575	8786.62
539.94	8747.52
540.305	8842.66
540.67	8735.77
541.034	8712.5
541.399	8798.82
541.764	8704.59
542.129	8662.1
542.494	8625.27
542.858	8750.24
543.223	8579.62
543.587	8652.61
543.952	8597.92
544.316	8576
544.681	8619.39
545.045	8614.65
545.41	8569.68
545.774	8609
546.138	8512.5
546.503	8556.57
546.867	8491.94
547.231	8527.19
547.595	8488.32
547.959	8481.54
548.324	8423.01
548.688	8472.05
549.052	8423.24
549.416	8397.25
549.779	8385.5
550.143	8360.87
550.507	8342.11
550.871	8413.07
551.235	8303.02
551.599	8395.22
551.962	8342.11
552.326	8331.26
552.689	8325.16
553.053	8296.91
553.417	8282.45
553.78	8338.5
554.143	8254.43
554.507	8273.86
554.87	8258.5
555.234	8251.49
555.597	8190.25
555.96	8269.34
556.323	8261.44
556.686	8170.36
557.05	8207.43
557.413	8166.75
557.776	8185.05
558.139	8194.32
558.502	8233.19
558.865	8172.62
559.228	8169.46
559.59	8181.44
559.953	8176.69
560.316	8201.78
560.679	8263.47
561.041	8204.71
561.404	8228.22
561.767	8180.08
562.129	8138.73
562.492	8233.64
562.854	8188.44
563.217	8235.67
563.579	8204.26
563.941	8221.89
564.304	8284.71
564.666	8286.97
565.028	8248.55
565.39	8269.12
565.753	8286.75
566.115	8267.99
566.477	8277.03
566.839	8298.95
567.201	8399.51
567.563	8456.68
567.925	8406.29
568.287	8391.6
568.648	8389.79
569.01	8394.54
569.372	8411.04
569.734	8425.05
570.095	8437.02
570.457	8499.4
570.819	8445.39
571.18	8514.99
571.542	8554.99
571.903	8492.16
572.265	8560.64
572.626	8516.12
572.987	8555.89
573.349	8571.48
573.71	8554.76
574.071	8536
574.432	8678.15
574.794	8705.49
575.155	8647.19
575.516	8659.16
575.877	8688.09
576.238	8692.61
576.599	8719.5
576.96	8752.95
577.32	8764.25
577.681	8767.41
578.042	8792.27
578.403	8727.41
578.763	8840.18
579.124	8854.41
579.485	8825.26
579.845	8920.4
580.206	8902.1
580.566	8949.55
580.927	8923.34
581.287	8993.39
581.648	8922.21
582.008	8987.52
582.368	9013.73
582.728	9039.72
583.089	8994.3
583.449	8980.74
583.809	9051.02
584.169	9039.72
584.529	9058.25
584.889	9230.45
585.249	9158.13
585.609	9127.63
585.969	9124.01
586.329	9117.01
586.688	9166.95
587.048	9175.31
587.408	9181.19
587.768	9226.38
588.127	9211.92
588.487	9247.4
588.846	9306.38
589.206	9221.64
589.565	9340.28
589.925	9306.15
590.284	9307.51
590.643	9310.67
591.003	9326.94
591.362	9352.71
591.721	9311.13
592.08	9318.58
592.44	9418.92
592.799	9397.45
593.158	9413.72
593.517	9390.45
593.876	9460.95
594.235	9374.85
594.593	9453.49
594.952	9426.6
595.311	9356.77
595.67	9407.62
596.029	9467.51
596.387	9462.76
596.746	9560.61
597.104	9422.99
597.463	9496.66
597.822	9463.66
598.18	9476.54
598.538	9427.51
598.897	9519.03
599.255	9502.76
599.613	9650.1
599.972	9535.53
600.33	9580.72
600.688	9480.16
601.046	9596.09
601.404	9591.8
601.762	9587.95
602.12	9594.96
602.478	9578.91
602.836	9589.99
603.194	9564.23
603.552	9545.02
603.91	9498.46
604.268	9587.05
604.625	9554.06
604.983	9637.67
605.341	9535.3
605.698	9567.16
606.056	9661.17
606.413	9599.48
606.771	9675.64
607.128	9704.79
607.485	9685.58
607.843	9645.81
608.2	9702.75
608.557	9707.95
608.914	9689.42
609.272	9748.85
609.629	9778.68
609.986	9827.95
610.343	9695.52
610.7	9836.99
611.057	9760.38
611.414	9792.92
611.771	9771.45
612.127	9823.43
612.484	9789.3
612.841	9806.48
613.198	9831.56
613.554	9835.41
613.911	9883.31
614.267	9884.67
614.624	9792.47
614.98	9891.67
615.337	9942.75
615.693	9862.07
616.05	9902.97
616.406	9987.94
616.762	9948.62
617.118	9917.21
617.475	9934.16
617.831	9923.76
618.187	9992.24
618.543	10020.71
618.899	10036.76
619.255	9966.25
619.611	10008.96
619.967	9997.89
620.323	9999.47
620.678	10007.83
621.034	9970.99
621.39	9971.45
621.746	9975.06
622.101	10109.97
622.457	10065.91
622.812	10053.48
623.168	10011.45
623.523	10001.28
623.879	10059.58
624.234	10014.84
624.589	10049.41
624.945	10004.67
625.3	9976.87
625.655	10035.63
626.01	10050.99
626.365	10013.71
626.72	10012.58
627.075	10009.64
627.43	10080.82
627.785	9991.79
628.14	10029.07
628.495	9998.79
628.85	10014.16
629.205	9881.96
629.559	9989.3
629.914	9913.82
630.269	9909.08
630.623	9976.19
630.978	9915.4
631.332	9952.01
631.687	9933.26
632.041	9920.6
632.396	9874.95
632.75	9839.7
633.104	9895.52
633.459	9832.02
633.813	9829.76
634.167	9765.58
634.521	9859.36
634.875	9838.34
635.229	9761.06
635.583	9759.02
635.937	9761.73
636.291	9790.89
636.645	9756.54
636.999	9771.45
637.352	9796.99
637.706	9712.47
638.06	9725.58
638.413	9707.95
638.767	9683.77
639.121	9717.44
639.474	9698.46
639.828	9662.08
640.181	9686.93
640.534	9644.68
640.888	9628.63
641.241	9565.58
641.594	9594.96
641.947	9633.6
642.301	9675.18
642.654	9559.71
643.007	9618.46
643.36	9592.7
643.713	9562.19
644.066	9562.42
644.419	9525.13
644.771	9488.07
645.124	9419.37
645.477	9480.84
645.83	9392.25
646.182	9218.92
646.535	9277
646.888	9273.61
647.24	9267.74
647.593	9278.58
647.945	9250.79
648.298	9165.59
648.65	9218.92
649.002	9219.6
649.355	9253.27
649.707	9248.75
650.059	9288.75
650.411	9336.44
650.763	9422.53
651.115	9473.61
651.467	9464.57
651.819	9490.1
652.171	9461.4
652.523	9445.81
652.875	9461.4
653.227	9432.7
653.578	9486.04
653.93	9436.09
654.282	9363.1
654.633	9377.34
654.985	9448.07
655.337	9456.43
655.688	9492.59
656.039	9498.69
656.391	9391.58
656.742	9483.78
657.094	9446.71
657.445	9478.35
657.796	9481.06
658.147	9368.07
658.498	9419.82
658.849	9538.46
659.2	9450.1
659.551	9436.55
659.902	9458.92
660.253	9380.5
660.604	9484.45
660.955	9371.91
661.306	9511.35
661.656	9436.77
662.007	9481.52
662.358	9422.08
662.708	9493.95
663.059	9478.58
663.409	9481.97
663.76	9527.62
664.11	9545.02
664.461	9470.9
664.811	9497.79
665.161	9481.97
665.511	9487.39
665.862	9483.78
666.212	9577.11
666.562	9496.43
666.912	9504.34
667.262	9410.56
667.612	9472.02
667.962	9567.84
668.312	9421.4
668.662	9508.86
669.011	9540.5
669.361	9502.53
669.711	9460.05
670.06	9436.09
670.41	9440.61
670.76	9410.33
671.109	9470.44
671.459	9505.7
671.808	9433.61
672.157	9427.96
672.507	9428.64
672.856	9385.47
673.205	9433.38
673.554	9455.3
673.904	9400.84
674.253	9465.7
674.602	9363.78
674.951	9327.17
675.3	9253.73
675.649	9380.5
675.998	9404.68
676.346	9378.24
676.695	9354.74
677.044	9293.72
677.393	9353.16
677.741	9415.98
678.09	9257.34
678.438	9289.43
678.787	9293.95
679.135	9278.58
679.484	9166.72
679.832	9229.77
680.181	9190.68
680.529	9243.56
680.877	9198.59
681.225	9200.39
681.573	9264.12
681.922	9189.32
682.27	9111.13
682.618	9130.34
682.966	9131.24
683.314	9105.03
683.661	9023.45
684.009	8999.5
684.357	9005.6
684.705	8983.22
685.053	8986.39
685.4	8971.02
685.748	8959.72
686.095	8899.84
686.443	8878.59
686.79	8902.55
687.138	8961.08
687.485	8879.05
687.832	8811.93
688.18	8884.47
688.527	8825.26
688.874	8761.31
689.221	8774.42
689.568	8697.13
689.915	8743.23
690.262	8694.64
690.609	8721.99
690.956	8631.14
691.303	8645.15
691.65	8578.26
691.997	8582.1
692.344	8492.62
692.69	8525.61
693.037	8468.89
693.383	8419.85
693.73	8434.09
694.077	8393.86
694.423	8400.64
694.769	8336.91
695.116	8292.85
695.462	8304.37
695.808	8161.1
696.155	8309.12
696.501	8206.52
696.847	8219.85
697.193	8127.65
697.539	8120.2
697.885	8023.25
698.231	8017.6
698.577	8047.43
698.923	7982.57
699.269	7924.95
699.614	7962.23
699.96	7865.51
700.306	7876.81
700.651	7816.7
700.997	7854.89
701.342	7838.85
701.688	7783.48
702.033	7725.86
702.379	7719.3
702.724	7658.97
703.069	7584.16
703.415	7602.7
703.76	7543.49
704.105	7631.85
704.45	7591.85
704.795	7541.45
705.14	7509.14
705.485	7496.48
705.83	7445.64
706.175	7458.52
706.52	7431.4
706.865	7403.38
707.209	7370.16
707.554	7359.09
707.899	7367
708.243	7317.51
708.588	7272.08
708.932	7281.35
709.277	7244.51
709.621	7253.1
709.966	7184.4
710.31	7190.73
710.654	7172.65
710.998	7155.7
711.342	7158.19
711.687	7108.47
712.031	7090.62
712.375	7019.89
712.719	7044.29
713.063	7091.97
713.407	7072.54
713.75	7029.6
714.094	7022.37
714.438	6900.57
714.782	7033.45
715.125	6968.59
715.469	6944.86
715.812	6911.87
716.156	6888.36
716.499	6931.75
716.843	6909.61
717.186	6840.68
717.53	6934.46
717.873	6992.99
718.216	6850.17
718.559	6845.43
718.902	6797.74
719.246	6776.5
719.589	6845.2
719.932	6816.28
720.275	6793.23
720.617	6822.15
720.96	6757.75
721.303	6776.28
721.646	6806.33
721.989	6738.76
722.331	6743.28
722.674	6729.5
723.016	6710.06
723.359	6714.13
723.701	6745.54
724.044	6705.54
724.386	6704.19
724.729	6715.26
725.071	6694.7
725.413	6719.33
725.755	6674.81
726.097	6678.43
726.439	6604.3
726.782	6657.18
727.124	6682.72
727.465	6700.12
727.807	6649.5
728.149	6665.77
728.491	6631.2
728.833	6640.24
729.175	6630.07
729.516	6640.91
729.858	6630.52
730.199	6688.37
730.541	6673.23
730.882	6627.58
731.224	6662.83
731.565	6617.86
731.906	6559.56
732.248	6651.31
732.589	6672.1
732.93	6604.98
733.271	6593.23
733.612	6606.56
733.953	6598.2
734.294	6630.07
734.635	6605.43
734.976	6583.97
735.317	6634.13
735.658	6638.43
735.999	6639.33
736.339	6715.26
736.68	6710.06
737.021	6656.51
737.361	6601.82
737.702	6684.3
738.042	6693.11
738.383	6614.47
738.723	6679.1
739.063	6687.24
739.404	6730.18
739.744	6664.19
740.084	6667.13
740.424	6731.53
740.764	6736.05
741.104	6704.64
741.444	6681.59
741.784	6727.01
742.124	6773.56
742.464	6720.68
742.804	6781.93
743.143	6804.07
743.483	6844.52
743.823	6835.94
744.162	6876.61
744.502	6932.88
744.841	6920.68
745.181	6991.64
745.52	6984.41
745.86	7066.66
746.199	7084.07
746.538	7072.09
746.877	7044.07
747.216	7208.13
747.556	7173.1
747.895	7243.83
748.234	7268.24
748.573	7293.1
748.911	7395.02
749.25	7384.4
749.589	7511.62
749.928	7479.08
750.267	7659.42
750.605	7702.35
750.944	7790.26
751.283	7802.24
751.621	7876.36
751.96	7959.97
752.298	8087.43
752.636	8148.9
752.975	8199.29
753.313	8247.2
753.651	8455.78
753.989	8434.76
754.327	8555.89
754.666	8687.64
755.004	8843.57
755.342	8986.61
755.679	9042.21
756.017	9135.08
756.355	9283.78
756.693	9417.79
757.031	9620.5
757.368	9731.91
757.706	9771
758.044	9960.15
758.381	10180.03
758.719	10319.46
759.056	10462.73
759.394	10570.53
759.731	10711.77
760.068	10844.19
760.405	11013.91
760.743	11179.78
761.08	11289.83
761.417	11544.74
761.754	11730.95
762.091	11882.81
762.428	12034.9
762.765	12161.67
763.102	12468.78
763.438	12554.43
763.775	12627.42
764.112	12836
764.449	13091.82
764.785	13296.33
765.122	13313.96
765.458	13558.02
765.795	13681.41
766.131	13830.55
766.467	14018.35
766.804	14115.52
767.14	14256.98
767.476	14471.22
767.812	14599.57
768.148	14794.6
768.485	14785.78
768.821	14970.86
