Data from hue_110_FLMS001491_00004.txt Node
Date: Tue Feb 07 17:00:49 GMT 2017
User: dcchb
Spectrometer: FLMS00149
Trigger mode: 0
Integration Time (sec): 2.000000E-2
Scans to average: 10
Electric dark correction enabled: true
Nonlinearity correction enabled: false
Boxcar width: 0
XAxis mode: Wavelengths
Number of Pixels in Spectrum: 2048
>>>>>Begin Spectral Data<<<<<
341.393	-10.45
341.776	-10.45
342.16	-10.45
342.543	-61.07
342.927	-62.65
343.31	-67.4
343.693	-60.62
344.077	-45.71
344.46	-60.85
344.843	-43.9
345.226	-41.86
345.61	-32.82
345.993	-20.85
346.376	6.27
346.759	1.75
347.142	30.68
347.525	34.07
347.908	53.05
348.291	76.1
348.674	79.49
349.057	92.6
349.44	131.01
349.823	131.69
350.206	169.43
350.588	206.49
350.971	208.3
351.354	216.43
351.737	243.1
352.119	246.72
352.502	255.53
352.884	285.36
353.267	272.03
353.65	310.22
354.032	295.53
354.414	306.38
354.797	321.97
355.179	316.09
355.562	331.69
355.944	326.94
356.326	344.57
356.709	335.98
357.091	328.75
357.473	326.49
357.855	352.7
358.238	336.43
358.62	353.38
359.002	317.68
359.384	337.79
359.766	329.43
360.148	341.18
360.53	332.59
360.912	335.53
361.294	342.76
361.676	333.49
362.057	330.78
362.439	328.75
362.821	329.43
363.203	325.81
363.584	332.36
363.966	319.03
364.348	321.74
364.729	328.52
365.111	325.13
365.493	300.95
365.874	323.55
366.256	310.9
366.637	302.31
367.019	319.26
367.4	326.49
367.781	308.64
368.163	338.47
368.544	319.03
368.925	316.09
369.306	329.2
369.688	342.76
370.069	332.59
370.45	332.36
370.831	305.47
371.212	311.35
371.593	324.45
371.974	299.14
372.355	313.61
372.736	327.62
373.117	337.34
373.498	320.16
373.879	326.26
374.26	322.19
374.641	308.41
375.021	327.62
375.402	303.44
375.783	313.83
376.163	322.65
376.544	338.24
376.925	344.57
377.305	336.88
377.686	352.7
378.066	336.88
378.447	313.38
378.827	327.17
379.208	336.43
379.588	342.08
379.968	323.32
380.349	339.82
380.729	336.21
381.109	345.7
381.489	342.76
381.87	327.39
382.25	333.95
382.63	360.84
383.01	342.99
383.39	354.74
383.77	343.66
384.15	328.97
384.53	364.68
384.91	351.57
385.29	345.25
385.67	367.62
386.049	346.15
386.429	343.44
386.809	341.63
387.189	358.13
387.568	357.45
387.948	364
388.328	354.06
388.707	349.99
389.087	352.02
389.466	357.22
389.846	351.35
390.225	355.41
390.605	385.92
390.984	378.24
391.363	368.52
391.743	388.18
392.122	386.37
392.501	363.78
392.881	369.2
393.26	363.55
393.639	377.79
394.018	378.46
394.397	388.63
394.776	377.33
395.155	373.04
395.534	370.33
395.913	393.15
396.292	397
396.671	397.22
397.05	399.26
397.429	410.55
397.808	385.47
398.186	392.25
398.565	414.17
398.944	417.33
399.323	415.53
399.701	411.23
400.08	421.18
400.458	404
400.837	400.61
401.215	394.96
401.594	420.95
401.972	409.88
402.351	405.58
402.729	408.29
403.107	419.37
403.486	412.59
403.864	414.17
404.242	438.8
404.62	432.02
404.999	424.57
405.377	429.99
405.755	413.49
406.133	430.21
406.511	435.41
406.889	456.43
407.267	451.23
407.645	436.77
408.023	452.59
408.401	447.62
408.779	436.32
409.156	454.85
409.534	449.2
409.912	461.63
410.29	443.55
410.667	466.6
411.045	455.52
411.422	454.62
411.8	480.61
412.178	464.11
412.555	474.51
412.933	470.89
413.31	474.51
413.687	514.05
414.065	505.24
414.442	514.51
414.819	494.85
415.197	513.38
415.574	507.27
415.951	505.69
416.328	516.77
416.705	511.12
417.082	503.89
417.46	540.95
417.837	514.51
418.214	490.78
418.591	520.16
418.967	539.36
419.344	535.75
419.721	528.07
420.098	558.57
420.475	527.39
420.852	547.27
421.228	584.56
421.605	548.63
421.982	552.92
422.358	579.82
422.735	574.62
423.111	566.93
423.488	570.32
423.864	572.13
424.241	586.14
424.617	593.6
424.994	576.43
425.37	575.3
425.746	585.01
426.123	587.72
426.499	593.37
426.875	613.71
427.251	596.09
427.627	604.9
428.003	616.2
428.379	611.23
428.756	636.08
429.132	649.19
429.507	614.39
429.883	639.93
430.259	657.33
430.635	636.08
431.011	662.75
431.387	667.04
431.763	679.7
432.138	692.13
432.514	665.46
432.89	656.88
433.265	692.58
433.641	746.59
434.016	735.74
434.392	710.43
434.767	723.54
435.143	705.24
435.518	743.65
435.894	735.52
436.269	744.56
436.644	751.34
437.02	770.54
437.395	756.53
437.77	771.45
438.145	785.69
438.52	783.2
438.895	780.49
439.271	769.41
439.646	800.15
440.021	791.11
440.395	803.99
440.77	806.93
441.145	804.22
441.52	826.14
441.895	826.81
442.27	851.67
442.645	837.21
443.019	837.89
443.394	839.47
443.769	855.74
444.143	827.72
444.518	870.43
444.892	878.11
445.267	888.28
445.641	889.19
446.016	858.45
446.39	904.55
446.764	908.85
447.139	895.74
447.513	907.94
447.887	906.81
448.262	936.64
448.636	930.31
449.01	938.22
449.384	927.38
449.758	954.04
450.132	948.62
450.506	984.32
450.88	969.64
451.254	990.88
451.628	976.64
452.002	986.58
452.376	1013.48
452.75	1024.32
453.123	1013.02
453.497	1052.57
453.871	1036.07
454.244	1052.35
454.618	1059.35
454.992	1084.43
455.365	1069.07
455.739	1107.94
456.112	1096.64
456.486	1132.8
456.859	1140.48
457.232	1137.77
457.606	1158.56
457.979	1147.26
458.352	1216.63
458.725	1172.34
459.099	1219.57
459.472	1216.41
459.845	1241.04
460.218	1258.89
460.591	1236.52
460.964	1265.67
461.337	1313.13
461.71	1314.03
462.083	1321.94
462.456	1348.61
462.829	1354.48
463.201	1369.4
463.574	1393.81
463.947	1400.81
464.32	1475.16
464.692	1458.89
465.065	1466.12
465.438	1473.8
465.81	1518.55
466.183	1522.16
466.555	1525.55
466.928	1566.23
467.3	1603.97
467.672	1602.84
468.045	1649.62
468.417	1663.63
468.789	1679.67
469.161	1708.15
469.534	1740.01
469.906	1751.08
470.278	1820.69
470.65	1817.97
471.022	1883.96
471.394	1915.37
471.766	1930.29
472.138	1948.14
472.51	2042.83
472.882	2074.47
473.253	2083.28
473.625	2131.86
473.997	2203.28
474.369	2192.43
474.74	2255.93
475.112	2354.46
475.484	2367.34
475.855	2480.78
476.227	2496.38
476.598	2519.65
476.97	2601.91
477.341	2655.01
477.713	2728.01
478.084	2764.62
478.455	2879.87
478.827	2918.51
479.198	3046.64
479.569	3109.69
479.94	3191.5
480.311	3278.05
480.682	3314.21
481.053	3462.9
481.424	3524.82
481.795	3601.66
482.166	3697.47
482.537	3770.92
482.908	3885.27
483.279	4018.14
483.65	4094.3
484.021	4241.87
484.391	4317.57
484.762	4372.26
485.133	4498.36
485.503	4588.3
485.874	4768.63
486.244	4837.78
486.615	5010.21
486.985	5100.6
487.356	5219.24
487.726	5325.23
488.097	5514.83
488.467	5510.31
488.837	5750.07
489.207	5922.73
489.578	6061.25
489.948	6084.76
490.318	6277.74
490.688	6355.26
491.058	6532.88
491.428	6706.89
491.798	6794.12
492.168	6966.09
492.538	7070.72
492.908	7198.85
493.278	7371.28
493.648	7423.93
494.017	7649.91
494.387	7758.38
494.757	7893.3
495.126	8066.4
495.496	8114.98
495.866	8263.23
496.235	8424.35
496.605	8553.84
496.974	8622.54
497.344	8778.24
497.713	8848.52
498.082	8995.64
498.452	9119.03
498.821	9204.9
499.19	9350.88
499.559	9377.1
499.928	9570.77
500.298	9624.32
500.667	9816.18
501.036	9814.15
501.405	9981.83
501.774	9955.61
502.143	10157.87
502.512	10263.4
502.88	10371.42
503.249	10392.21
503.618	10560.12
503.987	10668.82
504.356	10641.02
504.724	10850.28
505.093	10824.97
505.462	11004.4
505.83	11098.86
506.199	11172.76
506.567	11294.56
506.936	11284.84
507.304	11469.02
507.672	11563.93
508.041	11517.15
508.409	11715.34
508.777	11809.12
509.145	11820.88
509.514	11865.39
509.882	12056.8
510.25	12017.93
510.618	12127.08
510.986	12147.42
511.354	12203.24
511.722	12319.39
512.09	12420.86
512.458	12382.22
512.826	12523.91
513.193	12567.07
513.561	12574.08
513.929	12745.82
514.297	12837.35
514.664	12877.35
515.032	12804.35
515.4	12983.78
515.767	13007.51
516.135	12976.78
516.502	12980.85
516.869	13240.5
517.237	13213.16
517.604	13157.11
517.972	13255.19
518.339	13371.34
518.706	13334.73
519.073	13425.35
519.44	13464.9
519.808	13569.98
520.175	13423.32
520.542	13586.48
520.909	13727.27
521.276	13645.91
521.643	13739.02
522.009	13788.96
522.376	13848.17
522.743	13875.74
523.11	13983.53
523.477	13991.44
523.843	14057.43
524.21	14147.14
524.577	14245.22
524.943	14183.75
525.31	14237.31
525.676	14344.88
526.043	14416.51
526.409	14402.28
526.776	14453.8
527.142	14499.22
527.508	14524.31
527.874	14578.77
528.241	14605.89
528.607	14524.31
528.973	14626.9
529.339	14600.46
529.705	14681.82
530.071	14696.28
530.437	14794.81
530.803	14793.9
531.169	14687.69
531.535	14734.02
531.901	14740.8
532.267	14724.08
532.632	14756.39
532.998	14788.48
533.364	14802.04
533.73	14723.4
534.095	14898.99
534.461	14742.15
534.826	14762.04
535.192	14771.53
535.557	14823.51
535.923	14812.89
536.288	14762.04
536.653	14756.17
537.019	14687.24
537.384	14696.05
537.749	14700.35
538.114	14715.26
538.479	14674.81
538.845	14708.26
539.21	14611.08
539.575	14603.18
539.94	14608.15
540.305	14576.06
540.67	14533.57
541.034	14527.7
541.399	14549.84
541.764	14437.53
542.129	14528.6
542.494	14406.12
542.858	14421.03
543.223	14450.64
543.587	14439.79
543.952	14403.86
544.316	14245.44
544.681	14330.41
545.045	14322.73
545.41	14346.68
545.774	14278.66
546.138	14220.59
546.503	14240.02
546.867	14160.7
547.231	14190.53
547.595	14135.84
547.959	14131.78
548.324	14105.11
548.688	14083.19
549.052	14087.26
549.416	14053.81
549.779	13976.75
550.143	13972.46
550.507	14051.1
550.871	13887.71
551.235	13907.15
551.599	13931.1
551.962	13890.65
552.326	13849.07
552.689	13849.07
553.053	13745.8
553.417	13717.55
553.78	13839.81
554.143	13769.98
554.507	13817.43
554.87	13769.52
555.234	13805.46
555.597	13694.27
555.96	13706.25
556.323	13767.27
556.686	13631.45
557.05	13832.57
557.413	13730.88
557.776	13729.53
558.139	13753.71
558.502	13731.11
558.865	13650.66
559.228	13691.56
559.59	13743.54
559.953	13694.27
560.316	13749.41
560.679	13747.6
561.041	13814.95
561.404	13795.74
561.767	13862.86
562.129	13768.4
562.492	13858.11
562.854	13812.69
563.217	13745.8
563.579	13785.12
563.941	13840.48
564.304	13820.82
564.666	13870.77
565.028	13915.74
565.39	13890.43
565.753	13903.31
566.115	13959.58
566.477	13992.57
566.839	13929.75
567.201	14004.32
567.563	13957.77
567.925	14040.03
568.287	14028.95
568.648	14007.26
569.01	14047.48
569.372	14099.69
569.734	14064.21
570.095	14145.11
570.457	14145.56
570.819	14082.29
571.18	14136.07
571.542	14189.17
571.903	14179.23
572.265	14263.98
572.626	14265.11
572.987	14194.15
573.349	14329.51
573.71	14341.71
574.071	14259
574.432	14343.97
574.794	14411.99
575.155	14370.19
575.516	14258.1
575.877	14384.2
576.238	14301.71
576.599	14396.63
576.96	14341.04
577.32	14410.19
577.681	14412.67
578.042	14362.5
578.403	14373.12
578.763	14333.58
579.124	14332.67
579.485	14410.64
579.845	14468.04
580.206	14375.16
580.566	14497.64
580.927	14336.29
581.287	14437.53
581.648	14379.45
582.008	14492.44
582.368	14377.87
582.728	14429.62
583.089	14432.11
583.449	14323.63
583.809	14369.96
584.169	14436.4
584.529	14349.17
584.889	14379.45
585.249	14330.87
585.609	14231.21
585.969	14351.43
586.329	14338.1
586.688	14285.67
587.048	14341.71
587.408	14279.34
587.768	14214.03
588.127	14262.17
588.487	14251.55
588.846	14303.07
589.206	14329.51
589.565	14273.24
589.925	14349.62
590.284	14260.36
590.643	14176.75
591.003	14210.42
591.362	14242.73
591.721	14233.69
592.08	14204.54
592.44	14257.42
592.799	14245.9
593.158	14203.19
593.517	14235.95
593.876	14122.96
594.235	14091.32
594.593	14084.77
594.952	14158.89
595.311	14023.98
595.67	14107.82
596.029	14169.97
596.387	14188.27
596.746	14197.54
597.104	14061.49
597.463	14132.91
597.822	14134.26
598.18	14132.91
598.538	14074.83
598.897	14185.79
599.255	13979.69
599.613	14219.68
599.972	14180.36
600.33	14206.35
600.688	14139.68
601.046	14215.16
601.404	14219
601.762	14155.96
602.12	14117.76
602.478	14175.16
602.836	14232.56
603.194	14151.89
603.552	14189.4
603.91	14077.54
604.268	14119.57
604.625	14135.84
604.983	14159.57
605.341	14132.23
605.698	14140.14
606.056	14230.98
606.413	14168.84
606.771	14246.35
607.128	14178.55
607.485	14208.16
607.843	14109.85
608.2	14223.07
608.557	14219.23
608.914	14164.54
609.272	14253.13
609.629	14263.07
609.986	14352.79
610.343	14226.91
610.7	14328.38
611.057	14284.99
611.414	14169.29
611.771	14273.01
612.127	14318.44
612.484	14374.93
612.841	14405.67
613.198	14329.96
613.554	14304.88
613.911	14419.9
614.267	14348.94
614.624	14458.32
614.98	14418.1
615.337	14471.43
615.693	14492.22
616.05	14350.07
616.406	14467.13
616.762	14449.73
617.118	14534.02
617.475	14514.36
617.831	14555.72
618.187	14509.39
618.543	14572.89
618.899	14640.01
619.255	14525.89
619.611	14563.4
619.967	14596.17
620.323	14739.89
620.678	14571.99
621.034	14494.25
621.39	14617.86
621.746	14523.63
622.101	14715.94
622.457	14582.38
622.812	14618.77
623.168	14553.69
623.523	14634.59
623.879	14655.6
624.234	14534.48
624.589	14584.42
624.945	14651.76
625.3	14591.88
625.655	14630.75
626.01	14604.08
626.365	14618.99
626.72	14636.62
627.075	14588.26
627.43	14577.19
627.785	14587.58
628.14	14540.35
628.495	14524.31
628.85	14597.3
629.205	14570.86
629.559	14614.7
629.914	14469.85
630.269	14450.41
630.623	14445.44
630.978	14461.03
631.332	14539.45
631.687	14501.48
632.041	14453.57
632.396	14461.94
632.75	14454.93
633.104	14410.86
633.459	14391.2
633.813	14374.48
634.167	14353.01
634.521	14439.34
634.875	14370.64
635.229	14409.73
635.583	14253.35
635.937	14300.58
636.291	14292.45
636.645	14268.72
636.999	14235.73
637.352	14296.06
637.706	14162.28
638.06	14239.8
638.413	14090.65
638.767	14195.95
639.121	14208.38
639.474	14130.19
639.828	14092
640.181	14012.46
640.534	14092.68
640.888	14103.75
641.241	14052.68
641.594	14062.85
641.947	14112.11
642.301	13964.55
642.654	14056.75
643.007	14128.16
643.36	14113.7
643.713	14062.4
644.066	14051.33
644.419	13994.6
644.771	13898.56
645.124	13681.39
645.477	13702.86
645.83	13631.22
646.182	13600.72
646.535	13560.49
646.888	13627.83
647.24	13490.89
647.593	13572.92
647.945	13432.13
648.298	13455.86
648.65	13437.78
649.002	13428.74
649.355	13496.54
649.707	13518.01
650.059	13528.63
650.411	13752.58
650.763	13744.89
651.115	13887.94
651.467	13776.53
651.819	13742.86
652.171	13795.06
652.523	13823.08
652.875	13725.01
653.227	13671.22
653.578	13807.26
653.93	13800.94
654.282	13720.26
654.633	13719.13
654.985	13786.25
655.337	13775.17
655.688	13829.18
656.039	13923.42
656.391	13749.64
656.742	13785.12
657.094	13738.79
657.445	13801.39
657.796	13848.17
658.147	13768.4
658.498	13703.54
658.849	13825.12
659.2	13703.09
659.551	13772.01
659.902	13895.4
660.253	13843.65
660.604	13814.95
660.955	13767.27
661.306	13798.9
661.656	13807.04
662.007	13744.89
662.358	13812.01
662.708	13785.57
663.059	13862.4
663.409	13798.68
663.76	13867.83
664.11	13879.13
664.461	13874.61
664.811	13872.8
665.161	13887.26
665.511	13754.38
665.862	13809.52
666.212	13886.81
666.562	13824.66
666.912	13801.39
667.262	13765.23
667.612	13903.08
667.962	13917.77
668.312	13847.26
668.662	13867.38
669.011	13856.3
669.361	13826.7
669.711	13834.38
670.06	13828.73
670.41	13753.48
670.76	13839.58
671.109	13790.54
671.459	13785.8
671.808	13767.72
672.157	13807.94
672.507	13774.04
672.856	13781.73
673.205	13732.01
673.554	13792.58
673.904	13709.41
674.253	13734.95
674.602	13703.99
674.951	13582.41
675.3	13448.4
675.649	13672.13
675.998	13550.1
676.346	13700.37
676.695	13710.32
677.044	13566.37
677.393	13667.38
677.741	13596.87
678.09	13520.49
678.438	13598
678.787	13609.76
679.135	13542.86
679.484	13489.31
679.832	13510.32
680.181	13446.82
680.529	13490.66
680.877	13344.68
681.225	13359.59
681.573	13436.88
681.922	13367.5
682.27	13293.61
682.618	13269.65
682.966	13359.14
683.314	13283.44
683.661	13266.26
684.009	13210.22
684.357	13162.31
684.705	13154.85
685.053	13208.18
685.4	13084.35
685.748	13120.73
686.095	13085.93
686.443	12957.12
686.79	13000.05
687.138	12975.2
687.485	12957.79
687.832	12943.56
688.18	12882.32
688.527	12808.42
688.874	12797.8
689.221	12785.14
689.568	12723.45
689.915	12653.17
690.262	12713.73
690.609	12628.09
690.956	12597.8
691.303	12629.44
691.65	12454.53
691.997	12551.03
692.344	12346.06
692.69	12383.57
693.037	12369.56
693.383	12261.99
693.73	12371.82
694.077	12266.97
694.423	12300.19
694.769	12219.28
695.116	12239.4
695.462	12047.54
695.808	12122.34
696.155	12048.67
696.501	12007.09
696.847	11979.74
697.193	11898.39
697.539	11832.85
697.885	11814.32
698.231	11732.97
698.577	11745.85
698.923	11737.71
699.269	11657.49
699.614	11626.98
699.96	11498.85
700.306	11432.86
700.651	11545.18
700.997	11461.34
701.342	11401.23
701.688	11370.49
702.033	11342.7
702.379	11352.19
702.724	11236.71
703.069	11179.76
703.415	11195.36
703.76	11149.93
704.105	11142.93
704.45	11094.12
704.795	11052.08
705.14	10997.39
705.485	10938.86
705.83	10911.75
706.175	10910.17
706.52	10956.27
706.865	10854.35
707.209	10911.75
707.554	10792.65
707.899	10841.69
708.243	10762.15
708.588	10776.16
708.932	10678.08
709.277	10680.57
709.621	10533.68
709.966	10577.07
710.31	10630.17
710.654	10507.46
710.998	10429.95
711.342	10411.42
711.687	10488.03
712.031	10391.99
712.375	10439.67
712.719	10386.11
713.063	10403.06
713.407	10308.6
713.75	10327.36
714.094	10296.85
714.438	10227.47
714.782	10312.67
715.125	10221.6
715.469	10255.04
715.812	10168.26
716.156	10136.4
716.499	10192.67
716.843	10104.76
717.186	10119.23
717.53	10031.54
717.873	10148.15
718.216	10066.57
718.559	10043.75
718.902	9930.53
719.246	9975.27
719.589	9987.93
719.932	9945.22
720.275	9939.8
720.617	9912.23
720.96	9896.63
721.303	9893.47
721.646	9919.68
721.989	9889.63
722.331	9940.7
722.674	9856.18
723.016	9853.24
723.359	9833.58
723.701	9834.04
724.044	9765.11
724.386	9754.49
724.729	9854.6
725.071	9867.48
725.413	9725.34
725.755	9794.71
726.097	9745.22
726.439	9669.97
726.782	9742.51
727.124	9735.51
727.465	9703.42
727.807	9755.39
728.149	9693.93
728.491	9636.98
728.833	9701.16
729.175	9667.71
729.516	9719.24
729.858	9623.87
730.199	9660.48
730.541	9652.8
730.882	9575.74
731.224	9700.93
731.565	9642.18
731.906	9613.25
732.248	9635.17
732.589	9596.3
732.93	9556.08
733.271	9616.19
733.612	9596.3
733.953	9599.92
734.294	9589.52
734.635	9524.89
734.976	9612.8
735.317	9590.88
735.658	9555.85
735.999	9522.86
736.339	9522.4
736.68	9631.78
737.021	9596.53
737.361	9594.72
737.702	9663.42
738.042	9594.27
738.383	9580.48
738.723	9672.23
739.063	9561.95
739.404	9657.09
739.744	9614.83
740.084	9583.19
740.424	9653.25
740.764	9579.35
741.104	9716.75
741.444	9655.73
741.784	9626.81
742.124	9766.01
742.464	9739.57
742.804	9764.66
743.143	9803.75
743.483	9763.75
743.823	9821.38
744.162	9829.74
744.502	9864.54
744.841	9860.02
745.181	9967.59
745.52	9921.94
745.86	10014.37
746.199	10010.3
746.538	10069.51
746.877	10104.76
747.216	10175.95
747.556	10255.49
747.895	10270.63
748.234	10294.59
748.573	10311.31
748.911	10420.23
749.25	10435.38
749.589	10429.05
749.928	10533.23
750.267	10611.64
750.605	10642.15
750.944	10752.43
751.283	10834.69
751.621	10961.69
751.96	10942.93
752.298	11100.44
752.636	11228.12
752.975	11252.53
753.313	11317.39
753.651	11525.29
753.989	11548.34
754.327	11685.06
754.666	11669.92
755.004	11874.66
755.342	12066.52
755.679	12117.82
756.017	12262.45
756.355	12397.36
756.693	12491.14
757.031	12697.24
757.368	12687.97
757.706	12916.21
