Data from hue_150_FLMS001491_00091.txt Node
Date: Tue Feb 07 16:54:47 GMT 2017
User: dcchb
Spectrometer: FLMS00149
Trigger mode: 0
Integration Time (sec): 2.000000E-2
Scans to average: 10
Electric dark correction enabled: true
Nonlinearity correction enabled: false
Boxcar width: 0
XAxis mode: Wavelengths
Number of Pixels in Spectrum: 2048
>>>>>Begin Spectral Data<<<<<
341.393	-17.97
341.776	-17.97
342.16	-17.97
342.543	-54.57
342.927	-71.75
343.31	-66.1
343.693	-85.99
344.077	-47.8
344.46	-57.51
344.843	-62.71
345.226	-43.05
345.61	-40.11
345.993	-25.65
346.376	-3.5
346.759	10.51
347.142	35.82
347.525	52.32
347.908	49.38
348.291	88.02
348.674	100
349.057	96.38
349.44	131.18
349.823	153.33
350.206	161.46
350.588	188.36
350.971	211.86
351.354	224.06
351.737	222.03
352.119	267.68
352.502	249.37
352.884	267.9
353.267	276.72
353.65	290.73
354.032	299.31
354.414	301.35
354.797	303.38
355.179	329.37
355.562	311.29
355.944	317.84
356.326	318.97
356.709	337.28
357.091	321.91
357.473	347
357.855	320.56
358.238	337.51
358.62	330.73
359.002	327.34
359.384	339.99
359.766	328.24
360.148	342.7
360.53	325.53
360.912	319.88
361.294	322.36
361.676	329.37
362.057	319.2
362.439	315.58
362.821	325.98
363.203	296.38
363.584	337.28
363.966	323.04
364.348	333.44
364.729	304.51
365.111	310.61
365.493	311.74
365.874	324.4
366.256	318.52
366.637	326.43
367.019	311.74
367.4	334.79
367.781	316.94
368.163	309.71
368.544	306.32
368.925	305.42
369.306	308.35
369.688	309.03
370.069	325.53
370.45	302.93
370.831	301.35
371.212	325.98
371.593	319.2
371.974	319.43
372.355	313.78
372.736	323.95
373.117	323.72
373.498	288.92
373.879	301.35
374.26	297.28
374.641	309.71
375.021	315.58
375.402	309.03
375.783	336.6
376.163	323.04
376.544	321.01
376.925	322.59
377.305	325.53
377.686	322.14
378.066	318.52
378.447	329.6
378.827	309.48
379.208	296.83
379.588	323.49
379.968	318.07
380.349	317.17
380.729	309.03
381.109	325.08
381.489	328.69
381.87	323.95
382.25	319.43
382.63	321.91
383.01	335.25
383.39	321.91
383.77	330.73
384.15	335.47
384.53	336.83
384.91	335.47
385.29	347.9
385.67	354
386.049	320.1
386.429	337.05
386.809	344.28
387.189	335.7
387.568	355.58
387.948	366.21
388.328	359.2
388.707	332.99
389.087	330.27
389.466	344.96
389.846	369.37
390.225	363.27
390.605	356.26
390.984	349.71
391.363	369.59
391.743	363.49
392.122	365.75
392.501	360.33
392.881	375.47
393.26	374.34
393.639	361.69
394.018	355.58
394.397	369.59
394.776	367.79
395.155	358.07
395.534	368.46
395.913	376.83
396.292	387
396.671	366.43
397.05	380.89
397.429	357.62
397.808	377.96
398.186	381.57
398.565	375.92
398.944	376.37
399.323	402.36
399.701	394
400.08	378.18
400.458	380.22
400.837	368.92
401.215	389.71
401.594	384.06
401.972	388.13
402.351	408.46
402.729	387
403.107	396.03
403.486	398.29
403.864	412.31
404.242	418.86
404.62	405.3
404.999	402.36
405.377	393.1
405.755	398.07
406.133	402.36
406.511	406.43
406.889	413.66
407.267	403.27
407.645	435.13
408.023	417.5
408.401	395.36
408.779	416.6
409.156	417.73
409.534	451.63
409.912	419.99
410.29	423.15
410.667	417.73
411.045	425.86
411.422	433.55
411.8	446.65
412.178	451.4
412.555	442.59
412.933	451.63
413.31	446.88
413.687	451.4
414.065	479.42
414.442	472.19
414.819	475.13
415.197	460.67
415.574	473.55
415.951	459.31
416.328	467.9
416.705	485.98
417.082	469.03
417.46	471.96
417.837	490.95
418.214	473.77
418.591	487.56
418.967	497.05
419.344	484.39
419.721	507.44
420.098	501.12
420.475	480.1
420.852	492.08
421.228	485.3
421.605	509.7
421.982	533.88
422.358	504.05
422.735	528.23
423.111	506.77
423.488	515.35
423.864	551.28
424.241	528.69
424.617	562.13
424.994	553.77
425.37	544.73
425.746	532.3
426.123	543.6
426.499	559.65
426.875	542.47
427.251	559.65
427.627	551.06
428.003	576.6
428.379	572.08
428.756	560.55
429.132	550.38
429.507	564.84
429.883	578.18
430.259	580.89
430.635	609.81
431.011	605.07
431.387	605.97
431.763	610.49
432.138	632.64
432.514	615.69
432.89	627.44
433.265	630.15
433.641	625.63
434.016	626.76
434.392	642.81
434.767	666.54
435.143	625.18
435.518	662.24
435.894	643.94
436.269	673.99
436.644	670.83
437.02	651.17
437.395	666.99
437.77	674.22
438.145	704.95
438.52	690.26
438.895	695.24
439.271	715.12
439.646	704.28
440.021	720.55
440.395	730.72
440.77	739.53
441.145	735.01
441.52	733.2
441.895	734.33
442.27	768
442.645	771.39
443.019	753.54
443.394	756.25
443.769	773.65
444.143	761.45
444.518	774.56
444.892	762.8
445.267	783.14
445.641	776.14
446.016	811.84
446.39	808
446.764	789.7
447.139	794.22
447.513	807.78
447.887	817.94
448.262	812.07
448.636	826.76
449.01	847.32
449.384	846.42
449.758	857.49
450.132	841.22
450.506	864.5
450.88	888.68
451.254	874.67
451.628	856.81
452.002	875.8
452.376	895
452.75	919.41
453.123	904.72
453.497	900.2
453.871	920.31
454.244	913.54
454.618	953.53
454.992	945.85
455.365	943.14
455.739	967.77
456.112	970.03
456.486	989.92
456.859	990.6
457.232	1000.99
457.606	988.34
457.979	1010.03
458.352	1051.38
458.725	1051.61
459.099	1044.83
459.472	1085.51
459.845	1074.66
460.218	1079.86
460.591	1125.28
460.964	1103.36
461.337	1131.61
461.71	1153.08
462.083	1191.72
462.456	1163.47
462.829	1188.1
463.201	1199.18
463.574	1197.82
463.947	1231.72
464.32	1234.88
464.692	1242.57
465.065	1276.92
465.438	1301.32
465.81	1330.25
466.183	1358.5
466.555	1363.69
466.928	1350.81
467.3	1374.31
467.672	1394.43
468.045	1425.84
468.417	1459.06
468.789	1455.67
469.161	1495.67
469.534	1507.87
469.906	1541.77
470.278	1597.81
470.65	1582.44
471.022	1605.95
471.394	1644.82
471.766	1680.75
472.138	1739.73
472.51	1741.31
472.882	1789.67
473.253	1843.91
473.625	1872.38
473.997	1900.4
474.369	1941.3
474.74	1979.95
475.112	2031.7
475.484	2084.8
475.855	2120.06
476.227	2122.32
476.598	2237.79
476.97	2216.1
477.341	2355.76
477.713	2386.26
478.084	2422.65
478.455	2513.27
478.827	2558.92
479.198	2683.21
479.569	2664.22
479.94	2793.71
480.311	2849.53
480.682	2923.43
481.053	3032.58
481.424	3129.07
481.795	3158.67
482.166	3228.28
482.537	3337.43
482.908	3447.48
483.279	3555.27
483.65	3680.02
484.021	3742.61
484.391	3839.56
484.762	3877.53
485.133	4024.41
485.503	4078.65
485.874	4225.54
486.244	4286.33
486.615	4443.84
486.985	4511.86
487.356	4699.65
487.726	4772.64
488.097	4887.22
488.467	4996.37
488.837	5128.11
489.207	5275.45
489.578	5393.42
489.948	5524.94
490.318	5618.72
490.688	5747.98
491.058	5894.42
491.428	5985.94
491.798	6124.92
492.168	6223.9
492.538	6343.22
492.908	6488.76
493.278	6686.04
493.648	6730.11
494.017	6851.68
494.387	7026.37
494.757	7069.98
495.126	7215.74
495.496	7278.11
495.866	7420.48
496.235	7506.36
496.605	7669.52
496.974	7797.87
497.344	7867.25
497.713	7979.56
498.082	8118.54
498.452	8180.69
498.821	8356.05
499.19	8375.94
499.559	8478.99
499.928	8576.84
500.298	8618.42
500.667	8755.14
501.036	8822.71
501.405	8946.32
501.774	9044.17
502.143	9132.3
502.512	9126.88
502.88	9240.32
503.249	9304.73
503.618	9384.95
503.987	9474.67
504.356	9571.61
504.724	9550.82
505.093	9683.7
505.462	9786.07
505.83	9855
506.199	9869.23
506.567	10020.64
506.936	10010.92
507.304	10184.7
507.672	10248.21
508.041	10274.65
508.409	10336.56
508.777	10392.38
509.145	10444.81
509.514	10500.63
509.882	10567.52
510.25	10537.01
510.618	10592.38
510.986	10650
511.354	10761.41
511.722	10805.48
512.09	10877.12
512.458	10851.81
512.826	10982.2
513.193	10999.6
513.561	11000.95
513.929	11094.74
514.297	11209.76
514.664	11097.45
515.032	11209.54
515.4	11244.79
515.767	11271.23
516.135	11352.58
516.502	11246.14
516.869	11441.39
517.237	11333.15
517.604	11355.52
517.972	11478.23
518.339	11393.49
518.706	11398.91
519.073	11461.05
519.44	11512.58
519.808	11619.69
520.175	11529.75
520.542	11631.22
520.909	11706.25
521.276	11686.36
521.643	11713.48
522.009	11753.7
522.376	11844.1
522.743	11839.35
523.11	11894.26
523.477	11981.72
523.843	11938.78
524.21	12021.04
524.577	12098.55
524.943	12020.59
525.31	12017.2
525.676	12105.78
526.043	12151.21
526.409	12193.69
526.776	12202.05
527.142	12144.65
527.508	12143.52
527.874	12145.33
528.241	12202.05
528.607	12218.1
528.973	12228.49
529.339	12204.99
529.705	12206.57
530.071	12289.28
530.437	12235.5
530.803	12258.32
531.169	12263.52
531.535	12122.28
531.901	12196.18
532.267	12248.83
532.632	12232.56
532.998	12159.57
533.364	12183.75
533.73	12142.84
534.095	12249.51
534.461	12168.38
534.826	12167.25
535.192	12128.61
535.557	12144.65
535.923	12076.63
536.288	12056.07
536.653	12015.39
537.019	11956.63
537.384	11976.3
537.749	12020.14
538.114	11918.9
538.479	11938.33
538.845	11885
539.21	11848.16
539.575	11839.8
539.94	11818.11
540.305	11784.21
540.67	11765.91
541.034	11701.27
541.399	11722.97
541.764	11721.39
542.129	11697.66
542.494	11585.57
542.858	11589.64
543.223	11532.01
543.587	11641.84
543.952	11503.54
544.316	11478.23
544.681	11416.54
545.045	11453.82
545.41	11381.06
545.774	11397.33
546.138	11335.41
546.503	11360.94
546.867	11240.27
547.231	11348.06
547.595	11279.14
547.959	11201.4
548.324	11190.78
548.688	11117.56
549.052	11081.86
549.416	11129.31
549.779	11080.5
550.143	10951.46
550.507	10939.26
550.871	10880.28
551.235	10960.73
551.599	10971.58
551.962	10892.03
552.326	10795.99
552.689	10878.02
553.053	10810.9
553.417	10716.89
553.78	10902.43
554.143	10788.76
554.507	10736.1
554.87	10675.54
555.234	10763.9
555.597	10694.75
555.96	10679.83
556.323	10676.22
556.686	10632.6
557.05	10689.1
557.413	10581.3
557.776	10588.08
558.139	10658.82
558.502	10614.07
558.865	10594.86
559.228	10595.09
559.59	10540.4
559.953	10557.35
560.316	10617.23
560.679	10563.23
561.041	10581.53
561.404	10558.25
561.767	10546.95
562.129	10570.46
562.492	10627.63
562.854	10508.99
563.217	10551.47
563.579	10617.69
563.941	10600.96
564.304	10554.64
564.666	10644.35
565.028	10604.13
565.39	10552.38
565.753	10655.2
566.115	10635.99
566.477	10613.17
566.839	10655.88
567.201	10716.89
567.563	10659.49
567.925	10696.1
568.287	10689.32
568.648	10646.16
569.01	10709.89
569.372	10818.81
569.734	10704.24
570.095	10814.74
570.457	10720.28
570.819	10768.42
571.18	10766.61
571.542	10734.97
571.903	10717.57
572.265	10758.02
572.626	10790.11
572.987	10795.99
573.349	10810.45
573.71	10824.01
574.071	10857.23
574.432	10809.77
574.794	10925.02
575.155	10918.92
575.516	10822.43
575.877	10855.65
576.238	10827.17
576.599	10951.24
576.96	10883.44
577.32	10803.44
577.681	10845.93
578.042	10900.39
578.403	10866.95
578.763	10851.13
579.124	10858.13
579.485	10850.45
579.845	10918.7
580.206	10882.76
580.566	10879.6
580.927	10882.09
581.287	10815.87
581.648	10811.81
582.008	10792.6
582.368	10878.02
582.728	10900.62
583.089	10791.24
583.449	10834.86
583.809	10798.02
584.169	10861.52
584.529	10726.84
584.889	10788.08
585.249	10754.63
585.609	10784.24
585.969	10789.89
586.329	10807.06
586.688	10780.85
587.048	10789.89
587.408	10697.68
587.768	10815.2
588.127	10702.66
588.487	10741.98
588.846	10790.56
589.206	10698.36
589.565	10763.9
589.925	10749.43
590.284	10705.37
590.643	10695.42
591.003	10704.24
591.362	10774.07
591.721	10678.02
592.08	10630.79
592.44	10615.2
592.799	10708.31
593.158	10663.34
593.517	10626.95
593.876	10593.96
594.235	10648.65
594.593	10624.47
594.952	10638.25
595.311	10617.91
595.67	10640.51
596.029	10670.34
596.387	10652.26
596.746	10675.54
597.104	10625.37
597.463	10593.73
597.822	10614.3
598.18	10574.3
598.538	10599.16
598.897	10666.73
599.255	10456.11
599.613	10723.45
599.972	10667.86
600.33	10647.06
600.688	10594.86
601.046	10554.64
601.404	10624.24
601.762	10565.94
602.12	10663.79
602.478	10648.87
602.836	10610.68
603.194	10560.51
603.552	10550.8
603.91	10568.65
604.268	10585.82
604.625	10585.6
604.983	10539.95
605.341	10516.9
605.698	10597.35
606.056	10570.46
606.413	10579.5
606.771	10630.12
607.128	10657.01
607.485	10574.52
607.843	10594.64
608.2	10581.08
608.557	10678.25
608.914	10530.46
609.272	10624.92
609.629	10654.97
609.986	10657.46
610.343	10624.92
610.7	10719.61
611.057	10630.34
611.414	10633.28
611.771	10647.74
612.127	10683.45
612.484	10780.62
612.841	10728.42
613.198	10706.27
613.554	10688.87
613.911	10725.71
614.267	10768.64
614.624	10658.36
614.98	10768.19
615.337	10796.44
615.693	10729.77
616.05	10709.21
616.406	10778.59
616.762	10759.38
617.118	10732.26
617.475	10782.2
617.831	10788.76
618.187	10753.5
618.543	10873.73
618.899	10820.39
619.255	10791.69
619.611	10849.77
619.967	10864.91
620.323	10843.44
620.678	10787.63
621.034	10889.32
621.39	10878.7
621.746	10838.92
622.101	10943.78
622.457	10793.95
622.812	10790.56
623.168	10856.78
623.523	10868.3
623.879	10856.78
624.234	10848.19
624.589	10903.78
624.945	10818.59
625.3	10847.96
625.655	10813.16
626.01	10850.68
626.365	10851.35
626.72	10826.27
627.075	10897
627.43	10842.54
627.785	10866.72
628.14	10893.39
628.495	10853.61
628.85	10888.64
629.205	10827.62
629.559	10806.61
629.914	10794.86
630.269	10824.24
630.623	10784.24
630.978	10755.54
631.332	10739.72
631.687	10787.17
632.041	10763.45
632.396	10814.29
632.75	10763.67
633.104	10692.71
633.459	10618.14
633.813	10723.22
634.167	10703.56
634.521	10644.58
634.875	10680.96
635.229	10671.92
635.583	10665.14
635.937	10586.28
636.291	10603.22
636.645	10617.69
636.999	10653.39
637.352	10643.67
637.706	10538.14
638.06	10550.34
638.413	10544.47
638.767	10532.04
639.121	10515.77
639.474	10509.22
639.828	10480.74
640.181	10479.16
640.534	10550.12
640.888	10483.91
641.241	10376.11
641.594	10462.21
641.947	10431.7
642.301	10379.05
642.654	10479.84
643.007	10330.46
643.36	10395.77
643.713	10358.26
644.066	10409.1
644.419	10422.21
644.771	10252.05
645.124	10294.98
645.477	10199.84
645.83	10113.97
646.182	10127.3
646.535	10011.15
646.888	10108.32
647.24	10059.74
647.593	10118.27
647.945	10120.3
648.298	10073.97
648.65	10092.73
649.002	10008.21
649.355	10048.66
649.707	10069
650.059	10112.84
650.411	10245.04
650.763	10259.05
651.115	10269.45
651.467	10311.93
651.819	10260.86
652.171	10242.56
652.523	10273.06
652.875	10270.58
653.227	10289.33
653.578	10290.01
653.93	10306.06
654.282	10228.54
654.633	10217.7
654.985	10261.54
655.337	10316
655.688	10330.24
656.039	10346.96
656.391	10194.2
656.742	10209.34
657.094	10345.83
657.445	10303.57
657.796	10262.44
658.147	10308.09
658.498	10318.03
658.849	10271.03
659.2	10289.33
659.551	10246.85
659.902	10313.06
660.253	10274.42
660.604	10374.08
660.955	10236.23
661.306	10317.58
661.656	10313.97
662.007	10260.63
662.358	10323.68
662.708	10348.77
663.059	10300.41
663.409	10231.03
663.76	10371.59
664.11	10335.66
664.461	10296.34
664.811	10390.8
665.161	10396.9
665.511	10323.46
665.862	10312.16
666.212	10391.03
666.562	10354.87
666.912	10355.55
667.262	10333.85
667.612	10368.88
667.962	10378.37
668.312	10377.24
668.662	10334.53
669.011	10293.63
669.361	10287.98
669.711	10311.03
670.06	10284.14
670.41	10281.2
670.76	10276.23
671.109	10281.2
671.459	10322.55
671.808	10227.41
672.157	10267.41
672.507	10210.92
672.856	10266.96
673.205	10225.15
673.554	10255.44
673.904	10260.86
674.253	10362.78
674.602	10278.49
674.951	10082.11
675.3	10067.87
675.649	10177.47
675.998	10191.71
676.346	10202.56
676.695	10228.09
677.044	10136.34
677.393	10177.25
677.741	10216.12
678.09	10183.12
678.438	10128.43
678.787	10152.61
679.135	10097.93
679.484	10056.57
679.832	10091.6
680.181	10008.21
680.529	10036.46
680.877	10028.32
681.225	10056.35
681.573	10045.95
681.922	10008.44
682.27	9975.67
682.618	9928.89
682.966	9927.54
683.314	9953.3
683.661	9889.57
684.009	9888.89
684.357	9904.71
684.705	9758.05
685.053	9858.16
685.4	9820.87
685.748	9784.26
686.095	9773.64
686.443	9797.37
686.79	9730.03
687.138	9695.45
687.485	9713.53
687.832	9747.65
688.18	9631.05
688.527	9629.01
688.874	9648.22
689.221	9507.43
689.568	9506.98
689.915	9514.89
690.262	9527.32
690.609	9473.08
690.956	9401.9
691.303	9498.39
691.65	9361.67
691.997	9372.07
692.344	9260.66
692.69	9287.33
693.037	9253.2
693.383	9243.94
693.73	9210.04
694.077	9150.38
694.423	9191.06
694.769	9093.89
695.116	9065.64
695.462	9040.55
695.808	9070.61
696.155	9091.17
696.501	8972.76
696.847	8953.1
697.193	8849.37
697.539	8899.09
697.885	8878.3
698.231	8790.16
698.577	8810.05
698.923	8832.65
699.269	8753.78
699.614	8645.08
699.96	8692.54
700.306	8627.23
700.651	8565.09
700.997	8500.91
701.342	8528.48
701.688	8531.41
702.033	8547.01
702.379	8468.36
702.724	8399.44
703.069	8423.17
703.415	8353.34
703.76	8360.12
704.105	8345.88
704.45	8278.54
704.795	8308.37
705.14	8288.03
705.485	8225.89
705.83	8184.08
706.175	8220.24
706.52	8207.13
706.865	8143.63
707.209	8131.65
707.554	8106.79
707.899	8065.66
708.243	8054.36
708.588	8016.85
708.932	8002.61
709.277	8015.72
709.621	7921.49
709.966	7880.81
710.31	7909.74
710.654	7913.8
710.998	7853.92
711.342	7847.82
711.687	7840.13
712.031	7767.59
712.375	7751.32
712.719	7731.21
713.063	7761.26
713.407	7731.21
713.75	7662.51
714.094	7668.61
714.438	7662.28
714.782	7609.18
715.125	7634.04
715.469	7672.68
715.812	7598.33
716.156	7600.59
716.499	7577.77
716.843	7596.3
717.186	7493.93
717.53	7528.5
717.873	7542.51
718.216	7517.88
718.559	7561.95
718.902	7474.49
719.246	7412.57
719.589	7463.65
719.932	7482.4
720.275	7406.25
720.617	7454.61
720.96	7465.23
721.303	7422.52
721.646	7475.85
721.989	7358.11
722.331	7350.65
722.674	7405.12
723.016	7363.76
723.359	7404.44
723.701	7361.5
724.044	7350.65
724.386	7333.71
724.729	7360.15
725.071	7346.13
725.413	7305.46
725.755	7364.67
726.097	7344.33
726.439	7218.91
726.782	7286.02
727.124	7302.52
727.465	7368.05
727.807	7296.87
728.149	7259.81
728.491	7307.72
728.833	7315.85
729.175	7236.31
729.516	7322.18
729.858	7239.92
730.199	7280.83
730.541	7282.18
730.882	7294.61
731.224	7280.83
731.565	7209.64
731.906	7260.49
732.248	7293.71
732.589	7262.07
732.93	7225.69
733.271	7209.64
733.612	7206.03
733.953	7308.85
734.294	7253.48
734.635	7206.7
734.976	7312.69
735.317	7195.63
735.658	7251.9
735.999	7251.45
736.339	7243.54
736.68	7243.54
737.021	7252.13
737.361	7282.41
737.702	7295.74
738.042	7258.23
738.383	7282.41
738.723	7334.38
739.063	7243.31
739.404	7361.73
739.744	7312.46
740.084	7267.49
740.424	7354.72
740.764	7379.58
741.104	7379.58
741.444	7364.67
741.784	7375.96
742.124	7409.18
742.464	7402.86
742.804	7403.08
743.143	7427.04
743.483	7464.32
743.823	7406.25
744.162	7470.65
744.502	7535.73
744.841	7447.83
745.181	7583.64
745.52	7606.69
745.86	7632.23
746.199	7678.1
746.538	7694.6
746.877	7769.85
747.216	7820.47
747.556	7879.68
747.895	7882.84
748.234	7924.88
748.573	7959.45
748.911	7985.67
749.25	8076.06
749.589	8144.98
749.928	8185.66
750.267	8278.09
750.605	8324.41
750.944	8390.17
751.283	8470.62
751.621	8503.39
751.96	8542.94
752.298	8697.96
752.636	8820.45
752.975	8829.49
753.313	8914.91
753.651	9065.86
753.989	9137.05
754.327	9208.01
754.666	9369.13
755.004	9382.92
755.342	9554.89
755.679	9706.3
756.017	9684.38
756.355	9912.17
756.693	10036.46
757.031	10152.16
757.368	10238.94
757.706	10399.16
758.044	10486.39
758.381	10719.83
758.719	10858.81
759.056	10964.57
759.394	11087.05
759.731	11208.63
760.068	11407.27
760.405	11504.22
760.743	11624.44
761.08	11868.5
761.417	11942.4
