Data from hue_300_FLMS001491_00094.txt Node
Date: Tue Feb 07 15:51:28 GMT 2017
User: dcchb
Spectrometer: FLMS00149
Trigger mode: 0
Integration Time (sec): 2.000000E-2
Scans to average: 10
Electric dark correction enabled: true
Nonlinearity correction enabled: false
Boxcar width: 0
XAxis mode: Wavelengths
Number of Pixels in Spectrum: 2048
>>>>>Begin Spectral Data<<<<<
341.393	-7.99
341.776	-7.99
342.16	-7.99
342.543	-67.43
342.927	-80.99
343.31	-64.49
343.693	-63.81
344.077	-80.76
344.46	-67.88
344.843	-44.38
345.226	-33.3
345.61	-15.45
345.993	-3.25
346.376	-28.78
346.759	-9.35
347.142	38.56
347.525	38.78
347.908	61.16
348.291	70.42
348.674	84.43
349.057	118.1
349.44	119.91
349.823	152.45
350.206	147.93
350.588	188.38
350.971	213.47
351.354	221.38
351.737	220.47
352.119	240.81
352.502	236.52
352.884	243.3
353.267	268.38
353.65	278.78
354.032	281.49
354.414	300.92
354.797	309.96
355.179	321.49
355.562	313.35
355.944	316.52
356.326	334.82
356.709	319.23
357.091	321.71
357.473	342.96
357.855	349.06
358.238	335.05
358.62	325.78
359.002	334.6
359.384	339.79
359.766	340.92
360.148	331.21
360.53	321.49
360.912	334.14
361.294	312.45
361.676	349.28
362.057	334.14
362.439	313.35
362.821	338.89
363.203	335.73
363.584	330.98
363.966	305.22
364.348	324.65
364.729	302.51
365.111	320.36
365.493	300.25
365.874	333.92
366.256	311.32
366.637	321.04
367.019	301.38
367.4	304.99
367.781	318.32
368.163	314.26
368.544	298.89
368.925	307.03
369.306	315.84
369.688	304.31
370.069	302.05
370.45	304.09
370.831	313.58
371.212	288.72
371.593	302.96
371.974	330.75
372.355	312
372.736	314.26
373.117	313.13
373.498	323.3
373.879	313.58
374.26	321.49
374.641	299.57
375.021	318.55
375.402	329.4
375.783	319
376.163	303.18
376.544	312.9
376.925	331.88
377.305	313.58
377.686	329.62
378.066	318.55
378.447	318.1
378.827	319.91
379.208	325.56
379.588	308.83
379.968	326.91
380.349	316.74
380.729	318.32
381.109	330.75
381.489	345.67
381.87	332.11
382.25	328.27
382.63	333.69
383.01	339.57
383.39	319
383.77	334.6
384.15	317.65
384.53	329.4
384.91	345.89
385.29	362.17
385.67	343.41
386.049	331.66
386.429	338.66
386.809	352.9
387.189	334.6
387.568	330.53
387.948	354.93
388.328	360.36
388.707	347.25
389.087	366.46
389.466	333.24
389.846	343.86
390.225	326.46
390.605	359.45
390.984	362.62
391.363	363.52
391.743	373.01
392.122	352
392.501	377.53
392.881	376.4
393.26	376.4
393.639	363.97
394.018	373.69
394.397	368.95
394.776	375.05
395.155	378.66
395.534	372.56
395.913	398.55
396.292	367.59
396.671	374.59
397.05	370.53
397.429	388.83
397.808	416.18
398.186	393.35
398.565	402.39
398.944	403.07
399.323	395.16
399.701	389.51
400.08	403.97
400.458	401.03
400.837	409.85
401.215	402.39
401.594	409.4
401.972	414.82
402.351	402.16
402.729	428.6
403.107	420.92
403.486	414.37
403.864	428.38
404.242	439.23
404.62	420.92
404.999	443.97
405.377	444.2
405.755	444.2
406.133	434.25
406.511	440.81
406.889	444.2
407.267	434.25
407.645	486.68
408.023	444.42
408.401	450.52
408.779	476.74
409.156	483.52
409.534	476.06
409.912	490.98
410.29	485.33
410.667	514.03
411.045	496.85
411.422	499.56
411.8	514.7
412.178	558.32
412.555	531.2
412.933	534.36
413.31	560.13
413.687	568.49
414.065	586.34
414.442	588.15
414.819	566.91
415.197	585.66
415.574	606.45
415.951	609.39
416.328	606.68
416.705	619.56
417.082	634.02
417.46	635.15
417.837	602.16
418.214	652.78
418.591	666.56
418.967	655.72
419.344	662.04
419.721	702.95
420.098	716.96
420.475	702.27
420.852	717.64
421.228	723.29
421.605	724.87
421.982	732.78
422.358	755.15
422.735	753.34
423.111	754.02
423.488	763.51
423.864	778.43
424.241	784.53
424.617	788.82
424.994	791.76
425.37	795.15
425.746	811.65
426.123	806.9
426.499	833.57
426.875	812.78
427.251	860.23
427.627	840.8
428.003	850.29
428.379	894.58
428.756	870.4
429.132	901.81
429.507	918.76
429.883	919.21
430.259	912.21
430.635	925.77
431.011	930.96
431.387	952.66
431.763	954.69
432.138	961.92
432.514	976.39
432.89	991.08
433.265	1025.65
433.641	1018.87
434.016	1046.44
434.392	1058.64
434.767	1083.73
435.143	1068.59
435.518	1080.11
435.894	1112.2
436.269	1085.08
436.644	1108.13
437.02	1127.34
437.395	1147.91
437.77	1175.25
438.145	1158.75
438.52	1173.67
438.895	1197.4
439.271	1170.05
439.646	1206.89
440.021	1201.24
440.395	1211.86
440.77	1182.48
441.145	1213.67
441.52	1231.07
441.895	1194.46
442.27	1256.61
442.645	1227
443.019	1250.28
443.394	1283.95
443.769	1262.93
444.143	1269.49
444.518	1280.56
444.892	1271.29
445.267	1298.19
445.641	1304.29
446.016	1287.34
446.39	1318.52
446.764	1286.21
447.139	1307.9
447.513	1317.85
447.887	1286.89
448.262	1333.89
448.636	1320.78
449.01	1339.54
449.384	1333.89
449.758	1346.55
450.132	1361.46
450.506	1344.51
450.88	1373.89
451.254	1356.04
451.628	1359.65
452.002	1382.25
452.376	1393.1
452.75	1383.61
453.123	1403.04
453.497	1437.39
453.871	1404.4
454.244	1441.01
454.618	1443.49
454.992	1423.15
455.365	1440.1
455.739	1478.97
456.112	1485.75
456.486	1483.04
456.859	1494.79
457.232	1513.77
457.606	1508.58
457.979	1488.69
458.352	1529.59
458.725	1565.3
459.099	1553.55
459.472	1608.91
459.845	1583.83
460.218	1571.63
460.591	1602.58
460.964	1608.01
461.337	1637.39
461.71	1668.57
462.083	1671.74
462.456	1642.36
462.829	1651.62
463.201	1684.62
463.574	1688.01
463.947	1696.37
464.32	1751.51
464.692	1722.81
465.065	1744.05
465.438	1740.89
465.81	1766.87
466.183	1782.69
466.555	1794.67
466.928	1817.95
467.3	1795.8
467.672	1787.66
468.045	1838.51
468.417	1858.85
468.789	1828.12
469.161	1900.2
469.534	1892.07
469.906	1911.73
470.278	1955.57
470.65	1919.86
471.022	2006.42
471.394	1987.89
471.766	2016.59
472.138	2023.82
472.51	2045.96
472.882	2085.28
473.253	2101.33
473.625	2081.89
473.997	2140.65
474.369	2142.46
474.74	2159.41
475.112	2170.25
475.484	2180.2
475.855	2199.41
476.227	2198.95
476.598	2223.81
476.97	2294.77
477.341	2316.01
477.713	2317.37
478.084	2330.7
478.455	2362.56
478.827	2398.27
479.198	2414.99
479.569	2433.98
479.94	2512.84
480.311	2487.31
480.682	2510.36
481.053	2546.29
481.424	2596.68
481.795	2605.27
482.166	2637.81
482.537	2619.51
482.908	2662.22
483.279	2692.95
483.65	2707.87
484.021	2738.6
484.391	2782.44
484.762	2786.51
485.133	2793.06
485.503	2798.94
485.874	2860.86
486.244	2870.12
486.615	2939.05
486.985	2962.1
487.356	3030.12
487.726	3019.5
488.097	3035.09
488.467	3020.85
488.837	3063.79
489.207	3053.39
489.578	3157.35
489.948	3139.72
490.318	3174.3
490.688	3186.95
491.058	3192.15
491.428	3263.11
491.798	3246.61
492.168	3295.65
492.538	3318.25
492.908	3329.55
493.278	3333.84
493.648	3402.09
494.017	3409.77
494.387	3402.99
494.757	3449.32
495.126	3467.85
495.496	3415.87
495.866	3473.72
496.235	3492.48
496.605	3487.96
496.974	3530.22
497.344	3574.74
497.713	3572.7
498.082	3546.49
498.452	3647.95
498.821	3606.83
499.19	3614.28
499.559	3605.92
499.928	3649.08
500.298	3663.1
500.667	3695.64
501.036	3673.26
501.405	3702.19
501.774	3737.44
502.143	3745.58
502.512	3772.92
502.88	3760.04
503.249	3772.25
503.618	3773.6
503.987	3799.59
504.356	3825.58
504.724	3822.87
505.093	3794.17
505.462	3841.62
505.83	3836.42
506.199	3818.57
506.567	3881.4
506.936	3896.99
507.304	3895.86
507.672	3913.03
508.041	3922.3
508.409	3960.94
508.777	3952.58
509.145	3947.61
509.514	3956.65
509.882	3942.64
510.25	3988.51
510.618	4000.04
510.986	4049.98
511.354	4007.04
511.722	4091.33
512.09	4075.97
512.458	4095.63
512.826	4077.55
513.193	4062.18
513.561	4082.75
513.929	4142.18
514.297	4187.83
514.664	4115.06
515.032	4120.94
515.4	4159.35
515.767	4187.83
516.135	4127.72
516.502	4135.85
516.869	4185.79
517.237	4225.34
517.604	4151.44
517.972	4209.52
518.339	4259.92
518.706	4222.63
519.073	4230.99
519.44	4224.44
519.808	4260.14
520.175	4269.41
520.542	4330.2
520.909	4324.1
521.276	4298.33
521.643	4337.65
522.009	4360.03
522.376	4390.31
522.743	4407.71
523.11	4412.45
523.477	4434.6
523.843	4479.8
524.21	4491.1
524.577	4512.34
524.943	4492.68
525.31	4497.88
525.676	4566.35
526.043	4542.39
526.409	4583.07
526.776	4610.19
527.142	4667.59
527.508	4629.62
527.874	4642.96
528.241	4684.09
528.607	4697.64
528.973	4734.03
529.339	4678.66
529.705	4747.59
530.071	4753.91
530.437	4865.1
530.803	4837.3
531.169	4867.58
531.535	4826
531.901	4819
532.267	4863.97
532.632	4907.81
532.998	4911.65
533.364	4971.54
533.73	4977.19
534.095	4989.16
534.461	4976.28
534.826	5032.55
535.192	5018.99
535.557	5093.11
535.923	5052.21
536.288	5115.49
536.653	5082.49
537.019	5099.67
537.384	5160.01
537.749	5173.34
538.114	5175.82
538.479	5167.91
538.845	5230.29
539.21	5222.15
539.575	5233
539.94	5204.07
540.305	5280.68
540.67	5310.96
541.034	5257.63
541.399	5303.28
541.764	5365.42
542.129	5408.81
542.494	5382.6
542.858	5392.99
543.223	5400
543.587	5486.1
543.952	5473.9
544.316	5542.59
544.681	5524.52
545.045	5550.96
545.41	5593.67
545.774	5574.01
546.138	5565.19
546.503	5615.81
546.867	5635.93
547.231	5665.08
547.595	5697.39
547.959	5702.36
548.324	5707.11
548.688	5723.83
549.052	5728.8
549.416	5781.01
549.779	5799.31
550.143	5791.18
550.507	5844.06
550.871	5893.09
551.235	5846.32
551.599	5867.33
551.962	5907.1
552.326	5967.89
552.689	6009.25
553.053	5896.94
553.417	5964.05
553.78	5978.74
554.143	6013.09
554.507	6015.58
554.87	6012.41
555.234	6163.37
555.597	6077.27
555.96	6114.1
556.323	6113.2
556.686	6118.85
557.05	6177.61
557.413	6192.07
557.776	6139.87
558.139	6209.47
558.502	6183.03
558.865	6205.63
559.228	6295.79
559.59	6266.64
559.953	6285.4
560.316	6324.72
560.679	6293.08
561.041	6301.44
561.404	6391.84
561.767	6445.17
562.129	6431.38
562.492	6397.94
562.854	6430.71
563.217	6431.16
563.579	6427.99
563.941	6462.57
564.304	6558.84
564.666	6544.83
565.028	6461.89
565.39	6576.24
565.753	6571.72
566.115	6597.48
566.477	6623.92
566.839	6730.36
567.201	6706.18
567.563	6667.76
567.925	6680.64
568.287	6767.65
568.648	6767.87
569.01	6786.4
569.372	6829.79
569.734	6801.77
570.095	6847.87
570.457	6921.54
570.819	6958.38
571.18	6940.52
571.542	7013.29
571.903	7012.84
572.265	7112.72
572.626	7134.42
572.987	7144.81
573.349	7175.55
573.71	7166.05
574.071	7308.2
574.432	7298.48
574.794	7360.17
575.155	7443.56
575.516	7501.64
575.877	7543.22
576.238	7584.8
576.599	7750.45
576.96	7751.12
577.32	7877.9
577.681	7873.15
578.042	8030.89
578.403	8013.26
578.763	8144.56
579.124	8247.83
579.485	8314.72
579.845	8382.29
580.206	8511.78
580.566	8631.55
580.927	8736.86
581.287	8873.81
581.648	8992.67
582.008	9233.8
582.368	9343.85
582.728	9476.5
583.089	9674.46
583.449	9767.57
583.809	10004.62
584.169	10141.34
584.529	10291.85
584.889	10540.66
585.249	10723.48
585.609	10816.13
585.969	11209.56
586.329	11312.39
586.688	11489.1
587.048	11669.21
587.408	11950.34
587.768	12191.23
588.127	12456.08
588.487	12629.19
588.846	12997.31
589.206	13115.5
589.565	13375.38
589.925	13755.26
590.284	13947.12
590.643	14239.77
591.003	14518.4
591.362	14837.72
591.721	15135.56
592.08	15391.6
592.44	15642.44
592.799	15864.81
593.158	16203.78
593.517	16540.05
593.876	16810.77
594.235	17042.18
594.593	17493.69
594.952	17708.38
595.311	18018.65
595.67	18245.54
596.029	18714.45
596.387	18974.33
596.746	19260.2
597.104	19522.11
597.463	19763.01
597.822	20165.71
598.18	20290.91
598.538	20685.25
598.897	21127.27
599.255	21232.58
599.613	21742.17
599.972	21877.76
600.33	22263.06
600.688	22403.17
601.046	22787.56
601.404	23194.33
601.762	23390.94
602.12	23689.24
602.478	23907.99
602.836	24346.39
603.194	24314.08
603.552	24738.47
603.91	24803.78
604.268	25221.17
604.625	25407.61
604.983	25712.23
605.341	25902.51
605.698	26182.5
606.056	26487.35
606.413	26632.66
606.771	27064.29
607.128	27282.14
607.485	27264.96
607.843	27515.35
608.2	27828.79
608.557	28236.69
608.914	28351.26
609.272	28703.57
609.629	28953.5
609.986	29121.86
610.343	29229.88
610.7	29612.24
611.057	29701.06
611.414	29969.52
611.771	30074.6
612.127	30387.36
612.484	30427.82
612.841	30647.25
613.198	30880.69
613.554	30996.84
613.911	31338.3
614.267	31338.53
614.624	31574.68
614.98	31738.52
615.337	32172.18
615.693	32073.65
616.05	32247.43
616.406	32525.16
616.762	32427.31
617.118	32735.55
617.475	32866.4
617.831	32965.83
618.187	33100.29
618.543	33332.6
618.899	33577.56
619.255	33633.16
619.611	33745.47
619.967	33966.71
620.323	34069.08
620.678	34006.25
621.034	34053.48
621.39	34217.32
621.746	34313.59
622.101	34748.83
622.457	34610.76
622.812	34782.96
623.168	34804.65
623.523	34890.75
623.879	35178.65
624.234	34930.97
624.589	35248.03
624.945	35237.41
625.3	35350.4
625.655	35356.95
626.01	35497.29
626.365	35628.13
626.72	35520.56
627.075	35595.36
627.43	35569.38
627.785	35672.65
628.14	35805.75
628.495	35886.43
628.85	35838.52
629.205	35714.68
629.559	36104.73
629.914	35935.47
630.269	36068.35
630.623	35914.23
630.978	36076.03
631.332	36065.63
631.687	36196.25
632.041	36141.11
632.396	36200.77
632.75	36040.1
633.104	36229.47
633.459	36210.94
633.813	36181.11
634.167	36161
634.521	36240.77
634.875	36344.27
635.229	36100.66
635.583	36121.23
635.937	36215.69
636.291	36253.65
636.645	36312.18
636.999	36180.43
637.352	36296.36
637.706	36133.43
638.06	36325.97
638.413	36312.41
638.767	36152.19
639.121	36266.53
639.474	35989.93
639.828	35949.25
640.181	36268.79
640.534	36220.21
640.888	36155.57
641.241	35980.66
641.594	36104.73
641.947	36193.09
642.301	36053.66
642.654	36070.38
643.007	36107.21
643.36	36099.98
643.713	36057.5
644.066	36208.91
644.419	35959.87
644.771	35839.42
645.124	35514.24
645.477	35474.46
645.83	35291.64
646.182	35055.49
646.535	35189.27
646.888	35145.88
647.24	35020.24
647.593	35206.22
647.945	35252.32
648.298	35004.87
648.65	35069.05
649.002	34876.51
649.355	34973.23
649.707	35049.39
650.059	35183.4
650.411	35500.9
650.763	35613.44
651.115	35944.51
651.467	35818.41
651.819	35710.16
652.171	35731.41
652.523	35731.63
652.875	35681.69
653.227	35611.63
653.578	35849.82
653.93	35749.94
654.282	35579.54
654.633	35443.28
654.985	35491.41
655.337	35653.44
655.688	35677.85
656.039	35685.3
656.391	35442.83
656.742	35485.76
657.094	35586.78
657.445	35772.76
657.796	35604.4
658.147	35516.95
658.498	35507.68
658.849	35688.92
659.2	35573.9
659.551	35502.26
659.902	35697.28
660.253	35605.76
660.604	35509.94
660.955	35443.96
661.306	35641.69
661.656	35505.42
662.007	35564.18
662.358	35670.16
662.708	35549.26
663.059	35636.27
663.409	35306.11
663.76	35545.2
664.11	35444.86
664.461	35502.26
664.811	35530.73
665.161	35576.83
665.511	35511.98
665.862	35454.12
666.212	35536.83
666.562	35520.79
666.912	35384.75
667.262	35452.09
667.612	35433.79
667.962	35474.46
668.312	35361.7
668.662	35602.82
669.011	35560.34
669.361	35418.64
669.711	35333.22
670.06	35244.19
670.41	35288.03
670.76	35303.17
671.109	35386.33
671.459	35336.84
671.808	35217.75
672.157	35279.44
672.507	34995.61
672.856	35183.17
673.205	35123.74
673.554	35274.69
673.904	35042.84
674.253	35259.33
674.602	35217.75
674.951	34687.59
675.3	34681.26
675.649	35145.88
675.998	35089.16
676.346	34989.28
676.695	35155.15
677.044	34856.4
677.393	35070.41
677.741	35147.24
678.09	35010.07
678.438	34821.37
678.787	34973.23
679.135	34912.9
679.484	34674.71
679.832	34811.43
680.181	34629.97
680.529	34614.37
680.877	34775.27
681.225	34599.46
681.573	34770.3
681.922	34512
682.27	34468.61
682.618	34519.69
682.966	34438.33
683.314	34388.62
683.661	34342.29
684.009	34086.48
684.357	34099.58
684.705	34169.41
685.053	34203.99
685.4	34021.85
685.748	33971
686.095	33929.87
686.443	33787.95
686.79	33875.18
687.138	33754.73
687.485	33806.03
687.832	33629.77
688.18	33724
688.527	33480.62
688.874	33403.56
689.221	33329.66
689.568	33253.5
689.915	33215.99
690.262	33253.05
690.609	33082.89
690.956	33048.99
691.303	32992.72
691.65	32843.12
691.997	32864.81
692.344	32704.37
692.69	32692.84
693.037	32661.2
693.383	32332.17
693.73	32584.14
694.077	32313.87
694.423	32333.08
694.769	32290.37
695.116	32207.43
695.462	32005.85
695.808	32056.02
696.155	32060.99
696.501	31947.78
696.847	31839.3
697.193	31591.17
697.539	31855.35
697.885	31532.42
698.231	31506.21
698.577	31360.22
698.923	31424.63
699.269	31306.44
699.614	31050.62
699.96	31044.07
700.306	31100.79
700.651	31032.09
700.997	30800.24
701.342	30776.28
701.688	30731.54
702.033	30546.91
702.379	30661.71
702.724	30485.67
703.069	30617.87
703.415	30134.94
703.76	30231.89
704.105	30343.75
704.45	30085.23
704.795	29983.53
705.14	29798.23
705.485	29909.19
705.83	29862.18
706.175	29759.36
706.52	29634.62
706.865	29572.47
707.209	29552.13
707.554	29409.31
707.899	29415.19
708.243	29369.09
708.588	29405.92
708.932	29244.34
709.277	29045.03
709.621	29137.45
709.966	28890.68
710.31	28954.63
710.654	28861.08
710.998	28748.31
711.342	28768.2
711.687	28653.4
712.031	28528.43
712.375	28515.55
712.719	28518.94
713.063	28354.2
713.407	28530.46
713.75	28309.23
714.094	28344.25
714.438	28269.45
714.782	28351.03
715.125	28208.67
715.469	28277.59
715.812	28089.12
716.156	27888.22
716.499	27943.59
716.843	27977.03
717.186	27826.08
717.53	27968.67
717.873	27841.9
718.216	27766.64
718.559	27558.51
718.902	27455.24
719.246	27612.07
719.589	27500.89
719.932	27368.69
720.275	27306.54
720.617	27332.76
720.96	27313.1
721.303	27277.39
721.646	27324.85
721.989	27179.09
722.331	27240.1
722.674	27122.82
723.016	27133.67
723.359	27027.23
723.701	27033.78
724.044	26846.67
724.386	26698.87
724.729	27011.86
725.071	26864.52
725.413	26755.82
725.755	26696.84
726.097	26703.17
726.439	26557.64
726.782	26419.56
727.124	26636.73
727.465	26460.46
727.807	26490.97
728.149	26382.95
728.491	26412.33
728.833	26511.53
729.175	26239.45
729.516	26288.26
729.858	26276.51
730.199	26230.64
730.541	26193.35
730.882	26197.64
731.224	26155.16
731.565	26089.62
731.906	26119.68
732.248	26152.22
732.589	25921.27
732.93	25927.37
733.271	26033.13
733.612	25965.33
733.953	25974.6
734.294	25792.46
734.635	25756.07
734.976	25858.22
735.317	25732.57
735.658	25681.27
735.999	25582.29
736.339	25627.49
736.68	25778.45
737.021	25652.35
737.361	25410.77
737.702	25559.24
738.042	25511.11
738.383	25386.59
738.723	25584.78
739.063	25448.51
739.404	25382.98
739.744	25349.53
740.084	25218.46
740.424	25321.96
740.764	25250.1
741.104	25364.9
741.444	25142.53
741.784	25134.4
742.124	25222.75
742.464	25050.33
742.804	25034.96
743.143	24945.02
743.483	25071.12
743.823	24900.73
744.162	24815.99
744.502	24872.93
744.841	24818.02
745.181	24740.06
745.52	24797.23
745.86	24790.45
746.199	24751.13
746.538	24649.44
746.877	24726.04
747.216	24768.76
747.556	24742.77
747.895	24606.73
748.234	24495.99
748.573	24555.2
748.911	24571.92
749.25	24455.77
749.589	24346.17
749.928	24437.24
750.267	24483.79
750.605	24366.96
750.944	24354.08
751.283	24297.13
751.621	24329.9
751.96	24181.2
752.298	24217.13
752.636	24187.75
752.975	24135.55
753.313	24081.54
753.651	24148.21
753.989	24043.12
754.327	24093.52
754.666	23925.61
755.004	23956.57
755.342	23922.45
755.679	23929.91
756.017	23790.93
756.355	23918.38
756.693	23794.54
757.031	23797.93
757.368	23574.44
757.706	23682
758.044	23549.58
758.381	23629.58
758.719	23500.77
759.056	23501.22
759.394	23444.04
759.731	23271.17
