Data from hue_190_FLMS001491_00078.txt Node
Date: Tue Feb 07 16:45:46 GMT 2017
User: dcchb
Spectrometer: FLMS00149
Trigger mode: 0
Integration Time (sec): 2.000000E-2
Scans to average: 10
Electric dark correction enabled: true
Nonlinearity correction enabled: false
Boxcar width: 0
XAxis mode: Wavelengths
Number of Pixels in Spectrum: 2048
>>>>>Begin Spectral Data<<<<<
341.393	-42.88
341.776	-42.88
342.16	-42.88
342.543	-54.18
342.927	-46.72
343.31	-70.9
343.693	-70.45
344.077	-77.68
344.46	-71.81
344.843	-41.75
345.226	-35.87
345.61	-23.22
345.993	-14.86
346.376	0.28
346.759	-4.01
347.142	31.47
347.525	28.3
347.908	64.46
348.291	82.54
348.674	100.62
349.057	102.88
349.44	126.38
349.823	133.61
350.206	148.75
350.588	184.01
350.971	200.5
351.354	227.4
351.737	240.28
352.119	238.47
352.502	226.94
352.884	279.15
353.267	281.63
353.65	287.05
354.032	267.62
354.414	315.53
354.797	306.72
355.179	313.27
355.562	283.89
355.944	315.3
356.326	310.1
356.709	316.21
357.091	327.51
357.473	336.54
357.855	345.58
358.238	312.59
358.62	320.5
359.002	332.7
359.384	338.8
359.766	325.7
360.148	335.87
360.53	323.89
360.912	334.28
361.294	321.18
361.676	337.67
362.057	311.69
362.439	339.93
362.821	315.3
363.203	307.85
363.584	302.2
363.966	306.26
364.348	313.04
364.729	308.07
365.111	315.08
365.493	311.69
365.874	319.14
366.256	306.26
366.637	298.58
367.019	288.41
367.4	290.22
367.781	291.35
368.163	305.59
368.544	289.09
368.925	321.18
369.306	291.8
369.688	302.42
370.069	297.45
370.45	301.74
370.831	318.24
371.212	308.75
371.593	317.79
371.974	300.16
372.355	315.75
372.736	320.5
373.117	307.17
373.498	305.13
373.879	320.73
374.26	309.65
374.641	291.12
375.021	315.75
375.402	289.09
375.783	316.88
376.163	308.52
376.544	305.81
376.925	281.63
377.305	323.44
377.686	323.21
378.066	308.3
378.447	311.46
378.827	322.99
379.208	334.28
379.588	319.37
379.968	332.25
380.349	311.23
380.729	320.05
381.109	299.03
381.489	307.85
381.87	320.05
382.25	339.93
382.63	312.36
383.01	336.09
383.39	338.35
383.77	354.85
384.15	336.54
384.53	324.79
384.91	338.8
385.29	329.77
385.67	318.92
386.049	348.07
386.429	336.09
386.809	357.56
387.189	332.7
387.568	342.65
387.948	345.81
388.328	343.55
388.707	319.82
389.087	344
389.466	363.89
389.846	360.72
390.225	342.87
390.605	358.01
390.984	347.84
391.363	337.22
391.743	349.88
392.122	362.31
392.501	351.46
392.881	364.11
393.26	341.29
393.639	365.47
394.018	365.47
394.397	377.45
394.776	355.98
395.155	368.41
395.534	370.89
395.913	344
396.292	368.18
396.671	370.44
397.05	380.61
397.429	372.25
397.808	384.91
398.186	367.05
398.565	397.33
398.944	369.09
399.323	392.81
399.701	396.43
400.08	386.26
400.458	392.59
400.837	397.79
401.215	396.43
401.594	388.29
401.972	401.18
402.351	399.82
402.729	402.53
403.107	419.25
403.486	424.45
403.864	424
404.242	438.01
404.62	414.06
404.999	431.46
405.377	426.94
405.755	434.62
406.133	446.82
406.511	451.8
406.889	442.98
407.267	445.02
407.645	453.6
408.023	476.65
408.401	454.51
408.779	451.12
409.156	481.17
409.534	498.12
409.912	481.85
410.29	491.79
410.667	493.15
411.045	518.91
411.422	507.39
411.8	511.68
412.178	527.95
412.555	548.74
412.933	535.41
413.31	545.58
413.687	563.66
414.065	565.01
414.442	578.35
414.819	570.21
415.197	588.06
415.574	582.87
415.951	599.59
416.328	611.57
416.705	621.74
417.082	625.58
417.46	615.41
417.837	631.45
418.214	636.65
418.591	651.79
418.967	642.07
419.344	666.93
419.721	671.68
420.098	705.8
420.475	727.49
420.852	694.73
421.228	720.49
421.605	755.06
421.982	731.56
422.358	751.22
422.735	767.04
423.111	762.07
423.488	826.02
423.864	802.07
424.241	801.62
424.617	840.94
424.994	832.35
425.37	860.15
425.746	853.37
426.123	837.1
426.499	888.62
426.875	905.34
427.251	887.72
427.627	922.74
428.003	938.11
428.379	953.48
428.756	967.49
429.132	944.89
429.507	1006.13
429.883	974.72
430.259	1004.78
430.635	998.22
431.011	1001.16
431.387	1040.48
431.763	1064.89
432.138	1051.78
432.514	1075.28
432.89	1088.62
433.265	1113.93
433.641	1124.55
434.016	1150.31
434.392	1164.32
434.767	1216.97
435.143	1209.74
435.518	1229.63
435.894	1249.74
436.269	1284.54
436.644	1317.54
437.02	1343.52
437.395	1340.36
437.77	1372.22
438.145	1379.23
438.52	1399.34
438.895	1430.98
439.271	1429.62
439.646	1494.48
440.021	1506.01
440.395	1512.11
440.77	1491.77
441.145	1523.18
441.52	1604.99
441.895	1577.19
442.27	1587.36
442.645	1593.69
443.019	1635.72
443.394	1622.16
443.769	1669.62
444.143	1683.18
444.518	1725.21
444.892	1691.31
445.267	1731.08
445.641	1724.76
446.016	1752.55
446.39	1767.47
446.764	1770.41
447.139	1778.31
447.513	1827.81
447.887	1806.56
448.262	1825.77
448.636	1846.34
449.01	1865.54
449.384	1871.42
449.758	1898.76
450.132	1928.37
450.506	1950.06
450.88	1950.06
451.254	1975.6
451.628	1995.71
452.002	2003.85
452.376	2025.99
452.75	2058.99
453.123	2077.06
453.497	2091.07
453.871	2123.16
454.244	2141.47
454.618	2174.01
454.992	2203.61
455.365	2226.21
455.739	2259.43
456.112	2297.62
456.486	2298.53
456.859	2303.05
457.232	2381.91
457.606	2356.83
457.979	2409.71
458.352	2439.54
458.725	2470.27
459.099	2496.71
459.472	2541.46
459.845	2528.58
460.218	2611.74
460.591	2592.08
460.964	2623.94
461.337	2698.97
461.71	2747.33
462.083	2726.99
462.456	2791.4
462.829	2801.79
463.201	2800.21
463.574	2856.48
463.947	2896.93
464.32	2988.23
464.692	2969.24
465.065	3027.32
465.438	3080.65
465.81	3087.66
466.183	3168.56
466.555	3244.26
466.928	3248.56
467.3	3223.02
467.672	3300.31
468.045	3364.26
468.417	3372.62
468.789	3439.29
469.161	3451.94
469.534	3486.74
469.906	3572.84
470.278	3602.9
470.65	3668.66
471.022	3747.3
471.394	3773.29
471.766	3838.83
472.138	3850.35
472.51	3947.75
472.882	4011.7
473.253	4068.65
473.625	4144.58
473.997	4220.28
474.369	4269.77
474.74	4317.46
475.112	4354.97
475.484	4443.33
475.855	4507.73
476.227	4539.82
476.598	4667.28
476.97	4766.48
477.341	4831.79
477.713	4911.57
478.084	4898.01
478.455	5118.34
478.827	5102.3
479.198	5250.31
479.569	5333.48
479.94	5436.75
480.311	5497.54
480.682	5594.71
481.053	5724.65
481.424	5829.73
481.795	5850.3
482.166	5956.51
482.537	6149.73
482.908	6183.85
483.279	6241.47
483.65	6316.5
484.021	6452.99
484.391	6529.38
484.762	6644.4
485.133	6719.88
485.503	6782.03
485.874	6949.48
486.244	6973.21
486.615	7136.82
486.985	7224.5
487.356	7396.92
487.726	7393.08
488.097	7490.26
488.467	7505.17
488.837	7758.27
489.207	7802.56
489.578	7895.22
489.948	7972.28
490.318	8139.28
490.688	8158.26
491.058	8278.03
491.428	8382.21
491.798	8422.66
492.168	8596.44
492.538	8628.76
492.908	8718.02
493.278	8851.35
493.648	8854.74
494.017	8932.93
494.387	8934.51
494.757	9060.84
495.126	9163.21
495.496	9202.53
495.866	9188.29
496.235	9326.59
496.605	9449.3
496.974	9445.01
497.344	9560.26
497.713	9518.22
498.082	9526.13
498.452	9694.49
498.821	9747.82
499.19	9747.6
499.559	9786.01
499.928	9925.45
500.298	9913.92
500.667	9972.68
501.036	9955.05
501.405	10030.75
501.774	10014.48
502.143	10074.82
502.512	10069.62
502.88	10169.51
503.249	10153.46
503.618	10167.25
503.987	10249.96
504.356	10261.93
504.724	10300.58
505.093	10303.29
505.462	10387.35
505.83	10331.99
506.199	10517.29
506.567	10478.2
506.936	10527.92
507.304	10624.64
507.672	10619.44
508.041	10569.95
508.409	10692.88
508.777	10716.84
509.145	10740.57
509.514	10693.56
509.882	10778.08
510.25	10663.5
510.618	10725.42
510.986	10835.7
511.354	10800.9
511.722	10860.11
512.09	10890.39
512.458	10851.07
512.826	10948.24
513.193	10985.3
513.561	10934.91
513.929	10934.01
514.297	11048.81
514.664	10985.76
515.032	11055.13
515.4	11098.07
515.767	11061.01
516.135	11147.11
516.502	10958.19
516.869	11095.36
517.237	11181.68
517.604	11031.63
517.972	11174.45
518.339	11148.24
518.706	11081.35
519.073	11110.27
519.44	11149.37
519.808	11223.49
520.175	11162.02
520.542	11184.17
520.909	11115.92
521.276	11122.7
521.643	11232.3
522.009	11262.59
522.376	11177.16
522.743	11269.82
523.11	11244.28
523.477	11355.46
523.843	11315.92
524.21	11304.17
524.577	11320.89
524.943	11340.1
525.31	11305.07
525.676	11377.38
526.043	11366.76
526.409	11281.34
526.776	11318.85
527.142	11306.65
527.508	11302.36
527.874	11310.95
528.241	11376.03
528.607	11250.16
528.973	11341
529.339	11242.92
529.705	11310.04
530.071	11272.08
530.437	11318.63
530.803	11268.23
531.169	11291.96
531.535	11187.56
531.901	11111.85
532.267	11146.43
532.632	11106.21
532.998	11060.1
533.364	11064.4
533.73	10971.75
534.095	11063.04
534.461	10967.9
534.826	10967
535.192	10861.92
535.557	10967.9
535.923	10835.48
536.288	10809.72
536.653	10772.65
537.019	10684.97
537.384	10599.55
537.749	10598.2
538.114	10605.43
538.479	10589.61
538.845	10563.39
539.21	10443.85
539.575	10376.05
539.94	10364.76
540.305	10352.1
540.67	10288.37
541.034	10236.62
541.399	10221.26
541.764	10160.24
542.129	10129.96
542.494	10066.68
542.858	10003.86
543.223	10036.63
543.587	9962.96
543.952	9830.98
544.316	9829.85
544.681	9765.9
545.045	9770.42
545.41	9744.21
545.774	9735.62
546.138	9651.55
546.503	9615.85
546.867	9482.52
547.231	9549.18
547.595	9506.7
547.959	9391.45
548.324	9342.41
548.688	9319.81
549.052	9212.92
549.416	9248.17
549.779	9176.31
550.143	9154.84
550.507	9158.91
550.871	9050.89
551.235	8979.71
551.599	8991.91
551.962	8962.08
552.326	8927.28
552.689	8902.65
553.053	8777.45
553.417	8765.48
553.78	8786.04
554.143	8734.52
554.507	8622.88
554.87	8661.75
555.234	8647.06
555.597	8598.7
555.96	8563
556.323	8520.06
556.686	8452.26
557.05	8495.88
557.413	8447.74
557.776	8431.02
558.139	8398.93
558.502	8369.1
558.865	8364.58
559.228	8421.98
559.59	8302.21
559.953	8369.55
560.316	8306.05
560.679	8325.26
561.041	8267.41
561.404	8314.64
561.767	8221.08
562.129	8257.69
562.492	8240.74
562.854	8228.31
563.217	8236.22
563.579	8189.67
563.941	8189.67
564.304	8192.61
564.666	8188.99
565.028	8180.63
565.39	8161.88
565.753	8193.51
566.115	8178.37
566.477	8205.26
566.839	8211.14
567.201	8199.39
567.563	8156.9
567.925	8119.84
568.287	8163.46
568.648	8090.92
569.01	8158.71
569.372	8179.95
569.734	8121.88
570.095	8146.73
570.457	8214.98
570.819	8165.04
571.18	8191.03
571.542	8151.48
571.903	8130.46
572.265	8118.26
572.626	8139.05
572.987	8128.88
573.349	8140.18
573.71	8132.95
574.071	8101.76
574.432	8105.38
574.794	8173.17
575.155	8159.39
575.516	8087.75
575.877	8117.58
576.238	8162.1
576.599	8137.02
576.96	8073.29
577.32	8113.29
577.681	8150.8
578.042	8140.41
578.403	8137.7
578.763	8106.06
579.124	8096.34
579.485	8121.88
579.845	8087.08
580.206	8052.95
580.566	8063.12
580.927	8102.44
581.287	8116.45
581.648	8032.39
582.008	8074.19
582.368	8080.07
582.728	8053.4
583.089	8034.2
583.449	8037.13
583.809	8055.21
584.169	8012.73
584.529	7986.97
584.889	8068.32
585.249	7996.91
585.609	7982.67
585.969	8025.16
586.329	7965.72
586.688	8004.14
587.048	7979.96
587.408	7905.16
587.768	7937.25
588.127	7864.48
588.487	7838.27
588.846	7953.07
589.206	7866.52
589.565	7891.15
589.925	7867.42
590.284	7920.75
590.643	7857.48
591.003	7961.43
591.362	7881.66
591.721	7901.54
592.08	7795.56
592.44	7854.99
592.799	7809.79
593.158	7787.2
593.517	7807.76
593.876	7815.9
594.235	7816.12
594.593	7760.3
594.952	7821.09
595.311	7731.6
595.67	7828.78
596.029	7842.11
596.387	7796.69
596.746	7810.25
597.104	7711.04
597.463	7767.31
597.822	7826.29
598.18	7747.42
598.538	7709.68
598.897	7752.4
599.255	7737.25
599.613	7764.37
599.972	7688.67
600.33	7742
600.688	7687.76
601.046	7723.24
601.404	7752.62
601.762	7696.13
602.12	7753.3
602.478	7765.5
602.836	7766.18
603.194	7660.65
603.552	7687.09
603.91	7677.14
604.268	7699.52
604.625	7632.17
604.983	7752.4
605.341	7619.52
605.698	7670.36
606.056	7716.01
606.413	7644.6
606.771	7662.23
607.128	7716.01
607.485	7651.15
607.843	7668.33
608.2	7767.99
608.557	7697.93
608.914	7673.98
609.272	7739.97
609.629	7742.23
609.986	7793.3
610.343	7659.52
610.7	7727.08
611.057	7710.36
611.414	7688.44
611.771	7736.12
612.127	7731.15
612.484	7758.04
612.841	7773.41
613.198	7690.02
613.554	7683.92
613.911	7767.54
614.267	7818.16
614.624	7749.23
614.98	7740.64
615.337	7787.42
615.693	7766.63
616.05	7790.81
616.406	7774.77
616.762	7796.91
617.118	7775.9
617.475	7788.1
617.831	7798.5
618.187	7809.34
618.543	7818.16
618.899	7838.49
619.255	7777.25
619.611	7804.37
619.967	7875.33
620.323	7865.39
620.678	7802.79
621.034	7760.08
621.39	7770.47
621.746	7755.11
622.101	7891.37
622.457	7808.21
622.812	7860.19
623.168	7766.41
623.523	7833.07
623.879	7809.79
624.234	7842.79
624.589	7802.56
624.945	7867.65
625.3	7848.89
625.655	7799.17
626.01	7812.96
626.365	7786.07
626.72	7798.27
627.075	7835.56
627.43	7829.91
627.785	7754.88
628.14	7833.75
628.495	7786.07
628.85	7828.78
629.205	7768.21
629.559	7788.33
629.914	7763.02
630.269	7756.24
630.623	7759.85
630.978	7711.94
631.332	7718.05
631.687	7742.68
632.041	7680.08
632.396	7757.59
632.75	7637.14
633.104	7698.39
633.459	7669.01
633.813	7656.13
634.167	7626.75
634.521	7609.12
634.875	7660.19
635.229	7677.82
635.583	7625.84
635.937	7588.78
636.291	7584.26
636.645	7584.49
636.999	7610.03
637.352	7613.64
637.706	7538.39
638.06	7546.52
638.413	7556.24
638.767	7521.89
639.121	7538.39
639.474	7459.07
639.828	7523.47
640.181	7435.34
640.534	7505.85
640.888	7517.6
641.241	7417.04
641.594	7495.68
641.947	7502.68
642.301	7472.85
642.654	7429.24
643.007	7468.56
643.36	7490.71
643.713	7421.56
644.066	7455.45
644.419	7404.16
644.771	7360.99
645.124	7324.38
645.477	7278.28
645.83	7292.52
646.182	7237.61
646.535	7262.69
646.888	7194.22
647.24	7158.51
647.593	7203.48
647.945	7165.29
648.298	7191.73
648.65	7119.64
649.002	7140.21
649.355	7190.38
649.707	7221.79
650.059	7209.81
650.411	7288.23
650.763	7283.93
651.115	7349.92
651.467	7290.94
651.819	7333.87
652.171	7360.31
652.523	7300.88
652.875	7312.63
653.227	7308.34
653.578	7353.54
653.93	7358.73
654.282	7321.45
654.633	7295.68
654.985	7271.5
655.337	7283.71
655.688	7359.64
656.039	7320.54
656.391	7318.28
656.742	7302.01
657.094	7328
657.445	7308.11
657.796	7384.04
658.147	7313.31
658.498	7312.86
658.849	7364.16
659.2	7362.35
659.551	7347.21
659.902	7365.96
660.253	7378.62
660.604	7374.55
660.955	7346.53
661.306	7399.64
661.656	7338.39
662.007	7337.04
662.358	7403.48
662.708	7385.85
663.059	7402.35
663.409	7355.34
663.76	7393.31
664.11	7369.81
664.461	7376.59
664.811	7401.9
665.161	7349.47
665.511	7391.05
665.862	7400.99
666.212	7427.21
666.562	7417.94
666.912	7365.29
667.262	7368.22
667.612	7378.62
667.962	7422.01
668.312	7358.51
668.662	7382.69
669.011	7386.98
669.361	7406.64
669.711	7381.78
670.06	7381.11
670.41	7335.68
670.76	7334.55
671.109	7387.43
671.459	7309.24
671.808	7275.57
672.157	7390.82
672.507	7356.02
672.856	7328.45
673.205	7360.54
673.554	7354.21
673.904	7278.28
674.253	7330.94
674.602	7364.61
674.951	7262.69
675.3	7220.88
675.649	7298.4
675.998	7306.98
676.346	7283.71
676.695	7326.42
677.044	7241.45
677.393	7308.11
677.741	7272.86
678.09	7266.53
678.438	7270.83
678.787	7257.94
679.135	7225.18
679.484	7168.23
679.832	7191.28
680.181	7172.75
680.529	7160.77
680.877	7141.34
681.225	7207.78
681.573	7133.2
681.922	7150.15
682.27	7121.45
682.618	7090.04
682.966	7151.96
683.314	7118.97
683.661	7037.39
684.009	7005.3
684.357	7041
684.705	6999.87
685.053	6989.93
685.4	6983.38
685.748	7001.45
686.095	6909.25
686.443	6892.3
686.79	6907.45
687.138	6913.55
687.485	6881.68
687.832	6845.75
688.18	6901.57
688.527	6822.93
688.874	6801.69
689.221	6767.11
689.568	6751.97
689.915	6782.93
690.262	6758.75
690.609	6735.02
690.956	6762.82
691.303	6682.82
691.65	6672.42
691.997	6620.9
692.344	6600.33
692.69	6627.9
693.037	6601.01
693.383	6507.91
693.73	6524.63
694.077	6514.69
694.423	6494.57
694.769	6450.51
695.116	6370.51
695.462	6441.02
695.808	6411.64
696.155	6424.52
696.501	6306.33
696.847	6304.52
697.193	6234.69
697.539	6289.16
697.885	6209.61
698.231	6255.71
698.577	6218.65
698.923	6216.16
699.269	6139.56
699.614	6152.44
699.96	6110.63
700.306	6087.58
700.651	6106.79
700.997	6041.03
701.342	6044.64
701.688	6051.2
702.033	6011.65
702.379	5982.05
702.724	5959
703.069	5981.37
703.415	5916.06
703.76	5941.14
704.105	5886.68
704.45	5910.64
704.795	5839.68
705.14	5834.71
705.485	5852.33
705.83	5818.66
706.175	5812.56
706.52	5788.38
706.865	5735.72
707.209	5757.65
707.554	5721.49
707.899	5743.86
708.243	5642.17
708.588	5681.04
708.932	5677.42
709.277	5617.31
709.621	5593.36
709.966	5586.8
710.31	5580.7
710.654	5520.14
710.998	5559.46
711.342	5539.35
711.687	5527.59
712.031	5533.24
712.375	5454.38
712.719	5510.65
713.063	5432.91
713.407	5470.65
713.75	5460.03
714.094	5477.43
714.438	5435.85
714.782	5430.87
715.125	5407.15
715.469	5433.81
715.812	5395.62
716.156	5402.4
716.499	5378.22
716.843	5370.99
717.186	5379.12
717.53	5341.84
717.873	5368.73
718.216	5347.94
718.559	5318.79
718.902	5350.88
719.246	5315.62
719.589	5300.93
719.932	5273.36
720.275	5250.09
720.617	5275.62
720.96	5272.91
721.303	5284.21
721.646	5324.21
721.989	5312.69
722.331	5278.11
722.674	5243.76
723.016	5265.45
723.359	5229.07
723.701	5254.61
724.044	5245.34
724.386	5175.51
724.729	5199.47
725.071	5245.12
725.413	5225.46
725.755	5192.91
726.097	5212.8
726.439	5167.83
726.782	5187.26
727.124	5214.83
727.465	5213.93
727.807	5175.74
728.149	5156.76
728.491	5125.57
728.833	5171.9
729.175	5204.44
729.516	5182.97
729.858	5173.71
730.199	5209.64
730.541	5172.8
730.882	5167.38
731.224	5211.44
731.565	5178.68
731.906	5196.76
732.248	5219.58
732.589	5155.18
732.93	5119.92
733.271	5174.61
733.612	5197.66
733.953	5167.83
734.294	5187.72
734.635	5177.77
734.976	5156.31
735.317	5152.46
735.658	5111.79
735.999	5203.54
736.339	5125.8
736.68	5200.37
737.021	5177.55
737.361	5193.82
737.702	5177.32
738.042	5232.91
738.383	5171.67
738.723	5204.67
739.063	5188.85
739.404	5256.19
739.744	5250.77
740.084	5260.71
740.424	5235.4
740.764	5269.52
741.104	5307.71
741.444	5257.55
741.784	5332.12
742.124	5333.93
742.464	5378.45
742.804	5325.79
743.143	5348.84
743.483	5397.43
743.823	5388.62
744.162	5394.49
744.502	5482.4
744.841	5460.25
745.181	5513.36
745.52	5530.31
745.86	5591.1
746.199	5575.05
746.538	5597.65
746.877	5674.71
747.216	5674.26
747.556	5688.72
747.895	5767.81
748.234	5811.43
748.573	5877.19
748.911	5917.87
749.25	6003.97
749.589	5970.29
749.928	6074.02
750.267	6136.62
750.605	6224.3
750.944	6285.77
751.283	6340
751.621	6410.06
751.96	6504.52
752.298	6557.62
752.636	6645.98
752.975	6720.11
753.313	6797.17
753.651	6916.03
753.989	7002.58
754.327	7139.98
754.666	7185.4
755.004	7362.12
755.342	7456.81
755.679	7565.96
756.017	7653.87
756.355	7845.05
756.693	7913.29
757.031	8111.26
757.368	8170.24
757.706	8347.86
758.044	8493.62
758.381	8640.73
758.719	8771.58
759.056	8917.11
759.394	9082.98
759.731	9242.75
760.068	9376.31
760.405	9546.25
760.743	9621.72
761.08	9985.78
761.417	10069.17
761.754	10175.16
762.091	10458.76
762.428	10518.65
762.765	10670.28
763.102	10911.18
763.438	11127
763.775	11144.85
764.112	11406.76
764.449	11533.99
764.785	11682.46
765.122	11906.64
765.458	12001.32
765.795	12219.62
766.131	12372.16
766.467	12514.3
766.804	12679.95
