Data from hue_320_FLMS001491_8.txt Node
Date: Mon Feb 06 15:46:37 GMT 2017
User: dcchb
Spectrometer: FLMS00149
Trigger mode: 0
Integration Time (sec): 2.000000E-2
Scans to average: 10
Electric dark correction enabled: true
Nonlinearity correction enabled: false
Boxcar width: 0
XAxis mode: Wavelengths
Number of Pixels in Spectrum: 2048
>>>>>Begin Spectral Data<<<<<
341.393	-22.87
341.776	-22.87
342.16	-22.87
342.543	-74.16
342.927	-67.84
343.31	-46.37
343.693	-82.75
344.077	-89.76
344.46	-62.19
344.843	-55.18
345.226	-38.01
345.61	-26.26
345.993	-17.22
346.376	8.09
346.759	23.01
347.142	36.79
347.525	25.95
347.908	58.71
348.291	64.36
348.674	91.25
349.057	109.56
349.44	119.73
349.823	133.97
350.206	154.76
350.588	199.95
350.971	195.66
351.354	213.29
351.737	226.17
352.119	256.9
352.502	260.29
352.884	280.4
353.267	282.66
353.65	275.66
354.032	284.24
354.414	286.73
354.797	317.01
355.179	312.94
355.562	316.79
355.944	313.17
356.326	326.05
356.709	335.54
357.091	329.44
357.473	342.1
357.855	321.76
358.238	338.03
358.62	329.21
359.002	336.67
359.384	328.08
359.766	330.34
360.148	339.61
360.53	340.74
360.912	350
361.294	346.84
361.676	345.94
362.057	335.54
362.439	331.25
362.821	331.02
363.203	333.96
363.584	323.11
363.966	319.5
364.348	317.24
364.729	317.46
365.111	336.67
365.493	325.15
365.874	316.79
366.256	303.23
366.637	338.71
367.019	305.03
367.4	320.18
367.781	307.07
368.163	310.46
368.544	295.54
368.925	317.46
369.306	321.31
369.688	311.14
370.069	310.01
370.45	307.07
370.831	330.8
371.212	311.59
371.593	320.4
371.974	292.61
372.355	314.98
372.736	335.09
373.117	326.28
373.498	304.36
373.879	293.74
374.26	324.47
374.641	291.7
375.021	307.07
375.402	326.95
375.783	330.34
376.163	309.78
376.544	316.11
376.925	310.46
377.305	333.73
377.686	333.28
378.066	332.6
378.447	339.84
378.827	325.82
379.208	317.69
379.588	325.82
379.968	338.93
380.349	334.86
380.729	335.77
381.109	326.73
381.489	335.77
381.87	334.41
382.25	337.12
382.63	340.06
383.01	334.64
383.39	329.44
383.77	334.86
384.15	344.36
384.53	325.15
384.91	336.9
385.29	364.47
385.67	340.97
386.049	359.95
386.429	342.32
386.809	354.3
387.189	357.01
387.568	333.28
387.948	337.35
388.328	340.97
388.707	350
389.087	341.87
389.466	332.83
389.846	359.04
390.225	373.96
390.605	347.75
390.984	362.89
391.363	366.95
391.743	361.3
392.122	361.98
392.501	380.06
392.881	371.02
393.26	367.41
393.639	366.05
394.018	373.51
394.397	369.44
394.776	371.25
395.155	369.21
395.534	388.65
395.913	391.13
396.292	385.03
396.671	391.36
397.05	391.13
397.429	380.74
397.808	384.35
398.186	395.2
398.565	389.78
398.944	409.21
399.323	399.04
399.701	410.79
400.08	401.08
400.458	408.76
400.837	399.72
401.215	392.26
401.594	395.2
401.972	413.73
402.351	424.35
402.729	434.75
403.107	408.08
403.486	402.21
403.864	408.53
404.242	421.87
404.62	439.49
404.999	418.7
405.377	437.69
405.755	437.01
406.133	447.86
406.511	443.56
406.889	443.11
407.267	458.93
407.645	459.61
408.023	458.25
408.401	455.76
408.779	474.52
409.156	469.55
409.534	482.66
409.912	469.78
410.29	467.52
410.667	480.62
411.045	507.06
411.422	502.54
411.8	503.22
412.178	511.36
412.555	512.03
412.933	511.13
413.31	541.86
413.687	525.37
414.065	564.91
414.442	543.22
414.819	559.26
415.197	556.78
415.574	563.11
415.951	607.85
416.328	586.16
416.705	590.45
417.082	588.19
417.46	616.21
417.837	622.31
418.214	626.83
418.591	637.23
418.967	625.03
419.344	625.93
419.721	644.91
420.098	657.79
420.475	631.35
420.852	661.86
421.228	677.91
421.605	662.09
421.982	678.81
422.358	698.47
422.735	691.24
423.111	682.2
423.488	687.62
423.864	740.96
424.241	724.91
424.617	721.97
424.994	719.03
425.37	725.36
425.746	767.4
426.123	773.72
426.499	769.2
426.875	778.24
427.251	767.62
427.627	798.81
428.003	815.08
428.379	808.07
428.756	814.63
429.132	838.81
429.507	832.48
429.883	834.96
430.259	843.33
430.635	854.62
431.011	839.26
431.387	876.77
431.763	886.04
432.138	925.81
432.514	906.15
432.89	935.75
433.265	944.57
433.641	951.12
434.016	954.96
434.392	957.45
434.767	966.49
435.143	977.79
435.518	1004.68
435.894	982.08
436.269	971.23
436.644	997.45
437.02	1055.52
437.395	1029.54
437.77	1056.88
438.145	1055.98
438.52	1053.72
438.895	1046.94
439.271	1059.82
439.646	1102.98
440.021	1109.98
440.395	1094.62
440.77	1088.52
441.145	1110.66
441.52	1118.12
441.895	1122.64
442.27	1120.83
442.645	1134.39
443.019	1147.72
443.394	1142.98
443.769	1168.74
444.143	1142.53
444.518	1184.56
444.892	1171.23
445.267	1195.86
445.641	1197.89
446.016	1225.24
446.39	1216.42
446.764	1210.77
447.139	1200.15
447.513	1209.42
447.887	1211
448.262	1204.45
448.636	1198.8
449.01	1217.78
449.384	1248.74
449.758	1234.5
450.132	1236.99
450.506	1269.53
450.88	1252.58
451.254	1255.52
451.628	1278.34
452.002	1269.75
452.376	1276.31
452.75	1303.2
453.123	1290.77
453.497	1322.63
453.871	1309.75
454.244	1334.16
454.618	1327.83
454.992	1339.13
455.365	1321.05
455.739	1375.74
456.112	1350.43
456.486	1384.33
456.859	1364.44
457.232	1425.23
457.606	1413.93
457.979	1401.28
458.352	1431.33
458.725	1483.99
459.099	1454.16
459.472	1480.82
459.845	1505
460.218	1502.52
460.591	1512.91
460.964	1470.88
461.337	1530.76
461.71	1553.82
462.083	1602.18
462.456	1573.93
462.829	1552.91
463.201	1596.53
463.574	1595.17
463.947	1616.86
464.32	1616.41
464.692	1635.85
465.065	1654.83
465.438	1682.63
465.81	1692.12
466.183	1702.06
466.555	1702.96
466.928	1712.68
467.3	1724.88
467.672	1719.23
468.045	1771.21
468.417	1791.32
468.789	1770.08
469.161	1806.46
469.534	1843.07
469.906	1824.09
470.278	1866.12
470.65	1830.87
471.022	1913.35
471.394	1943.41
471.766	1921.49
472.138	1949.74
472.51	2002.39
472.882	2012.79
473.253	1992
473.625	2027.93
473.997	2057.76
474.369	2074.93
474.74	2098.21
475.112	2108.38
475.484	2153.57
475.855	2170.52
476.227	2198.77
476.598	2227.02
476.97	2246.23
477.341	2273.12
477.713	2303.17
478.084	2328.48
478.455	2406
478.827	2410.97
479.198	2413
479.569	2404.19
479.94	2452.32
480.311	2469.95
480.682	2500.68
481.053	2606.22
481.424	2591.08
481.795	2628.14
482.166	2648.02
482.537	2686.44
482.908	2704.52
483.279	2689.38
483.65	2782.94
484.021	2791.97
484.391	2820.45
484.762	2861.8
485.133	2864.06
485.503	2888.47
485.874	2954.46
486.244	2993.55
486.615	3011.63
486.985	2998.3
487.356	3091.63
487.726	3097.96
488.097	3121.68
488.467	3144.96
488.837	3203.49
489.207	3284.84
489.578	3297.72
489.948	3322.13
490.318	3325.07
490.688	3365.07
491.058	3352.86
491.428	3399.19
491.798	3427.21
492.168	3490.94
492.538	3511.05
492.908	3526.19
493.278	3546.53
493.648	3591.73
494.017	3587.89
494.387	3617.94
494.757	3660.88
495.126	3705.4
495.496	3723.48
495.866	3714.89
496.235	3768.67
496.605	3798.95
496.974	3756.7
497.344	3841.44
497.713	3792.17
498.082	3841.21
498.452	3856.35
498.821	3881.21
499.19	3913.3
499.559	3902.45
499.928	3969.57
500.298	3951.49
500.667	3970.47
501.036	3977.03
501.405	4023.58
501.774	4065.39
502.143	4060.42
502.512	4056.12
502.88	4064.26
503.249	4118.04
503.618	4115.1
503.987	4104.26
504.356	4162.79
504.724	4131.15
505.093	4165.72
505.462	4175.44
505.83	4183.12
506.199	4239.17
506.567	4266.74
506.936	4260.41
507.304	4272.84
507.672	4283.46
508.041	4331.14
508.409	4345.61
508.777	4374.08
509.145	4387.19
509.514	4362.33
509.882	4371.14
510.25	4417.92
510.618	4396
510.986	4434.19
511.354	4459.05
511.722	4467.18
512.09	4515.09
512.458	4511.7
512.826	4535.88
513.193	4487.75
513.561	4545.15
513.929	4561.42
514.297	4542.66
514.664	4603
515.032	4589.89
515.4	4653.85
515.767	4598.93
516.135	4663.79
516.502	4610.23
516.869	4696.78
517.237	4681.19
517.604	4692.04
517.972	4706.73
518.339	4695.2
518.706	4733.84
519.073	4731.13
519.44	4708.31
519.808	4782.66
520.175	4800.06
520.542	4783.11
520.909	4810.45
521.276	4783.11
521.643	4850.68
522.009	4878.47
522.376	4895.65
522.743	4957.34
523.11	4930.22
523.477	5026.94
523.843	4986.72
524.21	5034.4
524.577	5069.2
524.943	5080.05
525.31	5105.81
525.676	5109.65
526.043	5141.29
526.409	5208.63
526.776	5252.7
527.142	5236.66
527.508	5260.16
527.874	5309.87
528.241	5280.72
528.607	5314.17
528.973	5346.71
529.339	5391.45
529.705	5397.78
530.071	5404.11
530.437	5489.3
530.803	5459.48
531.169	5461.51
531.535	5462.41
531.901	5506.93
532.267	5584.9
532.632	5579.92
532.998	5561.39
533.364	5636.65
533.73	5635.06
534.095	5692.01
534.461	5713.71
534.826	5769.3
535.192	5761.84
535.557	5784.44
535.923	5762.52
536.288	5834.38
536.653	5783.76
537.019	5814.95
537.384	5887.49
537.749	5881.61
538.114	5864.89
538.479	5935.62
538.845	5944.21
539.21	6000.48
539.575	5975.85
539.94	6009.97
540.305	6067.82
540.67	6062.4
541.034	6133.13
541.399	6120.47
541.764	6164.09
542.129	6173.13
542.494	6180.59
542.858	6240.47
543.223	6237.99
543.587	6242.05
543.952	6274.82
544.316	6268.72
544.681	6321.15
545.045	6330.41
545.41	6344.65
545.774	6411.09
546.138	6418.32
546.503	6422.39
546.867	6451.31
547.231	6529.73
547.595	6466
547.959	6556.62
548.324	6537.41
548.688	6571.08
549.052	6591.42
549.416	6623.51
549.779	6645.88
550.143	6684.08
550.507	6717.3
550.871	6769.27
551.235	6740.57
551.599	6789.61
551.962	6795.94
552.326	6788.25
552.689	6848.82
553.053	6869.16
553.417	6820.34
553.78	6941.47
554.143	6908.7
554.507	6965.42
554.87	6920.68
555.234	6998.19
555.597	6943.05
555.96	6969.94
556.323	7002.03
556.686	7083.61
557.05	7088.36
557.413	7122.48
557.776	7065.53
558.139	7161.13
558.502	7166.77
558.865	7183.27
559.228	7199.09
559.59	7244.29
559.953	7261.91
560.316	7291.07
560.679	7280.9
561.041	7300.78
561.404	7378.07
561.767	7457.16
562.129	7375.58
562.492	7532.19
562.854	7508.69
563.217	7440.89
563.579	7490.83
563.941	7533.54
564.304	7571.74
564.666	7564.28
565.028	7608.12
565.39	7576.26
565.753	7657.38
566.115	7647.44
566.477	7731.51
566.839	7709.59
567.201	7855.8
567.563	7812.63
567.925	7799.75
568.287	7865.51
568.648	7888.34
569.01	7889.24
569.372	7932.86
569.734	7883.82
570.095	7948.68
570.457	8079.52
570.819	8043.81
571.18	8112.74
571.542	8164.71
571.903	8222.34
572.265	8251.04
572.626	8281.77
572.987	8389.57
573.349	8372.39
573.71	8418.49
574.071	8453.75
574.432	8531.71
574.794	8616.23
575.155	8620.97
575.516	8626.62
575.877	8683.12
576.238	8819.61
576.599	8896.9
576.96	8964.47
577.32	9021.42
577.681	9058.93
578.042	9201.98
578.403	9204.24
578.763	9273.61
579.124	9414.17
579.485	9531.91
579.845	9701.62
580.206	9703.88
580.566	9876.53
580.927	9991.33
581.287	10138
581.648	10323.75
582.008	10389.97
582.368	10558.78
582.728	10720.13
583.089	10868.6
583.449	11003.28
583.809	11203.05
584.169	11376.83
584.529	11506.77
584.889	11738.86
585.249	11941.34
585.609	12095.01
585.969	12350.37
586.329	12587.2
586.688	12812.05
587.048	12979.5
587.408	13231.93
587.768	13504.01
588.127	13790.1
588.487	14019.93
588.846	14296.76
589.206	14465.57
589.565	14774.26
589.925	15199.78
590.284	15427.12
590.643	15745.31
591.003	15959.54
591.362	16254.45
591.721	16575.79
592.08	16818.05
592.44	17273.85
592.799	17556.11
593.158	17813.95
593.517	18241.29
593.876	18408.74
594.235	18650.99
594.593	19077.87
594.952	19387.7
595.311	19680.8
595.67	20005.99
596.029	20535.01
596.387	20780.43
596.746	21213.64
597.104	21213.41
597.463	21761.87
597.822	22133.39
598.18	22268.3
598.538	22689.53
598.897	23128.16
599.255	23360.7
599.613	23823.51
599.972	23945.09
600.33	24405.19
600.688	24584.4
601.046	24962.92
601.404	25366.97
601.762	25521.55
602.12	26114.3
602.478	26277.91
602.836	26641.74
603.194	26810.55
603.552	27099.36
603.91	27202.86
604.268	27754.93
604.625	27886.46
604.983	28272.43
605.341	28445.31
605.698	28764.63
606.056	29120.77
606.413	29422.46
606.771	29777.48
607.128	29945.61
607.485	30124.59
607.843	30395.54
608.2	30708.08
608.557	31191.91
608.914	31415.85
609.272	31537.89
609.629	31775.85
609.986	32138.32
610.343	32241.82
610.7	32657.18
611.057	32865.53
611.414	32865.99
611.771	33246.09
612.127	33471.62
612.484	33675.91
612.841	33905.05
613.198	34060.53
613.554	34204.48
613.911	34543
614.267	34776.67
614.624	34838.14
614.98	35060.5
615.337	35458.91
615.693	35431.79
616.05	35552.24
616.406	36068.16
616.762	35901.84
617.118	36072.91
617.475	36319.23
617.831	36449.62
618.187	36714.02
618.543	36886.45
618.899	37085.31
619.255	37088.02
619.611	37276.49
619.967	37604.62
620.323	37622.25
620.678	37609.14
621.034	37685.97
621.39	37913.09
621.746	37853.88
622.101	38356.46
622.457	38315.11
622.812	38339.51
623.168	38613.18
623.523	38556.68
623.879	38961.87
624.234	38584.03
624.589	38901.76
624.945	39074.86
625.3	39080.51
625.655	39289.09
626.01	39338.13
626.365	39432.37
626.72	39456.1
627.075	39445.25
627.43	39478.92
627.785	39516.43
628.14	39706.26
628.495	39782.19
628.85	39867.61
629.205	39810.44
629.559	39979.92
629.914	39856.99
630.269	39955.07
630.623	39926.14
630.978	39868.06
631.332	40120.48
631.687	40249.52
632.041	40264.66
632.396	40255.62
632.75	40128.39
633.104	40285
633.459	40124.33
633.813	40233.02
634.167	40174.27
634.521	40192.35
634.875	40302.4
635.229	40244.1
635.583	40104.67
635.937	40167.49
636.291	40248.62
636.645	40224.66
636.999	40187.83
637.352	40284.1
637.706	40146.7
638.06	40269.41
638.413	40235.96
638.767	40303.98
639.121	40295.62
639.474	40135.85
639.828	40026.93
640.181	40264.89
640.534	40145.12
640.888	40179.47
641.241	39984.44
641.594	40219.47
641.947	40267.6
642.301	39969.08
642.654	40088.85
643.007	40130.88
643.36	40049.3
643.713	40027.38
644.066	40366.13
644.419	39817.22
644.771	39734.73
645.124	39447.06
645.477	39379.26
645.83	39058.37
646.182	39093.62
646.535	38956.45
646.888	39125.48
647.24	38763.68
647.593	39078.93
647.945	39012.94
648.298	38765.04
648.65	38794.42
649.002	38769.11
649.355	38902.44
649.707	38805.94
650.059	38921.19
650.411	39320.28
650.763	39502.2
651.115	39881.85
651.467	39823.32
651.819	39779.7
652.171	39661.74
652.523	39578.13
652.875	39582.19
653.227	39529.99
653.578	39795.07
653.93	39622.64
654.282	39444.34
654.633	39386.04
654.985	39530.44
655.337	39533.16
655.688	39562.08
656.039	39663.32
656.391	39276.21
656.742	39387.4
657.094	39407.51
657.445	39500.39
657.796	39425.81
658.147	39381.97
658.498	39355.31
658.849	39456.1
659.2	39427.4
659.551	39298.59
659.902	39562.53
660.253	39235.99
660.604	39385.81
660.955	39195.31
661.306	39384.01
661.656	39231.92
662.007	39266.72
662.358	39197.8
662.708	39218.59
663.059	39216.55
663.409	38992.83
663.76	39194.63
664.11	39202.99
664.461	39325.93
664.811	39203.67
665.161	39223.56
665.511	39110.57
665.862	39267.17
666.212	39137.23
666.562	39366.83
666.912	39220.62
667.262	39171.36
667.612	39168.65
667.962	39180.85
668.312	39040.51
668.662	39449.77
669.011	39152.83
669.361	39123.45
669.711	39064.02
670.06	39038.71
670.41	38983.34
670.76	39006.16
671.109	39181.3
671.459	39129.1
671.808	39021.98
672.157	39088.42
672.507	38735.44
672.856	38770.01
673.205	38838.26
673.554	39056.56
673.904	38896.79
674.253	39188.76
674.602	39049.1
674.951	38350.14
675.3	38166.64
675.649	38763.91
675.998	38687.3
676.346	38845.72
676.695	38862.89
677.044	38598.26
677.393	38710.35
677.741	38676.91
678.09	38672.61
678.438	38567.31
678.787	38618.15
679.135	38552.62
679.484	38375.22
679.832	38448.66
680.181	38236.01
680.529	38400.76
680.877	38212.29
681.225	38343.81
681.573	38642.56
681.922	38144.49
682.27	38216.81
682.618	38301.32
682.966	38078.96
683.314	38176.35
683.661	38058.84
684.009	37810.49
684.357	37791.28
684.705	37649.36
685.053	37790.15
685.4	37654.56
685.748	37657.72
686.095	37516.26
686.443	37375.47
686.79	37387.9
687.138	37495.24
687.485	37487.56
687.832	37278.07
688.18	37307
688.527	37095.71
688.874	37194.01
689.221	37096.16
689.568	36818.2
689.915	36834.02
690.262	36832.21
690.609	36755.38
690.956	36610.52
691.303	36511.09
691.65	36340.02
691.997	36431.32
692.344	36135.28
692.69	36233.36
693.037	36224.54
693.383	35909.97
693.73	36129.86
694.077	35890.54
694.423	35869.52
694.769	35831.33
695.116	35649.87
695.462	35632.69
695.808	35509.08
696.155	35716.76
696.501	35266.6
696.847	35228.41
697.193	35002.2
697.539	35149.77
697.885	34918.14
698.231	34790.68
698.577	34881.75
698.923	34695.54
699.269	34580.52
699.614	34531.03
699.96	34508.88
700.306	34502.33
700.651	34395.44
700.997	34257.59
701.342	34018.27
701.688	34076.12
702.033	33939.86
702.379	33989.57
702.724	33863.93
703.069	33895.34
703.415	33515.69
703.76	33619.64
704.105	33584.84
704.45	33586.65
704.795	33263.04
705.14	33191.85
705.485	33200.89
705.83	33032.54
706.175	33026.21
706.52	32865.08
706.865	32714.8
707.209	32899.66
707.554	32721.13
707.899	32899.66
708.243	32574.69
708.588	32684.97
708.932	32501.02
709.277	32447.47
709.621	32361.37
709.966	32130.19
710.31	32250.86
710.654	31991.88
710.998	31865.33
711.342	31966.57
711.687	31946.91
712.031	31776.98
712.375	31742.63
712.719	31727.03
713.063	31680.03
713.407	31776.98
713.75	31462.63
714.094	31532.01
714.438	31403.65
714.782	31334.05
715.125	31243.88
715.469	31308.74
715.812	31112.59
716.156	31050.67
716.499	30931.8
716.843	31078.91
717.186	30843.21
717.53	31038.24
717.873	31091.34
718.216	30833.05
718.559	30778.13
718.902	30530.91
719.246	30723.22
719.589	30584.01
719.932	30399.61
720.275	30470.12
720.617	30431.7
720.96	30306.73
721.303	30349.67
721.646	30346.28
721.989	30018.38
722.331	30272.61
722.674	30156.45
723.016	30130.92
723.359	29869.68
723.701	30057.47
724.044	29791.94
724.386	29709.91
724.729	29781.55
725.071	29704.04
725.413	29788.55
725.755	29635.34
726.097	29515.57
726.439	29439.41
726.782	29416.81
727.124	29582.91
727.465	29376.36
727.807	29281.67
728.149	29308.79
728.491	29261.56
728.833	29240.77
729.175	29224.73
729.516	29044.84
729.858	28996.71
730.199	29062.47
730.541	28999.2
730.882	28946.09
731.224	28977.05
731.565	28767.34
731.906	28780.22
732.248	28807.34
732.589	28632.88
732.93	28554.01
733.271	28577.29
733.612	28592.43
733.953	28552.88
734.294	28422.26
734.635	28385.43
734.976	28568.7
735.317	28337.97
735.658	28398.76
735.999	28408.02
736.339	28263.62
736.68	28337.07
737.021	28244.19
737.361	28138.65
737.702	28249.38
738.042	28200.57
738.383	28154.47
738.723	28070.86
739.063	28003.06
739.404	27963.74
739.744	27991.09
740.084	27859.11
740.424	27927.81
740.764	27926.23
741.104	27831.54
741.444	27698.21
741.784	27487.82
742.124	27761.26
742.464	27686.24
742.804	27540.48
743.143	27526.01
743.483	27558.1
743.823	27385
744.162	27317.66
744.502	27477.2
744.841	27367.83
745.181	27355.85
745.52	27215.97
745.86	27312.91
746.199	27171.45
746.538	27091.9
746.877	27133.93
747.216	27205.57
747.556	26932.13
747.895	27020.72
748.234	26966.03
748.573	26887.16
748.911	26813.94
749.25	26795.86
749.589	26701.18
749.928	26789.76
750.267	26675.41
750.605	26581.41
750.944	26553.84
751.283	26506.15
751.621	26524.68
751.96	26427.96
752.298	26511.12
752.636	26450.79
752.975	26068.65
753.313	26110.46
753.651	26228.19
753.989	26152.04
754.327	26137.35
754.666	25943.68
755.004	25961.31
755.342	25987.97
755.679	25887.86
756.017	25946.39
756.355	25754.76
756.693	25587.99
757.031	25753.4
757.368	25630.47
757.706	25549.57
758.044	25426.41
758.381	25543.01
758.719	25302.34
759.056	25459.63
759.394	25317.26
