Data from hue_38_FLMS001491_00094.txt Node
Date: Tue Feb 07 17:32:14 GMT 2017
User: dcchb
Spectrometer: FLMS00149
Trigger mode: 0
Integration Time (sec): 2.000000E-2
Scans to average: 10
Electric dark correction enabled: true
Nonlinearity correction enabled: false
Boxcar width: 0
XAxis mode: Wavelengths
Number of Pixels in Spectrum: 2048
>>>>>Begin Spectral Data<<<<<
341.393	-8.94
341.776	-8.94
342.16	-8.94
342.543	-59.33
342.927	-45.78
343.31	-57.53
343.693	-79.9
344.077	-46.91
344.46	-68.37
344.843	-51.2
345.226	-37.41
345.61	-15.49
345.993	-30.41
346.376	1.45
346.759	1.45
347.142	18.4
347.525	41
347.908	38.29
348.291	68.57
348.674	86.42
349.057	131.62
349.44	126.42
349.823	164.61
350.206	173.88
350.588	199.42
350.971	213.88
351.354	251.84
351.737	220.43
352.119	246.42
352.502	258.62
352.884	276.48
353.267	290.26
353.65	307.66
354.032	304.05
354.414	301.79
354.797	324.84
355.179	337.27
355.562	339.75
355.944	341.78
356.326	339.07
356.709	339.75
357.091	338.17
357.473	344.04
357.855	333.88
358.238	355.57
358.62	364.38
359.002	359.41
359.384	356.93
359.766	337.27
360.148	348.56
360.53	341.11
360.912	353.76
361.294	330.26
361.676	340.65
362.057	337.27
362.439	315.8
362.821	335.91
363.203	330.71
363.584	335.91
363.966	338.85
364.348	337.27
364.729	335.23
365.111	314.89
365.493	327.1
365.874	337.94
366.256	337.94
366.637	296.14
367.019	323.03
367.4	311.05
367.781	305.4
368.163	325.74
368.544	335.23
368.925	309.47
369.306	336.81
369.688	323.25
370.069	327.55
370.45	322.35
370.831	327.55
371.212	308.34
371.593	306.98
371.974	321.9
372.355	337.72
372.736	325.51
373.117	318.73
373.498	317.15
373.879	330.03
374.26	314.44
374.641	321.67
375.021	308.34
375.402	326.19
375.783	330.03
376.163	360.32
376.544	351.05
376.925	323.71
377.305	344.27
377.686	346.3
378.066	340.43
378.447	358.28
378.827	321.67
379.208	339.07
379.588	345.85
379.968	332.52
380.349	329.13
380.729	350.6
381.109	353.31
381.489	341.11
381.87	338.62
382.25	359.19
382.63	340.88
383.01	363.25
383.39	352.86
383.77	352.41
384.15	363.48
384.53	347.43
384.91	351.5
385.29	348.79
385.67	356.7
386.049	361.67
386.429	335.68
386.809	375.91
387.189	358.06
387.568	361.45
387.948	353.54
388.328	369.13
388.707	372.29
389.087	371.16
389.466	374.1
389.846	370.71
390.225	378.85
390.605	376.36
390.984	382.46
391.363	394.66
391.743	377.26
392.122	374.78
392.501	370.71
392.881	394.89
393.26	383.59
393.639	382.91
394.018	377.49
394.397	392.4
394.776	392.63
395.155	368.9
395.534	397.6
395.913	395.79
396.292	407.77
396.671	395.57
397.05	400.77
397.429	388.56
397.808	414.78
398.186	411.39
398.565	410.26
398.944	407.09
399.323	400.31
399.701	398.51
400.08	429.69
400.458	419.75
400.837	408.45
401.215	417.94
401.594	415.46
401.972	403.93
402.351	408.22
402.729	413.65
403.107	437.15
403.486	439.18
403.864	433.08
404.242	440.99
404.62	434.66
404.999	422.69
405.377	454.1
405.755	437.6
406.133	438.96
406.511	454.32
406.889	450.03
407.267	414.78
407.645	452.06
408.023	455.91
408.401	457.26
408.779	456.81
409.156	437.38
409.534	431.5
409.912	480.54
410.29	477.15
410.667	473.76
411.045	483.02
411.422	466.08
411.8	489.13
412.178	494.78
412.555	492.29
412.933	499.75
413.31	511.5
413.687	473.98
414.065	491.39
414.442	517.37
414.819	519.86
415.197	521.67
415.574	513.98
415.951	524.15
416.328	533.64
416.705	538.62
417.082	541.1
417.46	548.56
417.837	539.52
418.214	532.06
418.591	552.63
418.967	532.51
419.344	561.89
419.721	548.33
420.098	569.35
420.475	551.72
420.852	547.66
421.228	565.06
421.605	567.99
421.982	553.76
422.358	569.58
422.735	565.28
423.111	604.38
423.488	586.52
423.864	586.3
424.241	580.42
424.617	592.63
424.994	589.91
425.37	608.44
425.746	600.99
426.123	610.03
426.499	614.55
426.875	633.08
427.251	618.84
427.627	630.36
428.003	638.73
428.379	626.07
428.756	622.46
429.132	655
429.507	649.57
429.883	644.38
430.259	669.01
430.635	659.29
431.011	680.53
431.387	715.33
431.763	699.74
432.138	683.47
432.514	706.29
432.89	709.68
433.265	709.46
433.641	735.22
434.016	714.66
434.392	716.92
434.767	726.41
435.143	750.14
435.518	734.54
435.894	746.07
436.269	760.76
436.644	763.24
437.02	773.86
437.395	772.28
437.77	794.88
438.145	782.45
438.52	801.66
438.895	798.27
439.271	805.73
439.646	796.01
440.021	814.54
440.395	811.38
440.77	810.7
441.145	840.53
441.52	817.25
441.895	825.16
442.27	854.99
442.645	838.95
443.019	845.27
443.394	862.45
443.769	871.26
444.143	865.16
444.518	844.37
444.892	886.4
445.267	893.18
445.641	903.13
446.016	917.81
446.39	923.69
446.764	908.32
447.139	930.24
447.513	920.75
447.887	945.61
448.262	946.74
448.636	913.52
449.01	929.34
449.384	946.51
449.758	957.14
450.132	949
450.506	966.63
450.88	948.1
451.254	976.8
451.628	974.54
452.002	997.13
452.376	1006.85
452.75	981.54
453.123	1023.8
453.497	1024.48
453.871	1046.17
454.244	1046.4
454.618	1031.94
454.992	1065.38
455.365	1076.68
455.739	1104.25
456.112	1103.35
456.486	1088.43
456.859	1127.98
457.232	1149.67
457.606	1131.82
457.979	1141.76
458.352	1166.62
458.725	1164.81
459.099	1170.01
459.472	1199.62
459.845	1226.73
460.218	1232.16
460.591	1269.67
460.964	1250.69
461.337	1276.68
461.71	1306.05
462.083	1277.13
462.456	1306.05
462.829	1296.34
463.201	1323.91
463.574	1339.05
463.947	1372.94
464.32	1395.54
464.692	1423.11
465.065	1413.4
465.438	1449.1
465.81	1474.64
466.183	1485.71
466.555	1498.82
466.928	1503.56
467.3	1522.32
467.672	1565.93
468.045	1598.47
468.417	1587.85
468.789	1624.24
469.161	1642.32
469.534	1677.79
469.906	1675.54
470.278	1708.53
470.65	1720.05
471.022	1773.61
471.394	1802.09
471.766	1838.47
472.138	1860.84
472.51	1906.04
472.882	1917.11
473.253	1948.97
473.625	2034.85
473.997	2046.82
474.369	2084.34
474.74	2088.86
475.112	2176.54
475.484	2178.35
475.855	2255.86
476.227	2286.37
476.598	2350.09
476.97	2377.66
477.341	2429.19
477.713	2494.27
478.084	2496.76
478.455	2600.71
478.827	2672.57
479.198	2769.52
479.569	2771.78
479.94	2878.89
480.311	2949.4
480.682	3016.29
481.053	3094.03
481.424	3169.51
481.795	3182.16
482.166	3308.71
482.537	3335.15
482.908	3430.97
483.279	3517.52
483.65	3603.39
484.021	3719.32
484.391	3740.79
484.762	3838.87
485.133	3929.49
485.503	4016.04
485.874	4152.08
486.244	4191.63
486.615	4305.52
486.985	4387.78
487.356	4514.78
487.726	4565.4
488.097	4741.22
488.467	4801.55
488.837	4905.05
489.207	4980.53
489.578	5145.95
489.948	5233.18
490.318	5412.16
490.688	5422.33
491.058	5539.39
491.428	5600.18
491.798	5767.18
492.168	5917.91
492.538	5958.13
492.908	6063.89
493.278	6187.73
493.648	6232.03
494.017	6399.7
494.387	6465.69
494.757	6568.97
495.126	6695.97
495.496	6735.97
495.866	6826.81
496.235	6904.1
496.605	7065.68
496.974	7126.24
497.344	7228.84
497.713	7297.76
498.082	7444.65
498.452	7526.45
498.821	7591.76
499.19	7621.14
499.559	7798.09
499.928	7839.21
500.298	7880.12
500.667	8056.61
501.036	8149.04
501.405	8194.46
501.774	8298.41
502.143	8334.12
502.512	8402.82
502.88	8474.45
503.249	8561.23
503.618	8622.92
503.987	8729.81
504.356	8817.04
504.724	8952.63
505.093	8958.51
505.462	9030.37
505.83	9077.37
506.199	9220.65
506.567	9284.37
506.936	9329.12
507.304	9464.26
507.672	9570.69
508.041	9616.12
508.409	9720.3
508.777	9787.19
509.145	9907.63
509.514	9962.77
509.882	10038.03
510.25	9930.23
510.618	10107.18
510.986	10148.53
511.354	10228.98
511.722	10351.69
512.09	10391.01
512.458	10423.1
512.826	10487.51
513.193	10591.68
513.561	10651.34
513.929	10650.44
514.297	10803.66
514.664	10950.55
515.032	10958.68
515.4	11082.97
515.767	11134.27
516.135	11143.99
516.502	11099.47
516.869	11261.05
517.237	11368.61
517.604	11376.52
517.972	11455.39
518.339	11601.38
518.706	11515.28
519.073	11631.43
519.44	11699
519.808	11894.25
520.175	11820.81
520.542	12021.03
520.909	12029.16
521.276	12044.75
521.643	12177.18
522.009	12255.14
522.376	12359.32
522.743	12406.78
523.11	12509.83
523.477	12635.02
523.843	12625.76
524.21	12845.64
524.577	12944.84
524.943	12951.17
525.31	12934.67
525.676	13185.51
526.043	13082.47
526.409	13206.31
526.776	13322.46
527.142	13343.02
527.508	13427.32
527.874	13574.88
528.241	13657.37
528.607	13677.03
528.973	13830.24
529.339	13851.03
529.705	14013.29
530.071	14123.8
530.437	14197.01
530.803	14271.14
531.169	14264.58
531.535	14358.82
531.901	14406.05
532.267	14444.69
532.632	14472.49
532.998	14545.93
533.364	14693.72
533.73	14721.97
534.095	14853.49
534.461	14849.65
534.826	14921.51
535.192	15011.68
535.557	15064.79
535.923	15142.3
536.288	15263.88
536.653	15247.16
537.019	15296.65
537.384	15321.73
537.749	15454.83
538.114	15449.18
538.479	15438.79
538.845	15603.76
539.21	15564.89
539.575	15685.79
539.94	15765.11
540.305	15801.72
540.67	15757.88
541.034	15940.02
541.399	15926.23
541.764	16086.23
542.129	15972.56
542.494	16130.07
542.858	16219.33
543.223	16373.23
543.587	16485.77
543.952	16393.34
544.316	16371.42
544.681	16463.39
545.045	16570.96
545.41	16717.63
545.774	16748.13
546.138	16737.29
546.503	16790.39
546.867	16857.51
547.231	17010.5
547.595	16941.57
547.959	17061.57
548.324	17039.88
548.688	17092.53
549.052	17196.71
549.416	17167.11
549.779	17323.94
550.143	17355.8
550.507	17483.71
550.871	17481.22
551.235	17493.42
551.599	17589.47
551.962	17677.6
552.326	17719.18
552.689	17824.71
553.053	17772.51
553.417	17758.5
553.78	18039.62
554.143	18013.41
554.507	18108.78
554.87	18158.94
555.234	18269.9
555.597	18212.95
555.96	18302.44
556.323	18468.09
556.686	18425.15
557.05	18577.46
557.413	18532.94
557.776	18640.29
558.139	18735.2
558.502	18750.34
558.865	18822.43
559.228	18856.55
559.59	18994.63
559.953	18984.91
560.316	19230.33
560.679	19128.18
561.041	19282.53
561.404	19353.49
561.767	19487.95
562.129	19472.36
562.492	19691.56
562.854	19592.58
563.217	19610.43
563.579	19715.74
563.941	19835.51
564.304	20022.62
564.666	19947.15
565.028	20103.98
565.39	20120.7
565.753	20251.54
566.115	20288.6
566.477	20376.74
566.839	20412.44
567.201	20533.8
567.563	20561.82
567.925	20793.22
568.287	20699.89
568.648	20775.15
569.01	20906.22
569.372	21025.99
569.734	20975.14
570.095	21106.21
570.457	21210.61
570.819	21362.25
571.18	21411.97
571.542	21505.07
571.903	21543.49
572.265	21608.34
572.626	21729.92
572.987	21667.55
573.349	21786.42
573.71	21998.16
574.071	22087.2
574.432	22155.9
574.794	22294.43
575.155	22354.77
575.516	22372.84
575.877	22546.4
576.238	22673.4
576.599	22778.03
576.96	22972.38
577.32	23010.12
577.681	23158.36
578.042	23284.01
578.403	23416.88
578.763	23441.29
579.124	23669.08
579.485	24002.63
579.845	24090.99
580.206	24099.35
580.566	24203.3
580.927	24337.09
581.287	24638.77
581.648	24617.76
582.008	24808.94
582.368	25008.71
582.728	25295.25
583.089	25276.04
583.449	25459.99
583.809	25564.17
584.169	25728.01
584.529	25881.45
584.889	26331.16
585.249	26319.63
585.609	26465.84
585.969	26803.01
586.329	26883.23
586.688	27097.01
587.048	27374.52
587.408	27438.25
587.768	27704.23
588.127	27810.67
588.487	28045.24
588.846	28510.08
589.206	28548.95
589.565	28722.28
589.925	29136.28
590.284	29217.86
590.643	29491.07
591.003	29720
591.362	29958.18
591.721	30060.55
592.08	30274.33
592.44	30437.72
592.799	30584.38
593.158	30813.53
593.517	31092.84
593.876	31361.31
594.235	31309.78
594.593	31579.83
594.952	32006.04
595.311	31979.6
595.67	32229.76
596.029	32643.08
596.387	32793.59
596.746	33051.66
597.104	32921.72
597.463	33248.26
597.822	33604.19
598.18	33730.06
598.538	33792.88
598.897	34079.65
599.255	34120.11
599.613	34703.14
599.972	34542.02
600.33	34742.46
600.688	34912.4
601.046	35225.61
601.404	35288.21
601.762	35482.33
602.12	35938.81
602.478	35845.94
602.836	36127.51
603.194	36143.1
603.552	36395.75
603.91	36393.27
604.268	36699.02
604.625	36597.55
604.983	37008.84
605.341	37012.68
605.698	37374.48
606.056	37412.9
606.413	37605.21
606.771	37858.31
607.128	37921.59
607.485	37819.44
607.843	38071.19
608.2	38322.93
608.557	38487.9
608.914	38390.5
609.272	38775.12
609.629	38841.79
609.986	39016.7
610.343	38938.51
610.7	39388.89
611.057	39250.37
611.414	39368.56
611.771	39557.7
612.127	39775.55
612.484	39842.67
612.841	39985.26
613.198	39972.61
613.554	40108.65
613.911	40428.64
614.267	40480.16
614.624	40390.45
614.98	40593.38
615.337	40857.1
615.693	40849.87
616.05	40851.68
616.406	41055.06
616.762	41178.23
617.118	41298.45
617.475	41405.34
617.831	41492.79
618.187	41602.17
618.543	41582.73
618.899	41839.22
619.255	41785.67
619.611	41961.48
619.967	42064.3
620.323	42069.28
620.678	42025.43
621.034	42020.01
621.39	42170.74
621.746	42307.01
622.101	42663.16
622.457	42331.19
622.812	42550.39
623.168	42614.8
623.523	42667
623.879	42906.09
624.234	42497.74
624.589	42695.02
624.945	42845.98
625.3	43004.84
625.655	42789.26
626.01	42896.82
626.365	43026.31
626.72	42943.6
627.075	43047.33
627.43	43078.06
627.785	43116.03
628.14	43099.53
628.495	43115.35
628.85	43200.09
629.205	42989.7
629.559	43257.49
629.914	43071.28
630.269	43207.78
630.623	43157.83
630.978	43044.16
631.332	43174.33
631.687	43428.79
632.041	43159.87
632.396	43329.81
632.75	43049.59
633.104	43125.97
633.459	43049.36
633.813	43050.72
634.167	43212.52
634.521	43208.91
634.875	43218.17
635.229	43321.9
635.583	42979.76
635.937	43073.32
636.291	43041.68
636.645	43071.73
636.999	43064.96
637.352	43104.5
637.706	42854.79
638.06	43157.83
638.413	42986.54
638.767	42839.42
639.121	42928.91
639.474	42774.57
639.828	42831.74
640.181	42882.81
640.534	42751.29
640.888	42797.84
641.241	42629.03
641.594	42693.67
641.947	42832.87
642.301	42688.92
642.654	42801.23
643.007	42744.06
643.36	42624.74
643.713	42601.92
644.066	42814.11
644.419	42460
644.771	42251.19
645.124	41999.67
645.477	41841.48
645.83	41647.37
646.182	41555.84
646.535	41516.07
646.888	41467.48
647.24	41283.76
647.593	41540.48
647.945	41340.71
648.298	41276.75
648.65	41247.15
649.002	41078.79
649.355	41270.43
649.707	41298.9
650.059	41340.93
650.411	41921.93
650.763	41825.89
651.115	42189.05
651.467	42082.38
651.819	42191.31
652.171	42079.44
652.523	41963.06
652.875	42026.34
653.227	41887.81
653.578	42224.3
653.93	41979.33
654.282	41935.95
654.633	41817.08
654.985	41935.95
655.337	41745.67
655.688	41839
656.039	42039.22
656.391	41674.26
656.742	41811.88
657.094	41737.98
657.445	41855.27
657.796	41775.05
658.147	41808.72
658.498	41726.23
658.849	41760.81
659.2	41544.54
659.551	41518.56
659.902	41851.65
660.253	41724.43
660.604	41750.64
660.955	41541.83
661.306	41684.65
661.656	41718.1
662.007	41758.55
662.358	41669.29
662.708	41589.74
663.059	41713.58
663.409	41537.09
663.76	41639.68
664.11	41581.6
664.461	41703.18
664.811	41635.16
665.161	41510.87
665.511	41444.88
665.862	41558.78
666.212	41658.21
666.562	41640.13
666.912	41559.23
667.262	41510.87
667.612	41486.24
667.962	41529.18
668.312	41514.04
668.662	41698.89
669.011	41593.36
669.361	41531.89
669.711	41432.68
670.06	41411.21
670.41	41467.71
670.76	41414.15
671.109	41429.97
671.459	41387.94
671.808	41388.62
672.157	41558.78
672.507	41193.82
672.856	41200.82
673.205	41375.73
673.554	41407.6
673.904	41299.58
674.253	41486.69
674.602	41310.43
674.951	40835.41
675.3	40672.02
675.649	41207.15
675.998	41100.71
676.346	41205.8
676.695	41332.12
677.044	40924.22
677.393	41208.73
677.741	41144.1
678.09	41093.93
678.438	40891
678.787	40940.04
679.135	40954.05
679.484	40668.86
679.832	41049.64
680.181	40635.87
680.529	40754.73
680.877	40715.64
681.225	40577.34
681.573	40712.25
681.922	40528.75
682.27	40397.91
682.618	40470.22
682.966	40359.26
683.314	40378.7
683.661	40234.75
684.009	40057.58
684.357	40089.89
684.705	40143.22
685.053	40173.05
685.4	40013.74
685.748	39818.26
686.095	39904.36
686.443	39630.7
686.79	39591.83
687.138	39729.22
687.485	39756.34
687.832	39566.74
688.18	39490.81
688.527	39390.48
688.874	39318.39
689.221	39168.56
689.568	39199.52
689.915	39133.31
690.262	39232.06
690.609	39065.06
690.956	38885.86
691.303	38830.49
691.65	38710.49
691.997	38806.08
692.344	38395.93
692.69	38470.05
693.037	38532.87
693.383	38226.66
693.73	38259.88
694.077	38103.05
694.423	38038.19
694.769	37925.88
695.116	37753.91
695.462	37700.8
695.808	37661.48
696.155	37767.24
696.501	37419.23
696.847	37564.99
697.193	37257.42
697.539	37292.23
697.885	37174.26
698.231	36941.05
698.577	36975.4
698.923	36968.62
699.269	36838
699.614	36565.47
699.96	36602.53
700.306	36608.18
700.651	36412.7
700.997	36264.46
701.342	36357.79
701.688	36186.49
702.033	36060.39
702.379	36115.99
702.724	35834.64
703.069	35999.15
703.415	35593.97
703.76	35667.86
704.105	35679.39
704.45	35662.89
704.795	35498.6
705.14	35322.79
705.485	35378.6
705.83	35109.46
706.175	35119.85
706.52	35134.32
706.865	35008.67
707.209	34812.06
707.554	34750.6
707.899	34799.64
708.243	34734.78
708.588	34680.99
708.932	34439.19
709.277	34386.99
709.621	34372.98
709.966	34253.44
710.31	34337.73
710.654	33959.88
710.998	34054.12
711.342	34025.19
711.687	33825.2
712.031	33853.22
712.375	33808.02
712.719	33766.67
713.063	33632.43
713.407	33717.86
713.75	33575.49
714.094	33502.04
714.438	33373.01
714.782	33336.85
715.125	33278.09
715.469	33272.9
715.812	33034.48
716.156	32914.71
716.499	32989.06
716.843	32973.7
717.186	32720.14
717.53	32953.58
717.873	32796.3
718.216	32683.31
718.559	32735.74
718.902	32388.85
719.246	32561.28
719.589	32516.76
719.932	32336.88
720.275	32302.53
720.617	32382.98
720.96	32197.22
721.303	32205.58
721.646	32194.51
721.989	32037.45
722.331	32118.8
722.674	31997
723.016	32151.57
723.359	31839.94
723.701	32004.91
724.044	31737.8
724.386	31650.34
724.729	31851.46
725.071	31640.85
725.413	31727.17
725.755	31519.72
726.097	31553.85
726.439	31335.77
726.782	31308.88
727.124	31602.43
727.465	31313.4
727.807	31352.95
728.149	31246.06
728.491	31056.68
728.833	31276.56
729.175	31044.93
729.516	30980.08
729.858	30964.03
730.199	30935.56
730.541	30894.2
730.882	30891.72
731.224	30923.13
731.565	30633.42
731.906	30792.06
732.248	30719.74
732.589	30628.45
732.93	30534.21
733.271	30555
733.612	30422.8
733.953	30438.85
734.294	30436.81
734.635	30303.93
734.976	30377.61
735.317	30298.96
735.658	30156.59
735.999	30232.75
736.339	30051.06
736.68	30135.13
737.021	29945.53
737.361	29904.4
737.702	29991.4
738.042	29999.99
738.383	29839.09
738.723	29950.05
739.063	29804.29
739.404	29801.35
739.744	29650.17
740.084	29550.28
740.424	29779.2
740.764	29639.09
741.104	29700.33
741.444	29505.54
741.784	29538.76
742.124	29453.56
742.464	29415.37
742.804	29353.23
743.143	29323.4
743.483	29409.95
743.823	29122.95
744.162	29110.29
744.502	29235.94
744.841	29061.93
745.181	29223.96
745.52	29016.29
745.86	29102.16
746.199	29043.85
746.538	29082.05
746.877	29095.38
747.216	28979.22
747.556	28894.93
747.895	28817.65
748.234	28861.71
748.573	28854.71
748.911	28646.58
749.25	28670.76
749.589	28520.25
749.928	28496.07
750.267	28532.68
750.605	28427.15
750.944	28344.44
751.283	28362.29
751.621	28311.67
751.96	28282.97
752.298	28185.8
752.636	28148.96
752.975	28121.17
753.313	28110.77
753.651	28043.2
753.989	27908.52
754.327	27895.18
754.666	27753.72
755.004	27878.01
755.342	27836.2
755.679	27831.46
756.017	27601.86
756.355	27669.88
756.693	27552.37
