Data from hue_280_FLMS001491_00096.txt Node
Date: Tue Feb 07 15:56:08 GMT 2017
User: dcchb
Spectrometer: FLMS00149
Trigger mode: 0
Integration Time (sec): 2.000000E-2
Scans to average: 10
Electric dark correction enabled: true
Nonlinearity correction enabled: false
Boxcar width: 0
XAxis mode: Wavelengths
Number of Pixels in Spectrum: 2048
>>>>>Begin Spectral Data<<<<<
341.393	-18.67
341.776	-18.67
342.16	-18.67
342.543	-51.44
342.927	-69.74
343.31	-43.98
343.693	-66.35
344.077	-74.49
344.46	-56.18
344.843	-46.02
345.226	-36.98
345.61	-23.64
345.993	-15.73
346.376	-10.99
346.759	-7.15
347.142	32.85
347.525	49.35
347.908	33.76
348.291	70.59
348.674	85.05
349.057	109.91
349.44	136.58
349.823	155.11
350.206	159.63
350.588	176.13
350.971	206.63
351.354	214.77
351.737	233.3
352.119	229.46
352.502	240.98
352.884	257.48
353.267	257.48
353.65	270.13
354.032	272.85
354.414	300.87
354.797	304.71
355.179	305.61
355.562	319.62
355.944	307.87
356.326	314.2
356.709	309.68
357.091	340.19
357.473	330.47
357.855	347.87
358.238	305.39
358.62	337.48
359.002	325.5
359.384	344.26
359.766	351.94
360.148	322.79
360.53	318.72
360.912	331.15
361.294	315.56
361.676	331.15
362.057	355.33
362.439	325.73
362.821	321.21
363.203	315.56
363.584	316.91
363.966	327.31
364.348	318.04
364.729	311.26
365.111	310.81
365.493	302.9
365.874	307.65
366.256	324.14
366.637	304.03
367.019	316.01
367.4	285.27
367.781	304.03
368.163	279.63
368.544	304.94
368.925	302
369.306	300.42
369.688	328.44
370.069	315.56
370.45	316.91
370.831	291.6
371.212	319.85
371.593	323.92
371.974	299.74
372.355	293.41
372.736	319.62
373.117	312.39
373.498	295.67
373.879	288.44
374.26	302.22
374.641	299.29
375.021	317.36
375.402	316.01
375.783	322.56
376.163	324.37
376.544	334.99
376.925	323.69
377.305	312.39
377.686	327.99
378.066	304.94
378.447	317.14
378.827	302.45
379.208	318.72
379.588	313.75
379.968	321.88
380.349	337.03
380.729	324.6
381.109	335.44
381.489	330.7
381.87	318.04
382.25	327.08
382.63	310.59
383.01	316.23
383.39	323.47
383.77	332.73
384.15	332.73
384.53	324.14
384.91	350.58
385.29	325.95
385.67	343.58
386.049	339.96
386.429	354.43
386.809	341.32
387.189	337.25
387.568	349
387.948	352.62
388.328	366.4
388.707	346.29
389.087	368.66
389.466	346.06
389.846	350.58
390.225	332.73
390.605	369.79
390.984	363.47
391.363	352.39
391.743	349.68
392.122	364.59
392.501	353.97
392.881	379.28
393.26	369.79
393.639	356.01
394.018	362.79
394.397	377.02
394.776	353.3
395.155	375.89
395.534	377.7
395.913	371.83
396.292	374.54
396.671	375.22
397.05	370.92
397.429	360.3
397.808	389.45
398.186	353.52
398.565	384.26
398.944	412.73
399.323	389.68
399.701	405.5
400.08	398.27
400.458	402.33
400.837	402.33
401.215	401.43
401.594	414.99
401.972	417.25
402.351	423.58
402.729	396.23
403.107	416.12
403.486	423.8
403.864	411.37
404.242	438.27
404.62	431.03
404.999	419.51
405.377	432.84
405.755	436.23
406.133	449.34
406.511	445.27
406.889	459.06
407.267	460.64
407.645	463.58
408.023	452.28
408.401	478.04
408.779	463.58
409.156	470.35
409.534	465.84
409.912	484.37
410.29	498.38
410.667	508.77
411.045	504.93
411.422	532.95
411.8	521.65
412.178	526.17
412.555	522.33
412.933	520.98
413.31	527.75
413.687	563.01
414.065	545.16
414.442	555.78
414.819	544.7
415.197	569.11
415.574	570.24
415.951	576.79
416.328	596
416.705	605.27
417.082	600.52
417.46	590.13
417.837	603.23
418.214	618.6
418.591	626.28
418.967	637.58
419.344	630.58
419.721	632.38
420.098	669.45
420.475	670.12
420.852	690.24
421.228	680.29
421.605	677.13
421.982	683.68
422.358	727.3
422.735	704.02
423.111	709.22
423.488	719.84
423.864	759.61
424.241	754.19
424.617	767.97
424.994	771.59
425.37	800.52
425.746	775.88
426.123	780.63
426.499	791.25
426.875	819.72
427.251	806.62
427.627	824.92
428.003	853.4
428.379	843.45
428.756	834.87
429.132	875.77
429.507	867.18
429.883	876.45
430.259	908.54
430.635	905.15
431.011	908.99
431.387	937.01
431.763	956.44
432.138	930.46
432.514	937.91
432.89	977.23
433.265	1000.28
433.641	994.41
434.016	1000.28
434.392	1032.15
434.767	1073.5
435.143	1054.29
435.518	1082.99
435.894	1085.71
436.269	1106.95
436.644	1119.6
437.02	1110.34
437.395	1104.69
437.77	1136.33
438.145	1154.18
438.52	1162.99
438.895	1187.62
439.271	1199.38
439.646	1212.93
440.021	1234.4
440.395	1224.91
440.77	1258.58
441.145	1237.79
441.52	1265.59
441.895	1265.81
442.27	1259.49
442.645	1283.67
443.019	1270.33
443.394	1295.42
443.769	1299.49
444.143	1305.14
444.518	1341.97
444.892	1321.41
445.267	1341.07
445.641	1365.25
446.016	1365.7
446.39	1361.18
446.764	1381.52
447.139	1370.9
447.513	1385.13
447.887	1398.92
448.262	1404.79
448.636	1395.3
449.01	1419.03
449.384	1435.98
449.758	1437.11
450.132	1449.76
450.506	1426.26
450.88	1453.38
451.254	1471.91
451.628	1482.53
452.002	1511.68
452.376	1504.45
452.75	1525.24
453.123	1511.91
453.497	1530.44
453.871	1547.16
454.244	1561.4
454.618	1590.55
454.992	1622.41
455.365	1590.1
455.739	1618.35
456.112	1647.5
456.486	1648.18
456.859	1661.51
457.232	1698.57
457.606	1659.48
457.979	1692.7
458.352	1736.31
458.725	1727.04
459.099	1735.86
459.472	1786.93
459.845	1742.41
460.218	1797.33
460.591	1807.72
460.964	1770.89
461.337	1851.79
461.71	1873.48
462.083	1894.27
462.456	1849.08
462.829	1915.29
463.201	1929.98
463.574	1917.32
463.947	1943.08
464.32	1962.97
464.692	1995.06
465.065	2005.91
465.438	2016.53
465.81	2024.21
466.183	2067.15
466.555	2063.76
466.928	2108.05
467.3	2097.66
467.672	2101.5
468.045	2149.86
468.417	2153.02
468.789	2191.89
469.161	2174.26
469.534	2222.85
469.906	2268.95
470.278	2263.3
470.65	2299.01
471.022	2298.33
471.394	2332.45
471.766	2363.64
472.138	2380.59
472.51	2451.32
472.882	2480.7
473.253	2469.4
473.625	2494.03
473.997	2556.4
474.369	2558.66
474.74	2612.9
475.112	2615.16
475.484	2658.09
475.855	2667.59
476.227	2691.54
476.598	2729.05
476.97	2731.09
477.341	2845.43
477.713	2837.52
478.084	2800.01
478.455	2904.19
478.827	2934.7
479.198	2972.89
479.569	2979.67
479.94	3042.94
480.311	3065.09
480.682	3120.23
481.053	3186.67
481.424	3177.4
481.795	3208.14
482.166	3253.33
482.537	3311.64
482.908	3318.64
483.279	3348.92
483.65	3416.72
484.021	3435.7
484.391	3503.04
484.762	3499.43
485.133	3494.68
485.503	3565.19
485.874	3644.51
486.244	3635.24
486.615	3693.77
486.985	3713.21
487.356	3810.15
487.726	3817.61
488.097	3849.02
488.467	3844.28
488.837	3914.33
489.207	3972.18
489.578	3984.16
489.948	4038.4
490.318	4076.81
490.688	4072.97
491.058	4120.2
491.428	4158.17
491.798	4169.92
492.168	4244.27
492.538	4299.41
492.908	4305.28
493.278	4346.64
493.648	4389.12
494.017	4413.75
494.387	4455.79
494.757	4495.79
495.126	4470.7
495.496	4497.82
495.866	4529.91
496.235	4546.86
496.605	4598.83
496.974	4602.68
497.344	4644.48
497.713	4647.65
498.082	4658.04
498.452	4675.22
498.821	4731.26
499.19	4672.28
499.559	4747.3
499.928	4764.71
500.298	4824.36
500.667	4837.92
501.036	4807.19
501.405	4856.91
501.774	4855.55
502.143	4882.44
502.512	4875.89
502.88	4933.06
503.249	4925.83
503.618	4941.65
503.987	4948.2
504.356	5037.24
504.724	5025.94
505.093	4981.42
505.462	5055.09
505.83	5035.21
506.199	5074.3
506.567	5115.66
506.936	5072.27
507.304	5182.77
507.672	5152.04
508.041	5214.64
508.409	5204.47
508.777	5230.23
509.145	5221.87
509.514	5225.94
509.882	5239.04
510.25	5221.19
510.618	5277.91
510.986	5368.08
511.354	5366.05
511.722	5329.21
512.09	5360.85
512.458	5392.94
512.826	5427.29
513.193	5429.55
513.561	5375.76
513.929	5459.83
514.297	5514.97
514.664	5458.25
515.032	5488.53
515.4	5514.74
515.767	5507.74
516.135	5507.06
516.502	5506.15
516.869	5513.84
517.237	5493.95
517.604	5548.41
517.972	5609.43
518.339	5613.95
518.706	5581.18
519.073	5614.85
519.44	5690.78
519.808	5679.48
520.175	5617.34
520.542	5674.06
520.909	5785.92
521.276	5646.26
521.643	5769.2
522.009	5740.72
522.376	5764.23
522.743	5776.66
523.11	5808.29
523.477	5862.53
523.843	5813.27
524.21	5924.67
524.577	5913.83
524.943	5940.72
525.31	5923.77
525.676	5905.47
526.043	5971
526.409	6021.17
526.776	6075.86
527.142	6072.02
527.508	6104.56
527.874	6110.21
528.241	6102.98
528.607	6173.71
528.973	6185.68
529.339	6172.8
529.705	6233.14
530.071	6240.15
530.437	6282.63
530.803	6276.08
531.169	6301.84
531.535	6295.96
531.901	6313.37
532.267	6329.41
532.632	6361.95
532.998	6335.96
533.364	6377.09
533.73	6449.18
534.095	6420.03
534.461	6441.5
534.826	6490.08
535.192	6455.06
535.557	6484.89
535.923	6427.71
536.288	6516.07
536.653	6545.68
537.019	6503.19
537.384	6574.38
537.749	6540.48
538.114	6542.74
538.479	6569.63
538.845	6598.1
539.21	6553.13
539.575	6595.17
539.94	6660.7
540.305	6628.84
540.67	6623.87
541.034	6612.11
541.399	6666.12
541.764	6691.21
542.129	6717.42
542.494	6665.67
542.858	6763.3
543.223	6748.38
543.587	6794.26
543.952	6763.52
544.316	6743.64
544.681	6756.07
545.045	6810.98
545.41	6836.74
545.774	6794.93
546.138	6791.77
546.503	6847.36
546.867	6799.91
547.231	6888.27
547.595	6833.8
547.959	6903.41
548.324	6905.21
548.688	6846.01
549.052	6869.06
549.416	6930.52
549.779	6869.28
550.143	6927.59
550.507	6914.03
550.871	6984.76
551.235	6906.12
551.599	6978.43
551.962	6995.61
552.326	7057.07
552.689	7004.65
553.053	7003.52
553.417	6991.77
553.78	7078.99
554.143	7009.62
554.507	7062.5
554.87	7123.74
555.234	7172.78
555.597	7130.97
555.96	7099.79
556.323	7155.15
556.686	7159.9
557.05	7207.35
557.413	7179.33
557.776	7203.06
558.139	7244.19
558.502	7227.47
558.865	7176.85
559.228	7267.24
559.59	7303.4
559.953	7307.24
560.316	7348.37
560.679	7328.03
561.041	7363.96
561.404	7448.48
561.767	7459.78
562.129	7414.13
562.492	7485.09
562.854	7477.18
563.217	7449.15
563.579	7471.53
563.941	7574.35
564.304	7576.16
564.666	7553.11
565.028	7656.61
565.39	7613.9
565.753	7660
566.115	7758.52
566.477	7710.16
566.839	7751.97
567.201	7751.97
567.563	7751.52
567.925	7797.85
568.287	7840.33
568.648	7906.77
569.01	7843.49
569.372	7928.92
569.734	7929.37
570.095	7942.7
570.457	7939.09
570.819	8055.92
571.18	8024.28
571.542	8042.13
571.903	8094.56
572.265	8158.29
572.626	8202.35
572.987	8219.76
573.349	8139.08
573.71	8229.47
574.071	8232.64
574.432	8295.69
574.794	8323.93
575.155	8328
575.516	8342.46
575.877	8384.95
576.238	8474.89
576.599	8423.82
576.96	8530.71
577.32	8493.65
577.681	8610.71
578.042	8581.55
578.403	8663.36
578.763	8644.15
579.124	8713.08
579.485	8778.39
579.845	8868.1
580.206	8857.25
580.566	8828.78
580.927	8872.39
581.287	8945.39
581.648	8960.98
582.008	9060.19
582.368	9097.7
582.728	9162.1
583.089	9195.1
583.449	9261.31
583.809	9308.99
584.169	9357.35
584.529	9365.49
584.889	9461.08
585.249	9517.57
585.609	9490
585.969	9633.73
586.329	9669.89
586.688	9747.85
587.048	9785.82
587.408	9808.64
587.768	9864.68
588.127	9981.07
588.487	9982.65
588.846	10150.78
589.206	10184.45
589.565	10143.09
589.925	10296.31
590.284	10216.09
590.643	10452.01
591.003	10589.64
591.362	10568.62
591.721	10595.29
592.08	10680.26
592.44	10786.24
592.799	10848.61
593.158	10925
593.517	10902.85
593.876	11033.24
594.235	11045.9
594.593	11149.17
594.952	11209.73
595.311	11220.35
595.67	11317.3
596.029	11421.93
596.387	11476.17
596.746	11524.98
597.104	11418.32
597.463	11530.4
597.822	11730.62
598.18	11736.95
598.538	11702.83
598.897	11842.71
599.255	11892.43
599.613	12060.56
599.972	11991.18
600.33	12072.08
600.688	12119.09
601.046	12195.92
601.404	12198.41
601.762	12269.14
602.12	12387.1
602.478	12368.35
602.836	12483.37
603.194	12396.37
603.552	12582.58
603.91	12491.96
604.268	12631.39
604.625	12551.62
604.983	12674.78
605.341	12602.47
605.698	12807.66
606.056	12823.02
606.413	12826.41
606.771	12848.33
607.128	12932.85
607.485	12915.45
607.843	12933.08
608.2	13030.25
608.557	13091.27
608.914	13125.39
609.272	13140.53
609.629	13217.59
609.986	13314.31
610.343	13219.85
610.7	13262.33
611.057	13296.46
611.414	13381.65
611.771	13318.38
612.127	13465.27
612.484	13516.11
612.841	13542.78
613.198	13459.39
613.554	13536.9
613.911	13643.34
614.267	13635.88
614.624	13661.42
614.98	13738.71
615.337	13717.46
615.693	13804.92
616.05	13710.91
616.406	13891.47
616.762	13709.55
617.118	13764.92
617.475	13769.67
617.831	13886.5
618.187	13888.53
618.543	13872.04
618.899	14016.44
619.255	13834.52
619.611	13977.8
619.967	14014.18
620.323	14126.27
620.678	13996.55
621.034	14017.12
621.39	13971.47
621.746	13994.75
622.101	14175.98
622.457	14077
622.812	14126.94
623.168	14129.43
623.523	14127.17
623.879	14189.09
624.234	14110.67
624.589	14207.39
624.945	14164.68
625.3	14174.18
625.655	14149.32
626.01	14187.28
626.365	14245.13
626.72	14237
627.075	14257.34
627.43	14270.67
627.785	14221.86
628.14	14203.55
628.495	14280.84
628.85	14252.82
629.205	14156.1
629.559	14289.65
629.914	14238.81
630.269	14189.99
630.623	14206.26
630.978	14216.43
631.332	14254.85
631.687	14227.51
632.041	14092.37
632.396	14269.09
632.75	14123.33
633.104	14091.92
633.459	14116.78
633.813	14126.49
634.167	14115.19
634.521	14128.75
634.875	14174.4
635.229	14111.8
635.583	14125.82
635.937	14106.15
636.291	14072.48
636.645	14030.45
636.999	13980.96
637.352	14080.17
637.706	13973.73
638.06	14047.85
638.413	13938.25
638.767	13960.85
639.121	13953.16
639.474	13885.14
639.828	13901.19
640.181	13926.05
640.534	13974.86
640.888	13972.82
641.241	13888.76
641.594	13891.02
641.947	13881.75
642.301	13893.5
642.654	13861.19
643.007	13791.36
643.36	13854.18
643.713	13769.44
644.066	13925.82
644.419	13781.19
644.771	13784.36
645.124	13619.84
645.477	13572.61
645.83	13547.53
646.182	13450.8
646.535	13380.52
646.888	13443.8
647.24	13375.55
647.593	13515.89
647.945	13431.37
648.298	13405.38
648.65	13301.88
649.002	13352.5
649.355	13409.9
649.707	13437.47
650.059	13433.4
650.411	13673.17
650.763	13618.03
651.115	13782.1
651.467	13742.32
651.819	13723.11
652.171	13690.57
652.523	13681.76
652.875	13759.95
653.227	13672.95
653.578	13811.02
653.93	13776.22
654.282	13670.46
654.633	13716.79
654.985	13647.64
655.337	13726.73
655.688	13759.72
656.039	13719.27
656.391	13634.53
656.742	13702.32
657.094	13712.04
657.445	13767.63
657.796	13779.38
658.147	13694.19
658.498	13726.28
658.849	13717.69
659.2	13702.55
659.551	13742.1
659.902	13733.06
660.253	13744.13
660.604	13757.46
660.955	13662.32
661.306	13742.77
661.656	13779.38
662.007	13738.03
662.358	13723.57
662.708	13796.33
663.059	13801.76
663.409	13674.08
663.76	13772.83
664.11	13822.77
664.461	13797.91
664.811	13808.76
665.161	13827.07
665.511	13685.6
665.862	13909.78
666.212	13844.69
666.562	13842.43
666.912	13801.3
667.262	13872.49
667.612	13827.74
667.962	13825.48
668.312	13784.81
668.662	13877.69
669.011	13848.99
669.361	13879.49
669.711	13814.41
670.06	13837.91
670.41	13700.06
670.76	13711.59
671.109	13862.77
671.459	13818.25
671.808	13687.86
672.157	13797.46
672.507	13682.89
672.856	13751.14
673.205	13684.24
673.554	13702.32
673.904	13662.32
674.253	13748.65
674.602	13672.72
674.951	13548.2
675.3	13422.56
675.649	13678.82
675.998	13620.29
676.346	13611.03
676.695	13656.45
677.044	13554.08
677.393	13611.25
677.741	13632.27
678.09	13506.4
678.438	13533.29
678.787	13569.22
679.135	13558.15
679.484	13494.87
679.832	13461.88
680.181	13446.51
680.529	13367.19
680.877	13456.45
681.225	13357.7
681.573	13474.08
681.922	13368.32
682.27	13315.89
682.618	13368.77
682.966	13374.65
683.314	13417.59
683.661	13284.26
684.009	13167.42
684.357	13245.39
684.705	13144.15
685.053	13119.29
685.4	13140.08
685.748	13093.98
686.095	13075.45
686.443	12969.24
686.79	13014.43
687.138	13015.56
687.485	12984.6
687.832	12917.49
688.18	12913.64
688.527	12964.04
688.874	12837.26
689.221	12813.31
689.568	12767.43
689.915	12712.52
690.262	12732.18
690.609	12646.31
690.956	12625.97
691.303	12656.25
691.65	12583.71
691.997	12531.05
692.344	12441.57
692.69	12387.56
693.037	12425.29
693.383	12301
693.73	12241.8
694.077	12243.6
694.423	12267.56
694.769	12156.15
695.116	12265.75
695.462	12133.55
695.808	12121.35
696.155	12085.64
696.501	11978.07
696.847	12040.22
697.193	11980.56
697.539	11939.43
697.885	11809.94
698.231	11790.74
698.577	11851.52
698.923	11802.49
699.269	11660.8
699.614	11669.16
699.96	11607.24
700.306	11603.17
700.651	11593.68
700.997	11497.86
701.342	11430.29
701.688	11461.7
702.033	11383.06
702.379	11366.11
702.724	11369.5
703.069	11343.52
703.415	11198.66
703.76	11146.01
704.105	11209.51
704.45	11181.26
704.795	11091.32
705.14	11031.21
705.485	11003.19
705.83	10941.49
706.175	10976.97
706.52	10946.69
706.865	10885.67
707.209	10881.61
707.554	10809.52
707.899	10835.96
708.243	10772.91
708.588	10730.42
708.932	10677.77
709.277	10704.66
709.621	10650.88
709.966	10622.4
710.31	10593.93
710.654	10581.05
710.998	10533.14
711.342	10520.49
711.687	10534.5
712.031	10480.26
712.375	10458.34
712.719	10397.55
713.063	10475.52
713.407	10460.37
713.75	10340.83
714.094	10361.62
714.438	10342.86
714.782	10289.76
715.125	10259.25
715.469	10317.33
715.812	10265.13
716.156	10212.92
716.499	10214.73
716.843	10281.62
717.186	10198.01
717.53	10189.65
717.873	10254.5
718.216	10154.39
718.559	10122.76
718.902	10031.01
719.246	10115.75
719.589	10098.12
719.932	10025.58
720.275	10030.33
720.617	9977.22
720.96	9981.74
721.303	10048.18
721.646	10021.29
721.989	9958.47
722.331	9980.61
722.674	9883.21
723.016	9925.7
723.359	9958.24
723.701	9954.63
724.044	9835.08
724.386	9855.64
724.729	9854.97
725.071	9865.59
725.413	9919.15
725.755	9897.68
726.097	9820.62
726.439	9716.89
726.782	9793.73
727.124	9913.04
727.465	9788.53
727.807	9812.93
728.149	9728.19
728.491	9798.92
728.833	9757.57
729.175	9764.35
729.516	9752.6
729.858	9769.32
730.199	9754.86
730.541	9728.19
730.882	9713.73
731.224	9779.94
731.565	9700.17
731.906	9724.35
732.248	9743.11
732.589	9717.34
732.93	9717.8
733.271	9706.04
733.612	9713.28
733.953	9753.05
734.294	9718.02
734.635	9734.97
734.976	9744.91
735.317	9687.06
735.658	9715.31
735.999	9684.12
736.339	9651.36
736.68	9726.61
737.021	9697
737.361	9661.53
737.702	9746.95
738.042	9665.59
738.383	9669.21
738.723	9695.2
739.063	9657.46
739.404	9801.41
739.744	9717.34
740.084	9773.61
740.424	9730.9
740.764	9728.87
741.104	9802.09
741.444	9803.89
741.784	9744.46
742.124	9825.14
742.464	9788.53
742.804	9834.4
743.143	9824.46
743.483	9890.45
743.823	9851.8
744.162	9860.84
744.502	9914.85
744.841	9889.09
745.181	10057.45
745.52	9984.91
745.86	10057
746.199	10093.83
746.538	10162.3
746.877	10181.51
747.216	10209.31
747.556	10294.28
747.895	10325.46
748.234	10412.92
748.573	10325.91
748.911	10461.73
749.25	10565.68
749.589	10544.21
749.928	10721.38
750.267	10692.01
750.605	10748.73
750.944	10832.34
751.283	10868.95
751.621	11024.43
751.96	11066.23
752.298	11180.36
752.636	11189.17
752.975	11255.61
753.313	11395.94
753.651	11486.79
753.989	11621.02
754.327	11681.59
754.666	11704.64
755.004	11935.82
755.342	11978.07
755.679	12076.6
756.017	12176.71
756.355	12360.89
756.693	12464.62
757.031	12586.65
757.368	12790.71
757.706	12849.01
758.044	12938.5
758.381	13090.81
758.719	13234.54
759.056	13390.69
759.394	13491.71
759.731	13606.28
760.068	13808.54
760.405	13865.71
760.743	13974.18
761.08	14180.05
