Data from hue_310_FLMS001491_42.txt Node
Date: Mon Feb 06 15:49:44 GMT 2017
User: dcchb
Spectrometer: FLMS00149
Trigger mode: 0
Integration Time (sec): 2.000000E-2
Scans to average: 10
Electric dark correction enabled: true
Nonlinearity correction enabled: false
Boxcar width: 0
XAxis mode: Wavelengths
Number of Pixels in Spectrum: 2048
>>>>>Begin Spectral Data<<<<<
341.393	-19.43
341.776	-19.43
342.16	-19.43
342.543	-37.29
342.927	-69.6
343.31	-87.91
343.693	-63.05
344.077	-65.31
344.46	-56.04
344.843	-61.47
345.226	-52.88
345.61	-23.95
345.993	-23.5
346.376	4.07
346.759	13.33
347.142	34.58
347.525	49.49
347.908	49.72
348.291	63.05
348.674	100.56
349.057	119.32
349.44	127.23
349.823	149.15
350.206	166.78
350.588	179.66
350.971	210.16
351.354	229.37
351.737	230.95
352.119	251.52
352.502	254.91
352.884	272.08
353.267	306.88
353.65	301.01
354.032	309.37
354.414	285.87
354.797	322.03
355.179	322.7
355.562	291.52
355.944	347.56
356.326	343.95
356.709	325.64
357.091	336.49
357.473	343.27
357.855	343.27
358.238	316.38
358.62	348.69
359.002	359.99
359.384	345.53
359.766	319.99
360.148	339.43
360.53	336.26
360.912	339.88
361.294	338.3
361.676	327.68
362.057	325.19
362.439	325.42
362.821	324.06
363.203	361.12
363.584	336.71
363.966	317.28
364.348	332.19
364.729	327
365.111	305.08
365.493	320.9
365.874	323.61
366.256	320.22
366.637	323.16
367.019	329.26
367.4	318.41
367.781	316.83
368.163	296.04
368.544	312.76
368.925	296.94
369.306	313.44
369.688	322.25
370.069	319.31
370.45	308.69
370.831	315.92
371.212	304.4
371.593	304.62
371.974	312.08
372.355	324.74
372.736	308.01
373.117	319.09
373.498	313.89
373.879	304.4
374.26	309.6
374.641	318.18
375.021	323.38
375.402	317.28
375.783	293.1
376.163	320.67
376.544	332.65
376.925	322.7
377.305	329.71
377.686	305.08
378.066	324.74
378.447	329.48
378.827	324.51
379.208	333.32
379.588	334.23
379.968	328.8
380.349	342.59
380.729	345.53
381.109	324.06
381.489	317.28
381.87	317.51
382.25	354.57
382.63	331.06
383.01	339.88
383.39	360.89
383.77	336.49
384.15	349.37
384.53	340.1
384.91	355.47
385.29	352.08
385.67	353.21
386.049	358.18
386.429	355.24
386.809	372.87
387.189	340.56
387.568	360.89
387.948	365.64
388.328	371.97
388.707	362.48
389.087	354.57
389.466	342.59
389.846	368.58
390.225	368.58
390.605	362.93
390.984	360.22
391.363	369.26
391.743	359.54
392.122	365.87
392.501	379.88
392.881	378.52
393.26	372.19
393.639	386.66
394.018	362.25
394.397	377.62
394.776	387.56
395.155	382.36
395.534	372.65
395.913	386.43
396.292	388.01
396.671	390.5
397.05	392.31
397.429	386.43
397.808	402.93
398.186	396.83
398.565	378.52
398.944	402.02
399.323	409.93
399.701	381.91
400.08	405.87
400.458	415.81
400.837	394.57
401.215	430.95
401.594	422.81
401.972	437.73
402.351	420.1
402.729	410.61
403.107	395.7
403.486	428.46
403.864	436.37
404.242	429.37
404.62	433.43
404.999	442.47
405.377	442.25
405.755	452.42
406.133	432.53
406.511	436.37
406.889	472.3
407.267	462.59
407.645	454.45
408.023	449.25
408.401	442.02
408.779	457.16
409.156	462.59
409.534	503.04
409.912	484.96
410.29	486.77
410.667	484.28
411.045	509.59
411.422	494.22
411.8	504.85
412.178	514.56
412.555	557.27
412.933	524.05
413.31	537.84
413.687	519.76
414.065	554.34
414.442	555.69
414.819	566.09
415.197	583.26
415.574	578.06
415.951	575.58
416.328	588.69
416.705	602.92
417.082	619.42
417.46	626.42
417.837	621.68
418.214	625.97
418.591	643.15
418.967	649.02
419.344	656.25
419.721	653.09
420.098	667.55
420.475	666.88
420.852	690.6
421.228	687.44
421.605	706.42
421.982	703.48
422.358	710.26
422.735	714.56
423.111	728.12
423.488	720.21
423.864	748
424.241	742.81
424.617	773.54
424.994	770.83
425.37	771.73
425.746	789.13
426.123	766.08
426.499	795.01
426.875	784.39
427.251	817.61
427.627	824.61
428.003	814.22
428.379	849.47
428.756	856.93
429.132	856.7
429.507	882.01
429.883	884.04
430.259	888.56
430.635	898.96
431.011	897.38
431.387	895.34
431.763	926.76
432.138	925.85
432.514	942.8
432.89	958.39
433.265	1002.91
433.641	966.98
434.016	976.7
434.392	1007.88
434.767	1024.15
435.143	1027.77
435.518	1031.61
435.894	1041.33
436.269	1067.77
436.644	1056.24
437.02	1046.3
437.395	1069.12
437.77	1083.14
438.145	1089.91
438.52	1122.23
438.895	1114.1
439.271	1101.89
439.646	1154.55
440.021	1146.64
440.395	1162.68
440.77	1138.73
441.145	1184.83
441.52	1180.08
441.895	1164.72
442.27	1169.23
442.645	1215.11
443.019	1195.45
443.394	1201.1
443.769	1196.35
444.143	1196.58
444.518	1240.65
444.892	1223.92
445.267	1226.86
445.641	1238.16
446.016	1218.95
446.39	1234.32
446.764	1265.5
447.139	1239.74
447.513	1243.81
447.887	1256.46
448.262	1248.55
448.636	1279.51
449.01	1293.75
449.384	1243.81
449.758	1265.5
450.132	1319.29
450.506	1296.69
450.88	1312.06
451.254	1281.55
451.628	1322.45
452.002	1313.86
452.376	1306.63
452.75	1348.21
453.123	1352.51
453.497	1369.23
453.871	1351.38
454.244	1380.53
454.618	1394.77
454.992	1404.71
455.365	1382.79
455.739	1407.65
456.112	1446.97
456.486	1430.92
456.859	1460.98
457.232	1456.68
457.606	1448.55
457.979	1458.72
458.352	1483.8
458.725	1484.93
459.099	1483.58
459.472	1523.12
459.845	1545.04
460.218	1538.26
460.591	1561.99
460.964	1537.81
461.337	1543.46
461.71	1577.81
462.083	1600.18
462.456	1564.48
462.829	1626.62
463.201	1660.75
463.574	1638.15
463.947	1629.34
464.32	1661.88
464.692	1670.92
465.065	1669.33
465.438	1690.35
465.81	1715.89
466.183	1740.29
466.555	1765.6
466.928	1731.03
467.3	1760.63
467.672	1758.82
468.045	1820.29
468.417	1804.47
468.789	1808.99
469.161	1813.96
469.534	1844.47
469.906	1875.88
470.278	1877.69
470.65	1884.7
471.022	1924.24
471.394	1937.8
471.766	1980.74
472.138	1964.47
472.51	2011.7
472.882	2030.23
473.253	2036.56
473.625	2015.99
473.997	2066.39
474.369	2054.86
474.74	2102.54
475.112	2125.14
475.484	2134.41
475.855	2177.34
476.227	2193.84
476.598	2208.98
476.97	2221.64
477.341	2268.19
477.713	2307.28
478.084	2304.8
478.455	2339.6
478.827	2331.46
479.198	2364.01
479.569	2388.41
479.94	2465.02
480.311	2441.74
480.682	2498.01
481.053	2521.97
481.424	2550.44
481.795	2587.95
482.166	2600.84
482.537	2613.26
482.908	2682.42
483.279	2665.92
483.65	2726.48
484.021	2747.5
484.391	2784.79
484.762	2778.46
485.133	2810.55
485.503	2827.95
485.874	2876.31
486.244	2865.69
486.615	2875.18
486.985	2911.56
487.356	2974.16
487.726	2998.57
488.097	3025.46
488.467	3022.52
488.837	3090.54
489.207	3085.79
489.578	3157.88
489.948	3160.37
490.318	3207.6
490.688	3193.36
491.058	3259.8
491.428	3288.28
491.798	3285.34
492.168	3353.81
492.538	3335.28
492.908	3332.57
493.278	3402.4
493.648	3436.29
494.017	3427.25
494.387	3475.84
494.757	3493.69
495.126	3530.53
495.496	3516.52
495.866	3513.81
496.235	3587.02
496.605	3582.96
496.974	3583.18
497.344	3583.18
497.713	3649.62
498.082	3638.77
498.452	3674.03
498.821	3692.11
499.19	3695.04
499.559	3713.8
499.928	3726.91
500.298	3738.88
500.667	3800.8
501.036	3764.42
501.405	3764.87
501.774	3763.06
502.143	3826.34
502.512	3786.12
502.88	3863.18
503.249	3856.17
503.618	3863.63
503.987	3880.58
504.356	3931.42
504.724	3919.22
505.093	3927.13
505.462	3942.95
505.83	3924.87
506.199	3972.1
506.567	4007.35
506.936	3989.27
507.304	4025.2
507.672	4067.46
508.041	4067.01
508.409	4057.97
508.777	4059.55
509.145	4095.49
509.514	4098.88
509.882	4059.55
510.25	4111.3
510.618	4149.27
510.986	4162.6
511.354	4151.98
511.722	4153.56
512.09	4169.83
512.458	4210.96
512.826	4219.78
513.193	4237.4
513.561	4240.34
513.929	4267.91
514.297	4290.51
514.664	4324.86
515.032	4258.87
515.4	4328.47
515.767	4320.56
516.135	4311.07
516.502	4299.55
516.869	4319.89
517.237	4381.13
517.604	4346.1
517.972	4356.27
518.339	4381.13
518.706	4384.97
519.073	4401.47
519.44	4420
519.808	4463.61
520.175	4424.52
520.542	4476.27
520.909	4463.16
521.276	4462.71
521.643	4469.26
522.009	4530.95
522.376	4530.5
522.743	4564.63
523.11	4573.21
523.477	4615.25
523.843	4629.03
524.21	4629.93
524.577	4679.88
524.943	4665.64
525.31	4661.35
525.676	4737.28
526.043	4765.98
526.409	4783.83
526.776	4816.37
527.142	4787.44
527.508	4770.27
527.874	4866.54
528.241	4899.08
528.607	4857.73
528.973	4904.96
529.339	4927.33
529.705	4941.79
530.071	5008.91
530.437	4973.65
530.803	5045.97
531.169	5094.1
531.535	5094.56
531.901	5059.3
532.267	5092.3
532.632	5122.8
532.998	5125.97
533.364	5167.32
533.73	5201.45
534.095	5200.09
534.461	5252.07
534.826	5262.46
535.192	5269.01
535.557	5305.4
535.923	5308.56
536.288	5327.09
536.653	5358.05
537.019	5386.75
537.384	5386.53
537.749	5391.27
538.114	5399.41
538.479	5442.12
538.845	5437.6
539.21	5440.76
539.575	5516.24
539.94	5500.87
540.305	5506.52
540.67	5534.77
541.034	5531.15
541.399	5630.36
541.764	5694.99
542.129	5680.53
542.494	5642.34
542.858	5729.79
543.223	5698.83
543.587	5709.45
543.952	5756.91
544.316	5730.02
544.681	5775.22
545.045	5835.1
545.41	5863.8
545.774	5866.51
546.138	5892.05
546.503	5917.81
546.867	5963.23
547.231	5992.16
547.595	6014.08
547.959	6038.03
548.324	6024.7
548.688	6055.66
549.052	6082.33
549.416	6067.86
549.779	6038.26
550.143	6138.14
550.507	6158.48
550.871	6180.85
551.235	6156.22
551.599	6266.95
551.962	6240.51
552.326	6234.19
552.689	6307.18
553.053	6323.68
553.417	6266.28
553.78	6383.79
554.143	6335.88
554.507	6378.59
554.87	6374.75
555.234	6459.04
555.597	6416.33
555.96	6403
556.323	6459.27
556.686	6419.04
557.05	6469.21
557.413	6498.81
557.776	6522.31
558.139	6551.69
558.502	6539.94
558.865	6560.73
559.228	6628.3
559.59	6588.53
559.953	6659.94
560.316	6675.98
560.679	6669.88
561.041	6778.35
561.404	6685.25
561.767	6804.79
562.129	6730.9
562.492	6772.25
562.854	6809.54
563.217	6750.11
563.579	6876.66
563.941	6914.17
564.304	6950.78
564.666	6927.5
565.028	6932.7
565.39	6939.93
565.753	6975.64
566.115	6994.17
566.477	7036.43
566.839	7074.84
567.201	7088.63
567.563	7069.64
567.925	7127.95
568.287	7142.41
568.648	7216.76
569.01	7212.69
569.372	7253.14
569.734	7218.34
570.095	7342.41
570.457	7346.25
570.819	7400.94
571.18	7367.04
571.542	7428.73
571.903	7443.42
572.265	7447.71
572.626	7536.98
572.987	7579.24
573.349	7663.75
573.71	7682.06
574.071	7771.32
574.432	7774.71
574.794	7807.25
575.155	7860.36
575.516	7890.41
575.877	7997.98
576.238	8050.64
576.599	8126.34
576.96	8171.54
577.32	8254.47
577.681	8319.33
578.042	8374.7
578.403	8458.76
578.763	8570.85
579.124	8738.75
579.485	8752.31
579.845	8918.41
580.206	8967
580.566	9045.64
580.927	9172.19
581.287	9337.38
581.648	9433.65
582.008	9528.56
582.368	9742.12
582.728	9838.61
583.089	10030.7
583.449	10202.44
583.809	10267.53
584.169	10513.85
584.529	10654.86
584.889	10964.91
585.249	11093.72
585.609	11234.28
585.969	11510.66
586.329	11690.77
586.688	11888.5
587.048	12096.86
587.408	12293.01
587.768	12561.7
588.127	12788.14
588.487	12987.91
588.846	13364.17
589.206	13402.59
589.565	13669.7
589.925	14098.16
590.284	14280.75
590.643	14551.71
591.003	14794.87
591.362	15152.14
591.721	15397.34
592.08	15588.06
592.44	15984.89
592.799	16203.19
593.158	16471.21
593.517	16912.78
593.876	17097.4
594.235	17351.63
594.593	17636.15
594.952	17910.26
595.311	18128.34
595.67	18555.44
596.029	19015.09
596.387	19173.73
596.746	19498.7
597.104	19699.37
597.463	20029.3
597.822	20392.91
598.18	20490.99
598.538	20867.25
598.897	21248.71
599.255	21390.4
599.613	21921.46
599.972	22086.42
600.33	22388.56
600.688	22621.55
601.046	22965.05
601.404	23377.69
601.762	23549.66
602.12	23902.42
602.478	24163.43
602.836	24468.96
603.194	24520.49
603.552	24878.67
603.91	25004.54
604.268	25369.5
604.625	25577.86
604.983	25836.38
605.341	26092.65
605.698	26309.82
606.056	26658.28
606.413	26779.18
606.771	27184.37
607.128	27506.4
607.485	27507.07
607.843	27695.09
608.2	28120.39
608.557	28361.97
608.914	28437.44
609.272	28863.87
609.629	29012.57
609.986	29446.23
610.343	29396.29
610.7	29723.29
611.057	29883.96
611.414	30087.34
611.771	30293.21
612.127	30575.02
612.484	30710.38
612.841	30938.4
613.198	31007.32
613.554	31178.39
613.911	31448.21
614.267	31626.06
614.624	31711.93
614.98	31918.71
615.337	32173.17
615.693	32349.66
616.05	32412.71
616.406	32701.06
616.762	32734.05
617.118	32922.3
617.475	33044.55
617.831	33328.62
618.187	33373.81
618.543	33571.09
618.899	33884.31
619.255	33855.61
619.611	33827.59
619.967	34108.71
620.323	34362.03
620.678	34284.75
621.034	34297.86
621.39	34407.68
621.746	34471.18
622.101	34994.11
622.457	34706.43
622.812	34945.3
623.168	34901.68
623.523	35079.53
623.879	35457.82
624.234	35213.76
624.589	35436.81
624.945	35557.48
625.3	35703.24
625.655	35616.69
626.01	35785.5
626.365	35933.29
626.72	35847.19
627.075	35917.47
627.43	35992.73
627.785	35943.46
628.14	36171.7
628.495	36209.67
628.85	36314.98
629.205	36174.19
629.559	36462.77
629.914	36239.95
630.269	36397.91
630.623	36362.21
630.978	36447.4
631.332	36532.37
631.687	36696.21
632.041	36409.44
632.396	36653.95
632.75	36514.29
633.104	36731.01
633.459	36614.86
633.813	36598.81
634.167	36542.54
634.521	36664.57
634.875	36646.04
635.229	36740.28
635.583	36479.72
635.937	36560.39
636.291	36645.14
636.645	36655.99
636.999	36653.95
637.352	36830.9
637.706	36513.62
638.06	36795.19
638.413	36729.43
638.767	36673.61
639.121	36715.42
639.474	36430
639.828	36610.79
640.181	36580.96
640.534	36666.61
640.888	36683.78
641.241	36478.59
641.594	36401.08
641.947	36659.15
642.301	36569.66
642.654	36619.6
643.007	36678.36
643.36	36630.68
643.713	36530.56
644.066	36486.27
644.419	36496.89
644.771	36148.43
645.124	35953.63
645.477	35827.53
645.83	35763.58
646.182	35469.35
646.535	35435.23
646.888	35490.14
647.24	35357.26
647.593	35562.23
647.945	35557.03
648.298	35380.76
648.65	35378.5
649.002	35268.23
649.355	35399.3
649.707	35331.05
650.059	35536.69
650.411	35853.52
650.763	35999.51
651.115	36294.41
651.467	36284.02
651.819	36242.89
652.171	36135.77
652.523	36269.33
652.875	36176.22
653.227	36120.41
653.578	36347.07
653.93	36165.83
654.282	35962.22
654.633	36008.77
654.985	36107.75
655.337	36111.82
655.688	35958.6
656.039	36161.99
656.391	35924.48
656.742	35936.46
657.094	36044.48
657.445	36141.65
657.796	36048.54
658.147	36020.97
658.498	35925.16
658.849	35908.66
659.2	35969.22
659.551	35831.83
659.902	36018.26
660.253	35889.23
660.604	35934.87
660.955	35691.04
661.306	35855.55
661.656	35863.24
662.007	35791.83
662.358	35875.67
662.708	35929.9
663.059	35780.98
663.409	35611.49
663.76	35912.95
664.11	35891.03
664.461	35925.16
664.811	35717.25
665.161	35832.28
665.511	35802.22
665.862	35792.28
666.212	35879.96
666.562	35960.64
666.912	35853.07
667.262	35853.52
667.612	35806.97
667.962	35825.27
668.312	35781.88
668.662	35916.12
669.011	35757.25
669.361	35734.65
669.711	35761.09
670.06	35630.25
670.41	35614.88
670.76	35667.08
671.109	35738.72
671.459	35718.83
671.808	35745.05
672.157	35724.48
672.507	35444.72
672.856	35682.9
673.205	35472.74
673.554	35580.31
673.904	35527.2
674.253	35719.29
674.602	35536.69
674.951	35039.08
675.3	34906.43
675.649	35454.89
675.998	35356.81
676.346	35507.77
676.695	35581.89
677.044	35397.04
677.393	35453.76
677.741	35457.82
678.09	35317.72
678.438	35324.04
678.787	35423.93
679.135	35376.47
679.484	35186.42
679.832	35265.51
680.181	35217.61
680.529	35110.94
680.877	35243.14
681.225	34957.5
681.573	35219.41
681.922	34911.62
682.27	34975.8
682.618	34930.38
682.966	34789.59
683.314	35018.51
683.661	34811.51
684.009	34564.97
684.357	34508.25
684.705	34539.43
685.053	34443.84
685.4	34457.85
685.748	34255.37
686.095	34355.93
686.443	34358.64
686.79	34231.19
687.138	34352.09
687.485	34291.53
687.832	34160.01
688.18	34082.95
688.527	34019.44
688.874	33874.82
689.221	33930.63
689.568	33765.44
689.915	33648.83
690.262	33733.35
690.609	33652.22
690.956	33538.1
691.303	33538.33
691.65	33330.42
691.997	33360.25
692.344	33163.65
692.69	33136.98
693.037	33157.09
693.383	32868.29
693.73	33095.63
694.077	32819.48
694.423	32889.98
694.769	32685.69
695.116	32649.54
695.462	32590.33
695.808	32475.98
696.155	32624.9
696.501	32297.23
696.847	32296.78
697.193	32149.89
697.539	32254.75
697.885	31984.24
698.231	31971.59
698.577	31953.74
698.923	31802.1
699.269	31781.54
699.614	31607.3
699.96	31451.15
700.306	31653.18
700.651	31442.34
700.997	31363.7
701.342	31303.13
701.688	31205.73
702.033	31254.55
702.379	31129.35
702.724	31082.35
703.069	31057.94
703.415	30677.39
703.76	30691.17
704.105	30730.49
704.45	30518.97
704.795	30463.61
705.14	30326.66
705.485	30289.37
705.83	30299.77
706.175	30230.39
706.52	30290.5
706.865	30076.95
707.209	29972.55
707.554	29884.86
707.899	29950.62
708.243	29613.46
708.588	29826.11
708.932	29607.36
709.277	29584.31
709.621	29644.42
709.966	29479.9
710.31	29439
710.654	29241.49
710.998	29285.33
711.342	29287.82
711.687	29255.73
712.031	29022.51
712.375	28969.63
712.719	29183.87
713.063	29074.26
713.407	29046.02
713.75	28942.74
714.094	29034.26
714.438	28752.46
714.782	28867.04
715.125	28659.59
715.469	28658.68
715.812	28462.98
716.156	28422.98
716.499	28426.82
716.843	28432.7
717.186	28301.85
717.53	28384.11
717.873	28396.99
718.216	28305.7
718.559	28232.93
718.902	27984.35
719.246	28090.56
719.589	27935.08
719.932	27882.43
720.275	27846.73
720.617	27883.56
720.96	27874.75
721.303	27745.26
721.646	27792.72
721.989	27620.52
722.331	27685.15
722.674	27674.53
723.016	27721.31
723.359	27472.5
723.701	27441.09
724.044	27376.23
724.386	27295.33
724.729	27409.67
725.071	27284.25
725.413	27377.59
725.755	27199.74
726.097	27190.25
726.439	26962.68
726.782	26994.77
727.124	27095.56
727.465	26911.38
727.807	26929.01
728.149	26887.2
728.491	26925.62
728.833	26899.63
729.175	26706.87
729.516	26678.62
729.858	26583.48
730.199	26756.81
730.541	26625.51
730.882	26534.9
731.224	26633.88
731.565	26490.15
731.906	26489.02
732.248	26381.23
732.589	26383.04
732.93	26212.42
733.271	26199.09
733.612	26286.99
733.953	26281.57
734.294	26080.22
734.635	26045.42
734.976	26221.23
735.317	26006.1
735.658	26019.43
735.999	25950.05
736.339	25939.88
736.68	26041.58
737.021	25955.93
737.361	25733.56
737.702	26030.5
738.042	25897.62
738.383	25756.61
738.723	25783.05
739.063	25685.65
739.404	25722.26
739.744	25569.72
740.084	25582.38
740.424	25584.64
740.764	25578.31
741.104	25610.17
741.444	25341.03
741.784	25320.69
742.124	25405.89
742.464	25339.9
742.804	25263.29
743.143	25140.58
743.483	25258.77
743.823	25173.58
744.162	25141.71
744.502	25145.78
744.841	24978.33
745.181	25172.22
745.52	24940.14
745.86	25052.67
746.199	25022.62
746.538	24973.13
746.877	25022.84
747.216	24923.86
747.556	24878.44
747.895	24802.51
748.234	24708.28
748.573	24747.37
748.911	24607.49
749.25	24611.56
749.589	24430.77
749.928	24537.66
750.267	24489.07
750.605	24435.74
750.944	24379.02
751.283	24358.23
751.621	24360.94
751.96	24255.41
752.298	24181.74
752.636	24241.62
752.975	24111.23
753.313	24025.58
753.651	24175.86
753.989	23940.84
754.327	23970.22
754.666	23697
755.004	23835.76
755.342	23777.45
755.679	23686.38
756.017	23586.05
756.355	23702.43
756.693	23478.93
757.031	23535.65
757.368	23368.43
757.706	23388.99
758.044	23402.55
758.381	23359.61
758.719	23270.8
759.056	23265.38
759.394	23154.65
