Data from hue_260_FLMS001491_00022.txt Node
Date: Tue Feb 07 15:58:46 GMT 2017
User: dcchb
Spectrometer: FLMS00149
Trigger mode: 0
Integration Time (sec): 2.000000E-2
Scans to average: 10
Electric dark correction enabled: true
Nonlinearity correction enabled: false
Boxcar width: 0
XAxis mode: Wavelengths
Number of Pixels in Spectrum: 2048
>>>>>Begin Spectral Data<<<<<
341.393	2.33
341.776	2.33
342.16	2.33
342.543	-55.52
342.927	-66.82
343.31	-62.75
343.693	-47.16
344.077	-64.56
344.46	-60.94
344.843	-64.11
345.226	-35.41
345.61	-40.83
345.993	4.14
346.376	-5.35
346.759	-4.45
347.142	20.18
347.525	26.51
347.908	62.89
348.291	78.03
348.674	94.08
349.057	99.73
349.44	113.06
349.823	128.43
350.206	158.26
350.588	179.05
350.971	192.38
351.354	198.71
351.737	216.34
352.119	261.76
352.502	248.88
352.884	275.09
353.267	260.85
353.65	288.88
354.032	289.78
354.414	307.18
354.797	306.96
355.179	313.28
355.562	320.51
355.944	327.75
356.326	337.91
356.709	312.6
357.091	330.91
357.473	327.75
357.855	333.62
358.238	334.3
358.62	321.87
359.002	327.07
359.384	326.39
359.766	310.12
360.148	335.43
360.53	320.97
360.912	319.84
361.294	323.45
361.676	310.8
362.057	319.61
362.439	341.3
362.821	312.38
363.203	308.99
363.584	314.86
363.966	324.13
364.348	306.28
364.729	327.75
365.111	333.17
365.493	308.09
365.874	329.55
366.256	297.46
366.637	323.68
367.019	308.99
367.4	308.76
367.781	290.23
368.163	343.79
368.544	310.12
368.925	298.14
369.306	306.96
369.688	302.44
370.069	287.97
370.45	309.67
370.831	303.34
371.212	318.71
371.593	319.61
371.974	305.6
372.355	317.12
372.736	304.02
373.117	319.16
373.498	308.99
373.879	313.51
374.26	333.4
374.641	318.03
375.021	309.67
375.402	320.06
375.783	312.6
376.163	308.54
376.544	326.62
376.925	343.34
377.305	315.99
377.686	314.19
378.066	317.58
378.447	316.45
378.827	327.52
379.208	324.36
379.588	318.03
379.968	329.33
380.349	313.06
380.729	299.27
381.109	338.59
381.489	333.85
381.87	321.64
382.25	345.6
382.63	336.33
383.01	330.23
383.39	335.43
383.77	325.94
384.15	336.11
384.53	358.48
384.91	339.04
385.29	350.57
385.67	354.86
386.049	335.88
386.429	313.96
386.809	351.47
387.189	351.7
387.568	334.75
387.948	334.07
388.328	369.1
388.707	339.27
389.087	375.65
389.466	352.6
389.846	360.97
390.225	358.93
390.605	343.56
390.984	358.48
391.363	383.56
391.743	372.04
392.122	373.17
392.501	358.71
392.881	391.25
393.26	384.02
393.639	379.04
394.018	385.37
394.397	367.74
394.776	385.82
395.155	381.53
395.534	386.28
395.913	361.87
396.292	388.76
396.671	397.8
397.05	399.38
397.429	383.56
397.808	400.51
398.186	405.71
398.565	401.64
398.944	411.59
399.323	406.39
399.701	415.43
400.08	407.97
400.458	434.86
400.837	425.6
401.215	413.62
401.594	396.67
401.972	428.31
402.351	419.27
402.729	417.01
403.107	421.98
403.486	446.61
403.864	432.38
404.242	450.91
404.62	457.69
404.999	435.77
405.377	457.69
405.755	482.77
406.133	461.3
406.511	449.1
406.889	466.73
407.267	460.17
407.645	457.01
408.023	497.68
408.401	477.12
408.779	505.59
409.156	500.85
409.534	500.4
409.912	513.05
410.29	517.8
410.667	504.01
411.045	544.92
411.422	545.82
411.8	538.36
412.178	540.4
412.555	548.08
412.933	569.1
413.31	567.29
413.687	560.28
414.065	580.39
414.442	575.42
414.819	589.21
415.197	608.42
415.574	600.73
415.951	617.46
416.328	614.74
416.705	632.82
417.082	636.89
417.46	650.67
417.837	643.67
418.214	671.24
418.591	663.56
418.967	666.95
419.344	673.95
419.721	675.99
420.098	686.83
420.475	721.18
420.852	689.54
421.228	714.4
421.605	725.48
421.982	736.1
422.358	749.2
422.735	760.5
423.111	744.68
423.488	792.59
423.864	791.24
424.241	787.85
424.617	806.6
424.994	827.85
425.37	829.65
425.746	815.87
426.123	835.98
426.499	852.25
426.875	859.26
427.251	896.32
427.627	893.38
428.003	911.23
428.379	928.63
428.756	930.22
429.132	939.48
429.507	935.41
429.883	951.46
430.259	965.69
430.635	993.26
431.011	984.45
431.387	1021.29
431.763	1031.23
432.138	1022.19
432.514	1040.04
432.89	1043.88
433.265	1072.36
433.641	1088.4
434.016	1122.75
434.392	1126.59
434.767	1147.39
435.143	1146.93
435.518	1157.55
435.894	1179.02
436.269	1223.77
436.644	1240.72
437.02	1248.4
437.395	1279.58
437.77	1263.54
438.145	1298.79
438.52	1296.99
438.895	1312.35
439.271	1362.97
439.646	1391.45
440.021	1390.09
440.395	1417.43
440.77	1417.43
441.145	1438
441.52	1414.04
441.895	1426.7
442.27	1473.48
442.645	1462.41
443.019	1495.62
443.394	1495.17
443.769	1534.04
444.143	1504.89
444.518	1507.15
444.892	1536.08
445.267	1572.91
445.641	1581.95
446.016	1605
446.39	1609.97
446.764	1596.86
447.139	1602.51
447.513	1611.1
447.887	1639.58
448.262	1628.73
448.636	1630.31
449.01	1679.12
449.384	1685.22
449.758	1694.94
450.132	1711.66
450.506	1712.57
450.88	1701.04
451.254	1760.48
451.628	1769.74
452.002	1751.89
452.376	1753.24
452.75	1813.81
453.123	1835.05
453.497	1805.22
453.871	1895.16
454.244	1866.24
454.618	1913.92
454.992	1926.57
455.365	1912.34
455.739	1974.71
456.112	1998.21
456.486	1988.94
456.859	2013.13
457.232	2012.67
457.606	2050.86
457.979	2079.34
458.352	2119.56
458.725	2093.57
459.099	2147.36
459.472	2181.48
459.845	2174.48
460.218	2191.65
460.591	2245.66
460.964	2257.19
461.337	2256.06
461.71	2327.02
462.083	2322.5
462.456	2351.87
462.829	2376.96
463.201	2401.36
463.574	2392.55
463.947	2397.75
464.32	2500.8
464.692	2503.51
465.065	2521.81
465.438	2530.85
465.81	2571.53
466.183	2602.94
466.555	2649.04
466.928	2670.73
467.3	2637.29
467.672	2704.41
468.045	2765.42
468.417	2784.86
468.789	2777.17
469.161	2793.44
469.534	2852.42
469.906	2898.3
470.278	2912.54
470.65	2948.92
471.022	2993.44
471.394	3054
471.766	3063.27
472.138	3094.45
472.51	3152.76
472.882	3187.33
473.253	3209.03
473.625	3252.41
473.997	3300.77
474.369	3312.07
474.74	3387.1
475.112	3413.77
475.484	3504.84
475.855	3494.22
476.227	3567.89
476.598	3603.14
476.97	3635.91
477.341	3708.22
477.713	3788.9
478.084	3786.41
478.455	3870.25
478.827	3857.14
479.198	4012.17
479.569	4006.52
479.94	4118.61
480.311	4098.95
480.682	4212.39
481.053	4263.91
481.424	4321.76
481.795	4379.16
482.166	4382.55
482.537	4493.74
482.908	4499.16
483.279	4575.09
483.65	4657.12
484.021	4731.92
484.391	4830
484.762	4795.42
485.133	4867.74
485.503	4927.85
485.874	5010.79
486.244	5017.57
486.615	5100.05
486.985	5112.03
487.356	5265.47
487.726	5227.5
488.097	5378.46
488.467	5349.76
488.837	5479.25
489.207	5519.93
489.578	5579.36
489.948	5629.98
490.318	5646.93
490.688	5627.49
491.058	5782.52
491.428	5806.25
491.798	5853.02
492.168	5980.7
492.538	5940.48
492.908	6017.31
493.278	6119.23
493.648	6102.96
494.017	6188.83
494.387	6235.39
494.757	6246.91
495.126	6276.74
495.496	6338.44
495.866	6377.08
496.235	6415.72
496.605	6441.03
496.974	6526.23
497.344	6536.17
497.713	6542.95
498.082	6601.03
498.452	6655.49
498.821	6685.54
499.19	6673.34
499.559	6713.11
499.928	6773.45
500.298	6831.98
500.667	6884.18
501.036	6840.57
501.405	6858.65
501.774	6864.97
502.143	6962.6
502.512	6966.44
502.88	7022.71
503.249	7041.24
503.618	7032.43
503.987	7033.78
504.356	7118.53
504.724	7052.77
505.093	7082.14
505.462	7095.48
505.83	7135.7
506.199	7175.02
506.567	7285.98
506.936	7294.34
507.304	7375.47
507.672	7322.36
508.041	7325.53
508.409	7443.26
508.777	7463.38
509.145	7540.66
509.514	7447.33
509.882	7554.22
510.25	7515.58
510.618	7542.47
510.986	7504.28
511.354	7601.45
511.722	7634.45
512.09	7658.63
512.458	7614.56
512.826	7723.94
513.193	7662.92
513.561	7684.16
513.929	7819.07
514.297	7786.53
514.664	7733.2
515.032	7798.96
515.4	7838.06
515.767	7886.87
516.135	7879.86
516.502	7824.72
516.869	7861.33
517.237	7917.83
517.604	7851.84
517.972	7922.8
518.339	8026.07
518.706	7946.98
519.073	7909.47
519.44	7980.65
519.808	7990.82
520.175	8059.07
520.542	8037.6
520.909	8087.32
521.276	8057.71
521.643	8097.71
522.009	8136.35
522.376	8259.29
522.743	8166.64
523.11	8234.43
523.477	8282.56
523.843	8254.54
524.21	8368.44
524.577	8355.56
524.943	8351.04
525.31	8393.75
525.676	8398.27
526.043	8431.71
526.409	8456.35
526.776	8435.56
527.142	8462.22
527.508	8511.49
527.874	8468.32
528.241	8547.42
528.607	8555.55
528.973	8602.78
529.339	8552.84
529.705	8610.24
530.071	8601.43
530.437	8608.43
530.803	8668.32
531.169	8664.02
531.535	8644.36
531.901	8647.07
532.267	8642.1
532.632	8655.21
532.998	8691.37
533.364	8656.34
533.73	8645.27
534.095	8720.75
534.461	8779.95
534.826	8750.57
535.192	8699.5
535.557	8761.2
535.923	8670.13
536.288	8726.17
536.653	8765.04
537.019	8671.03
537.384	8723.68
537.749	8713.29
538.114	8662.67
538.479	8747.19
538.845	8683.68
539.21	8677.36
539.575	8727.52
539.94	8672.61
540.305	8680.97
540.67	8655.89
541.034	8709.67
541.399	8657.47
541.764	8720.52
542.129	8626.96
542.494	8679.16
542.858	8677.58
543.223	8698.82
543.587	8696.34
543.952	8629.22
544.316	8681.2
544.681	8624.02
545.045	8619.28
545.41	8668.32
545.774	8666.96
546.138	8642.1
546.503	8631.93
546.867	8590.58
547.231	8671.03
547.595	8629.9
547.959	8577.47
548.324	8633.74
548.688	8614.08
549.052	8627.87
549.416	8577.25
549.779	8567.3
550.143	8572.73
550.507	8633.74
550.871	8550.58
551.235	8573.18
551.599	8635.1
551.962	8614.76
552.326	8588.55
552.689	8556
553.053	8513.07
553.417	8530.02
553.78	8636.45
554.143	8547.19
554.507	8581.99
554.87	8567.75
555.234	8574.08
555.597	8558.49
555.96	8558.26
556.323	8562.56
556.686	8567.3
557.05	8580.64
557.413	8550.13
557.776	8536.34
558.139	8647.3
558.502	8604.36
558.865	8597.58
559.228	8616.12
559.59	8647.3
559.953	8714.64
560.316	8730.91
560.679	8702.89
561.041	8753.06
561.404	8758.26
561.767	8719.62
562.129	8731.14
562.492	8802.78
562.854	8765.26
563.217	8821.53
563.579	8868.31
563.941	8819.05
564.304	8920.51
564.666	8908.31
565.028	8861.31
565.39	8884.81
565.753	8922.32
566.115	8879.39
566.477	8920.74
566.839	8990.57
567.201	9007.52
567.563	8918.93
567.925	9045.03
568.287	9036.44
568.648	9110.57
569.01	9111.02
569.372	9170
569.734	9145.82
570.095	9223.78
570.457	9288.41
570.819	9200.96
571.18	9225.82
571.542	9237.12
571.903	9219.94
572.265	9276.44
572.626	9284.35
572.987	9284.35
573.349	9297.23
573.71	9366.83
574.071	9398.92
574.432	9409.54
574.794	9408.41
575.155	9451.12
575.516	9428.3
575.877	9465.13
576.238	9494.28
576.599	9512.36
576.96	9543.1
577.32	9496.77
577.681	9588.29
578.042	9590.78
578.403	9569.31
578.763	9638.01
579.124	9626.94
579.485	9673.94
579.845	9669.65
580.206	9711.23
580.566	9761.17
580.927	9736.31
581.287	9758.68
581.648	9805.46
582.008	9862.86
582.368	9868.74
582.728	9856.31
583.089	9803.2
583.449	9877.78
583.809	9937.89
584.169	9930.2
584.529	9889.75
584.889	9965.46
585.249	9899.47
585.609	9903.77
585.969	10064.44
586.329	9991.22
586.688	9996.42
587.048	10021.73
587.408	10048.62
587.768	10040.26
588.127	10036.87
588.487	10027.6
588.846	10174.72
589.206	10092.23
589.565	10057.43
589.925	10186.7
590.284	10199.12
590.643	10205.45
591.003	10148.73
591.362	10193.93
591.721	10270.08
592.08	10275.73
592.44	10248.39
592.799	10266.69
593.158	10303.75
593.517	10333.13
593.876	10325.45
594.235	10282.96
594.593	10314.15
594.952	10351.44
595.311	10299.69
595.67	10386.01
596.029	10440.02
596.387	10398.44
596.746	10487.48
597.104	10362.28
597.463	10361.61
597.822	10395.28
598.18	10393.02
598.538	10379.01
598.897	10410.87
599.255	10351.89
599.613	10532.9
599.972	10452.45
600.33	10482.96
600.688	10429.63
601.046	10428.95
601.404	10475.73
601.762	10465.11
602.12	10562.73
602.478	10648.6
602.836	10515.05
603.194	10521.15
603.552	10550.98
603.91	10498.55
604.268	10556.18
604.625	10546.69
604.983	10615.16
605.341	10506.91
605.698	10621.49
606.056	10607.48
606.413	10628.94
606.771	10626.23
607.128	10672.11
607.485	10608.61
607.843	10635.05
608.2	10710.98
608.557	10725.21
608.914	10658.1
609.272	10724.53
609.629	10684.08
609.986	10761.6
610.343	10712.56
610.7	10756.4
611.057	10753.46
611.414	10762.5
611.771	10754.14
612.127	10798.88
612.484	10844.98
612.841	10811.31
613.198	10788.71
613.554	10749.17
613.911	10883.17
614.267	10889.05
614.624	10875.72
614.98	10815.83
615.337	10940.12
615.693	10854.02
616.05	10862.84
616.406	10959.56
616.762	10925.21
617.118	10888.15
617.475	10912.55
617.831	10901.7
618.187	10936.28
618.543	10960.01
618.899	11010.63
619.255	10996.84
619.611	10925.66
619.967	10958.43
620.323	11096.73
620.678	11034.81
621.034	10991.42
621.39	10938.77
621.746	10900.35
622.101	11049.5
622.457	10997.52
622.812	11015.6
623.168	11031.42
623.523	11022.38
623.879	11100.57
624.234	10913.91
624.589	11002.27
624.945	10988.03
625.3	11037.75
625.655	10946
626.01	11015.83
626.365	11040.91
626.72	10987.13
627.075	10958.2
627.43	10939.22
627.785	10951.65
628.14	10929.73
628.495	10925.89
628.85	10964.53
629.205	10910.97
629.559	10964.3
629.914	10932.21
630.269	10960.46
630.623	10880.01
630.978	10908.94
631.332	10842.05
631.687	10878.65
632.041	10835.72
632.396	10839.56
632.75	10839.79
633.104	10896.28
633.459	10809.28
633.813	10847.69
634.167	10814.48
634.521	10761.14
634.875	10798.43
635.229	10828.94
635.583	10747.81
635.937	10692.44
636.291	10756.4
636.645	10762.73
636.999	10713.46
637.352	10697.87
637.706	10642.05
638.06	10737.87
638.413	10675.5
638.767	10664.2
639.121	10640.47
639.474	10615.16
639.828	10623.75
640.181	10671.88
640.534	10632.79
640.888	10567.25
641.241	10505.78
641.594	10573.8
641.947	10540.58
642.301	10496.52
642.654	10556.86
643.007	10445.67
643.36	10486.12
643.713	10430.98
644.066	10521.83
644.419	10538.32
644.771	10360.02
645.124	10311.21
645.477	10270.31
645.83	10218.33
646.182	10233.93
646.535	10141.95
646.888	10124.55
647.24	10125
647.593	10103.76
647.945	10117.77
648.298	10068.28
648.65	10068.28
649.002	10029.19
649.355	10143.53
649.707	10082.74
650.059	10198.67
650.411	10275.96
650.763	10298.78
651.115	10364.77
651.467	10349.18
651.819	10332.91
652.171	10427.37
652.523	10273.47
652.875	10350.31
653.227	10319.12
653.578	10335.62
653.93	10340.36
654.282	10312.34
654.633	10250.65
654.985	10307.37
655.337	10325.22
655.688	10246.35
656.039	10347.82
656.391	10227.15
656.742	10254.94
657.094	10331.1
657.445	10315.05
657.796	10355.28
658.147	10279.35
658.498	10235.06
658.849	10343.3
659.2	10338.1
659.551	10336.52
659.902	10348.27
660.253	10323.87
660.604	10339.23
660.955	10308.05
661.306	10242.51
661.656	10315.05
662.007	10371.1
662.358	10361.61
662.708	10321.83
663.059	10350.98
663.409	10265.11
663.76	10357.76
664.11	10328.61
664.461	10328.61
664.811	10370.19
665.161	10297.65
665.511	10311.89
665.862	10315.28
666.212	10360.25
666.562	10354.6
666.912	10353.02
667.262	10355.05
667.612	10392.79
667.962	10373.58
668.312	10333.13
668.662	10361.61
669.011	10329.52
669.361	10277.31
669.711	10320.7
670.06	10285.9
670.41	10259.91
670.76	10284.55
671.109	10312.57
671.459	10278.22
671.808	10270.08
672.157	10262.4
672.507	10231.21
672.856	10288.16
673.205	10321.38
673.554	10329.74
673.904	10222.17
674.253	10253.81
674.602	10237.99
674.951	10096.08
675.3	9994.84
675.649	10186.02
675.998	10188.73
676.346	10174.49
676.695	10193.7
677.044	10147.15
677.393	10158.45
677.741	10110.09
678.09	10034.61
678.438	10023.99
678.787	10066.02
679.135	10153.02
679.484	10069.64
679.832	10071.9
680.181	10020.37
680.529	9950.32
680.877	9977.66
681.225	9945.8
681.573	10023.99
681.922	10003.88
682.27	9848.63
682.618	9948.96
682.966	9882.52
683.314	9941.73
683.661	9838.23
684.009	9843.43
684.357	9774.5
684.705	9737.89
685.053	9736.76
685.4	9806.59
685.748	9719.36
686.095	9737.67
686.443	9635.07
686.79	9667.39
687.138	9645.69
687.485	9671.45
687.832	9626.03
688.18	9614.06
688.527	9551.46
688.874	9519.59
689.221	9555.75
689.568	9437.79
689.915	9473.95
690.262	9428.75
690.609	9428.52
690.956	9345.59
691.303	9399.37
691.65	9335.87
691.997	9271.92
692.344	9219.49
692.69	9288.19
693.037	9221.3
693.383	9195.54
693.73	9144.01
694.077	9094.97
694.423	9094.75
694.769	9107.63
695.116	9052.94
695.462	9049.32
695.808	9027.4
696.155	9029.44
696.501	8922.77
696.847	8946.05
697.193	8833.28
697.539	8832.15
697.885	8846.62
698.231	8800.74
698.577	8758.03
698.923	8833.96
699.269	8692.05
699.614	8594.87
699.96	8603.46
700.306	8622.67
700.651	8592.16
700.997	8618.38
701.342	8551.94
701.688	8470.81
702.033	8498.6
702.379	8469.45
702.724	8426.74
703.069	8479.85
703.415	8329.8
703.76	8328.21
704.105	8328.67
704.45	8289.8
704.795	8235.11
705.14	8154.88
705.485	8273.07
705.83	8179.06
706.175	8064.27
706.52	8121.21
706.865	8101.1
707.209	8076.92
707.554	8056.58
707.899	8036.02
708.243	7993.76
708.588	7953.08
708.932	7977.71
709.277	7906.76
709.621	7922.8
709.966	7833.08
710.31	7949.69
710.654	7792.86
710.998	7808.45
711.342	7799.87
711.687	7829.47
712.031	7789.7
712.375	7747.44
712.719	7753.99
713.063	7696.82
713.407	7704.95
713.75	7676.25
714.094	7679.64
714.438	7645.52
714.782	7704.95
715.125	7652.98
715.469	7652.52
715.812	7630.83
716.156	7539.08
716.499	7581.57
716.843	7564.62
717.186	7516.48
717.53	7543.6
717.873	7550.38
718.216	7499.99
718.559	7488.24
718.902	7455.24
719.246	7489.37
719.589	7402.36
719.932	7410.72
720.275	7396.26
720.617	7431.74
720.96	7417.05
721.303	7432.42
721.646	7469.03
721.989	7339.99
722.331	7385.19
722.674	7356.04
723.016	7395.13
723.359	7325.75
723.701	7349.26
724.044	7283.72
724.386	7300.22
724.729	7282.37
725.071	7305.42
725.413	7278.98
725.755	7249.6
726.097	7187.23
726.439	7201.69
726.782	7190.84
727.124	7259.31
727.465	7249.15
727.807	7297.73
728.149	7259.77
728.491	7271.07
728.833	7256.6
729.175	7225.19
729.516	7144.74
729.858	7184.97
730.199	7193.33
730.541	7220.9
730.882	7199.88
731.224	7233.55
731.565	7208.92
731.906	7173.67
732.248	7190.16
732.589	7166.66
732.93	7154.46
733.271	7190.39
733.612	7154.68
733.953	7123.27
734.294	7167.11
734.635	7150.17
734.976	7186.55
735.317	7132.54
735.658	7086.66
735.999	7170.5
736.339	7147.23
736.68	7150.62
737.021	7224.74
737.361	7123.5
737.702	7200.79
738.042	7177.73
738.383	7163.05
738.723	7171.18
739.063	7167.34
739.404	7192.42
739.744	7215.02
740.084	7194.46
740.424	7177.73
740.764	7187.23
741.104	7198.07
741.444	7188.81
741.784	7190.84
742.124	7237.62
742.464	7219.99
742.804	7253.21
743.143	7237.39
743.483	7285.75
743.823	7331.4
744.162	7273.55
744.502	7364.62
744.841	7338.18
745.181	7402.59
745.52	7413.44
745.86	7402.81
746.199	7476.48
746.538	7474.9
746.877	7514.68
747.216	7613.66
747.556	7554.45
747.895	7607.55
748.234	7655.46
748.573	7666.54
748.911	7735.01
749.25	7773.65
749.589	7805.06
749.928	7939.52
750.267	7983.82
750.605	8015.68
750.944	8058.16
751.283	8102.68
751.621	8170.03
751.96	8236.24
752.298	8294.32
752.636	8373.18
752.975	8463.35
753.313	8485.95
753.651	8597.81
753.989	8598.04
754.327	8753.29
754.666	8894.75
755.004	8922.55
755.342	9067.85
755.679	9090.45
756.017	9193.28
756.355	9396.66
756.693	9426.26
757.031	9582.64
757.368	9588.07
757.706	9696.76
758.044	9856.76
758.381	9961.84
758.719	10099.92
759.056	10204.55
759.394	10342.62
759.731	10406.35
760.068	10506.91
760.405	10643.86
760.743	10846.57
761.08	10965.88
761.417	11036.84
761.754	11120.23
762.091	11287.68
762.428	11448.58
762.765	11536.72
763.102	11718.86
763.438	11825.97
763.775	11985.74
