Data from hue_230_FLMS001491_00050.txt Node
Date: Tue Feb 07 16:37:18 GMT 2017
User: dcchb
Spectrometer: FLMS00149
Trigger mode: 0
Integration Time (sec): 2.000000E-2
Scans to average: 10
Electric dark correction enabled: true
Nonlinearity correction enabled: false
Boxcar width: 0
XAxis mode: Wavelengths
Number of Pixels in Spectrum: 2048
>>>>>Begin Spectral Data<<<<<
341.393	-7.32
341.776	-7.32
342.16	-7.32
342.543	-81.89
342.927	-73.98
343.31	-64.72
343.693	-69.46
344.077	-57.26
344.46	-65.17
344.843	-77.6
345.226	-49.12
345.61	-45.96
345.993	-16.81
346.376	3.3
346.759	22.74
347.142	12.8
347.525	39.46
347.908	59.8
348.291	80.37
348.674	100.7
349.057	126.92
349.44	133.47
349.823	152.91
350.206	158.1
350.588	190.64
350.971	193.81
351.354	217.54
351.737	229.06
352.119	237.88
352.502	243.98
352.884	267.93
353.267	271.09
353.65	266.12
354.032	306.12
354.414	311.09
354.797	297.31
355.179	333.92
355.562	333.24
355.944	310.87
356.326	328.49
356.709	362.62
357.091	336.4
357.473	337.76
357.855	316.97
358.238	335.95
358.62	312.68
359.002	343.18
359.384	322.84
359.766	313.35
360.148	329.4
360.53	326.01
360.912	312.45
361.294	338.89
361.676	335.05
362.057	324.43
362.439	314.71
362.821	314.71
363.203	340.25
363.584	295.73
363.966	301.83
364.348	309.51
364.729	307.7
365.111	309.51
365.493	313.81
365.874	313.81
366.256	326.23
366.637	295.5
367.019	287.59
367.4	318.55
367.781	319
368.163	300.7
368.544	305.67
368.925	318.55
369.306	305.9
369.688	306.35
370.069	310.42
370.45	311.09
370.831	301.15
371.212	286.91
371.593	309.96
371.974	292.79
372.355	300.25
372.736	313.13
373.117	302.51
373.498	315.39
373.879	307.48
374.26	314.26
374.641	305.44
375.021	302.96
375.402	318.1
375.783	305.9
376.163	308.61
376.544	318.1
376.925	313.81
377.305	287.37
377.686	310.19
378.066	316.07
378.447	313.58
378.827	326.01
379.208	315.61
379.588	317.2
379.968	311.55
380.349	318.78
380.729	313.81
381.109	335.27
381.489	330.08
381.87	329.17
382.25	339.57
382.63	329.85
383.01	333.01
383.39	363.3
383.77	326.01
384.15	341.6
384.53	335.95
384.91	352.45
385.29	332.79
385.67	337.08
386.049	340.92
386.429	329.85
386.809	341.15
387.189	323.52
387.568	348.38
387.948	341.15
388.328	338.44
388.707	330.75
389.087	330.98
389.466	349.06
389.846	345.67
390.225	347.02
390.605	344.09
390.984	365.78
391.363	365.33
391.743	360.81
392.122	346.35
392.501	350.19
392.881	360.36
393.26	349.06
393.639	387.48
394.018	363.07
394.397	354.48
394.776	355.39
395.155	380.92
395.534	365.78
395.913	366.91
396.292	378.21
396.671	378.66
397.05	375.5
397.429	378.44
397.808	363.07
398.186	367.82
398.565	396.06
398.944	370.53
399.323	400.13
399.701	382.05
400.08	396.74
400.458	391.32
400.837	392.9
401.215	392.67
401.594	424.31
401.972	408.72
402.351	403.07
402.729	404.42
403.107	397.64
403.486	385.67
403.864	407.59
404.242	398.32
404.62	420.7
404.999	421.37
405.377	438.32
405.755	416.4
406.133	425.44
406.511	446.46
406.889	454.14
407.267	447.59
407.645	440.81
408.023	454.59
408.401	446.46
408.779	455.72
409.156	455.04
409.534	468.15
409.912	466.34
410.29	464.08
410.667	492.11
411.045	490.3
411.422	510.86
411.8	516.74
412.178	501.6
412.555	519.9
412.933	532.56
413.31	526.23
413.687	552.44
414.065	539.34
414.442	534.59
414.819	554.48
415.197	561.93
415.574	570.75
415.951	576.4
416.328	547.7
416.705	557.41
417.082	559.45
417.46	595.61
417.837	604.19
418.214	600.35
418.591	614.14
418.967	634.02
419.344	610.52
419.721	610.75
420.098	622.5
420.475	611.88
420.852	648.49
421.228	660.24
421.605	677.19
421.982	680.12
422.358	694.13
422.735	706.11
423.111	697.07
423.488	690.07
423.864	715.83
424.241	728.71
424.617	732.33
424.994	760.8
425.37	754.47
425.746	770.52
426.123	773.45
426.499	793.34
426.875	794.47
427.251	782.27
427.627	831.31
428.003	820.46
428.379	850.74
428.756	848.25
429.132	852.55
429.507	881.93
429.883	867.46
430.259	891.19
430.635	874.92
431.011	902.49
431.387	926.67
431.763	939.1
432.138	928.93
432.514	963.51
432.89	977.29
433.265	972.77
433.641	991.98
434.016	983.62
434.392	992.43
434.767	1015.48
435.143	1055.25
435.518	1071.3
435.894	1100
436.269	1090.28
436.644	1087.12
437.02	1126.89
437.395	1119.89
437.77	1161.01
438.145	1201.47
438.52	1194.23
438.895	1214.12
439.271	1191.07
439.646	1273.78
440.021	1245.98
440.395	1248.92
440.77	1261.58
441.145	1271.07
441.52	1279.43
441.895	1324.17
442.27	1344.06
442.645	1334.8
443.019	1377.96
443.394	1339.32
443.769	1348.35
444.143	1362.59
444.518	1384.96
444.892	1413.21
445.267	1389.03
445.641	1423.38
446.016	1429.71
446.39	1431.74
446.764	1463.61
447.139	1458.63
447.513	1482.36
447.887	1455.7
448.262	1502.47
448.636	1483.72
449.01	1502.7
449.384	1514.68
449.758	1527.33
450.132	1545.86
450.506	1548.58
450.88	1547.22
451.254	1573.66
451.628	1582.92
452.002	1604.39
452.376	1650.49
452.75	1642.81
453.123	1627.22
453.497	1690.49
453.871	1670.83
454.244	1719.87
454.618	1699.53
454.992	1729.59
455.365	1724.16
455.739	1795.12
456.112	1817.49
456.486	1791.51
456.859	1802.81
457.232	1874.67
457.606	1830.38
457.979	1884.39
458.352	1888.91
458.725	1924.84
459.099	1922.58
459.472	1981.11
459.845	1977.72
460.218	2019.07
460.591	2007.55
460.964	2023.14
461.337	2054.32
461.71	2092.29
462.083	2107.88
462.456	2112.85
462.829	2115.57
463.201	2146.3
463.574	2164.15
463.947	2158.73
464.32	2255.9
464.692	2241.66
465.065	2266.97
465.438	2282.12
465.81	2323.92
466.183	2335.45
466.555	2370.7
466.928	2384.49
467.3	2372.96
467.672	2438.27
468.045	2468.55
468.417	2473.3
468.789	2533.86
469.161	2538.38
469.534	2576.57
469.906	2623.8
470.278	2653.63
470.65	2657.25
471.022	2679.84
471.394	2750.13
471.766	2764.81
472.138	2791.48
472.51	2853.4
472.882	2895.43
473.253	2875.55
473.625	2921.42
473.997	2969.78
474.369	3000.74
474.74	3005.03
475.112	3056.56
475.484	3074.64
475.855	3170.68
476.227	3170
476.598	3239.6
476.97	3281.86
477.341	3373.16
477.713	3402.54
478.084	3371.58
478.455	3453.38
478.827	3499.71
479.198	3580.84
479.569	3605.02
479.94	3663.55
480.311	3722.3
480.682	3796.2
481.053	3863.32
481.424	3878.23
481.795	3948.06
482.166	3953.94
482.537	3967.27
482.908	4051.33
483.279	4126.36
483.65	4176.75
484.021	4249.97
484.391	4292.68
484.762	4292.68
485.133	4318.45
485.503	4452.91
485.874	4482.28
486.244	4528.38
486.615	4571.77
486.985	4568.83
487.356	4669.17
487.726	4742.62
488.097	4788.72
488.467	4825.55
488.837	4902.39
489.207	4944.42
489.578	5015.83
489.948	5047.92
490.318	5061.7
490.688	5104.87
491.058	5202.72
491.428	5190.06
491.798	5290.4
492.168	5308.48
492.538	5309.15
492.908	5393.45
493.278	5487.45
493.648	5520.45
494.017	5477.96
494.387	5541.24
494.757	5589.82
495.126	5716.6
495.496	5672.76
495.866	5720.44
496.235	5729.71
496.605	5778.29
496.974	5838.63
497.344	5880.21
497.713	5880.44
498.082	5916.14
498.452	5996.82
498.821	5951.85
499.19	5950.72
499.559	5996.14
499.928	6026.65
500.298	6080.21
500.667	6068.68
501.036	6135.8
501.405	6145.29
501.774	6153.2
502.143	6207.66
502.512	6225.74
502.88	6240.43
503.249	6216.7
503.618	6284.04
503.987	6263.25
504.356	6326.98
504.724	6331.73
505.093	6292.86
505.462	6379.41
505.83	6373.08
506.199	6394.55
506.567	6511.38
506.936	6459.86
507.304	6559.97
507.672	6506.64
508.041	6518.84
508.409	6566.75
508.777	6568.56
509.145	6675.22
509.514	6608.1
509.882	6640.19
510.25	6662.34
510.618	6635.67
510.986	6660.53
511.354	6684.03
511.722	6689
512.09	6735.33
512.458	6771.71
512.826	6868.21
513.193	6782.79
513.561	6775.78
513.929	6825.27
514.297	6819.62
514.664	6876.12
515.032	6822.33
515.4	6895.55
515.767	6878.15
516.135	6908.43
516.502	6868.44
516.869	6996.79
517.237	6934.87
517.604	6908.43
517.972	6972.61
518.339	6986.62
518.706	6989.56
519.073	6999.05
519.44	7018.49
519.808	7038.83
520.175	7001.09
520.542	7026.62
520.909	7120.41
521.276	7041.09
521.643	7095.77
522.009	7064.14
522.376	7115.89
522.743	7106.17
523.11	7148.88
523.477	7121.54
523.843	7115.43
524.21	7175.09
524.577	7261.19
524.943	7255.09
525.31	7252.38
525.676	7253.74
526.043	7335.99
526.409	7310.68
526.776	7334.19
527.142	7316.11
527.508	7239.72
527.874	7324.92
528.241	7361.3
528.607	7294.19
528.973	7326.95
529.339	7289.44
529.705	7382.32
530.071	7404.69
530.437	7401.53
530.803	7413.51
531.169	7387.97
531.535	7345.03
531.901	7349.1
532.267	7399.49
532.632	7338.93
532.998	7371.47
533.364	7334.41
533.73	7397.46
534.095	7390.91
534.461	7381.87
534.826	7403.11
535.192	7363.79
535.557	7402.21
535.923	7342.32
536.288	7343
536.653	7323.34
537.019	7301.64
537.384	7318.59
537.749	7301.87
538.114	7289.67
538.479	7279.27
538.845	7263.45
539.21	7232.72
539.575	7227.3
539.94	7208.54
540.305	7244.7
540.67	7237.47
541.034	7183.68
541.399	7158.6
541.764	7188.65
542.129	7224.13
542.494	7138.26
542.858	7181.42
543.223	7108.88
543.587	7179.84
543.952	7119.95
544.316	7087.19
544.681	7122.21
545.045	7084.02
545.41	7062.33
545.774	7102.33
546.138	7025.04
546.503	7082.67
546.867	6993.18
547.231	7046.06
547.595	7066.85
547.959	6996.12
548.324	7011.93
548.688	6948.66
549.052	6943.01
549.416	6948.66
549.779	6954.31
550.143	6898.49
550.507	6873.86
550.871	6952.05
551.235	6907.3
551.599	6881.09
551.962	6841.32
552.326	6917.25
552.689	6865.5
553.053	6842
553.417	6856.68
553.78	6871.6
554.143	6827.98
554.507	6831.83
554.87	6806.74
555.234	6877.7
555.597	6801.09
555.96	6842.45
556.323	6820.3
556.686	6751.15
557.05	6845.16
557.413	6807.42
557.776	6829.34
558.139	6884.93
558.502	6842.9
558.865	6834.09
559.228	6843.8
559.59	6830.92
559.953	6835.44
560.316	6875.67
560.679	6893.52
561.041	6853.29
561.404	6881.54
561.767	6897.14
562.129	6810.13
562.492	6886.51
562.854	6892.16
563.217	6846.74
563.579	6889.68
563.941	6928.55
564.304	6938.04
564.666	6975.33
565.028	6966.96
565.39	7000.64
565.753	6957.02
566.115	6963.8
566.477	6975.33
566.839	6987.53
567.201	7036.57
567.563	7005.61
567.925	7027.08
568.287	7061.2
568.648	7060.75
569.01	7080.18
569.372	7138.71
569.734	7106.62
570.095	7103.23
570.457	7133.74
570.819	7129.67
571.18	7123.8
571.542	7156.34
571.903	7180.97
572.265	7159.05
572.626	7208.99
572.987	7187.52
573.349	7224.36
573.71	7213.51
574.071	7250.35
574.432	7318.14
574.794	7321.53
575.155	7304.13
575.516	7300.06
575.877	7324.69
576.238	7349.1
576.599	7342.1
576.96	7392.49
577.32	7437.23
577.681	7433.17
578.042	7432.04
578.403	7414.41
578.763	7432.49
579.124	7442.21
579.485	7466.39
579.845	7482.88
580.206	7514.29
580.566	7575.99
580.927	7544.35
581.287	7555.2
581.648	7537.8
582.008	7611.92
582.368	7604.46
582.728	7596.55
583.089	7611.92
583.449	7634.52
583.809	7654.86
584.169	7652.37
584.529	7625.48
584.889	7684.68
585.249	7663.89
585.609	7626.61
585.969	7686.27
586.329	7722.88
586.688	7764.91
587.048	7744.12
587.408	7752.93
587.768	7724.23
588.127	7736.89
588.487	7764.91
588.846	7785.02
589.206	7697.11
589.565	7782.99
589.925	7874.28
590.284	7771.91
590.643	7837
591.003	7929.2
591.362	7886.49
591.721	7854.17
592.08	7903.21
592.44	7908.41
592.799	7864.57
593.158	7931.68
593.517	7938.46
593.876	7941.18
594.235	7898.24
594.593	7863.21
594.952	7833.83
595.311	7895.07
595.67	7921.06
596.029	7982.98
596.387	7942.08
596.746	8006.71
597.104	7903.44
597.463	7932.81
597.822	7986.37
598.18	7927.16
598.538	7971.46
598.897	8038.8
599.255	7945.24
599.613	8077.44
599.972	8011.23
600.33	8013.49
600.688	8011.91
601.046	8020.95
601.404	8112.47
601.762	8051.91
602.12	8122.64
602.478	8101.62
602.836	8060.95
603.194	8048.97
603.552	8089.65
603.91	8008.74
604.268	8084.22
604.625	8026.14
604.983	8109.08
605.341	8077.22
605.698	8080.15
606.056	8095.3
606.413	8147.72
606.771	8218.46
607.128	8144.79
607.485	8153.6
607.843	8150.21
608.2	8092.81
608.557	8155.18
608.914	8122.87
609.272	8215.74
609.629	8169.87
609.986	8206.25
610.343	8179.59
610.7	8236.99
611.057	8284.9
611.414	8208.74
611.771	8262.07
612.127	8334.61
612.484	8330.77
612.841	8344.55
613.198	8264.33
613.554	8268.85
613.911	8276.53
614.267	8269.08
614.624	8345.46
614.98	8298.68
615.337	8357.66
615.693	8374.38
616.05	8342.75
616.406	8357.89
616.762	8309.53
617.118	8376.64
617.475	8357.89
617.831	8390.43
618.187	8355.4
618.543	8400.37
618.899	8477.43
619.255	8404.89
619.611	8441.5
619.967	8439.92
620.323	8420.03
620.678	8468.62
621.034	8460.94
621.39	8450.77
621.746	8403.99
622.101	8449.18
622.457	8416.64
622.812	8423.65
623.168	8472.01
623.523	8484.66
623.879	8465.46
624.234	8418
624.589	8433.37
624.945	8381.62
625.3	8456.64
625.655	8428.62
626.01	8412.8
626.365	8464.78
626.72	8453.7
627.075	8453.25
627.43	8413.25
627.785	8393.82
628.14	8423.87
628.495	8429.98
628.85	8399.02
629.205	8363.99
629.559	8457.55
629.914	8396.98
630.269	8388.17
630.623	8354.27
630.978	8365.12
631.332	8395.85
631.687	8354.27
632.041	8334.39
632.396	8338
632.75	8344.33
633.104	8342.97
633.459	8319.02
633.813	8312.92
634.167	8325.12
634.521	8305.46
634.875	8297.32
635.229	8302.52
635.583	8262.97
635.937	8244.67
636.291	8303.88
636.645	8199.7
636.999	8145.46
637.352	8214.84
637.706	8157.21
638.06	8183.43
638.413	8205.58
638.767	8184.78
639.121	8246.48
639.474	8119.48
639.828	8100.04
640.181	8147.95
640.534	8140.72
640.888	8086.03
641.241	8097.33
641.594	8071.34
641.947	8164.9
642.301	8058.91
642.654	8113.37
643.007	8149.31
643.36	8073.38
643.713	8025.24
644.066	8062.98
644.419	8024.56
644.771	8025.69
645.124	7926.94
645.477	7903.44
645.83	7898.46
646.182	7895.07
646.535	7838.35
646.888	7825.02
647.24	7766.26
647.593	7756.32
647.945	7782.76
648.298	7776.43
648.65	7760.16
649.002	7719.49
649.355	7829.54
649.707	7756.32
650.059	7859.14
650.411	7905.24
650.763	7856.21
651.115	7967.16
651.467	7982.53
651.819	8016.88
652.171	7975.3
652.523	7903.89
652.875	7929.2
653.227	7880.84
653.578	8020.72
653.93	7909.99
654.282	7943.66
654.633	7883.78
654.985	7976.2
655.337	7925.36
655.688	7934.85
656.039	8007.16
656.391	7897.33
656.742	7904.34
657.094	7915.87
657.445	7941.18
657.796	7946.82
658.147	7891.01
658.498	7915.64
658.849	7930.55
659.2	7930.55
659.551	7891.46
659.902	7874.51
660.253	7885.81
660.604	7953.15
660.955	7906.15
661.306	7919.93
661.656	7931.68
662.007	7949.54
662.358	7907.05
662.708	7902.31
663.059	7939.37
663.409	7859.14
663.76	7913.15
664.11	8018.24
664.461	7947.05
664.811	7911.57
665.161	7952.25
665.511	7932.81
665.862	7961.29
666.212	7979.59
666.562	7956.32
666.912	7983.66
667.262	7959.25
667.612	7900.72
667.962	7953.6
668.312	7968.29
668.662	7972.59
669.011	7900.05
669.361	7934.85
669.711	7861.86
670.06	7937.56
670.41	7840.61
670.76	7895.53
671.109	7921.51
671.459	7918.35
671.808	7900.5
672.157	7854.4
672.507	7841.74
672.856	7865.47
673.205	7858.01
673.554	7871.8
673.904	7846.26
674.253	7895.3
674.602	7883.32
674.951	7761.52
675.3	7655.31
675.649	7878.35
675.998	7779.15
676.346	7775.98
676.695	7828.18
677.044	7804.91
677.393	7804.46
677.741	7853.72
678.09	7763.55
678.438	7813.27
678.787	7733.27
679.135	7771.46
679.484	7707.74
679.832	7682.65
680.181	7749.09
680.529	7787.06
680.877	7737.11
681.225	7646.95
681.573	7760.39
681.922	7678.13
682.27	7613.05
682.618	7596.33
682.966	7570.34
683.314	7614.18
683.661	7526.5
684.009	7589.32
684.357	7506.16
684.705	7549.55
685.053	7517.91
685.4	7548.87
685.748	7453.96
686.095	7442.66
686.443	7394.3
686.79	7420.51
687.138	7415.54
687.485	7411.7
687.832	7429.55
688.18	7412.38
688.527	7303
688.874	7337.58
689.221	7298.71
689.568	7278.14
689.915	7242.21
690.262	7218.26
690.609	7247.41
690.956	7217.13
691.303	7192.72
691.65	7164.47
691.997	7221.42
692.344	7118.82
692.69	7053.74
693.037	7110.01
693.383	7020.07
693.73	7119.95
694.077	7021.65
694.423	6979.62
694.769	6942.11
695.116	6977.13
695.462	6928.55
695.808	6954.76
696.155	6900.75
696.501	6846.97
696.847	6875.44
697.193	6830.47
697.539	6839.06
697.885	6839.51
698.231	6708.44
698.577	6753.86
698.923	6695.11
699.269	6686.07
699.614	6661.21
699.96	6634.09
700.306	6674.54
700.651	6588.89
700.997	6544.15
701.342	6571.27
701.688	6517.03
702.033	6522.46
702.379	6508.9
702.724	6539.18
703.069	6533.98
703.415	6402.46
703.76	6444.94
704.105	6384.61
704.45	6374.66
704.795	6357.49
705.14	6350.26
705.485	6351.61
705.83	6330.14
706.175	6340.77
706.52	6281.11
706.865	6244.5
707.209	6185.97
707.554	6236.14
707.899	6224.16
708.243	6169.7
708.588	6181
708.932	6142.8
709.277	6132.18
709.621	6119.08
709.966	6070.72
710.31	6063.94
710.654	6053.32
710.998	6073.65
711.342	6056.03
711.687	6042.02
712.031	6022.58
712.375	6023.03
712.719	6016.93
713.063	5980.77
713.407	6014.9
713.75	5939.19
714.094	5956.82
714.438	5878.86
714.782	5883.38
715.125	5885.18
715.469	5930.15
715.812	5880.44
716.156	5844.73
716.499	5890.83
716.843	5832.98
717.186	5812.19
717.53	5854
717.873	5850.16
718.216	5882.02
718.559	5736.94
718.902	5763.15
719.246	5803.6
719.589	5781.46
719.932	5757.5
720.275	5723.38
720.617	5746.88
720.96	5765.64
721.303	5734.45
721.646	5748.46
721.989	5681.57
722.331	5737.84
722.674	5666.43
723.016	5711.18
723.359	5688.58
723.701	5724.28
724.044	5664.4
724.386	5668.47
724.729	5700.56
725.071	5659.2
725.413	5701.46
725.755	5702.59
726.097	5632.31
726.439	5606.77
726.782	5626.21
727.124	5651.97
727.465	5599.99
727.807	5639.31
728.149	5626.66
728.491	5605.64
728.833	5649.71
729.175	5637.51
729.516	5642.7
729.858	5568.36
730.199	5673.66
730.541	5587.79
730.882	5635.47
731.224	5632.31
731.565	5575.14
731.906	5627.56
732.248	5645.19
732.589	5561.12
732.93	5555.93
733.271	5563.38
733.612	5599.99
733.953	5559.32
734.294	5578.53
734.635	5554.8
734.976	5617.85
735.317	5602.48
735.658	5567.23
735.999	5634.8
736.339	5570.84
736.68	5594.8
737.021	5591.63
737.361	5579.43
737.702	5630.5
738.042	5625.3
738.383	5585.98
738.723	5631.63
739.063	5643.16
739.404	5646.55
739.744	5655.59
740.084	5629.15
740.424	5647
740.764	5621.91
741.104	5689.71
741.444	5646.55
741.784	5641.12
742.124	5681.57
742.464	5695.81
742.804	5700.56
743.143	5771.29
743.483	5757.73
743.823	5725.41
744.162	5759.31
744.502	5843.15
744.841	5786.43
745.181	5842.47
745.52	5858.52
745.86	5909.14
746.199	5892.87
746.538	5907.33
746.877	5984.84
747.216	5933.32
747.556	5992.98
747.895	6043.6
748.234	6058.74
748.573	6106.87
748.911	6113.2
749.25	6225.51
749.589	6238.85
749.928	6286.76
750.267	6262.58
750.605	6380.09
750.944	6468.45
751.283	6454.43
751.621	6504.38
751.96	6596.35
752.298	6604.04
752.636	6721.09
752.975	6742.34
753.313	6795.89
753.651	6864.59
753.989	6957.92
754.327	7011.48
754.666	7076.11
755.004	7213.06
755.342	7333.51
755.679	7392.49
756.017	7427.97
756.355	7550.45
756.693	7682.88
757.031	7785.02
757.368	7804.91
757.706	7962.64
758.044	8018.46
758.381	8237.89
758.719	8312.24
759.056	8361.28
759.394	8536.64
759.731	8555.17
760.068	8680.14
760.405	8792.9
760.743	8908.38
761.08	9161.48
761.417	9140.01
761.754	9281.03
762.091	9447.35
762.428	9572.32
762.765	9560.57
763.102	9827.91
763.438	9823.16
763.775	9968.47
764.112	10022.48
764.449	10230.61
764.785	10297.95
765.122	10408.23
765.458	10452.75
765.795	10632.4
766.131	10709.01
766.467	10761.44
766.804	10785.17
767.14	10932.28
767.476	11069.68
767.812	11167.98
768.148	11311.48
768.485	11244.82
768.821	11387.19
769.157	11509.44
769.492	11596.22
