Data from hue_150_FLMS001491_00081.txt Node
Date: Tue Feb 07 16:54:38 GMT 2017
User: dcchb
Spectrometer: FLMS00149
Trigger mode: 0
Integration Time (sec): 2.000000E-2
Scans to average: 10
Electric dark correction enabled: true
Nonlinearity correction enabled: false
Boxcar width: 0
XAxis mode: Wavelengths
Number of Pixels in Spectrum: 2048
>>>>>Begin Spectral Data<<<<<
341.393	-23.62
341.776	-23.62
342.16	-23.62
342.543	-76.72
342.927	-71.52
343.31	-61.58
343.693	-82.14
344.077	-65.2
344.46	-44.63
344.843	-64.07
345.226	-20.45
345.61	-12.32
345.993	-31.07
346.376	-10.06
346.759	20.9
347.142	5.31
347.525	26.1
347.908	64.97
348.291	72.65
348.674	84.4
349.057	117.17
349.44	116.72
349.823	139.32
350.206	153.1
350.588	173.89
350.971	210.28
351.354	215.02
351.737	212.99
352.119	233.55
352.502	239.43
352.884	258.64
353.267	288.69
353.65	295.47
354.032	268.13
354.414	295.47
354.797	295.92
355.179	320.1
355.562	291.63
355.944	320.33
356.326	323.27
356.709	334.34
357.091	314.46
357.473	344.96
357.855	331.4
358.238	331.4
358.62	342.7
359.002	342.25
359.384	336.6
359.766	338.86
360.148	328.69
360.53	337.73
360.912	332.99
361.294	331.63
361.676	329.37
362.057	334.34
362.439	327.56
362.821	318.07
363.203	334.34
363.584	336.6
363.966	314.23
364.348	324.85
364.729	288.24
365.111	313.33
365.493	307.68
365.874	306.32
366.256	339.09
366.637	300.67
367.019	288.69
367.4	303.61
367.781	335.47
368.163	301.57
368.544	288.24
368.925	318.75
369.306	321.23
369.688	294.34
370.069	307.45
370.45	299.09
370.831	318.07
371.212	299.99
371.593	290.95
371.974	294.12
372.355	303.83
372.736	301.8
373.117	319.43
373.498	312.2
373.879	342.02
374.26	313.55
374.641	309.03
375.021	303.83
375.402	328.92
375.783	313.78
376.163	306.32
376.544	309.71
376.925	316.26
377.305	319.43
377.686	315.13
378.066	324.62
378.447	323.49
378.827	313.1
379.208	330.05
379.588	332.76
379.968	361.46
380.349	318.97
380.729	327.79
381.109	352.87
381.489	334.34
381.87	347.67
382.25	340.67
382.63	324.85
383.01	339.77
383.39	330.5
383.77	325.3
384.15	351.74
384.53	346.32
384.91	347.67
385.29	345.41
385.67	344.28
386.049	365.53
386.429	346.77
386.809	347
387.189	357.62
387.568	347.45
387.948	368.92
388.328	351.52
388.707	358.97
389.087	343.83
389.466	359.65
389.846	353.78
390.225	373.21
390.605	369.14
390.984	371.85
391.363	384.74
391.743	373.44
392.122	380.89
392.501	382.93
392.881	394.9
393.26	390.16
393.639	379.09
394.018	363.04
394.397	392.42
394.776	397.16
395.155	399.42
395.534	396.94
395.913	383.38
396.292	408.69
396.671	400.55
397.05	401.46
397.429	384.28
397.808	392.65
398.186	396.03
398.565	384.96
398.944	401.23
399.323	399.88
399.701	405.98
400.08	426.77
400.458	407.11
400.837	408.46
401.215	389.71
401.594	408.24
401.972	396.49
402.351	389.71
402.729	408.46
403.107	413.44
403.486	408.69
403.864	411.18
404.242	425.41
404.62	420.44
404.999	429.25
405.377	418.41
405.755	425.19
406.133	441.68
406.511	460.89
406.889	449.82
407.267	473.09
407.645	420.89
408.023	454.34
408.401	466.09
408.779	454.11
409.156	457.5
409.534	450.5
409.912	460.67
410.29	458.86
410.667	447.33
411.045	479.2
411.422	476.94
411.8	456.37
412.178	483.49
412.555	515.81
412.933	501.57
413.31	497.5
413.687	508.57
414.065	509.48
414.442	485.98
414.819	507.9
415.197	514.9
415.574	541.12
415.951	509.03
416.328	503.83
416.705	516.71
417.082	527.56
417.46	536.82
417.837	520.78
418.214	525.75
418.591	552.64
418.967	544.51
419.344	541.34
419.721	533.66
420.098	549.03
420.475	544.73
420.852	544.05
421.228	575.69
421.605	552.64
421.982	568.01
422.358	560.1
422.735	575.01
423.111	578.18
423.488	588.8
423.864	604.16
424.241	603.49
424.617	590.83
424.994	599.65
425.37	620.89
425.746	610.04
426.123	618.63
426.499	597.84
426.875	618.18
427.251	646.42
427.627	622.47
428.003	646.65
428.379	633.54
428.756	632.41
429.132	651.17
429.507	657.95
429.883	649.59
430.259	681.45
430.635	669.02
431.011	672.64
431.387	703.82
431.763	694.33
432.138	704.73
432.514	692.75
432.89	699.3
433.265	723.03
433.641	736.36
434.016	742.24
434.392	736.59
434.767	755.12
435.143	753.77
435.518	730.49
435.894	744.5
436.269	775.46
436.644	788.79
437.02	789.92
437.395	795.35
437.77	777.72
438.145	819.3
438.52	789.92
438.895	813.65
439.271	808.45
439.646	825.4
440.021	840.54
440.395	819.3
440.77	851.16
441.145	810.26
441.52	874.21
441.895	857.04
442.27	869.92
442.645	877.15
443.019	884.16
443.394	899.98
443.769	918.05
444.143	905.85
444.518	914.67
444.892	907.43
445.267	886.87
445.641	932.29
446.016	937.94
446.39	924.61
446.764	951.27
447.139	949.24
447.513	954.44
447.887	946.98
448.262	956.02
448.636	978.39
449.01	968
449.384	988.79
449.758	991.73
450.132	1003.7
450.506	1021.78
450.88	1017.94
451.254	1011.84
451.628	1043.25
452.002	1040.99
452.376	1055.68
452.75	1059.52
453.123	1066.3
453.497	1069.24
453.871	1092.74
454.244	1139.07
454.618	1120.99
454.992	1111.27
455.365	1122.12
455.739	1144.26
456.112	1159.4
456.486	1160.08
456.859	1189.46
457.232	1208.67
457.606	1215.45
457.979	1218.16
458.352	1246.86
458.725	1257.26
459.099	1241.44
459.472	1280.76
459.845	1323.47
460.218	1331.83
460.591	1336.8
460.964	1341.77
461.337	1347.2
461.71	1373.86
462.083	1432.84
462.456	1386.07
462.829	1417.48
463.201	1457.02
463.574	1461.77
463.947	1494.76
464.32	1501.54
464.692	1519.4
465.065	1522.11
465.438	1557.81
465.81	1581.99
466.183	1579.28
466.555	1631.71
466.928	1654.76
467.3	1650.24
467.672	1692.05
468.045	1702.22
468.417	1741.31
468.789	1750.8
469.161	1807.52
469.534	1844.81
469.906	1882.78
470.278	1860.4
470.65	1933.85
471.022	1951.7
471.394	1979.27
471.766	2043
472.138	2066.73
472.51	2107.63
472.882	2133.84
473.253	2188.98
473.625	2236.44
473.997	2304.69
474.369	2317.34
474.74	2366.6
475.112	2445.02
475.484	2449.54
475.855	2557.79
476.227	2548.97
476.598	2660.83
476.97	2707.61
477.341	2788.06
477.713	2837.33
478.084	2886.59
478.455	2993.25
478.827	3030.77
479.198	3149.86
479.569	3192.57
479.94	3288.16
480.311	3368.61
480.682	3459.23
481.053	3538.33
481.424	3647.47
481.795	3729.51
482.166	3823.06
482.537	3887.24
482.908	4002.04
483.279	4125.2
483.65	4220.12
484.021	4382.14
484.391	4448.13
484.762	4570.39
485.133	4607.9
485.503	4756.37
485.874	4905.29
486.244	4959.3
486.615	5110.26
486.985	5221.44
487.356	5397.03
487.726	5488.56
488.097	5623.47
488.467	5728.55
488.837	5870.02
489.207	6036.56
489.578	6112.27
489.948	6266.84
490.318	6393.84
490.688	6468.19
491.058	6624.8
491.428	6747.96
491.798	6866.37
492.168	7138.23
492.538	7124.9
492.908	7338.45
493.278	7421.84
493.648	7545.9
494.017	7697.76
494.387	7809.17
494.757	7960.81
495.126	8031.99
495.496	8221.37
495.866	8330.52
496.235	8434.69
496.605	8527.35
496.974	8679.43
497.344	8791.52
497.713	8847.56
498.082	9016.6
498.452	9118.07
498.821	9150.15
499.19	9280.09
499.559	9408.23
499.928	9511.95
500.298	9624.49
500.667	9740.2
501.036	9726.86
501.405	9929.8
501.774	9967.31
502.143	10078.27
502.512	10123.46
502.88	10241.43
503.249	10281.42
503.618	10355.77
503.987	10467.86
504.356	10591.7
504.724	10590.79
505.093	10655.43
505.462	10727.97
505.83	10807.06
506.199	10929.32
506.567	11066.04
506.936	11062.87
507.304	11227.61
507.672	11232.13
508.041	11306.03
508.409	11305.35
508.777	11419.47
509.145	11498.12
509.514	11522.97
509.882	11684.78
510.25	11632.8
510.618	11793.7
510.986	11797.77
511.354	11835.73
511.722	11912.34
512.09	11958.44
512.458	11987.14
512.826	12072.79
513.193	12106.69
513.561	12160.25
513.929	12230.75
514.297	12292.9
514.664	12382.84
515.032	12473.68
515.4	12530.18
515.767	12494.25
516.135	12572.66
516.502	12452.44
516.869	12674.58
517.237	12605.66
517.604	12658.31
517.972	12686.56
518.339	12700.57
518.706	12763.85
519.073	12773.79
519.44	12826.22
519.808	12974.24
520.175	12890.62
520.542	12983.5
520.909	13059.43
521.276	13021.47
521.643	13052.65
522.009	13154.57
522.376	13202.25
522.743	13160.44
523.11	13289.26
523.477	13377.16
523.843	13321.34
524.21	13450.83
524.577	13533.99
524.943	13575.58
525.31	13470.72
525.676	13537.84
526.043	13561.79
526.409	13632.97
526.776	13726.31
527.142	13652.86
527.508	13711.16
527.874	13698.74
528.241	13813.99
528.607	13778.51
528.973	13935.11
529.339	13852.4
529.705	13879.75
530.071	13904.38
530.437	13924.94
530.803	13929.24
531.169	13919.52
531.535	13813.76
531.901	13902.35
532.267	13871.39
532.632	13904.61
532.998	13969.46
533.364	13874.32
533.73	13917.94
534.095	13863.25
534.461	13795.68
534.826	13909.13
535.192	13881.33
535.557	13898.73
535.923	13860.31
536.288	13804.5
536.653	13814.67
537.019	13715.23
537.384	13791.61
537.749	13714.33
538.114	13760.43
538.479	13684.72
538.845	13669.36
539.21	13689.24
539.575	13664.61
539.94	13677.04
540.305	13653.99
540.67	13591.85
541.034	13516.14
541.399	13563.6
541.764	13532.86
542.129	13538.06
542.494	13507.78
542.858	13526.54
543.223	13446.31
543.587	13434.11
543.952	13411.06
544.316	13350.04
544.681	13314.34
545.045	13361.34
545.41	13287
545.774	13323.83
546.138	13245.64
546.503	13237.28
546.867	13149.6
547.231	13228.69
547.595	13159.99
547.959	13148.02
548.324	13107.79
548.688	13007.45
549.052	13022.37
549.416	13050.84
549.779	12982.82
550.143	12929.04
550.507	13014.91
550.871	12955.93
551.235	12915.25
551.599	12921.13
551.962	12913.22
552.326	12848.81
552.689	12972.65
553.053	12838.87
553.417	12809.27
553.78	12968.59
554.143	12731.3
554.507	12820.79
554.87	12782.6
555.234	12797.97
555.597	12698.76
555.96	12757.74
556.323	12722.49
556.686	12648.37
557.05	12715.03
557.413	12641.36
557.776	12703.06
558.139	12718.87
558.502	12700.8
558.865	12645.66
559.228	12693.11
559.59	12764.52
559.953	12683.17
560.316	12765.2
560.679	12653.11
561.041	12702.6
561.404	12765.43
561.767	12774.24
562.129	12714.58
562.492	12752.77
562.854	12787.12
563.217	12756.84
563.579	12821.24
563.941	12856.05
564.304	12827.57
564.666	12874.8
565.028	12941.69
565.39	12939.89
565.753	12907.12
566.115	12914.58
566.477	12906.89
566.839	12910.28
567.201	12969.04
567.563	12940.11
567.925	13028.25
568.287	12993.22
568.648	13011.3
569.01	13096.49
569.372	13119.32
569.734	12997.96
570.095	13125.64
570.457	13018.75
570.819	13059.66
571.18	13058.75
571.542	13099.88
571.903	13162.25
572.265	13127
572.626	13175.81
572.987	13214.23
573.349	13208.81
573.71	13209.71
574.071	13250.61
574.432	13284.96
574.794	13304.4
575.155	13331.74
575.516	13308.24
575.877	13283.15
576.238	13415.81
576.599	13352.08
576.96	13379.42
577.32	13289.93
577.681	13399.99
578.042	13407.22
578.403	13360.67
578.763	13320.89
579.124	13396.14
579.485	13366.99
579.845	13464.84
580.206	13379.42
580.566	13373.09
580.927	13428.23
581.287	13444.51
581.648	13383.94
582.008	13499.42
582.368	13410.83
582.728	13389.14
583.089	13374.22
583.449	13316.37
583.809	13426.43
584.169	13398.4
584.529	13330.16
584.889	13426.88
585.249	13279.31
585.609	13350.95
585.969	13413.09
586.329	13256.26
586.688	13360.44
587.048	13318.63
587.408	13270.95
587.768	13268.01
588.127	13280.44
588.487	13231.4
588.846	13287.67
589.206	13191.86
589.565	13181.01
589.925	13227.79
590.284	13249.48
590.643	13245.87
591.003	13198.64
591.362	13326.09
591.721	13187.56
592.08	13141.01
592.44	13284.28
592.799	13189.14
593.158	13191.18
593.517	13214.91
593.876	13243.61
594.235	13190.95
594.593	13174.68
594.952	13095.59
595.311	13131.97
595.67	13183.04
596.029	13230.5
596.387	13198.86
596.746	13238.63
597.104	13164.74
597.463	13204.29
597.822	13185.75
598.18	13100.33
598.538	13089.03
598.897	13067.79
599.255	13080.9
599.613	13222.14
599.972	13079.54
600.33	13165.42
600.688	13077.74
601.046	13098.75
601.404	13167.68
601.762	13159.09
602.12	13245.87
602.478	13180.11
602.836	13133.78
603.194	13023.5
603.552	13101.69
603.91	13030.28
604.268	13104.18
604.625	13115.02
604.983	13068.7
605.341	13163.83
605.698	13152.99
606.056	13194.79
606.413	13111.41
606.771	13223.04
607.128	13173.78
607.485	13089.03
607.843	13131.75
608.2	13271.85
608.557	13189.82
608.914	13145.53
609.272	13322.02
609.629	13237.51
609.986	13298.29
610.343	13284.28
610.7	13282.7
611.057	13286.32
611.414	13263.49
611.771	13310.72
612.127	13358.86
612.484	13395.47
612.841	13380.33
613.198	13402.02
613.554	13345.52
613.911	13430.04
614.267	13398.4
614.624	13396.14
614.98	13352.53
615.337	13409.93
615.693	13427.33
616.05	13411.06
616.406	13485.63
616.762	13451.06
617.118	13472.53
617.475	13412.64
617.831	13469.36
618.187	13490.38
618.543	13529.47
618.899	13596.14
619.255	13527.21
619.611	13483.37
619.967	13602.92
620.323	13575.12
620.678	13555.69
621.034	13513.88
621.39	13503.03
621.746	13518.18
622.101	13649.7
622.457	13526.31
622.812	13619.64
623.168	13568.57
623.523	13506.88
623.879	13634.1
624.234	13531.96
624.589	13633.2
624.945	13600.89
625.3	13587.55
625.655	13638.17
626.01	13568.12
626.365	13555.46
626.72	13593.43
627.075	13543.26
627.43	13521.34
627.785	13540.32
628.14	13583.71
628.495	13545.75
628.85	13554.78
629.205	13548.23
629.559	13637.95
629.914	13545.07
630.269	13515.24
630.623	13494.45
630.978	13456.93
631.332	13507.33
631.687	13463.49
632.041	13440.89
632.396	13501.68
632.75	13445.64
633.104	13416.94
633.459	13375.35
633.813	13355.69
634.167	13375.81
634.521	13326.54
634.875	13333.77
635.229	13301.01
635.583	13241.35
635.937	13257.17
636.291	13189.14
636.645	13279.99
636.999	13095.36
637.352	13266.88
637.706	13046.55
638.06	13173.33
638.413	13136.04
638.767	13051.3
639.121	13093.1
639.474	13086.32
639.828	13053.78
640.181	13170.84
640.534	13070.96
640.888	13032.76
641.241	12963.84
641.594	13041.35
641.947	13016.95
642.301	12996.61
642.654	13070.96
643.007	13042.03
643.36	12992.31
643.713	12972.43
644.066	12955.7
644.419	12959.32
644.771	12885.88
645.124	12763.85
645.477	12729.27
645.83	12659.67
646.182	12580.12
646.535	12548.03
646.888	12627.58
647.24	12492.21
647.593	12603.17
647.945	12505.77
648.298	12523.85
648.65	12467.58
649.002	12516.17
649.355	12580.57
649.707	12478.2
650.059	12593.23
650.411	12759.55
650.763	12755.03
651.115	12843.62
651.467	12818.08
651.819	12820.79
652.171	12808.59
652.523	12770.85
652.875	12763.17
653.227	12723.62
653.578	12739.67
653.93	12792.09
654.282	12673
654.633	12696.5
654.985	12784.41
655.337	12727.24
655.688	12704.41
656.039	12771.98
656.391	12640.01
656.742	12681.59
657.094	12735.15
657.445	12717.52
657.796	12734.24
658.147	12583.96
658.498	12699.89
658.849	12831.64
659.2	12722.04
659.551	12738.31
659.902	12687.69
660.253	12716.61
660.604	12811.98
660.955	12666.22
661.306	12773.79
661.656	12774.24
662.007	12735.82
662.358	12754.58
662.708	12821.7
663.059	12785.99
663.409	12685.88
663.76	12723.39
664.11	12730.85
664.461	12819.21
664.811	12804.75
665.161	12746.44
665.511	12687.24
665.862	12797.06
666.212	12744.41
666.562	12819.66
666.912	12777.63
667.262	12742.6
667.612	12863.96
667.962	12831.19
668.312	12659.44
668.662	12841.81
669.011	12778.08
669.361	12729.27
669.711	12753.45
670.06	12746.9
670.41	12781.47
670.76	12774.24
671.109	12704.19
671.459	12719.33
671.808	12661.25
672.157	12772.88
672.507	12618.31
672.856	12672.32
673.205	12742.15
673.554	12706.45
673.904	12660.12
674.253	12669.84
674.602	12669.38
674.951	12523.4
675.3	12397.75
675.649	12634.81
675.998	12565.43
676.346	12667.12
676.695	12507.81
677.044	12475.72
677.393	12547.58
677.741	12555.04
678.09	12487.47
678.438	12536.51
678.787	12477.07
679.135	12556.62
679.484	12481.82
679.832	12471.88
680.181	12405.66
680.529	12429.62
680.877	12390.52
681.225	12349.39
681.573	12477.75
681.922	12362.05
682.27	12373.35
682.618	12327.02
682.966	12245.44
683.314	12288.6
683.661	12233.69
684.009	12184.88
684.357	12105.33
684.705	12183.75
685.053	12186.91
685.4	12099.68
685.748	12101.26
686.095	12146.69
686.443	11997.99
686.79	11972
687.138	12001.83
687.485	11936.97
687.832	12002.28
688.18	11936.52
688.527	11923.64
688.874	11835.73
689.221	11800.03
689.568	11745.57
689.915	11768.62
690.262	11741.73
690.609	11670.99
690.956	11696.08
691.303	11636.42
691.65	11651.56
691.997	11580.83
692.344	11485.01
692.69	11503.99
693.037	11475.52
693.383	11329.98
693.73	11391.23
694.077	11374.05
694.423	11296.31
694.769	11292.92
695.116	11233.49
695.462	11239.37
695.808	11146.03
696.155	11220.61
696.501	11073.72
696.847	11095.19
697.193	11008.86
697.539	11050.67
697.885	10888.19
698.231	10859.26
698.577	10887.06
698.923	10906.27
699.269	10844.8
699.614	10782.88
699.96	10694.3
700.306	10774.97
700.651	10711.92
700.997	10615.65
701.342	10568.87
701.688	10528.65
702.033	10492.94
702.379	10509.22
702.724	10485.49
703.069	10482.78
703.415	10387.86
703.76	10357.81
704.105	10328.43
704.45	10270.58
704.795	10276.9
705.14	10216.12
705.485	10231.48
705.83	10099.06
706.175	10251.37
706.52	10094.99
706.865	10077.81
707.209	10065.39
707.554	10029.91
707.899	10004.82
708.243	10040.75
708.588	9967.08
708.932	9918.72
709.277	9868.78
709.621	9905.39
709.966	9787.65
710.31	9862
710.654	9805.05
710.998	9776.13
711.342	9762.12
711.687	9806.86
712.031	9683.47
712.375	9641.67
712.719	9629.69
713.063	9649.58
713.407	9601.22
713.75	9566.19
714.094	9575.68
714.438	9571.61
714.782	9546.53
715.125	9492.07
715.469	9538.85
715.812	9496.36
716.156	9491.16
716.499	9407.32
716.843	9434.44
717.186	9386.53
717.53	9473.08
717.873	9405.29
718.216	9383.14
718.559	9369.36
718.902	9254.33
719.246	9367.32
719.589	9323.48
719.932	9283.03
720.275	9233.99
720.617	9230.38
720.96	9282.58
721.303	9200.32
721.646	9249.14
721.989	9224.28
722.331	9214.79
722.674	9196.03
723.016	9165.07
723.359	9191.06
723.701	9162.58
724.044	9098.4
724.386	9062.25
724.729	9079.2
725.071	9072.42
725.413	9068.35
725.755	9043.94
726.097	9041.23
726.439	9002.59
726.782	9007.11
727.124	9034
727.465	9011.4
727.807	9006.66
728.149	8948.8
728.491	8980.89
728.833	9051.63
729.175	8987
729.516	8925.75
729.858	8953.32
730.199	8938.18
730.541	8948.8
730.882	8919.2
731.224	8965.98
731.565	8945.41
731.906	8871.97
732.248	8924.62
732.589	8903.38
732.93	8864.06
733.271	8928.01
733.612	8860.22
733.953	8978.86
734.294	8841.46
734.635	8889.14
734.976	8935.92
735.317	8924.4
735.658	8888.92
735.999	8889.37
736.339	8918.75
736.68	8991.97
737.021	8925.75
737.361	8902.93
737.702	8994.45
738.042	8983.15
738.383	8898.86
738.723	8959.88
739.063	8871.74
739.404	8973.44
739.744	8941.8
740.084	8920.78
740.424	8971.18
740.764	8925.53
741.104	8969.37
741.444	9021.57
741.784	8996.94
742.124	8974.11
742.464	9034.68
742.804	8992.42
743.143	9056.15
743.483	9105.18
743.823	9056.15
744.162	9125.97
744.502	9128.46
744.841	9103.83
745.181	9230.6
745.52	9131.4
745.86	9296.37
746.199	9229.7
746.538	9272.64
746.877	9351.96
747.216	9407.55
747.556	9419.53
747.895	9474.89
748.234	9463.14
748.573	9491.39
748.911	9521.22
749.25	9628.11
749.589	9676.69
749.928	9709.46
750.267	9801.66
750.605	9849.8
750.944	9946.29
751.283	9988.78
751.621	10079.4
751.96	10170.69
752.298	10225.38
752.636	10295.89
752.975	10362.78
753.313	10470.57
753.651	10672.15
753.989	10638.48
754.327	10725.48
754.666	10821.52
755.004	10940.62
755.342	11007.06
755.679	11195.98
756.017	11253.38
756.355	11407.72
756.693	11524.56
757.031	11616.3
757.368	11752.12
757.706	11945.34
758.044	11992.34
758.381	12185.78
