Data from hue_170_FLMS001491_00041.txt Node
Date: Tue Feb 07 16:48:44 GMT 2017
User: dcchb
Spectrometer: FLMS00149
Trigger mode: 0
Integration Time (sec): 2.000000E-2
Scans to average: 10
Electric dark correction enabled: true
Nonlinearity correction enabled: false
Boxcar width: 0
XAxis mode: Wavelengths
Number of Pixels in Spectrum: 2048
>>>>>Begin Spectral Data<<<<<
341.393	-4.42
341.776	-4.42
342.16	-4.42
342.543	-69.05
342.927	-69.73
343.31	-66.34
343.693	-81.93
344.077	-74.48
344.46	-50.52
344.843	-51.2
345.226	-32.22
345.61	-38.54
345.993	-15.49
346.376	-11.43
346.759	13.66
347.142	22.25
347.525	49.82
347.908	38.52
348.291	81
348.674	96.82
349.057	120.1
349.44	140.66
349.823	126.65
350.206	151.28
350.588	193.54
350.971	211.84
351.354	229.47
351.737	241.9
352.119	257.72
352.502	276.7
352.884	277.38
353.267	268.79
353.65	286.19
354.032	314.21
354.414	304.95
354.797	327.55
355.179	324.61
355.562	307.44
355.944	311.96
356.326	335.23
356.709	330.26
357.091	313.54
357.473	349.92
357.855	361.45
358.238	339.3
358.62	330.26
359.002	332.52
359.384	328.68
359.766	347.89
360.148	328
360.53	338.17
360.912	338.62
361.294	324.61
361.676	313.31
362.057	313.08
362.439	335.46
362.821	318.06
363.203	330.49
363.584	320.77
363.966	326.87
364.348	307.89
364.729	300.2
365.111	356.25
365.493	321.45
365.874	332.75
366.256	325.74
366.637	319.41
367.019	324.16
367.4	303.59
367.781	333.65
368.163	337.04
368.544	311.73
368.925	326.19
369.306	310.6
369.688	310.15
370.069	309.02
370.45	319.19
370.831	311.28
371.212	334.55
371.593	312.86
371.974	304.27
372.355	329.13
372.736	329.81
373.117	315.12
373.498	304.5
373.879	300.43
374.26	326.19
374.641	315.57
375.021	320.54
375.402	323.03
375.783	337.94
376.163	329.58
376.544	326.87
376.925	351.5
377.305	321.45
377.686	346.76
378.066	351.28
378.447	341.56
378.827	334.78
379.208	319.64
379.588	331.84
379.968	339.3
380.349	333.2
380.729	349.69
381.109	341.33
381.489	332.52
381.87	334.55
382.25	326.19
382.63	357.15
383.01	320.09
383.39	343.14
383.77	339.75
384.15	364.38
384.53	362.35
384.91	366.64
385.29	341.11
385.67	345.17
386.049	371.39
386.429	327.77
386.809	336.36
387.189	349.92
387.568	335.68
387.948	372.07
388.328	365.96
388.707	345.63
389.087	366.19
389.466	372.97
389.846	374.33
390.225	358.96
390.605	355.8
390.984	392.4
391.363	360.99
391.743	368
392.122	363.93
392.501	382.24
392.881	376.13
393.26	377.04
393.639	388.79
394.018	385.85
394.397	379.3
394.776	379.3
395.155	383.82
395.534	388.79
395.913	382.91
396.292	400.77
396.671	370.26
397.05	385.85
397.429	426.53
397.808	407.77
398.186	395.57
398.565	393.08
398.944	397.15
399.323	408.9
399.701	400.09
400.08	406.19
400.458	424.72
400.837	399.86
401.215	442.8
401.594	440.09
401.972	407.77
402.351	446.19
402.729	433.31
403.107	417.94
403.486	417.72
403.864	422.91
404.242	424.72
404.62	416.81
404.999	427.43
405.377	424.49
405.755	455
406.133	451.39
406.511	460.65
406.889	446.41
407.267	461.1
407.645	452.97
408.023	463.82
408.401	481.67
408.779	462.23
409.156	487.32
409.534	489.8
409.912	492.97
410.29	512.63
410.667	484.61
411.045	505.62
411.422	527.99
411.8	498.84
412.178	505.17
412.555	524.15
412.933	534.1
413.31	525.96
413.687	539.29
414.065	535.68
414.442	535.45
414.819	558.5
415.197	560.31
415.574	566.41
415.951	566.19
416.328	571.38
416.705	583.59
417.082	571.84
417.46	586.52
417.837	583.36
418.214	596.47
418.591	582.46
418.967	604.83
419.344	599.18
419.721	611.38
420.098	601.66
420.475	633.08
420.852	612.51
421.228	644.83
421.605	629.46
421.982	650.03
422.358	647.31
422.735	662
423.111	687.99
423.488	687.09
423.864	709.23
424.241	687.31
424.617	712.85
424.994	701.32
425.37	709.23
425.746	717.37
426.123	745.39
426.499	723.7
426.875	739.29
427.251	746.75
427.627	760.08
428.003	771.38
428.379	771.83
428.756	753.75
429.132	801.43
429.507	797.37
429.883	805.73
430.259	808.44
430.635	811.83
431.011	856.8
431.387	838.27
431.763	838.27
432.138	860.19
432.514	865.16
432.89	876.69
433.265	890.02
433.641	894.54
434.016	911.04
434.392	917.59
434.767	945.84
435.143	951.94
435.518	960.3
435.894	980.86
436.269	930.92
436.644	975.89
437.02	987.42
437.395	974.99
437.77	1034.2
438.145	1019.06
438.52	1033.74
438.895	1035.78
439.271	1062.44
439.646	1067.87
440.021	1119.17
440.395	1109.22
440.77	1082.1
441.145	1102.22
441.52	1150.13
441.895	1122.56
442.27	1127.53
442.645	1168.2
443.019	1198.71
443.394	1180.63
443.769	1193.29
444.143	1193.74
444.518	1209.11
444.892	1199.16
445.267	1214.98
445.641	1237.13
446.016	1244.13
446.39	1247.75
446.764	1235.09
447.139	1274.64
447.513	1267.18
447.887	1298.14
448.262	1284.13
448.636	1288.65
449.01	1329.33
449.384	1329.78
449.758	1328.43
450.132	1346.96
450.506	1372.04
450.88	1383.34
451.254	1356.9
451.628	1404.36
452.002	1388.08
452.376	1400.51
452.75	1425.82
453.123	1471.47
453.497	1471.47
453.871	1489.1
454.244	1481.64
454.618	1513.28
454.992	1519.15
455.365	1561.19
455.739	1598.47
456.112	1606.38
456.486	1606.61
456.859	1595.99
457.232	1639.6
457.606	1672.15
457.979	1633.73
458.352	1731.8
458.725	1716.66
459.099	1730.22
459.472	1775.19
459.845	1781.29
460.218	1791.24
460.591	1849.09
460.964	1849.99
461.337	1882.99
461.71	1932.03
462.083	1934.29
462.456	1927.28
462.829	1953.95
463.201	2003.66
463.574	2011.12
463.947	2022.64
464.32	2098.8
464.692	2130.66
465.065	2127.95
465.438	2180.83
465.81	2209.08
466.183	2226.03
466.555	2296.76
466.928	2280.72
467.3	2302.86
467.672	2356.42
468.045	2396.19
468.417	2441.84
468.789	2462.41
469.161	2511.9
469.534	2535.85
469.906	2618.79
470.278	2628.28
470.65	2696.75
471.022	2749.86
471.394	2798.22
471.766	2802.74
472.138	2840.02
472.51	2937.42
472.882	2980.36
473.253	3044.76
473.625	3101.94
473.997	3187.81
474.369	3211.54
474.74	3229.84
475.112	3349.62
475.484	3452.89
475.855	3478.65
476.227	3521.36
476.598	3710.28
476.97	3714.35
477.341	3806.33
477.713	3884.52
478.084	3947.34
478.455	4059.2
478.827	4090.16
479.198	4289.03
479.569	4301.68
479.94	4478.17
480.311	4495.8
480.682	4680.88
481.053	4780.31
481.424	4830.03
481.795	4926.3
482.166	5056.92
482.537	5147.76
482.908	5304.14
483.279	5420.3
483.65	5523.34
484.021	5643.79
484.391	5763.34
484.762	5891.92
485.133	5952.48
485.503	6057.34
485.874	6237.67
486.244	6361.51
486.615	6500.72
486.985	6595.86
487.356	6796.08
487.726	6839.69
488.097	7041.72
488.467	7096.86
488.837	7342.96
489.207	7395.16
489.578	7513.12
489.948	7655.72
490.318	7800.35
490.688	7854.58
491.058	8136.16
491.428	8174.57
491.798	8264.97
492.168	8568.91
492.538	8575.47
492.908	8732.98
493.278	8852.52
493.648	8886.64
494.017	9134.1
494.387	9206.41
494.757	9310.81
495.126	9433.52
495.496	9474.2
495.866	9559.85
496.235	9697.02
496.605	9810.91
496.974	9885.49
497.344	10111.25
497.713	10073.28
498.082	10220.62
498.452	10301.3
498.821	10370.45
499.19	10391.01
499.559	10499.94
499.928	10577.22
500.298	10677.33
500.667	10845.69
501.036	10837.33
501.405	10882.98
501.774	10948.51
502.143	11058.34
502.512	11136.76
502.88	11318.67
503.249	11219.24
503.618	11296.53
503.987	11455.84
504.356	11421.04
504.724	11414.26
505.093	11569.96
505.462	11558.21
505.83	11659.91
506.199	11753.01
506.567	11912.1
506.936	11894.93
507.304	11982.83
507.672	12038.65
508.041	12052.21
508.409	12192.77
508.777	12286.56
509.145	12276.39
509.514	12309.61
509.882	12311.64
510.25	12325.42
510.618	12352.77
510.986	12410.85
511.354	12566.77
511.722	12531.75
512.09	12739.2
512.458	12628.92
512.826	12728.35
513.193	12770.38
513.561	12766.32
513.929	12865.3
514.297	12916.14
514.664	12997.05
515.032	12997.5
515.4	13047.44
515.767	13091.51
516.135	13178.74
516.502	12966.09
516.869	13200.2
517.237	13251.5
517.604	13102.58
517.972	13272.97
518.339	13295.57
518.706	13279.75
519.073	13234.55
519.44	13373.53
519.808	13418.73
520.175	13289.24
520.542	13513.42
520.909	13507.77
521.276	13442.68
521.643	13508.67
522.009	13581.89
522.376	13653.98
522.743	13630.02
523.11	13760.19
523.477	13748.44
523.843	13853.52
524.21	13871.15
524.577	13927.19
524.943	13860.53
525.31	13940.75
525.676	14000.41
526.043	13934.42
526.409	14023.23
526.776	14046.06
527.142	14047.87
527.508	14029.11
527.874	14123.57
528.241	14154.08
528.607	14168.77
528.973	14209.67
529.339	14067.07
529.705	14151.14
530.071	14202.44
530.437	14170.12
530.803	14185.04
531.169	14228.43
531.535	14135.09
531.901	14162.89
532.267	14099.62
532.632	14136.22
532.998	14140.74
533.364	14094.42
533.73	14164.92
534.095	14211.7
534.461	14024.14
534.826	14166.73
535.192	14057.36
535.557	14109.78
535.923	14062.1
536.288	14025.72
536.653	14129.67
537.019	13927.42
537.384	13921.54
537.749	13973.29
538.114	13907.3
538.479	13873.86
538.845	13856.23
539.21	13815.33
539.575	13799.51
539.94	13727.42
540.305	13743.24
540.67	13640.87
541.034	13638.84
541.399	13652.17
541.764	13619.18
542.129	13656.91
542.494	13599.74
542.858	13495.11
543.223	13484.04
543.587	13459.63
543.952	13324.04
544.316	13383.02
544.681	13313.87
545.045	13307.09
545.41	13348.45
545.774	13279.07
546.138	13322.69
546.503	13217.38
546.867	13166.53
547.231	13174.89
547.595	13136.93
547.959	13094.67
548.324	12995.01
548.688	12999.31
549.052	12979.87
549.416	12944.84
549.779	12978.51
550.143	12856.03
550.507	12864.62
550.871	12809.71
551.235	12755.92
551.599	12716.83
551.962	12712.53
552.326	12665.53
552.689	12748.69
553.053	12643.38
553.417	12547.57
553.78	12702.36
554.143	12571.97
554.507	12495.82
554.87	12515.25
555.234	12637.28
555.597	12524.29
555.96	12536.04
556.323	12439.77
556.686	12518.64
557.05	12476.38
557.413	12448.36
557.776	12522.03
558.139	12500.79
558.502	12463.5
558.865	12449.94
559.228	12526.78
559.59	12444.74
559.953	12372.88
560.316	12536.04
560.679	12365.42
561.041	12443.39
561.404	12436.61
561.767	12513.22
562.129	12355.71
562.492	12446.33
562.854	12438.87
563.217	12412.43
563.579	12411.75
563.941	12437.51
564.304	12448.36
564.666	12432.31
565.028	12463.73
565.39	12452.43
565.753	12514.12
566.115	12608.35
566.477	12514.12
566.839	12510.96
567.201	12581.01
567.563	12591.41
567.925	12608.13
568.287	12581.46
568.648	12557.06
569.01	12674.34
569.372	12620.11
569.734	12589.82
570.095	12598.41
570.457	12579.2
570.819	12693.1
571.18	12634.34
571.542	12693.55
571.903	12689.71
572.265	12689.03
572.626	12742.36
572.987	12748.46
573.349	12777.84
573.71	12739.88
574.071	12676.6
574.432	12746.88
574.794	12830.72
575.155	12799.76
575.516	12682.48
575.877	12771.97
576.238	12833.89
576.599	12758.86
576.96	12796.15
577.32	12821
577.681	12773.1
578.042	12842.02
578.403	12878.86
578.763	12825.52
579.124	12846.77
579.485	12805.86
579.845	12958.85
580.206	12825.75
580.566	12822.13
580.927	12789.59
581.287	12952.07
581.648	12764.06
582.008	12905.75
582.368	12847.67
582.728	12804.51
583.089	12735.13
583.449	12744.62
583.809	12748.92
584.169	12854.9
584.529	12842.47
584.889	12839.54
585.249	12785.3
585.609	12776.71
585.969	12760.44
586.329	12779.65
586.688	12780.55
587.048	12707.56
587.408	12685.42
587.768	12645.42
588.127	12704.85
588.487	12662.59
588.846	12674.57
589.206	12655.13
589.565	12635.25
589.925	12659.43
590.284	12664.85
590.643	12626.66
591.003	12605.42
591.362	12607.9
591.721	12621.91
592.08	12519.77
592.44	12644.29
592.799	12621.69
593.158	12514.35
593.517	12566.1
593.876	12590.73
594.235	12538.98
594.593	12555.25
594.952	12442.94
595.311	12465.31
595.67	12559.99
596.029	12623.72
596.387	12633.89
596.746	12578.3
597.104	12520.22
597.463	12445.87
597.822	12548.47
598.18	12519.54
598.538	12447
598.897	12527.23
599.255	12352.09
599.613	12547.11
599.972	12516.38
600.33	12494.23
600.688	12407
601.046	12524.74
601.404	12542.82
601.762	12590.05
602.12	12493.33
602.478	12597.06
602.836	12512.09
603.194	12492.2
603.552	12503.27
603.91	12432.54
604.268	12542.82
604.625	12419.66
604.983	12459.21
605.341	12489.49
605.698	12531.07
606.056	12482.48
606.413	12490.17
606.771	12552.31
607.128	12568.36
607.485	12464.4
607.843	12501.69
608.2	12608.13
608.557	12546.44
608.914	12531.29
609.272	12590.5
609.629	12613.78
609.986	12632.08
610.343	12590.28
610.7	12631.18
611.057	12648.35
611.414	12540.33
611.771	12615.59
612.127	12615.59
612.484	12655.81
612.841	12645.42
613.198	12624.63
613.554	12714.79
613.911	12642.93
614.267	12660.1
614.624	12651.74
614.98	12720.89
615.337	12722.25
615.693	12732.19
616.05	12708.24
616.406	12781.68
616.762	12714.79
617.118	12747.11
617.475	12791.85
617.831	12838.41
618.187	12756.83
618.543	12706.21
618.899	12785.53
619.255	12874.79
619.611	12891.51
619.967	12831.4
620.323	12808.8
620.678	12733.1
621.034	12782.36
621.39	12823.72
621.746	12841.34
622.101	12935.35
622.457	12883.83
622.812	12825.52
623.168	12842.25
623.523	12832.08
623.879	12893.09
624.234	12796.15
624.589	12839.99
624.945	12858.74
625.3	12930.38
625.655	12936.71
626.01	12816.03
626.365	12836.37
626.72	12792.76
627.075	12818.97
627.43	12792.3
627.785	12849.48
628.14	12810.84
628.495	12804.73
628.85	12802.47
629.205	12727.67
629.559	12816.03
629.914	12709.37
630.269	12704.17
630.623	12759.31
630.978	12657.62
631.332	12713.44
631.687	12779.42
632.041	12626.89
632.396	12704.4
632.75	12680.22
633.104	12729.48
633.459	12574.91
633.813	12619.88
634.167	12600.67
634.521	12566.55
634.875	12642.03
635.229	12513.22
635.583	12506.89
635.937	12498.98
636.291	12477.06
636.645	12433.9
636.999	12485.42
637.352	12486.78
637.706	12355.25
638.06	12399.55
638.413	12411.07
638.767	12324.75
639.121	12412.88
639.474	12268.25
639.828	12399.09
640.181	12370.62
640.534	12358.19
640.888	12279.32
641.241	12313.45
641.594	12335.59
641.947	12319.1
642.301	12277.74
642.654	12239.1
643.007	12313
643.36	12289.27
643.713	12277.29
644.066	12336.27
644.419	12176.05
644.771	12126.11
645.124	11991.65
645.477	12000.91
645.83	11903.29
646.182	11881.37
646.535	11850.18
646.888	11874.59
647.24	11859.45
647.593	11901.25
647.945	11857.87
648.298	11834.14
648.65	11830.97
649.002	11786
649.355	11782.61
649.707	11851.76
650.059	11842.73
650.411	12002.5
650.763	12031.42
651.115	12220.79
651.467	12130.4
651.819	12109.61
652.171	12094.7
652.523	12022.38
652.875	12050.86
653.227	12065.32
653.578	12096.28
653.93	12049.73
654.282	12010.18
654.633	11959.56
654.985	12051.31
655.337	12018.99
655.688	12075.49
656.039	12116.62
656.391	12030.97
656.742	12039.78
657.094	12043.4
657.445	12060.57
657.796	12055.38
658.147	11994.36
658.498	11999.78
658.849	12119.55
659.2	12078.2
659.551	12070.06
659.902	12110.29
660.253	12052.44
660.604	12010.86
660.955	12011.76
661.306	12081.59
661.656	12007.92
662.007	12114.36
662.358	12078.43
662.708	12165.65
663.059	12133.11
663.409	12026.9
663.76	12162.49
664.11	12089.27
664.461	12096.28
664.811	12119.33
665.161	12087.01
665.511	12011.99
665.862	12087.92
666.212	12128.59
666.562	12100.35
666.912	12096.05
667.262	12095.15
667.612	12110.51
667.962	12128.82
668.312	12121.59
668.662	12138.31
669.011	12189.16
669.361	12096.96
669.711	12113
670.06	12109.84
670.41	12102.61
670.76	12064.87
671.109	12078.65
671.459	12067.8
671.808	11984.64
672.157	12138.54
672.507	11947.81
672.856	12076.84
673.205	12019.22
673.554	12091.08
673.904	11910.97
674.253	12082.95
674.602	11991.87
674.951	11858.54
675.3	11731.32
675.649	12027.35
675.998	11958.65
676.346	11942.84
676.695	12055.83
677.044	11918.88
677.393	11920.46
677.741	11861.03
678.09	11904.42
678.438	11883.63
678.787	11868.94
679.135	11869.39
679.484	11797.3
679.832	11748.94
680.181	11760.69
680.529	11748.26
680.877	11750.07
681.225	11703.07
681.573	11729.28
681.922	11680.92
682.27	11698.77
682.618	11634.37
682.966	11591.88
683.314	11610.64
683.661	11608.83
684.009	11532.68
684.357	11551.21
684.705	11464.88
685.053	11499.46
685.4	11468.5
685.748	11441.38
686.095	11343.98
686.443	11374.72
686.79	11316.41
687.138	11328.84
687.485	11326.35
687.832	11291.55
688.18	11244.1
688.527	11244.1
688.874	11228.73
689.221	11130.88
689.568	11170.2
689.915	11085.91
690.262	11062.63
690.609	11026.93
690.956	10962.3
691.303	10994.16
691.65	10876.88
691.997	10925.46
692.344	10861.73
692.69	10811.11
693.037	10805.46
693.383	10751.23
693.73	10822.64
694.077	10738.35
694.423	10627.62
694.769	10610.44
695.116	10612.93
695.462	10600.72
695.808	10495.19
696.155	10555.53
696.501	10460.61
696.847	10436.89
697.193	10415.19
697.539	10404.12
697.885	10358.02
698.231	10328.19
698.577	10294.07
698.923	10302.2
699.269	10188.98
699.614	10097.01
699.96	10065.6
700.306	10117.8
700.651	10043.68
700.997	9997.58
701.342	9923.91
701.688	9911.25
702.033	9914.87
702.379	9904.47
702.724	9839.39
703.069	9836.68
703.415	9726.17
703.76	9704.48
704.105	9763.23
704.45	9666.51
704.795	9633.29
705.14	9590.13
705.485	9589
705.83	9597.13
706.175	9503.58
706.52	9498.61
706.865	9511.94
707.209	9463.13
707.554	9389.23
707.899	9383.81
708.243	9378.16
708.588	9381.55
708.932	9262
709.277	9201.89
709.621	9307.2
709.966	9193.3
710.31	9229.46
710.654	9183.36
710.998	9189.91
711.342	9137.03
711.687	9111.72
712.031	9078.96
712.375	9021.78
712.719	8988.56
713.063	8971.16
713.407	9029.69
713.75	8988.34
714.094	9008
714.438	8954.89
714.782	8949.02
715.125	8953.76
715.469	8948.11
715.812	8887.32
716.156	8867.44
716.499	8851.39
716.843	8834.89
717.186	8760.09
717.53	8900.43
717.873	8883.71
718.216	8793.77
718.559	8725.29
718.902	8726.65
719.246	8749.7
719.589	8706.31
719.932	8727.33
720.275	8675.58
720.617	8709.02
720.96	8721.68
721.303	8625.41
721.646	8589.7
721.989	8596.93
722.331	8644.17
722.674	8665.41
723.016	8606.2
723.359	8561.68
723.701	8624.28
724.044	8588.12
724.386	8505.86
724.729	8587.44
725.071	8539.54
725.413	8588.12
725.755	8571.62
726.097	8455.47
726.439	8519.65
726.782	8520.1
727.124	8524.39
727.465	8490.27
727.807	8471.06
728.149	8460.67
728.491	8477.62
728.833	8490.05
729.175	8509.03
729.516	8463.83
729.858	8441.46
730.199	8523.72
730.541	8427
730.882	8513.32
731.224	8502.25
731.565	8440.33
731.906	8503.83
732.248	8527.33
732.589	8424.28
732.93	8424.06
733.271	8471.51
733.612	8396.49
733.953	8492.08
734.294	8399.65
734.635	8427.9
734.976	8475.13
735.317	8412.53
735.658	8363.49
735.999	8481.91
736.339	8409.14
736.68	8473.77
737.021	8499.76
737.361	8435.13
737.702	8516.03
738.042	8449.59
738.383	8462.48
738.723	8479.88
739.063	8419.76
739.404	8490.5
739.744	8487.56
740.084	8478.52
740.424	8531.85
740.764	8571.17
741.104	8593.77
741.444	8561.68
741.784	8498.18
742.124	8602.81
742.464	8609.14
742.804	8584.28
743.143	8654.33
743.483	8617.95
743.823	8649.36
744.162	8660.44
744.502	8723.03
744.841	8759.19
745.181	8805.74
745.52	8791.51
745.86	8822.92
746.199	8794.22
746.538	8868.79
746.877	8967.77
747.216	8951.95
747.556	8996.7
747.895	9176.81
748.234	9098.84
748.573	9121.44
748.911	9232.17
749.25	9283.47
749.589	9302.23
749.928	9464.93
750.267	9571.37
750.605	9522.33
750.944	9648.66
751.283	9641.2
751.621	9834.42
751.96	9765.27
752.298	9865.38
752.636	10009.78
752.975	10100.17
753.313	10138.36
753.651	10314.86
753.989	10405.47
754.327	10505.13
754.666	10607.05
755.004	10806.37
755.342	10833.26
755.679	10955.07
756.017	11111.9
756.355	11280.71
756.693	11411.32
757.031	11421.95
757.368	11622.17
757.706	11714.37
758.044	11940.8
758.381	12123.62
