Data from hue_150_FLMS001491_00065.txt Node
Date: Tue Feb 07 16:54:22 GMT 2017
User: dcchb
Spectrometer: FLMS00149
Trigger mode: 0
Integration Time (sec): 2.000000E-2
Scans to average: 10
Electric dark correction enabled: true
Nonlinearity correction enabled: false
Boxcar width: 0
XAxis mode: Wavelengths
Number of Pixels in Spectrum: 2048
>>>>>Begin Spectral Data<<<<<
341.393	-11.5
341.776	-11.5
342.16	-11.5
342.543	-42
342.927	-67.54
343.31	-78.61
343.693	-68.9
344.077	-71.61
344.46	-64.83
344.843	-37.03
345.226	-35
345.61	-25.73
345.993	-24.83
346.376	19.91
346.759	1.16
347.142	23.3
347.525	43.64
347.908	50.87
348.291	74.6
348.674	87.03
349.057	106.01
349.44	130.19
349.823	147.14
350.206	142.85
350.588	182.17
350.971	221.94
351.354	225.56
351.737	247.48
352.119	240.02
352.502	248.84
352.884	282.96
353.267	288.38
353.65	283.18
354.032	305.1
354.414	294.94
354.797	313.69
355.179	325.9
355.562	326.8
355.944	324.54
356.326	327.48
356.709	371.09
357.091	334.26
357.473	349.17
357.855	335.61
358.238	354.14
358.62	317.76
359.002	330.64
359.384	355.73
359.766	331.09
360.148	320.02
360.53	347.82
360.912	346.23
361.294	327.25
361.676	335.61
362.057	328.38
362.439	299
362.821	315.5
363.203	334.93
363.584	322.96
363.966	323.18
364.348	319.34
364.729	332.22
365.111	332.45
365.493	338.55
365.874	319.79
366.256	338.55
366.637	293.58
367.019	324.99
367.4	321.15
367.781	308.72
368.163	333.13
368.544	292.9
368.925	297.87
369.306	329.06
369.688	320.7
370.069	310.75
370.45	317.76
370.831	294.26
371.212	310.53
371.593	312.34
371.974	316.18
372.355	309.4
372.736	297.87
373.117	319.57
373.498	324.54
373.879	309.17
374.26	320.02
374.641	311.88
375.021	316.4
375.402	328.61
375.783	330.42
376.163	331.77
376.544	334.26
376.925	341.26
377.305	319.34
377.686	326.57
378.066	337.19
378.447	303.3
378.827	348.72
379.208	339.45
379.588	352.11
379.968	354.14
380.349	329.51
380.729	337.65
381.109	333.8
381.489	333.58
381.87	338.55
382.25	346.91
382.63	336.06
383.01	355.05
383.39	351.43
383.77	355.05
384.15	342.39
384.53	381.71
384.91	357.08
385.29	349.17
385.67	362.5
386.049	363.63
386.429	348.27
386.809	360.24
387.189	358.21
387.568	375.84
387.948	340.13
388.328	366.8
388.707	372.22
389.087	376.29
389.466	369.06
389.846	388.94
390.225	374.03
390.605	380.81
390.984	381.04
391.363	378.78
391.743	383.52
392.122	379.91
392.501	346.91
392.881	386.23
393.26	398.21
393.639	378.55
394.018	382.39
394.397	399.11
394.776	417.42
395.155	408.83
395.534	404.31
395.913	401.6
396.292	405.89
396.671	421.94
397.05	396.18
397.429	396.63
397.808	402.5
398.186	366.35
398.565	403.41
398.944	404.76
399.323	419.9
399.701	420.36
400.08	425.55
400.458	416.74
400.837	423.52
401.215	434.59
401.594	420.81
401.972	410.19
402.351	435.27
402.729	417.87
403.107	422.39
403.486	439.79
403.864	430.75
404.242	439.56
404.62	420.36
404.999	462.61
405.377	439.11
405.755	437.08
406.133	439.56
406.511	454.48
406.889	433.69
407.267	473.91
407.645	457.87
408.023	457.42
408.401	462.16
408.779	451.77
409.156	486.12
409.534	470.75
409.912	467.13
410.29	496.29
410.667	466.91
411.045	498.55
411.422	497.87
411.8	492.44
412.178	488.6
412.555	492.44
412.933	501.03
413.31	508.49
413.687	507.36
414.065	512.78
414.442	521.37
414.819	531.77
415.197	510.3
415.574	543.06
415.951	546.45
416.328	542.39
416.705	524.53
417.082	547.81
417.46	547.81
417.837	553.91
418.214	565.66
418.591	583.97
418.967	549.17
419.344	566.34
419.721	547.81
420.098	569.5
420.475	594.59
420.852	602.72
421.228	576.96
421.605	586.45
421.982	576.06
422.358	585.1
422.735	593.91
423.111	591.88
423.488	593.46
423.864	623.06
424.241	616.06
424.617	621.71
424.994	617.19
425.37	627.58
425.746	642.5
426.123	634.81
426.499	629.62
426.875	631.65
427.251	660.8
427.627	656.73
428.003	664.64
428.379	672.78
428.756	661.71
429.132	676.62
429.507	682.95
429.883	686.34
430.259	718.88
430.635	682.72
431.011	707.81
431.387	738.31
431.763	729.5
432.138	731.31
432.514	743.51
432.89	734.02
433.265	770.4
433.641	756.62
434.016	759.1
434.392	756.39
434.767	778.76
435.143	781.7
435.518	799.1
435.894	808.82
436.269	833.23
436.644	828.93
437.02	824.19
437.395	855.15
437.77	855.15
438.145	833.9
438.52	844.75
438.895	854.7
439.271	867.8
439.646	886.56
440.021	884.52
440.395	891.08
440.77	885.88
441.145	878.88
441.52	936.05
441.895	923.62
442.27	928.82
442.645	922.26
443.019	932.21
443.394	954.35
443.769	949.61
444.143	944.18
444.518	955.71
444.892	967.91
445.267	974.24
445.641	981.25
446.016	986.44
446.39	998.42
446.764	975.14
447.139	1020.34
447.513	1014.46
447.887	1025.99
448.262	1026.67
448.636	1055.37
449.01	1035.93
449.384	1040.45
449.758	1075.25
450.132	1068.93
450.506	1036.39
450.88	1078.42
451.254	1077.29
451.628	1099.21
452.002	1097.85
452.376	1127.23
452.75	1120.68
453.123	1125.42
453.497	1147.57
453.871	1140.79
454.244	1155.93
454.618	1202.71
454.992	1190.05
455.365	1223.72
455.739	1238.41
456.112	1227.57
456.486	1258.98
456.859	1264.18
457.232	1301.46
457.606	1291.29
457.979	1279.32
458.352	1347.11
458.725	1340.33
459.099	1343.04
459.472	1361.8
459.845	1387.79
460.218	1413.55
460.591	1402.93
460.964	1447.22
461.337	1444.74
461.71	1472.31
462.083	1509.59
462.456	1513.21
462.829	1519.76
463.201	1572.19
463.574	1551.85
463.947	1615.13
464.32	1616.48
464.692	1616.48
465.065	1648.12
465.438	1687.22
465.81	1688.57
466.183	1716.59
466.555	1748.91
466.928	1788.91
467.3	1774.67
467.672	1806.53
468.045	1866.42
468.417	1891.73
468.789	1909.36
469.161	1949.81
469.534	1952.29
469.906	2034.78
470.278	2011.05
470.65	2065.06
471.022	2124.49
471.394	2146.41
471.766	2179.41
472.138	2237.48
472.51	2307.54
472.882	2313.41
473.253	2358.61
473.625	2421.66
473.997	2475.44
474.369	2506.18
474.74	2531.04
475.112	2606.29
475.484	2660.3
475.855	2716.34
476.227	2776.9
476.598	2884.7
476.97	2911.14
477.341	2959.5
477.713	3031.59
478.084	3107.74
478.455	3236.55
478.827	3270
479.198	3397.45
479.569	3452.14
479.94	3517.9
480.311	3562.65
480.682	3708.86
481.053	3819.59
481.424	3918.8
481.795	3975.52
482.166	4097.1
482.537	4224.55
482.908	4346.35
483.279	4444.66
483.65	4520.36
484.021	4658.66
484.391	4784.99
484.762	4921.48
485.133	5004.87
485.503	5094.81
485.874	5188.82
486.244	5347.91
486.615	5479.88
486.985	5605.3
487.356	5803.49
487.726	5817.95
488.097	6031.06
488.467	6086.65
488.837	6247.32
489.207	6387.2
489.578	6573.64
489.948	6669.91
490.318	6791.94
490.688	6900.19
491.058	7035.32
491.428	7229.44
491.798	7382.88
492.168	7483.9
492.538	7652.48
492.908	7817.22
493.278	7981.97
493.648	8014.73
494.017	8229.87
494.387	8370.66
494.757	8502.63
495.126	8602.74
495.496	8686.58
495.866	8860.13
496.235	8922.05
496.605	9117.98
496.974	9238.43
497.344	9378.99
497.713	9480.91
498.082	9556.61
498.452	9702.37
498.821	9748.02
499.19	9839.77
499.559	10042.93
499.928	10094.45
500.298	10185.98
500.667	10409.47
501.036	10383.26
501.405	10509.36
501.774	10546.64
502.143	10703.7
502.512	10785.96
502.88	10886.07
503.249	10954.54
503.618	11069.79
503.987	11164.71
504.356	11207.87
504.724	11300.97
505.093	11376.68
505.462	11461.65
505.83	11504.58
506.199	11625.26
506.567	11794.52
506.936	11747.29
507.304	11962.2
507.672	12048.98
508.041	12018.7
508.409	12146.83
508.777	12270.21
509.145	12289.2
509.514	12354.05
509.882	12425.46
510.25	12431.11
510.618	12497.1
510.986	12585.23
511.354	12686.93
511.722	12858.67
512.09	12871.55
512.458	12799.24
512.826	12881.05
513.193	12963.98
513.561	13032
513.929	13085.79
514.297	13159.68
514.664	13270.19
515.032	13237.42
515.4	13309.06
515.767	13455.72
516.135	13427.02
516.502	13311.32
516.869	13538.2
517.237	13639.44
517.604	13458.66
517.972	13700.46
518.339	13712.44
518.706	13704.53
519.073	13778.2
519.44	13785.65
519.808	13882.38
520.175	13817.07
520.542	14003.73
520.909	14043.5
521.276	13948.14
521.643	14105.19
522.009	14102.03
522.376	14217.28
522.743	14169.37
523.11	14256.83
523.477	14444.39
523.843	14458.41
524.21	14490.95
524.577	14522.36
524.943	14482.81
525.31	14597.84
525.676	14638.06
526.043	14675.12
526.409	14754.89
526.776	14860.88
527.142	14699.98
527.508	14844.16
527.874	14947.43
528.241	14930.94
528.607	14918.05
528.973	14975.45
529.339	14968.45
529.705	15026.53
530.071	15113.76
530.437	15025.17
530.803	15029.46
531.169	15017.94
531.535	15006.19
531.901	15009.8
532.267	15043.02
532.632	15122.34
532.998	15004.61
533.364	15161.66
533.73	15003.7
534.095	15171.15
534.461	15097.94
534.826	15015
535.192	15135.68
535.557	15106.98
535.923	15025.62
536.288	15044.83
536.653	15063.14
537.019	15033.08
537.384	15018.62
537.749	15217.93
538.114	15036.24
538.479	14998.96
538.845	15012.06
539.21	14920.99
539.575	14934.55
539.94	14890.94
540.305	14957.83
540.67	14828.34
541.034	14783.82
541.399	14800.54
541.764	14717.38
542.129	14802.8
542.494	14785.4
542.858	14723.03
543.223	14563.71
543.587	14775.46
543.952	14640.1
544.316	14583.83
544.681	14578.85
545.045	14499.99
545.41	14539.08
545.774	14565.97
546.138	14459.99
546.503	14432.64
546.867	14382.93
547.231	14470.83
547.595	14446.65
547.959	14418.41
548.324	14361.23
548.688	14294.12
549.052	14280.56
549.416	14363.72
549.779	14357.62
550.143	14289.14
550.507	14335.02
550.871	14238.75
551.235	14170.28
551.599	14215.93
551.962	14166.44
552.326	14174.57
552.689	14205.53
553.053	14016.61
553.417	14138.64
553.78	14174.57
554.143	14104.06
554.507	14085.99
554.87	14094.8
555.234	14180.22
555.597	14020.68
555.96	14055.25
556.323	14030.39
556.686	14093.22
557.05	14065.42
557.413	14048.02
557.776	14037.63
558.139	14036.95
558.502	14120.79
558.865	14013.9
559.228	14066.33
559.59	14085.99
559.953	13974.58
560.316	14135.7
560.679	14113.78
561.041	14148.81
561.404	14095.48
561.767	14160.11
562.129	14132.54
562.492	14201.24
562.854	14081.92
563.217	14133.89
563.579	14138.87
563.941	14142.03
564.304	14216.15
564.666	14224.74
565.028	14236.94
565.39	14253.44
565.753	14328.92
566.115	14240.33
566.477	14248.92
566.839	14349.93
567.201	14350.61
567.563	14318.52
567.925	14492.53
568.287	14311.52
568.648	14496.37
569.01	14452.08
569.372	14533.66
569.734	14488.69
570.095	14533.66
570.457	14605.07
570.819	14573.43
571.18	14492.08
571.542	14553.54
571.903	14582.47
572.265	14631.28
572.626	14591.51
572.987	14639.42
573.349	14658.17
573.71	14687.1
574.071	14772.07
574.432	14741.56
574.794	14761.22
575.155	14735.23
575.516	14728.91
575.877	14804.16
576.238	14794.67
576.599	14891.39
576.96	14796.93
577.32	14840.77
577.681	14870.82
578.042	14838.06
578.403	14868.11
578.763	14807.32
579.124	14892.97
579.485	14895.68
579.845	14978.39
580.206	14855
580.566	14888.9
580.927	14893.87
581.287	14878.28
581.648	14820.43
582.008	14902.69
582.368	14871.5
582.728	14852.29
583.089	14777.04
583.449	14801.67
583.809	14798.06
584.169	14781.56
584.529	14714.22
584.889	14862.69
585.249	14771.39
585.609	14668.12
585.969	14772.75
586.329	14773.88
586.688	14787.44
587.048	14823.14
587.408	14763.26
587.768	14780.66
588.127	14736.14
588.487	14658.85
588.846	14832.41
589.206	14701.11
589.565	14742.69
589.925	14754.89
590.284	14743.37
590.643	14720.55
591.003	14808
591.362	14727.32
591.721	14728.45
592.08	14761.9
592.44	14707.44
592.799	14699.98
593.158	14659.08
593.517	14708.57
593.876	14648.91
594.235	14656.37
594.593	14708.57
594.952	14610.27
595.311	14633.32
595.67	14709.02
596.029	14750.83
596.387	14714.44
596.746	14694.33
597.104	14710.15
597.463	14618.4
597.822	14623.37
598.18	14586.76
598.538	14629.93
598.897	14710.6
599.255	14576.82
599.613	14757.15
599.972	14644.84
600.33	14629.47
600.688	14614.11
601.046	14744.05
601.404	14664.05
601.762	14654.78
602.12	14648.91
602.478	14770.94
602.836	14668.57
603.194	14649.81
603.552	14581.11
603.91	14725.74
604.268	14672.18
604.625	14626.54
604.983	14724.39
605.341	14653.65
605.698	14716.7
606.056	14792.63
606.413	14768
606.771	14744.27
607.128	14762.8
607.485	14639.64
607.843	14720.09
608.2	14795.57
608.557	14805.51
608.914	14779.75
609.272	14736.82
609.629	14807.1
609.986	14779.75
610.343	14719.19
610.7	14931.61
611.057	14886.64
611.414	14848.68
611.771	14797.38
612.127	14856.59
612.484	14872.41
612.841	14888
613.198	14786.31
613.554	14841.22
613.911	14941.33
614.267	14925.06
614.624	14834.67
614.98	15020.42
615.337	14977.04
615.693	14963.7
616.05	14881.9
616.406	15014.1
616.762	14926.42
617.118	15019.07
617.475	14978.17
617.831	15112.17
618.187	15055.23
618.543	15126.86
618.899	15124.15
619.255	15079.41
619.611	15111.72
619.967	15170.7
620.323	15108.33
620.678	15054.55
621.034	15161.21
621.39	15074.21
621.746	15143.81
622.101	15188.1
622.457	15025.62
622.812	15071.5
623.168	15113.98
623.523	15036.47
623.879	15166.18
624.234	15100.42
624.589	15111.04
624.945	15069.91
625.3	15123.25
625.655	15151.04
626.01	15076.02
626.365	15139.74
626.72	15145.84
627.075	15098.84
627.43	15031.5
627.785	15049.35
628.14	15141.1
628.495	15119.63
628.85	15112.17
629.205	15073.98
629.559	15124.15
629.914	15088.45
630.269	15087.09
630.623	15012.74
630.978	15008.22
631.332	15106.3
631.687	15086.19
632.041	15041.21
632.396	15088.22
632.75	14985.17
633.104	15014.77
633.459	14941.1
633.813	14827.66
634.167	14960.99
634.521	14927.55
634.875	14949.69
635.229	14838.96
635.583	14744.05
635.937	14755.8
636.291	14796.25
636.645	14728.45
636.999	14835.8
637.352	14733.88
637.706	14723.71
638.06	14791.73
638.413	14730.04
638.767	14673.54
639.121	14652.3
639.474	14601.68
639.828	14531.4
640.181	14668.34
640.534	14540.66
640.888	14523.49
641.241	14423.6
641.594	14556.93
641.947	14559.87
642.301	14496.14
642.654	14457.28
643.007	14502.47
643.36	14439.65
643.713	14512.87
644.066	14443.04
644.419	14377.5
644.771	14250.28
645.124	14182.93
645.477	14153.78
645.83	14120.33
646.182	14096.83
646.535	13970.06
646.888	14020.9
647.24	13939.32
647.593	13982.03
647.945	13888.48
648.298	13818.2
648.65	13841.47
649.002	13806.22
649.355	13904.97
649.707	13920.11
650.059	14023.61
650.411	14102.26
650.763	14168.92
651.115	14389.03
651.467	14304.51
651.819	14203.04
652.171	14170.96
652.523	14210.5
652.875	14161.46
653.227	14151.29
653.578	14275.81
653.93	14216.15
654.282	14132.99
654.633	14104.74
654.985	14190.84
655.337	14255.02
655.688	14212.76
656.039	14304.96
656.391	14120.56
656.742	14135.48
657.094	14138.64
657.445	14212.31
657.796	14169.37
658.147	14145.65
658.498	14143.39
658.849	14161.92
659.2	14184.06
659.551	14125.76
659.902	14290.73
660.253	14195.59
660.604	14161.69
660.955	14128.02
661.306	14218.41
661.656	14166.66
662.007	14230.61
662.358	14227.45
662.708	14324.4
663.059	14195.59
663.409	14169.37
663.76	14234.23
664.11	14222.48
664.461	14248.47
664.811	14318.07
665.161	14264.29
665.511	14234.46
665.862	14220.22
666.212	14284.85
666.562	14347.22
666.912	14279.2
667.262	14279.2
667.612	14212.31
667.962	14299.31
668.312	14193.1
668.662	14326.66
669.011	14187.23
669.361	14207.34
669.711	14259.31
670.06	14197.4
670.41	14202.37
670.76	14115.36
671.109	14271.74
671.459	14110.84
671.808	14167.34
672.157	14168.02
672.507	13964.41
672.856	14029.04
673.205	14075.82
673.554	14137.51
673.904	14053.9
674.253	14183.61
674.602	14095.02
674.951	13899.78
675.3	13831.08
675.649	14053.9
675.998	14093.22
676.346	14025.65
676.695	14030.17
677.044	14000.11
677.393	14046.89
677.741	13971.64
678.09	13971.41
678.438	13922.83
678.787	13867.69
679.135	13942.71
679.484	13830.4
679.832	13860.91
680.181	13739.55
680.529	13768.93
680.877	13751.76
681.225	13761.7
681.573	13851.64
681.922	13714.92
682.27	13646.45
682.618	13678.99
682.966	13627.47
683.314	13603.51
683.661	13515.38
684.009	13479.45
684.357	13472.67
684.705	13526.68
685.053	13536.62
685.4	13519.22
685.748	13410.75
686.095	13384.99
686.443	13389.28
686.79	13335.72
687.138	13419.79
687.485	13360.81
687.832	13250.75
688.18	13291.66
688.527	13172.56
688.874	13166.91
689.221	13177.31
689.568	13143.19
689.915	13060.25
690.262	13100.02
690.609	13048.72
690.956	12995.62
691.303	12969.4
691.65	12839.92
691.997	12854.38
692.344	12745.68
692.69	12729.64
693.037	12808.51
693.383	12562.41
693.73	12587.27
694.077	12591.79
694.423	12551.79
694.769	12492.13
695.116	12510.66
695.462	12404
695.808	12443.54
696.155	12430.44
696.501	12292.13
696.847	12341.17
697.193	12199.71
697.539	12218.24
697.885	12194.74
698.231	12151.35
698.577	12029.77
698.923	12046.04
699.269	12055.08
699.614	11976.66
699.96	12017.11
700.306	11894.18
700.651	11813.05
700.997	11815.31
701.342	11738.7
701.688	11655.32
702.033	11614.19
702.379	11701.42
702.724	11624.58
703.069	11696.22
703.415	11509.33
703.76	11529.67
704.105	11482.21
704.45	11441.99
704.795	11424.81
705.14	11332.61
705.485	11309.79
705.83	11284.93
706.175	11227.08
706.52	11245.16
706.865	11230.69
707.209	11135.55
707.554	11117.7
707.899	11119.51
708.243	11051.72
708.588	11075.9
708.932	10947.31
709.277	11015.56
709.621	11002
709.966	10820.99
710.31	10859.63
710.654	10770.37
710.998	10827.09
711.342	10872.28
711.687	10805.62
712.031	10726.75
712.375	10629.58
712.719	10701.89
713.063	10672.74
713.407	10730.14
713.75	10646.08
714.094	10624.16
714.438	10545.06
714.782	10550.71
715.125	10493.99
715.469	10560.43
715.812	10481.11
716.156	10459.87
716.499	10457.83
716.843	10438.85
717.186	10387.55
717.53	10509.13
717.873	10437.95
718.216	10407.89
718.559	10304.39
718.902	10325.41
719.246	10382.35
719.589	10257.16
719.932	10310.04
720.275	10250.61
720.617	10289.02
720.96	10284.5
721.303	10254.67
721.646	10248.8
721.989	10180.55
722.331	10244.96
722.674	10203.38
723.016	10186.2
723.359	10179.42
723.701	10180.1
724.044	10151.4
724.386	10090.61
724.729	10096.26
725.071	10038.63
725.413	10108.91
725.755	10047.9
726.097	10017.62
726.439	9985.98
726.782	10002.93
727.124	10061.68
727.465	10044.28
727.807	9985.3
728.149	9964.51
728.491	9912.54
728.833	10019.88
729.175	9972.42
729.516	9999.99
729.858	9977.62
730.199	10040.89
730.541	9971.74
730.882	9930.39
731.224	9917.06
731.565	9832.31
731.906	9948.69
732.248	9907.11
732.589	9938.3
732.93	9867.34
733.271	9900.11
733.612	9933.78
733.953	9947.56
734.294	9799.09
734.635	9845.65
734.976	9863.5
735.317	9858.53
735.658	9830.05
735.999	9858.75
736.339	9851.97
736.68	9868.7
737.021	9815.36
737.361	9784.18
737.702	9875.47
738.042	9885.87
738.383	9805.42
738.723	9799.77
739.063	9854.23
739.404	9862.82
739.744	9832.31
740.084	9853.78
740.424	9907.79
740.764	9919.77
741.104	9959.31
741.444	9894.01
741.784	9875.02
742.124	9947.11
742.464	9947.11
742.804	9936.49
743.143	10032.76
743.483	10078.86
743.823	9956.38
744.162	9992.99
744.502	10090.38
744.841	10080.89
745.181	10097.16
745.52	10087.22
745.86	10201.12
746.199	10200.44
746.538	10276.14
746.877	10302.81
747.216	10341.68
747.556	10359.76
747.895	10447.66
748.234	10388
748.573	10473.43
748.911	10522.69
749.25	10557.72
749.589	10619.64
749.928	10667.77
750.267	10786.41
750.605	10875.22
750.944	10887.88
751.283	10880.42
751.621	10998.38
751.96	11053.3
752.298	11176.68
752.636	11219.62
752.975	11243.35
753.313	11407.41
753.651	11495.32
753.989	11563.34
754.327	11686.73
754.666	11695.54
755.004	11903.67
755.342	12032.25
755.679	12186.37
756.017	12232.93
756.355	12462.3
756.693	12479.25
757.031	12702.07
