Data from hue_230_FLMS001491_00068.txt Node
Date: Tue Feb 07 16:37:35 GMT 2017
User: dcchb
Spectrometer: FLMS00149
Trigger mode: 0
Integration Time (sec): 2.000000E-2
Scans to average: 10
Electric dark correction enabled: true
Nonlinearity correction enabled: false
Boxcar width: 0
XAxis mode: Wavelengths
Number of Pixels in Spectrum: 2048
>>>>>Begin Spectral Data<<<<<
341.393	-14.01
341.776	-14.01
342.16	-14.01
342.543	-45.65
342.927	-57.63
343.31	-54.24
343.693	-97.62
344.077	-47.23
344.46	-51.52
344.843	-68.7
345.226	-21.24
345.61	-48.59
345.993	-34.35
346.376	13.56
346.759	19.43
347.142	6.55
347.525	44.74
347.908	58.53
348.291	89.49
348.674	78.87
349.057	112.31
349.44	104.86
349.823	139.66
350.206	177.17
350.588	165.87
350.971	198.19
351.354	213.55
351.737	225.3
352.119	246.1
352.502	247.45
352.884	256.49
353.267	260.11
353.65	294.68
354.032	293.33
354.414	293.55
354.797	280.9
355.179	313.21
355.562	314.57
355.944	320.22
356.326	334.45
356.709	328.13
357.091	314.57
357.473	332.87
357.855	339.65
358.238	330.84
358.62	319.99
359.002	319.77
359.384	320.9
359.766	344.85
360.148	315.02
360.53	350.05
360.912	325.64
361.294	351.4
361.676	315.25
362.057	310.5
362.439	330.84
362.821	321.12
363.203	332.19
363.584	315.7
363.966	298.75
364.348	320.67
364.729	298.98
365.111	309.37
365.493	284.74
365.874	292.42
366.256	301.46
366.637	296.72
367.019	311.4
367.4	301.69
367.781	293.1
368.163	317.51
368.544	299.2
368.925	298.3
369.306	312.76
369.688	307.34
370.069	308.92
370.45	322.25
370.831	316.38
371.212	289.03
371.593	309.82
371.974	305.98
372.355	300.56
372.736	315.92
373.117	290.39
373.498	320.9
373.879	317.28
374.26	295.13
374.641	317.28
375.021	290.61
375.402	323.83
375.783	301.46
376.163	303.49
376.544	320.9
376.925	314.12
377.305	314.57
377.686	326.77
378.066	326.55
378.447	312.31
378.827	317.51
379.208	303.04
379.588	325.19
379.968	328.13
380.349	328.8
380.729	341.23
381.109	314.57
381.489	335.36
381.87	313.89
382.25	331.52
382.63	335.36
383.01	335.58
383.39	332.42
383.77	327.67
384.15	334.68
384.53	329.93
384.91	338.52
385.29	341.91
385.67	335.36
386.049	328.8
386.429	334.45
386.809	345.08
387.189	339.43
387.568	342.82
387.948	344.85
388.328	352.08
388.707	350.95
389.087	366.54
389.466	338.75
389.846	333.1
390.225	342.59
390.605	358.86
390.984	377.17
391.363	370.84
391.743	357.73
392.122	350.5
392.501	349.6
392.881	367.45
393.26	335.13
393.639	360.89
394.018	339.65
394.397	367
394.776	362.93
395.155	379.65
395.534	361.12
395.913	354.79
396.292	361.12
396.671	364.06
397.05	390.72
397.429	369.48
397.808	386.88
398.186	375.13
398.565	374
398.944	373.78
399.323	383.27
399.701	381.91
400.08	389.59
400.458	405.19
400.837	391.18
401.215	380.1
401.594	402.93
401.972	387.11
402.351	395.47
402.729	417.16
403.107	413.1
403.486	442.93
403.864	417.84
404.242	401.12
404.62	402.02
404.999	422.59
405.377	436.15
405.755	442.93
406.133	430.72
406.511	441.12
406.889	435.47
407.267	435.47
407.645	449.03
408.023	448.8
408.401	492.42
408.779	447.9
409.156	477.73
409.534	444.96
409.912	474.79
410.29	505.98
410.667	483.83
411.045	500.33
411.422	503.49
411.8	505.07
412.178	505.75
412.555	503.94
412.933	522.92
413.31	530.16
413.687	549.59
414.065	563.6
414.442	546.2
414.819	529.93
415.197	549.14
415.574	570.83
415.951	578.97
416.328	602.02
416.705	576.48
417.082	573.54
417.46	597.27
417.837	609.93
418.214	602.92
418.591	625.52
418.967	627.1
419.344	657.16
419.721	616.93
420.098	613.09
420.475	649.7
420.852	649.7
421.228	661.23
421.605	680.43
421.982	675.91
422.358	679.53
422.735	672.98
423.111	708.68
423.488	703.48
423.864	732.64
424.241	732.18
424.617	752.3
424.994	741.68
425.37	769.47
425.746	758.4
426.123	764.95
426.499	794.33
426.875	788.68
427.251	793.43
427.627	824.61
428.003	817.38
428.379	851.28
428.756	844.72
429.132	855.57
429.507	888.56
429.883	870.71
430.259	886.98
430.635	893.54
431.011	899.86
431.387	905.74
431.763	931.73
432.138	974.21
432.514	983.25
432.89	963.36
433.265	984.15
433.641	1004.27
434.016	1020.99
434.392	1034.1
434.767	1042.46
435.143	1033.87
435.518	1074.55
435.894	1083.14
436.269	1090.14
436.644	1145.96
437.02	1133.98
437.395	1143.92
437.77	1174.21
438.145	1195
438.52	1174.66
438.895	1198.39
439.271	1221.21
439.646	1252.85
440.021	1259.63
440.395	1284.03
440.77	1265.05
441.145	1290.59
441.52	1328.1
441.895	1317.93
442.27	1328.78
442.645	1345.95
443.019	1370.36
443.394	1364.48
443.769	1392.96
444.143	1391.83
444.518	1424.6
444.892	1404.48
445.267	1435.89
445.641	1411.26
446.016	1432.73
446.39	1464.59
446.764	1482.22
447.139	1477.93
447.513	1488.55
447.887	1513.86
448.262	1497.36
448.636	1538.72
449.01	1542.78
449.384	1537.59
449.758	1555.67
450.132	1592.95
450.506	1584.59
450.88	1584.14
451.254	1634.08
451.628	1630.47
452.002	1636.79
452.376	1644.25
452.75	1653.97
453.123	1650.13
453.497	1679.96
453.871	1695.32
454.244	1727.86
454.618	1750.01
454.992	1747.98
455.365	1761.54
455.739	1830.23
456.112	1826.17
456.486	1852.38
456.859	1867.75
457.232	1898.03
457.606	1894.87
457.979	1914.07
458.352	1937.35
458.725	1937.8
459.099	1984.81
459.472	1992.94
459.845	2011.7
460.218	2027.97
460.591	2042.43
460.964	2054.86
461.337	2087.18
461.71	2138.47
462.083	2162.2
462.456	2152.49
462.829	2149.77
463.201	2165.82
463.574	2219.15
463.947	2245.82
464.32	2300.28
464.692	2299.37
465.065	2301.18
465.438	2307.51
465.81	2364.01
466.183	2390.9
466.555	2427.73
466.928	2478.8
467.3	2434.74
467.672	2472.03
468.045	2528.3
468.417	2570.33
468.789	2532.81
469.161	2568.07
469.534	2635.18
469.906	2663.88
470.278	2669.31
470.65	2722.19
471.022	2758.12
471.394	2805.58
471.766	2825.24
472.138	2841.06
472.51	2940.94
472.882	2912.01
473.253	2982.52
473.625	3004.44
473.997	3079.92
474.369	3096.42
474.74	3093.48
475.112	3165.79
475.484	3202.4
475.855	3238.11
476.227	3258.67
476.598	3377.31
476.97	3368.5
477.341	3437.88
477.713	3501.83
478.084	3510.64
478.455	3557.65
478.827	3596.74
479.198	3688.04
479.569	3709.73
479.94	3798.54
480.311	3778.43
480.682	3900.46
481.053	3970.74
481.424	4010.52
481.795	4022.04
482.166	4049.61
482.537	4134.35
482.908	4147.46
483.279	4221.13
483.65	4248.93
484.021	4343.16
484.391	4422.93
484.762	4412.77
485.133	4439.66
485.503	4515.59
485.874	4587
486.244	4642.59
486.615	4721.46
486.985	4783.38
487.356	4841.91
487.726	4850.04
488.097	4927.33
488.467	4967.33
488.837	5056.36
489.207	5131.84
489.578	5161.45
489.948	5196.02
490.318	5251.39
490.688	5320.31
491.058	5369.35
491.428	5414.09
491.798	5423.13
492.168	5497.03
492.538	5518.05
492.908	5556.01
493.278	5685.27
493.648	5652.05
494.017	5720.98
494.387	5756.91
494.757	5799.62
495.126	5875.1
495.496	5895.21
495.866	5877.36
496.235	5954.19
496.605	5937.47
496.974	6029.67
497.344	6032.38
497.713	6045.04
498.082	6082.33
498.452	6148.99
498.821	6204.13
499.19	6196.9
499.559	6217.92
499.928	6231.7
500.298	6252.04
500.667	6339.49
501.036	6304.24
501.405	6397.57
501.774	6385.37
502.143	6405.03
502.512	6450
502.88	6532.71
503.249	6485.93
503.618	6513.05
503.987	6466.04
504.356	6496.33
504.724	6580.62
505.093	6570.9
505.462	6603.89
505.83	6620.62
506.199	6624.46
506.567	6698.35
506.936	6668.98
507.304	6780.39
507.672	6756.43
508.041	6809.09
508.409	6797.79
508.777	6800.05
509.145	6808.41
509.514	6879.59
509.882	6878.92
510.25	6908.07
510.618	6951
510.986	6910.33
511.354	7024.22
511.722	6920.5
512.09	7043.43
512.458	7010.21
512.826	7005.92
513.193	7030.55
513.561	7031.91
513.929	7061.06
514.297	7139.25
514.664	7154.84
515.032	7162.07
515.4	7169.3
515.767	7201.62
516.135	7177.44
516.502	7139.25
516.869	7224.67
517.237	7226.93
517.604	7165.24
517.972	7211.56
518.339	7200.71
518.706	7244.78
519.073	7261.28
519.44	7256.08
519.808	7280.71
520.175	7231
520.542	7386.25
520.909	7393.48
521.276	7323.65
521.643	7374.95
522.009	7381.27
522.376	7375.63
522.743	7373.59
523.11	7436.19
523.477	7518.45
523.843	7453.82
524.21	7549.86
524.577	7544.66
524.943	7533.59
525.31	7544.21
525.676	7589.4
526.043	7575.17
526.409	7559.35
526.776	7636.18
527.142	7624.88
527.508	7660.82
527.874	7665.79
528.241	7688.16
528.607	7661.49
528.973	7660.82
529.339	7654.26
529.705	7691.32
530.071	7745.56
530.437	7722.96
530.803	7765.45
531.169	7763.86
531.535	7668.27
531.901	7617.88
532.267	7678.89
532.632	7628.05
532.998	7702.4
533.364	7723.19
533.73	7672.79
534.095	7713.02
534.461	7658.1
534.826	7661.27
535.192	7676.86
535.557	7721.38
535.923	7701.49
536.288	7637.54
536.653	7727.25
537.019	7608.61
537.384	7676.41
537.749	7643.41
538.114	7680.25
538.479	7600.03
538.845	7581.95
539.21	7595.28
539.575	7494.27
539.94	7586.24
540.305	7598.67
540.67	7539.46
541.034	7571.55
541.399	7551.21
541.764	7610.42
542.129	7538.33
542.494	7509.63
542.858	7504.44
543.223	7533.59
543.587	7587.37
543.952	7491.1
544.316	7490.65
544.681	7453.14
545.045	7490.88
545.41	7517.77
545.774	7434.83
546.138	7393.25
546.503	7460.82
546.867	7369.07
547.231	7413.36
547.595	7414.72
547.959	7343.08
548.324	7322.29
548.688	7309.41
549.052	7307.83
549.416	7371.78
549.779	7299.02
550.143	7283.42
550.507	7274.16
550.871	7343.08
551.235	7287.49
551.599	7308.96
551.962	7253.14
552.326	7325.68
552.689	7301.28
553.053	7272.58
553.417	7242.97
553.78	7310.09
554.143	7235.29
554.507	7290.43
554.87	7247.72
555.234	7271.22
555.597	7218.12
555.96	7196.65
556.323	7295.18
556.686	7270.09
557.05	7264.67
557.413	7171.34
557.776	7213.6
558.139	7267.38
558.502	7255.63
558.865	7215.63
559.228	7286.36
559.59	7214.95
559.953	7262.86
560.316	7347.6
560.679	7318
561.041	7348.28
561.404	7368.62
561.767	7340.82
562.129	7371.11
562.492	7369.52
562.854	7337.43
563.217	7315.51
563.579	7295.85
563.941	7428.28
564.304	7430.54
564.666	7402.97
565.028	7312.8
565.39	7440.93
565.753	7412.91
566.115	7463.08
566.477	7513.93
566.839	7464.21
567.201	7507.37
567.563	7514.15
567.925	7546.02
568.287	7569.52
568.648	7533.14
569.01	7564.77
569.372	7609.29
569.734	7616.97
570.095	7686.58
570.457	7633.92
570.819	7599.8
571.18	7661.95
571.542	7685.45
571.903	7717.09
572.265	7697.88
572.626	7654.26
572.987	7702.85
573.349	7814.71
573.71	7788.04
574.071	7834.37
574.432	7770.19
574.794	7863.75
575.155	7836.86
575.516	7785.11
575.877	7812.9
576.238	7843.41
576.599	7917.76
576.96	7860.13
577.32	7866.69
577.681	7978.1
578.042	7950.07
578.403	7968.15
578.763	7959.79
579.124	8039.56
579.485	8001.37
579.845	8056.29
580.206	7962.73
580.566	8052.44
580.927	8073.46
581.287	8067.13
581.648	8030.75
582.008	8109.39
582.368	8098.32
582.728	8174.25
583.089	8096.06
583.449	8088.6
583.809	8144.87
584.169	8186.45
584.529	8200.46
584.889	8278.2
585.249	8181.03
585.609	8174.7
585.969	8241.37
586.329	8249.73
586.688	8229.39
587.048	8202.04
587.408	8210.41
587.768	8243.4
588.127	8217.86
588.487	8188.03
588.846	8340.35
589.206	8246.79
589.565	8261.25
589.925	8317.07
590.284	8264.42
590.643	8335.6
591.003	8384.86
591.362	8339.67
591.721	8343.06
592.08	8338.99
592.44	8420.57
592.799	8421.7
593.158	8422.6
593.517	8453.79
593.876	8461.7
594.235	8414.47
594.593	8454.24
594.952	8429.38
595.311	8361.14
595.67	8408.14
596.029	8478.2
596.387	8551.64
596.746	8523.17
597.104	8493.56
597.463	8492.66
597.822	8499.66
598.18	8527.46
598.538	8472.09
598.897	8513.45
599.255	8498.31
599.613	8570.17
599.972	8522.26
600.33	8595.71
600.688	8475.48
601.046	8569.49
601.404	8646.55
601.762	8499.21
602.12	8620.11
602.478	8627.34
602.836	8625.76
603.194	8575.37
603.552	8571.3
603.91	8551.41
604.268	8654.24
604.625	8596.38
604.983	8613.33
605.341	8552.54
605.698	8667.57
606.056	8694.23
606.413	8664.63
606.771	8618.98
607.128	8660.56
607.485	8682.48
607.843	8652.88
608.2	8685.42
608.557	8739.21
608.914	8666.89
609.272	8683.16
609.629	8724.74
609.986	8698.3
610.343	8730.17
610.7	8733.1
611.057	8766.1
611.414	8735.82
611.771	8753.22
612.127	8798.86
612.484	8730.17
612.841	8767.91
613.198	8761.58
613.554	8733.78
613.911	8813.55
614.267	8805.42
614.624	8789.37
614.98	8819.2
615.337	8804.74
615.693	8818.07
616.05	8771.52
616.406	8881.57
616.762	8829.82
617.118	8819.88
617.475	8870.95
617.831	8830.95
618.187	8920.22
618.543	8884.29
618.899	8922.93
619.255	8916.83
619.611	8868.47
619.967	8914.12
620.323	8932.65
620.678	8910.95
621.034	8865.3
621.39	8972.65
621.746	8893.1
622.101	8986.66
622.457	8921.57
622.812	8922.7
623.168	8948.01
623.523	8983.72
623.879	8939.88
624.234	8873.21
624.589	8964.06
624.945	8954.11
625.3	8937.17
625.655	8967.9
626.01	8977.17
626.365	8929.48
626.72	8921.8
627.075	8911.4
627.43	8979.42
627.785	8928.13
628.14	8920.67
628.495	8980.33
628.85	8880.9
629.205	8871.63
629.559	8919.99
629.914	8903.27
630.269	8918.41
630.623	8892.87
630.978	8802.48
631.332	8910.95
631.687	8829.82
632.041	8846.32
632.396	8838.19
632.75	8830.5
633.104	8807
633.459	8711.18
633.813	8775.59
634.167	8782.82
634.521	8691.52
634.875	8691.3
635.229	8723.84
635.583	8778.3
635.937	8640.22
636.291	8717.28
636.645	8726.1
636.999	8707.57
637.352	8704.4
637.706	8651.98
638.06	8695.36
638.413	8658.98
638.767	8677.06
639.121	8645.2
639.474	8572.88
639.828	8574.01
640.181	8650.85
640.534	8591.86
640.888	8635.03
641.241	8584.41
641.594	8553
641.947	8556.61
642.301	8542.15
642.654	8573.33
643.007	8569.72
643.36	8586.67
643.713	8578.53
644.066	8605.42
644.419	8430.96
644.771	8420.34
645.124	8397.07
645.477	8415.37
645.83	8332.66
646.182	8327.46
646.535	8301.25
646.888	8291.53
647.24	8236.17
647.593	8267.13
647.945	8281.36
648.298	8242.27
648.65	8159.11
649.002	8139.22
649.355	8226.9
649.707	8223.96
650.059	8288.6
650.411	8344.87
650.763	8337.63
651.115	8435.94
651.467	8396.62
651.819	8415.82
652.171	8371.31
652.523	8404.98
652.875	8418.99
653.227	8371.76
653.578	8423.96
653.93	8414.47
654.282	8378.08
654.633	8336.28
654.985	8384.19
655.337	8406.56
655.688	8426.45
656.039	8402.94
656.391	8360.23
656.742	8317.07
657.094	8377.86
657.445	8427.35
657.796	8338.76
658.147	8378.31
658.498	8411.98
658.849	8388.25
659.2	8357.75
659.551	8352.55
659.902	8353.45
660.253	8360.01
660.604	8428.48
660.955	8327.69
661.306	8370.18
661.656	8315.49
662.007	8377.41
662.358	8400.91
662.708	8372.89
663.059	8426.22
663.409	8360.46
663.76	8430.51
664.11	8376.73
664.461	8410.4
664.811	8388.93
665.161	8404.75
665.511	8402.26
665.862	8388.25
666.212	8427.12
666.562	8427.8
666.912	8394.36
667.262	8432.77
667.612	8393.23
667.962	8432.09
668.312	8338.99
668.662	8381.93
669.011	8340.57
669.361	8387.35
669.711	8363.85
670.06	8377.41
670.41	8368.82
670.76	8315.94
671.109	8340.12
671.459	8381.7
671.808	8318.43
672.157	8383.06
672.507	8308.26
672.856	8326.33
673.205	8315.04
673.554	8317.52
673.904	8258.31
674.253	8334.24
674.602	8307.13
674.951	8188.71
675.3	8147.13
675.649	8286.79
675.998	8303.96
676.346	8200.69
676.695	8319.33
677.044	8170.86
677.393	8248.14
677.741	8270.52
678.09	8223.74
678.438	8227.35
678.787	8204.08
679.135	8229.84
679.484	8135.38
679.832	8150.52
680.181	8070.75
680.529	8110.52
680.877	8071.2
681.225	8077.98
681.573	8144.87
681.922	8060.35
682.27	8029.39
682.618	8076.85
682.966	8085.44
683.314	8057.87
683.661	8007.7
684.009	7899.45
684.357	7879.34
684.705	7962.73
685.053	7962.5
685.4	7914.14
685.748	7857.19
686.095	7824.65
686.443	7845.9
686.79	7816.29
687.138	7844.77
687.485	7820.36
687.832	7831.88
688.18	7813.81
688.527	7756.18
688.874	7702.17
689.221	7738.33
689.568	7658.78
689.915	7605.22
690.262	7686.58
690.609	7696.07
690.956	7603.64
691.303	7611.33
691.65	7526.13
691.997	7579.24
692.344	7493.14
692.69	7544.21
693.037	7478
693.383	7469.18
693.73	7433.7
694.077	7406.58
694.423	7402.29
694.769	7380.6
695.116	7407.26
695.462	7292.92
695.808	7290.2
696.155	7350.99
696.501	7308.51
696.847	7311.67
697.193	7225.12
697.539	7247.27
697.885	7156.87
698.231	7089.53
698.577	7142.41
698.923	7064.67
699.269	7043.2
699.614	7041.4
699.96	6969.31
700.306	7010.21
700.651	7005.24
700.997	6974.05
701.342	6953.94
701.688	6881.85
702.033	6835.3
702.379	6864.9
702.724	6836.43
703.069	6861.51
703.415	6698.35
703.76	6716.66
704.105	6777.22
704.45	6731.12
704.795	6708.98
705.14	6670.11
705.485	6665.14
705.83	6613.39
706.175	6651.8
706.52	6627.85
706.865	6657
707.209	6592.82
707.554	6571.8
707.899	6583.1
708.243	6561.41
708.588	6533.16
708.932	6475.76
709.277	6465.14
709.621	6513.05
709.966	6428.98
710.31	6457.68
710.654	6406.84
710.998	6372.71
711.342	6402.77
711.687	6385.37
712.031	6364.13
712.375	6348.08
712.719	6304.69
713.063	6334.07
713.407	6288.65
713.75	6283.22
714.094	6266.05
714.438	6320.74
714.782	6275.54
715.125	6297.91
715.469	6263.34
715.812	6224.92
716.156	6178.37
716.499	6211.36
716.843	6206.16
717.186	6191.02
717.53	6241.64
717.873	6212.72
718.216	6123.91
718.559	6149.44
718.902	6136.34
719.246	6166.17
719.589	6063.8
719.932	6085.04
720.275	6131.36
720.617	6095.21
720.96	6098.82
721.303	6090.24
721.646	6047.75
721.989	6030.8
722.331	6052.04
722.674	6069.9
723.016	6100.86
723.359	6066.96
723.701	6051.82
724.044	5949.9
724.386	6018.37
724.729	6004.59
725.071	6041.65
725.413	5988.54
725.755	5967.75
726.097	5936.79
726.439	5972.95
726.782	5908.09
727.124	6004.81
727.465	5928.88
727.807	5939.5
728.149	5928.88
728.491	5899.51
728.833	5909.68
729.175	5963.01
729.516	5907.19
729.858	5941.09
730.199	5906.51
730.541	5931.37
730.882	5923.69
731.224	5916
731.565	5909.68
731.906	5880.98
732.248	5934.31
732.589	5925.04
732.93	5914.19
733.271	5887.75
733.612	5857.7
733.953	5873.29
734.294	5887.53
734.635	5904.93
734.976	5906.29
735.317	5903.12
735.658	5873.97
735.999	5817.47
736.339	5876.23
736.68	5914.42
737.021	5865.83
737.361	5885.49
737.702	5889.79
738.042	5894.53
738.383	5884.14
738.723	5925.95
739.063	5883.46
739.404	5935.21
739.744	5935.66
740.084	5970.24
740.424	5941.99
740.764	5955.78
741.104	6005.94
741.444	5950.13
741.784	5964.14
742.124	5962.33
742.464	5932.27
742.804	6013.85
743.143	5954.19
743.483	5949.67
743.823	6041.42
744.162	6023.34
744.502	6115.32
744.841	6067.19
745.181	6106.96
745.52	6104.7
745.86	6182.66
746.199	6132.04
746.538	6154.41
746.877	6213.4
747.216	6250.68
747.556	6257.24
747.895	6222.89
748.234	6249.78
748.573	6396.44
748.911	6386.05
749.25	6406.61
749.589	6518.7
749.928	6518.25
750.267	6578.58
750.605	6572.26
750.944	6696.32
751.283	6739.94
751.621	6771.12
751.96	6814.28
752.298	6862.42
752.636	6934.73
752.975	6932.7
753.313	7011.34
753.651	7134.73
753.989	7203.2
754.327	7275.06
754.666	7297.44
755.004	7427.15
755.342	7568.84
755.679	7605.9
756.017	7643.41
756.355	7848.16
756.693	7892.9
757.031	8016.96
757.368	8070.3
757.706	8128.6
758.044	8266.45
758.381	8343.06
758.719	8521.13
759.056	8565.42
759.394	8699.21
759.731	8738.98
760.068	8869.6
760.405	8969.03
760.743	9094.9
761.08	9235.46
761.417	9340.32
761.754	9521.11
762.091	9590.03
762.428	9667.09
762.765	9792.96
763.102	9978.95
763.438	10042.67
763.775	10103.01
764.112	10298.26
764.449	10351.82
764.785	10519.95
765.122	10580.06
765.458	10614.18
765.795	10753.62
766.131	10941.63
766.467	11002.2
766.804	11106.37
767.14	11142.98
767.476	11210.33
767.812	11304.34
768.148	11478.12
768.485	11497.1
768.821	11597.44
769.157	11679.47
769.492	11788.16
769.828	11933.92
