Data from hue_230_FLMS001491_00021.txt Node
Date: Tue Feb 07 16:36:59 GMT 2017
User: dcchb
Spectrometer: FLMS00149
Trigger mode: 0
Integration Time (sec): 2.000000E-2
Scans to average: 10
Electric dark correction enabled: true
Nonlinearity correction enabled: false
Boxcar width: 0
XAxis mode: Wavelengths
Number of Pixels in Spectrum: 2048
>>>>>Begin Spectral Data<<<<<
341.393	-19.77
341.776	-19.77
342.16	-19.77
342.543	-79.43
342.927	-55.93
343.31	-68.81
343.693	-64.29
344.077	-64.29
344.46	-72.43
344.843	-49.15
345.226	-33.78
345.61	-32.43
345.993	-9.83
346.376	-5.54
346.759	-2.15
347.142	22.26
347.525	24.52
347.908	76.95
348.291	58.87
348.674	106.55
349.057	113.56
349.44	115.36
349.823	137.06
350.206	146.32
350.588	169.83
350.971	196.49
351.354	216.83
351.737	212.76
352.119	250.5
352.502	260.45
352.884	257.51
353.267	273.1
353.65	270.39
354.032	293.44
354.414	299.99
354.797	318.3
355.179	327.56
355.562	335.25
355.944	317.39
356.326	318.07
356.709	328.92
357.091	320.1
357.473	328.47
357.855	314.91
358.238	334.57
358.62	345.41
359.002	316.04
359.384	358.97
359.766	330.27
360.148	327.11
360.53	315.13
360.912	321.91
361.294	340.67
361.676	329.37
362.057	329.82
362.439	328.24
362.821	310.61
363.203	307.22
363.584	317.39
363.966	310.84
364.348	331.18
364.729	315.81
365.111	317.17
365.493	294.12
365.874	312.65
366.256	302.25
366.637	323.04
367.019	313.78
367.4	306.55
367.781	289.6
368.163	307.45
368.544	288.47
368.925	315.81
369.306	327.34
369.688	303.16
370.069	314.23
370.45	311.97
370.831	308.81
371.212	311.52
371.593	312.65
371.974	315.81
372.355	316.94
372.736	323.04
373.117	322.36
373.498	306.32
373.879	308.13
374.26	306.77
374.641	305.87
375.021	324.85
375.402	310.61
375.783	331.86
376.163	314
376.544	320.33
376.925	326.66
377.305	316.71
377.686	333.44
378.066	305.19
378.447	314.23
378.827	309.94
379.208	319.65
379.588	323.04
379.968	333.66
380.349	346.77
380.729	342.48
381.109	303.16
381.489	335.47
381.87	327.34
382.25	332.53
382.63	344.51
383.01	319.88
383.39	323.04
383.77	350.39
384.15	336.38
384.53	348.35
384.91	348.58
385.29	342.25
385.67	334.34
386.049	342.02
386.429	345.41
386.809	322.36
387.189	339.31
387.568	356.49
387.948	330.5
388.328	357.62
388.707	331.63
389.087	364.62
389.466	361.23
389.846	380.44
390.225	376.6
390.605	365.53
390.984	366.88
391.363	357.17
391.743	369.59
392.122	377.73
392.501	374.34
392.881	362.82
393.26	376.37
393.639	374.11
394.018	383.61
394.397	373.89
394.776	370.95
395.155	396.03
395.534	379.09
395.913	382.93
396.292	405.75
396.671	411.4
397.05	408.46
397.429	401.46
397.808	380.89
398.186	392.65
398.565	422.7
398.944	400.55
399.323	373.21
399.701	387.67
400.08	386.77
400.458	394.9
400.837	402.59
401.215	404.85
401.594	398.52
401.972	413.21
402.351	406.2
402.729	426.77
403.107	426.09
403.486	417.28
403.864	424.51
404.242	426.77
404.62	437.62
404.999	424.06
405.377	451.17
405.755	444.85
406.133	451.17
406.511	454.11
406.889	470.38
407.267	466.09
407.645	454.56
408.023	493.66
408.401	480.1
408.779	489.37
409.156	479.87
409.534	480.33
409.912	503.83
410.29	508.12
410.667	490.27
411.045	506.77
411.422	492.3
411.8	501.79
412.178	512.87
412.555	559.19
412.933	546.77
413.31	533.66
413.687	571.62
414.065	577.5
414.442	577.05
414.819	580.44
415.197	571.4
415.574	568.91
415.951	561.23
416.328	618.85
416.705	591.51
417.082	604.16
417.46	621.57
417.837	610.72
418.214	624.96
418.591	631.96
418.967	649.81
419.344	650.94
419.721	643.49
420.098	641.9
420.475	669.47
420.852	688.23
421.228	691.17
421.605	683.71
421.982	702.02
422.358	709.47
422.735	725.29
423.111	735.46
423.488	751.73
423.864	732.07
424.241	754.9
424.617	754.22
424.994	770.49
425.37	781.79
425.746	784.05
426.123	793.31
426.499	789.92
426.875	834.22
427.251	837.15
427.627	853.88
428.003	850.26
428.379	858.85
428.756	892.97
429.132	875.34
429.507	903.37
429.883	908.56
430.259	935.23
430.635	932.97
431.011	933.2
431.387	933.2
431.763	977.26
432.138	983.82
432.514	980.2
432.89	1002.57
433.265	1032.18
433.641	1044.15
434.016	1058.39
434.392	1045.06
434.767	1079.63
435.143	1080.99
435.518	1114.89
435.894	1131.83
436.269	1130.93
436.644	1141.1
437.02	1159.4
437.395	1171.16
437.77	1194.21
438.145	1208.22
438.52	1236.24
438.895	1261.1
439.271	1241.21
439.646	1294.99
440.021	1287.08
440.395	1317.82
440.77	1289.8
441.145	1335.9
441.52	1397.36
441.895	1389.45
442.27	1393.97
442.645	1405.73
443.019	1395.78
443.394	1423.58
443.769	1427.42
444.143	1422
444.518	1453.63
444.892	1436.69
445.267	1460.64
445.641	1497.7
446.016	1514.2
446.39	1515.78
446.764	1516.68
447.139	1516.23
447.513	1524.82
447.887	1543.35
448.262	1573.4
448.636	1558.04
449.01	1590.13
449.384	1593.07
449.758	1587.64
450.132	1621.77
450.506	1643.91
450.88	1650.24
451.254	1652.72
451.628	1671.03
452.002	1641.43
452.376	1656.34
452.75	1706.28
453.123	1715.77
453.497	1729.33
453.871	1752.84
454.244	1751.03
454.618	1773.4
454.992	1798.26
455.365	1818.37
455.739	1808.2
456.112	1857.47
456.486	1892.49
456.859	1915.09
457.232	1944.92
457.606	1928.2
457.979	1950.34
458.352	1953.73
458.725	2005.94
459.099	2033.05
459.472	2059.72
459.845	2046.84
460.218	2113.96
460.591	2083.45
460.964	2108.76
461.337	2126.61
461.71	2144.69
462.083	2208.64
462.456	2218.59
462.829	2208.42
463.201	2246.38
463.574	2257.45
463.947	2322.54
464.32	2339.26
464.692	2330.22
465.065	2376.55
465.438	2400.95
465.81	2423.33
466.183	2444.12
466.555	2477.79
466.928	2498.35
467.3	2506.04
467.672	2531.12
468.045	2600.27
468.417	2595.07
468.789	2619.25
469.161	2652.92
469.534	2720.27
469.906	2727.27
470.278	2713.49
470.65	2762.53
471.022	2824.22
471.394	2860.6
471.766	2930.88
472.138	2910.32
472.51	2993.48
472.882	2990.54
473.253	3036.42
473.625	3063.54
473.997	3158.67
474.369	3143.53
474.74	3167.26
475.112	3224.66
475.484	3240.48
475.855	3315.05
476.227	3334.71
476.598	3425.33
476.97	3421.72
477.341	3482.51
477.713	3554.14
478.084	3537.42
478.455	3657.64
478.827	3706.68
479.198	3814.7
479.569	3773.57
479.94	3845.44
480.311	3887.47
480.682	3941.03
481.053	4004.75
481.424	4093.34
481.795	4097.86
482.166	4122.26
482.537	4154.81
482.908	4286.55
483.279	4286.33
483.65	4383.27
484.021	4460.33
484.391	4474.12
484.762	4539.88
485.133	4552.99
485.503	4624.85
485.874	4732.42
486.244	4698.97
486.615	4807.22
486.985	4862.81
487.356	4955.46
487.726	4990.26
488.097	5094.89
488.467	5047.44
488.837	5183.71
489.207	5188.68
489.578	5253.76
489.948	5275.23
490.318	5303.7
490.688	5379.18
491.058	5424.15
491.428	5498.5
491.798	5529.01
492.168	5629.8
492.538	5628.89
492.908	5681.32
493.278	5764.26
493.648	5723.35
494.017	5833.86
494.387	5872.27
494.757	5877.47
495.126	5972.84
495.496	5935.32
495.866	5996.57
496.235	6018.94
496.605	6070.91
496.974	6071.59
497.344	6133.74
497.713	6137.8
498.082	6232.72
498.452	6236.33
498.821	6276.56
499.19	6252.6
499.559	6339.16
499.928	6363.79
500.298	6430
500.667	6461.86
501.036	6434.52
501.405	6421.64
501.774	6506.38
502.143	6558.58
502.512	6551.58
502.88	6600.39
503.249	6602.43
503.618	6579.83
503.987	6634.97
504.356	6652.37
504.724	6660.5
505.093	6692.59
505.462	6759.48
505.83	6754.06
506.199	6747.51
506.567	6839.93
506.936	6820.05
507.304	6884.23
507.672	6879.48
508.041	6921.29
508.409	6982.53
508.777	6980.27
509.145	7001.96
509.514	7038.57
509.882	7007.84
510.25	6993.38
510.618	7059.81
510.986	7010.32
511.354	7149.53
511.722	7111.34
512.09	7169.64
512.458	7142.07
512.826	7166.03
513.193	7211.67
513.561	7198.79
513.929	7255.29
514.297	7248.28
514.664	7250.32
515.032	7255.74
515.4	7386.59
515.767	7350.43
516.135	7342.97
516.502	7273.14
516.869	7413.48
517.237	7372.57
517.604	7331.22
517.972	7448.73
518.339	7488.96
518.706	7414.38
519.073	7390.65
519.44	7404.66
519.808	7499.35
520.175	7425.91
520.542	7543.42
520.909	7541.84
521.276	7510.2
521.643	7579.57
522.009	7576.86
522.376	7525.56
522.743	7618.67
523.11	7654.83
523.477	7675.62
523.843	7713.81
524.21	7702.74
524.577	7827.03
524.943	7759.46
525.31	7741.83
525.676	7757.2
526.043	7798.1
526.409	7764.43
526.776	7830.64
527.142	7834.03
527.508	7883.75
527.874	7871.77
528.241	7930.98
528.607	7897.08
528.973	7905.67
529.339	7858.89
529.705	7964.42
530.071	7982.28
530.437	7977.98
530.803	7935.27
531.169	7966.01
531.535	7954.48
531.901	7957.42
532.267	7944.54
532.632	8064.31
532.998	7944.99
533.364	7942.05
533.73	7965.55
534.095	7975.95
534.461	8002.84
534.826	8026.57
535.192	7988.15
535.557	7978.43
535.923	7955.84
536.288	7976.85
536.653	8032.44
537.019	7922.84
537.384	7870.64
537.749	7961.71
538.114	7961.03
538.479	7906.35
538.845	8001.71
539.21	7954.48
539.575	7956.29
539.94	7933.24
540.305	7941.15
540.67	7902.96
541.034	7895.5
541.399	7952.45
541.764	7908.15
542.129	7881.94
542.494	7830.87
542.858	7880.81
543.223	7902.05
543.587	7821.6
543.952	7881.94
544.316	7849.17
544.681	7847.14
545.045	7841.94
545.41	7866.8
545.774	7821.38
546.138	7829.96
546.503	7834.71
546.867	7811.88
547.231	7797.87
547.595	7785.67
547.959	7735.95
548.324	7748.61
548.688	7709.51
549.052	7702.51
549.416	7739.34
549.779	7697.09
550.143	7655.73
550.507	7767.37
550.871	7719.68
551.235	7659.12
551.599	7741.83
551.962	7735.5
552.326	7681.94
552.689	7730.53
553.053	7640.59
553.417	7680.14
553.78	7707.25
554.143	7686.24
554.507	7675.62
554.87	7653.92
555.234	7740.25
555.597	7700.7
555.96	7637.65
556.323	7663.41
556.686	7705.67
557.05	7696.86
557.413	7688.05
557.776	7686.24
558.139	7760.36
558.502	7734.37
558.865	7732.11
559.228	7719.23
559.59	7746.35
559.953	7763.3
560.316	7810.98
560.679	7783.64
561.041	7786.8
561.404	7839.68
561.767	7834.48
562.129	7831.55
562.492	7864.09
562.854	7897.98
563.217	7845.33
563.579	7845.33
563.941	7891.2
564.304	7856.4
564.666	7964.88
565.028	7913.35
565.39	7954.71
565.753	7947.25
566.115	7968.27
566.477	7980.92
566.839	8019.79
567.201	8037.19
567.563	8032.9
567.925	8043.07
568.287	8068.38
568.648	8094.36
569.01	8095.49
569.372	8175.72
569.734	8144.08
570.095	8226.56
570.457	8181.82
570.819	8177.98
571.18	8292.78
571.542	8203.74
571.903	8181.37
572.265	8285.54
572.626	8307.69
572.987	8355.37
573.349	8345.66
573.71	8317.86
574.071	8357.41
574.432	8354.47
574.794	8467.23
575.155	8412.1
575.516	8340.91
575.877	8380.46
576.238	8518.99
576.599	8537.97
576.96	8494.13
577.32	8476.73
577.681	8524.41
578.042	8508.14
578.403	8525.54
578.763	8517.18
579.124	8590.62
579.485	8560.34
579.845	8598.76
580.206	8663.61
580.566	8610.73
580.927	8669.04
581.287	8692.99
581.648	8658.87
582.008	8741.13
582.368	8756.49
582.728	8738.87
583.089	8731.41
583.449	8765.31
583.809	8782.48
584.169	8781.35
584.529	8834.91
584.889	8901.57
585.249	8835.59
585.609	8839.43
585.969	8872.42
586.329	8863.38
586.688	8825.87
587.048	8818.86
587.408	8857.96
587.768	8850.95
588.127	8897.96
588.487	8917.84
588.846	8971.63
589.206	8864.74
589.565	8933.66
589.925	8977.5
590.284	8925.98
590.643	9003.49
591.003	9001.91
591.362	9051.17
591.721	8990.61
592.08	9060.21
592.44	9050.95
592.799	9087.33
593.158	9008.46
593.517	9044.62
593.876	9088.69
594.235	9068.35
594.593	9069.93
594.952	9110.38
595.311	9108.8
595.67	9185.86
596.029	9172.98
596.387	9175.46
596.746	9161.68
597.104	9147.44
597.463	9143.6
597.822	9144.51
598.18	9184.05
598.538	9134.79
598.897	9231.73
599.255	9105.18
599.613	9294.33
599.972	9253.88
600.33	9245.97
600.688	9238.06
601.046	9239.64
601.404	9238.51
601.762	9238.06
602.12	9285.29
602.478	9353.77
602.836	9273.32
603.194	9271.73
603.552	9276.71
603.91	9269.02
604.268	9339.53
604.625	9256.82
604.983	9316.03
605.341	9245.07
605.698	9348.79
606.056	9363.71
606.413	9325.97
606.771	9407.55
607.128	9398.74
607.485	9345.18
607.843	9297.72
608.2	9369.36
608.557	9431.28
608.914	9342.24
609.272	9449.81
609.629	9498.39
609.986	9434.67
610.343	9397.15
610.7	9502.91
611.057	9424.72
611.414	9468.34
611.771	9449.36
612.127	9470.82
612.484	9530.94
612.841	9497.04
613.198	9398.06
613.554	9492.29
613.911	9501.78
614.267	9530.94
614.624	9495.23
614.98	9492.74
615.337	9616.58
615.693	9462.24
616.05	9555.79
616.406	9590.37
616.762	9574.1
617.118	9565.74
617.475	9584.95
617.831	9546.53
618.187	9546.08
618.543	9585.62
618.899	9693.19
619.255	9544.72
619.611	9616.58
619.967	9617.71
620.323	9703.36
620.678	9610.26
621.034	9644.38
621.39	9681.21
621.746	9613.42
622.101	9741.1
622.457	9589.47
622.812	9670.59
623.168	9649.58
623.523	9618.62
623.879	9666.3
624.234	9606.41
624.589	9679.41
624.945	9666.98
625.3	9690.03
625.655	9643.93
626.01	9623.36
626.365	9682.12
626.72	9616.58
627.075	9689.12
627.43	9629.69
627.785	9596.92
628.14	9652.51
628.495	9634.44
628.85	9700.87
629.205	9550.37
629.559	9598.73
629.914	9611.39
630.269	9610.93
630.623	9584.49
630.978	9597.15
631.332	9591.27
631.687	9649.58
632.041	9531.61
632.396	9586.75
632.75	9499.98
633.104	9561.67
633.459	9474.21
633.813	9453.42
634.167	9509.02
634.521	9452.52
634.875	9525.29
635.229	9455.01
635.583	9430.83
635.937	9383.14
636.291	9429.47
636.645	9387.21
636.999	9373.65
637.352	9373.2
637.706	9334.33
638.06	9425.63
638.413	9337.72
638.767	9396.02
639.121	9332.3
639.474	9302.69
639.828	9333.43
640.181	9309.47
640.534	9345.63
640.888	9288.46
641.241	9195.58
641.594	9321.22
641.947	9331.39
642.301	9233.09
642.654	9208.23
643.007	9279.42
643.36	9229.02
643.713	9226.54
644.066	9194.9
644.419	9149.7
644.771	9155.35
645.124	9101.79
645.477	9030.16
645.83	9036.03
646.182	8971.63
646.535	8998.29
646.888	8891.18
647.24	8877.17
647.593	8979.76
647.945	8891.18
648.298	8883.72
648.65	8878.07
649.002	8848.92
649.355	8883.72
649.707	8855.25
650.059	8909.94
650.411	9050.95
650.763	8982.25
651.115	9100.66
651.467	9078.74
651.819	9005.75
652.171	9091.4
652.523	8999.65
652.875	9026.09
653.227	9021.8
653.578	9039.2
653.93	9041.91
654.282	8991.06
654.633	9050.72
654.985	8997.62
655.337	9033.77
655.688	9068.58
656.039	9076.03
656.391	8979.99
656.742	8999.65
657.094	8990.84
657.445	9086.43
657.796	9092.53
658.147	9052.3
658.498	8976.83
658.849	9068.58
659.2	9022.25
659.551	9016.15
659.902	9001.91
660.253	9080.78
660.604	9088.01
660.955	8993.55
661.306	9014.57
661.656	9046.43
662.007	9048.24
662.358	9015.47
662.708	9037.39
663.059	9047.56
663.409	8956.71
663.76	9053.43
664.11	9045.98
664.461	9064.28
664.811	9032.64
665.161	9092.76
665.511	9084.17
665.862	9044.17
666.212	9100.44
666.562	9092.08
666.912	9034
667.262	9054.11
667.612	9002.36
667.962	9056.15
668.312	9024.28
668.662	9006.88
669.011	9005.98
669.361	9013.89
669.711	9053.21
670.06	9026.54
670.41	8989.93
670.76	9013.66
671.109	9092.98
671.459	9064.73
671.808	8966.66
672.157	8994
672.507	8915.81
672.856	8911.07
673.205	8961.46
673.554	9028.58
673.904	8956.49
674.253	8963.95
674.602	8936.38
674.951	8813.89
675.3	8748.36
675.649	8878.3
675.998	8909.94
676.346	8913.55
676.695	8899.54
677.044	8840.33
677.393	8893.89
677.741	8915.58
678.09	8861.57
678.438	8855.93
678.787	8777.96
679.135	8852.31
679.484	8736.83
679.832	8812.76
680.181	8770.05
680.529	8820.45
680.877	8683.95
681.225	8711.75
681.573	8767.79
681.922	8726.66
682.27	8795.59
682.618	8689.15
682.966	8660.45
683.314	8688.7
683.661	8648.02
684.009	8626.78
684.357	8609.83
684.705	8557.85
685.053	8586.55
685.4	8577.06
685.748	8535.71
686.095	8577.29
686.443	8535.03
686.79	8456.39
687.138	8503.84
687.485	8504.07
687.832	8426.78
688.18	8455.26
688.527	8348.14
688.874	8401.93
689.221	8380.46
689.568	8333.45
689.915	8315.37
690.262	8247.35
690.609	8260.69
690.956	8228.15
691.303	8217.52
691.65	8163.97
691.997	8207.35
692.344	8159.9
692.69	8092.78
693.037	8125.1
693.383	8063.4
693.73	8130.52
694.077	8016.85
694.423	7969.17
694.769	7967.36
695.116	7960.58
695.462	7940.24
695.808	7878.78
696.155	7899.34
696.501	7801.72
696.847	7903.63
697.193	7792.9
697.539	7817.31
697.885	7696.63
698.231	7717.2
698.577	7686.01
698.923	7672.91
699.269	7587.48
699.614	7603.3
699.96	7509.52
700.306	7556.07
700.651	7547.26
700.997	7540.25
701.342	7537.54
701.688	7479.69
702.033	7482.4
702.379	7436.98
702.724	7354.5
703.069	7404.89
703.415	7302.29
703.76	7343.2
704.105	7330.99
704.45	7286.48
704.795	7288.06
705.14	7232.01
705.485	7279.24
705.83	7178.68
706.175	7190.88
706.52	7193.6
706.865	7187.49
707.209	7110.21
707.554	7113.15
707.899	7082.86
708.243	7083.99
708.588	7048.29
708.932	6973.71
709.277	7039.93
709.621	7014.84
709.966	6945.92
710.31	6977.33
710.654	6903.43
710.998	6942.53
711.342	6903.21
711.687	6882.19
712.031	6849.88
712.375	6893.72
712.719	6811.46
713.063	6844
713.407	6865.7
713.75	6824.57
714.094	6818.46
714.438	6765.13
714.782	6787.73
715.125	6795.19
715.469	6769.2
715.812	6723.78
716.156	6737.56
716.499	6691.46
716.843	6743.44
717.186	6684.91
717.53	6692.82
717.873	6640.39
718.216	6658.02
718.559	6664.34
718.902	6603.56
719.246	6607.17
719.589	6547.96
719.932	6592.71
720.275	6524.69
720.617	6595.42
720.96	6579.6
721.303	6583.22
721.646	6552.26
721.989	6499.83
722.331	6541.86
722.674	6556.78
723.016	6518.59
723.359	6556.32
723.701	6541.41
724.044	6497.34
724.386	6423.9
724.729	6523.78
725.071	6481.98
725.413	6520.85
725.755	6526.04
726.097	6475.65
726.439	6398.59
726.782	6484.91
727.124	6434.75
727.465	6430.9
727.807	6438.36
728.149	6445.82
728.491	6399.72
728.833	6426.61
729.175	6422.09
729.516	6410.79
729.858	6427.97
730.199	6435.88
730.541	6432.49
730.882	6365.37
731.224	6400.62
731.565	6381.64
731.906	6412.37
732.248	6431.36
732.589	6386.61
732.93	6301.42
733.271	6321.08
733.612	6340.96
733.953	6407.18
734.294	6377.12
734.635	6357.91
734.976	6405.37
735.317	6345.93
735.658	6369.21
735.999	6345.48
736.339	6360.4
736.68	6355.2
737.021	6399.94
737.361	6391.13
737.702	6358.36
738.042	6371.24
738.383	6352.49
738.723	6379.83
739.063	6430.68
739.404	6445.37
739.744	6406.95
740.084	6386.61
740.424	6461.41
740.764	6401.07
741.104	6435.88
741.444	6447.63
741.784	6412.83
742.124	6457.34
742.464	6496.89
742.804	6482.43
743.143	6491.47
743.483	6462.77
743.823	6546.61
744.162	6486.5
744.502	6533.27
744.841	6540.73
745.181	6588.19
745.52	6556.32
745.86	6623.67
746.199	6647.17
746.538	6659.37
746.877	6659.37
747.216	6741.86
747.556	6738.01
747.895	6709.99
748.234	6768.52
748.573	6875.19
748.911	6765.58
749.25	6912.25
749.589	6916.99
749.928	6949.76
750.267	7041.51
750.605	7065.69
750.944	7140.72
751.283	7177.1
751.621	7210.54
751.96	7330.32
752.298	7323.54
752.636	7403.53
752.975	7374.16
753.313	7496.41
753.651	7587.71
753.989	7672.45
754.327	7686.01
754.666	7816.4
755.004	7863.18
755.342	8032.22
755.679	8104.53
756.017	8209.61
756.355	8274.47
756.693	8367.58
757.031	8443.73
757.368	8565.31
757.706	8627
758.044	8733.67
758.381	8859.54
758.719	8969.14
759.056	9009.14
759.394	9144.28
759.731	9264.28
760.068	9334.33
760.405	9439.19
760.743	9604.38
761.08	9693.42
761.417	9817.03
761.754	9913.98
762.091	10090.47
762.428	10228.32
762.765	10247.3
763.102	10457.24
763.438	10533.17
763.775	10630.12
764.112	10762.09
764.449	10853.39
764.785	11002.76
765.122	11023.78
765.458	11139.71
765.795	11355.07
766.131	11344.67
766.467	11477.33
766.804	11548.96
767.14	11673.25
767.476	11845.23
767.812	11795.96
768.148	11930.19
768.485	12051.32
768.821	12005.45
