Data from hue_280_FLMS001491_00012.txt Node
Date: Tue Feb 07 15:54:54 GMT 2017
User: dcchb
Spectrometer: FLMS00149
Trigger mode: 0
Integration Time (sec): 2.000000E-2
Scans to average: 10
Electric dark correction enabled: true
Nonlinearity correction enabled: false
Boxcar width: 0
XAxis mode: Wavelengths
Number of Pixels in Spectrum: 2048
>>>>>Begin Spectral Data<<<<<
341.393	-9.7
341.776	-9.7
342.16	-9.7
342.543	-89.7
342.927	-68.01
343.31	-80.89
343.693	-72.75
344.077	-80.44
344.46	-55.35
344.843	-50.83
345.226	-28.91
345.61	-30.27
345.993	-19.87
346.376	-5.41
346.759	20.13
347.142	43.4
347.525	42.95
347.908	49.5
348.291	84.98
348.674	96.51
349.057	87.24
349.44	126.79
349.823	131.76
350.206	164.08
350.588	182.38
350.971	203.85
351.354	232.78
351.737	245.88
352.119	247.01
352.502	283.17
352.884	273.68
353.267	279.1
353.65	277.07
354.032	292.21
354.414	298.09
354.797	301.93
355.179	317.07
355.562	304.64
355.944	318.2
356.326	337.18
356.709	324.53
357.091	319.78
357.473	341.02
357.855	338.31
358.238	356.16
358.62	346.22
359.002	329.5
359.384	331.08
359.766	307.35
360.148	328.37
360.53	352.77
360.912	327.92
361.294	323.85
361.676	304.64
362.057	341.47
362.439	336.28
362.821	319.1
363.203	329.95
363.584	317.29
363.966	336.05
364.348	300.12
364.729	311.64
365.111	319.1
365.493	318.42
365.874	321.59
366.256	307.12
366.637	295.83
367.019	312.55
367.4	305.77
367.781	317.52
368.163	306.9
368.544	308.03
368.925	297.41
369.306	313.9
369.688	318.65
370.069	329.27
370.45	315.03
370.831	287.69
371.212	302.83
371.593	301.25
371.974	305.54
372.355	331.98
372.736	313.23
373.117	306.67
373.498	305.77
373.879	294.47
374.26	311.87
374.641	295.37
375.021	317.29
375.402	305.99
375.783	315.03
376.163	359.78
376.544	317.97
376.925	333.56
377.305	327.92
377.686	336.05
378.066	322.04
378.447	310.74
378.827	335.15
379.208	339.67
379.588	331.53
379.968	332.89
380.349	341.02
380.729	342.38
381.109	341.93
381.489	331.08
381.87	330.85
382.25	340.57
382.63	329.27
383.01	342.15
383.39	332.89
383.77	334.92
384.15	341.93
384.53	356.16
384.91	351.42
385.29	348.93
385.67	347.8
386.049	350.29
386.429	360
386.809	357.07
387.189	368.37
387.568	379.21
387.948	341.7
388.328	357.52
388.707	355.71
389.087	363.85
389.466	360.68
389.846	373.34
390.225	371.3
390.605	388.25
390.984	382.38
391.363	375.15
391.743	365.2
392.122	394.81
392.501	390.74
392.881	397.52
393.26	361.36
393.639	374.92
394.018	390.74
394.397	364.98
394.776	374.92
395.155	369.95
395.534	379.67
395.913	401.59
396.292	407.24
396.671	387.35
397.05	405.43
397.429	405.43
397.808	413.56
398.186	400.91
398.565	430.06
398.944	406.78
399.323	413.11
399.701	420.57
400.08	413.11
400.458	441.36
400.837	432.77
401.215	434.13
401.594	433.9
401.972	439.32
402.351	412.21
402.729	443.84
403.107	432.09
403.486	432.09
403.864	442.26
404.242	445.2
404.62	460.34
404.999	454.24
405.377	464.86
405.755	453.79
406.133	458.31
406.511	484.52
406.889	485.65
407.267	487.23
407.645	463.28
408.023	471.87
408.401	466.44
408.779	504.63
409.156	498.53
409.534	513.67
409.912	533.56
410.29	515.48
410.667	509.61
411.045	565.87
411.422	522.03
411.8	534.69
412.178	563.84
412.555	587.57
412.933	587.34
413.31	585.08
413.687	594.57
414.065	588.25
414.442	606.55
414.819	615.37
415.197	609.49
415.574	630.96
415.951	643.16
416.328	635.7
416.705	638.19
417.082	649.26
417.46	669.38
417.837	671.41
418.214	694.69
418.591	675.93
418.967	683.39
419.344	690.39
419.721	707.11
420.098	688.58
420.475	729.71
420.852	708.7
421.228	755.47
421.605	756.6
421.982	755.02
422.358	762.93
422.735	765.87
423.111	751.18
423.488	790.05
423.864	776.04
424.241	824.17
424.617	817.62
424.994	848.35
425.37	830.05
425.746	854
426.123	857.62
426.499	868.92
426.875	881.12
427.251	895.13
427.627	917.73
428.003	932.87
428.379	914.11
428.756	936.49
429.132	956.6
429.507	941.46
429.883	975.13
430.259	974.68
430.635	1007.67
431.011	971.97
431.387	1018.97
431.763	1017.84
432.138	1046.09
432.514	1075.47
432.89	1057.16
433.265	1086.09
433.641	1104.62
434.016	1103.04
434.392	1112.53
434.767	1139.42
435.143	1168.8
435.518	1154.33
435.894	1163.37
436.269	1164.5
436.644	1235.24
437.02	1217.84
437.395	1205.18
437.77	1245.86
438.145	1253.99
438.52	1272.3
438.895	1277.04
439.271	1304.84
439.646	1351.39
440.021	1336.7
440.395	1363.59
440.77	1347.78
441.145	1370.83
441.52	1380.09
441.895	1389.58
442.27	1413.54
442.645	1397.72
443.019	1439.52
443.394	1416.25
443.769	1434.33
444.143	1442.69
444.518	1467.77
444.892	1462.12
445.267	1477.72
445.641	1477.49
446.016	1498.51
446.39	1485.17
446.764	1493.53
447.139	1487.88
447.513	1488.56
447.887	1529.01
448.262	1547.09
448.636	1556.13
449.01	1562.01
449.384	1570.82
449.758	1597.03
450.132	1576.7
450.506	1578.96
450.88	1616.69
451.254	1609.24
451.628	1636.13
452.002	1641.55
452.376	1637.94
452.75	1667.77
453.123	1695.56
453.497	1694.66
453.871	1659.86
454.244	1697.37
454.618	1709.12
454.992	1752.51
455.365	1751.61
455.739	1802.68
456.112	1804.49
456.486	1821.89
456.859	1827.99
457.232	1824.6
457.606	1847.88
457.979	1858.27
458.352	1890.36
458.725	1889.68
459.099	1916.12
459.472	1935.78
459.845	1952.28
460.218	1969.23
460.591	1991.15
460.964	1977.36
461.337	2034.99
461.71	2031.83
462.083	2049
462.456	2074.08
462.829	2076.8
463.201	2078.15
463.574	2086.74
463.947	2155.44
464.32	2179.84
464.692	2188.66
465.065	2202.44
465.438	2250.58
465.81	2241.54
466.183	2275.66
466.555	2326.96
466.928	2312.04
467.3	2297.35
467.672	2338.26
468.045	2382.55
468.417	2405.15
468.789	2437.69
469.161	2411.93
469.534	2438.59
469.906	2461.42
470.278	2506.84
470.65	2541.19
471.022	2592.26
471.394	2618.48
471.766	2595.2
472.138	2649.89
472.51	2681.98
472.882	2726.95
473.253	2773.73
473.625	2786.61
473.997	2821.18
474.369	2792.26
474.74	2866.38
475.112	2898.47
475.484	2910.67
475.855	2969.43
476.227	2950.45
476.598	3043.78
476.97	3024.57
477.341	3150.67
477.713	3141.17
478.084	3138.69
478.455	3241.06
478.827	3236.99
479.198	3323.09
479.569	3331
479.94	3404.44
480.311	3427.49
480.682	3447.83
481.053	3517.44
481.424	3574.61
481.795	3629.98
482.166	3642.63
482.537	3677.21
482.908	3733.48
483.279	3718.79
483.65	3796.52
484.021	3864.77
484.391	3883.3
484.762	3930.08
485.133	3898.22
485.503	3952.9
485.874	4026.8
486.244	4093.24
486.615	4154.03
486.985	4148.61
487.356	4257.98
487.726	4281.03
488.097	4319.22
488.467	4329.39
488.837	4464.76
489.207	4458.2
489.578	4495.49
489.948	4524.19
490.318	4567.58
490.688	4566.22
491.058	4589.27
491.428	4695.71
491.798	4726.22
492.168	4777.52
492.538	4764.63
492.908	4867.46
493.278	4907
493.648	4883.05
494.017	4935.48
494.387	5038.3
494.757	5050.73
495.126	5067.23
495.496	5028.81
495.866	5108.58
496.235	5130.5
496.605	5173.66
496.974	5169.82
497.344	5224.96
497.713	5242.14
498.082	5287.33
498.452	5300.67
498.821	5281.01
499.19	5356.71
499.559	5379.99
499.928	5372.08
500.298	5405.75
500.667	5447.78
501.036	5467.22
501.405	5500.66
501.774	5489.14
502.143	5542.69
502.512	5527.33
502.88	5591.28
503.249	5564.39
503.618	5672.18
503.987	5660.43
504.356	5641.45
504.724	5654.78
505.093	5676.93
505.462	5682.58
505.83	5749.24
506.199	5753.54
506.567	5796.7
506.936	5813.65
507.304	5857.71
507.672	5877.6
508.041	5906.98
508.409	5972.51
508.777	5941.1
509.145	6027.2
509.514	6000.31
509.882	6010.48
510.25	5994.43
510.618	6057.26
510.986	6043.25
511.354	6066.75
511.722	6072.4
512.09	6119.63
512.458	6148.78
512.826	6154.65
513.193	6174.99
513.561	6204.14
513.929	6223.13
514.297	6270.81
514.664	6270.81
515.032	6257.25
515.4	6338.6
515.767	6345.61
516.135	6322.79
516.502	6339.28
516.869	6455.66
517.237	6384.48
517.604	6375.67
517.972	6419.05
518.339	6493.63
518.706	6483.46
519.073	6485.95
519.44	6484.36
519.808	6535.21
520.175	6500.18
520.542	6579.05
520.909	6596.9
521.276	6649.56
521.643	6671.7
522.009	6672.61
522.376	6711.25
522.743	6726.39
523.11	6778.37
523.477	6799.38
523.843	6788.76
524.21	6860.4
524.577	6853.39
524.943	6908.99
525.31	6991.24
525.676	6986.72
526.043	7000.51
526.409	7020.62
526.776	7022.88
527.142	7054.29
527.508	7123.67
527.874	7092.93
528.241	7173.84
528.607	7118.25
528.973	7199.6
529.339	7168.87
529.705	7260.84
530.071	7332.93
530.437	7362.31
530.803	7356.66
531.169	7353.95
531.535	7356.2
531.901	7380.61
532.267	7419.25
532.632	7475.3
532.998	7481.4
533.364	7484.34
533.73	7517.1
534.095	7601.4
534.461	7524.79
534.826	7608.4
535.192	7603.43
535.557	7644.11
535.923	7652.24
536.288	7650.66
536.653	7640.04
537.019	7638.23
537.384	7678
537.749	7727.49
538.114	7799.58
538.479	7767.04
538.845	7748.06
539.21	7765.01
539.575	7762.75
539.94	7801.39
540.305	7871.67
540.67	7864.44
541.034	7874.61
541.399	7936.08
541.764	7884.78
542.129	7896.98
542.494	7917.32
542.858	7966.36
543.223	7953.03
543.587	8024.21
543.952	7964.55
544.316	8028.05
544.681	8013.36
545.045	8064.89
545.41	8113.02
545.774	8122.06
546.138	8054.04
546.503	8102.4
546.867	8086.36
547.231	8131.55
547.595	8132.46
547.959	8186.47
548.324	8218.56
548.688	8139.91
549.052	8248.84
549.416	8194.37
549.779	8237.54
550.143	8233.24
550.507	8271.66
550.871	8297.42
551.235	8294.49
551.599	8360.7
551.962	8383.97
552.326	8313.92
552.689	8355.95
553.053	8357.76
553.417	8344.65
553.78	8411.32
554.143	8409.74
554.507	8466.91
554.87	8443.63
555.234	8554.14
555.597	8453.8
555.96	8459.68
556.323	8563.18
556.686	8560.92
557.05	8553.91
557.413	8624.19
557.776	8600.01
558.139	8679.33
558.502	8614.02
558.865	8685.21
559.228	8743.51
559.59	8778.99
559.953	8736.28
560.316	8821.93
560.679	8812.21
561.041	8898.31
561.404	8874.81
561.767	8929.27
562.129	8909.61
562.492	8914.36
562.854	8985.77
563.217	8998.87
563.579	8995.94
563.941	9046.33
564.304	9126.1
564.666	9120.23
565.028	9132.66
565.39	9143.73
565.753	9242.48
566.115	9235.25
566.477	9242.03
566.839	9285.87
567.201	9277.96
567.563	9320.45
567.925	9470.05
568.287	9407
568.648	9397.06
569.01	9477.05
569.372	9543.27
569.734	9438.86
570.095	9608.35
570.457	9579.2
570.819	9621
571.18	9573.32
571.542	9699.87
571.903	9701.91
572.265	9784.84
572.626	9724.05
572.987	9786.42
573.349	9881.79
573.71	9905.52
574.071	9930.15
574.432	9900.54
574.794	10034.55
575.155	10033.87
575.516	10024.84
575.877	10068.68
576.238	10187.99
576.599	10147.32
576.96	10175.34
577.32	10224.6
577.681	10266.64
578.042	10331.27
578.403	10355.67
578.763	10355.9
579.124	10438.38
579.485	10519.96
579.845	10566.97
580.206	10573.3
580.566	10567.65
580.927	10665.04
581.287	10733.97
581.648	10700.52
582.008	10816
582.368	10782.33
582.728	10863.23
583.089	10891.71
583.449	10975.09
583.809	11038.59
584.169	11108.42
584.529	11086.73
584.889	11295.99
585.249	11240.4
585.609	11282.88
585.969	11350.68
586.329	11458.24
586.688	11542.08
587.048	11567.62
587.408	11545.7
587.768	11620.05
588.127	11709.76
588.487	11796.09
588.846	11924.67
589.206	11841.74
589.565	12010.09
589.925	12098.68
590.284	12075.63
590.643	12234.72
591.003	12269.3
591.362	12346.58
591.721	12387.49
592.08	12458.22
592.44	12489.63
592.799	12629.96
593.158	12683.52
593.517	12691.21
593.876	12805.1
594.235	12850.3
594.593	12916.06
594.952	13028.37
595.311	12967.13
595.67	13060.24
596.029	13265.88
596.387	13261.13
596.746	13340.23
597.104	13411.64
597.463	13394.24
597.822	13444.18
598.18	13507.23
598.538	13521.01
598.897	13640.56
599.255	13596.72
599.613	13762.82
599.972	13799.88
600.33	13885.07
600.688	13838.97
601.046	13979.99
601.404	14019.08
601.762	13941.12
602.12	14182.24
602.478	14187.89
602.836	14187.21
603.194	14199.64
603.552	14224.72
603.91	14285.97
604.268	14373.65
604.625	14428.79
604.983	14462.68
605.341	14425.62
605.698	14589.46
606.056	14528.67
606.413	14528.22
606.771	14723.92
607.128	14692.96
607.485	14616.13
607.843	14667.88
608.2	14839.85
608.557	14778.61
608.914	14813.41
609.272	14812.05
609.629	14878.27
609.986	15000.52
610.343	14929.11
610.7	14967.08
611.057	15045.72
611.414	15063.8
611.771	15128.88
612.127	15297.24
612.484	15272.15
612.841	15262.89
613.198	15209.11
613.554	15310.57
613.911	15359.16
614.267	15382.21
614.624	15436.22
614.98	15393.28
615.337	15485.48
615.693	15477.12
616.05	15395.77
616.406	15570.45
616.762	15531.36
617.118	15639.6
617.475	15576.33
617.831	15586.5
618.187	15696.32
618.543	15697.45
618.899	15747.4
619.255	15729.77
619.611	15624.46
619.967	15756.66
620.323	15752.82
620.678	15704.69
621.034	15735.65
621.39	15732.93
621.746	15773.16
622.101	15883.89
622.457	15671.47
622.812	15803.21
623.168	15892.25
623.523	15863.33
623.879	15928.41
624.234	15888.86
624.589	15888.41
624.945	16023.32
625.3	15969.76
625.655	15958.46
626.01	15943.78
626.365	16009.08
626.72	15990.1
627.075	15988.29
627.43	16000.72
627.785	15909.43
628.14	16014.96
628.495	16042.76
628.85	15915.75
629.205	15918.69
629.559	16044.56
629.914	15932.7
630.269	15915.98
630.623	15878.24
630.978	15895.87
631.332	15928.86
631.687	15944
632.041	15829.88
632.396	15905.81
632.75	15862.65
633.104	15838.69
633.459	15737.91
633.813	15816.55
634.167	15726.15
634.521	15795.31
634.875	15854.74
635.229	15806.83
635.583	15704.23
635.937	15734.74
636.291	15720.28
636.645	15683.22
636.999	15685.48
637.352	15736.55
637.706	15574.97
638.06	15641.18
638.413	15585.59
638.767	15627.85
639.121	15587.63
639.474	15536.55
639.828	15558.02
640.181	15555.31
640.534	15615.42
640.888	15490
641.241	15490.91
641.594	15511.47
641.947	15537.68
642.301	15523.67
642.654	15550.57
643.007	15419.95
643.36	15494.52
643.713	15491.36
644.066	15417.24
644.419	15422.21
644.771	15271.03
645.124	15166.62
645.477	15121.65
645.83	14993.97
646.182	15031.03
646.535	14916.23
646.888	14957.13
647.24	14900.64
647.593	14977.47
647.945	14912.39
648.298	14846.4
648.65	14795.78
649.002	14783.13
649.355	14926.63
649.707	14911.94
650.059	14986.51
650.411	15175.43
650.763	15294.3
651.115	15309.22
651.467	15328.42
651.819	15313.06
652.171	15237.13
652.523	15358.03
652.875	15236.9
653.227	15265.6
653.578	15319.39
653.93	15300.4
654.282	15214.76
654.633	15250.91
654.985	15254.08
655.337	15370.68
655.688	15285.04
656.039	15404.81
656.391	15286.84
656.742	15308.54
657.094	15249.56
657.445	15284.58
657.796	15271.48
658.147	15195.77
658.498	15233.06
658.849	15325.26
659.2	15255.88
659.551	15251.36
659.902	15274.87
660.253	15347.18
660.604	15322.78
660.955	15228.99
661.306	15298.82
661.656	15285.26
662.007	15309.67
662.358	15346.73
662.708	15334.53
663.059	15310.8
663.409	15175.43
663.76	15379.72
664.11	15366.62
664.461	15414.3
664.811	15353.06
665.161	15436.44
665.511	15325.71
665.862	15380.4
666.212	15403
666.562	15408.87
666.912	15319.84
667.262	15351.7
667.612	15363.9
667.962	15353.73
668.312	15399.84
668.662	15435.77
669.011	15355.09
669.361	15354.64
669.711	15304.24
670.06	15365.94
670.41	15266.51
670.76	15331.36
671.109	15384.92
671.459	15374.98
671.808	15317.8
672.157	15297.01
672.507	15160.75
672.856	15203.46
673.205	15266.96
673.554	15256.79
673.904	15235.32
674.253	15272.38
674.602	15231.7
674.951	14987.42
675.3	15014.08
675.649	15179.73
675.998	15095.44
676.346	15207.75
676.695	15213.17
677.044	15084.82
677.393	15064.93
677.741	15079.84
678.09	15135.89
678.438	15004.82
678.787	15107.41
679.135	15045.95
679.484	14944.71
679.832	15073.74
680.181	14819.51
680.529	15000.3
680.877	14879.85
681.225	14950.81
681.573	14962.56
681.922	14886.85
682.27	14793.07
682.618	14873.97
682.966	14815.22
683.314	14809.57
683.661	14657.71
684.009	14656.13
684.357	14697.48
684.705	14615
685.053	14627.88
685.4	14611.61
685.748	14483.7
686.095	14550.59
686.443	14467.88
686.79	14392.86
687.138	14477.37
687.485	14389.47
687.832	14370.26
688.18	14419.52
688.527	14312.86
688.874	14337.04
689.221	14249.36
689.568	14172.97
689.915	14126.65
690.262	14043.94
690.609	14033.32
690.956	14100.21
691.303	14041.45
691.65	13986.99
691.997	13928.24
692.344	13860.21
692.69	13840.78
693.037	13798.07
693.383	13676.26
693.73	13809.37
694.077	13692.31
694.423	13596.04
694.769	13596.04
695.116	13575.48
695.462	13541.35
695.808	13444.18
696.155	13568.7
696.501	13324.18
696.847	13289.38
697.193	13189.95
697.539	13290.29
697.885	13135.26
698.231	13087.13
698.577	13075.15
698.923	13078.77
699.269	12980.24
699.614	12882.16
699.96	12799.68
700.306	12933.69
700.651	12780.24
700.997	12728.27
701.342	12693.69
701.688	12692.56
702.033	12629.96
702.379	12633.35
702.724	12594.71
703.069	12522.17
703.415	12386.13
703.76	12372.57
704.105	12404.43
704.45	12353.81
704.795	12300.26
705.14	12248.73
705.485	12218.45
705.83	12168.96
706.175	12159.24
706.52	12092.8
706.865	12032.92
707.209	12050.77
707.554	12076.31
707.899	11964.45
708.243	11969.64
708.588	11879.48
708.932	11843.77
709.277	11846.03
709.621	11810.1
709.966	11693.49
710.31	11724.23
710.654	11644.23
710.998	11689.65
711.342	11633.38
711.687	11644.68
712.031	11484.68
712.375	11531.46
712.719	11538.92
713.063	11483.33
713.407	11558.81
713.75	11451.46
714.094	11459.15
714.438	11434.74
714.782	11453.27
715.125	11381.64
715.469	11401.97
715.812	11341.41
716.156	11233.84
716.499	11253.5
716.843	11317
717.186	11275.88
717.53	11307.51
717.873	11205.37
718.216	11193.84
718.559	11161.53
718.902	11098.93
719.246	11114.3
719.589	11145.71
719.932	11080.17
720.275	11082.66
720.617	11055.99
720.96	10998.82
721.303	11034.07
721.646	11019.61
721.989	10964.02
722.331	10968.31
722.674	10936.9
723.016	10942.33
723.359	10912.95
723.701	10978.26
724.044	10830.69
724.386	10802.89
724.729	10877.02
725.071	10887.64
725.413	10828.66
725.755	10919.28
726.097	10820.07
726.439	10808.54
726.782	10835.44
727.124	10818.26
727.465	10761.09
727.807	10804.25
728.149	10826.17
728.491	10717.47
728.833	10789.56
729.175	10779.62
729.516	10741.88
729.858	10785.95
730.199	10698.94
730.541	10785.27
730.882	10735.78
731.224	10823.01
731.565	10725.61
731.906	10784.59
732.248	10708.43
732.589	10741.88
732.93	10708.43
733.271	10698.72
733.612	10697.81
733.953	10745.27
734.294	10675.67
734.635	10684.93
734.976	10673.18
735.317	10659.17
735.658	10735.78
735.999	10702.78
736.339	10666.63
736.68	10780.75
737.021	10692.16
737.361	10668.66
737.702	10785.04
738.042	10684.03
738.383	10699.85
738.723	10724.48
739.063	10718.38
739.404	10756.34
739.744	10800.41
740.084	10797.92
740.424	10724.48
740.764	10701.43
741.104	10836.11
741.444	10804.02
741.784	10785.27
742.124	10814.42
742.464	10815.32
742.804	10852.38
743.143	10778.71
743.483	10913.4
743.823	10922.89
744.162	10987.07
744.502	10949.1
744.841	10990.23
745.181	11026.84
745.52	11037.92
745.86	11056.45
746.199	11117.46
746.538	11230.91
746.877	11263.9
747.216	11332.6
747.556	11304.58
747.895	11395.19
748.234	11364.24
748.573	11474.29
748.911	11536.43
749.25	11658.69
749.589	11618.24
749.928	11752.47
750.267	11821.85
750.605	11864.56
750.944	11946.82
751.283	11985.69
751.621	12086.93
751.96	12162.41
752.298	12238.79
752.636	12444.43
752.975	12450.99
753.313	12478.56
753.651	12663.86
753.989	12721.49
754.327	12840.35
754.666	12976.85
755.004	13105.21
755.342	13198.09
755.679	13347.46
756.017	13359.44
756.355	13669.94
756.693	13624.29
757.031	13890.04
757.368	13989.7
757.706	14118.96
758.044	14146.99
758.381	14359.86
758.719	14481.22
759.056	14657.71
