Data from hue_190_FLMS001491_00079.txt Node
Date: Tue Feb 07 16:45:46 GMT 2017
User: dcchb
Spectrometer: FLMS00149
Trigger mode: 0
Integration Time (sec): 2.000000E-2
Scans to average: 10
Electric dark correction enabled: true
Nonlinearity correction enabled: false
Boxcar width: 0
XAxis mode: Wavelengths
Number of Pixels in Spectrum: 2048
>>>>>Begin Spectral Data<<<<<
341.393	-2.08
341.776	-2.08
342.16	-2.08
342.543	-53.37
342.927	-56.31
343.31	-74.62
343.693	-90.21
344.077	-49.76
344.46	-65.35
344.843	-59.48
345.226	-31.23
345.61	-4.79
345.993	-25.8
346.376	4.93
346.759	11.93
347.142	23.46
347.525	50.13
347.908	51.26
348.291	72.5
348.674	95.32
349.057	91.71
349.44	134.87
349.823	159.95
350.206	180.29
350.588	197.47
350.971	215.77
351.354	220.97
351.737	243.12
352.119	241.08
352.502	258.71
352.884	287.63
353.267	257.58
353.65	295.54
354.032	283.79
354.414	311.14
354.797	314.98
355.179	328.54
355.562	312.72
355.944	323.56
356.326	325.37
356.709	321.98
357.091	339.38
357.473	335.99
357.855	338.93
358.238	323.56
358.62	349.33
359.002	338.25
359.384	340.51
359.766	340.74
360.148	348.42
360.53	322.21
360.912	348.2
361.294	330.12
361.676	306.62
362.057	328.31
362.439	327.86
362.821	335.99
363.203	326.28
363.584	311.36
363.966	308.88
364.348	332.15
364.729	334.41
365.111	319.72
365.493	315.43
365.874	320.63
366.256	321.08
366.637	320.4
367.019	326.05
367.4	307.52
367.781	310.23
368.163	306.84
368.544	301.19
368.925	293.06
369.306	325.15
369.688	307.97
370.069	294.87
370.45	310.46
370.831	284.24
371.212	328.54
371.593	304.81
371.974	301.19
372.355	316.33
372.736	304.13
373.117	310.01
373.498	298.71
373.879	307.29
374.26	310.23
374.641	307.29
375.021	319.05
375.402	322.66
375.783	297.35
376.163	340.97
376.544	313.4
376.925	335.77
377.305	310.46
377.686	303.9
378.066	332.6
378.447	342.1
378.827	318.37
379.208	339.16
379.588	323.79
379.968	316.11
380.349	324.69
380.729	341.64
381.109	319.72
381.489	317.01
381.87	314.53
382.25	343.45
382.63	331.93
383.01	352.94
383.39	328.08
383.77	338.71
384.15	334.86
384.53	360.4
384.91	326.5
385.29	344.36
385.67	350.46
386.049	357.01
386.429	345.26
386.809	340.74
387.189	349.78
387.568	351.81
387.948	352.72
388.328	361.98
388.707	345.71
389.087	343.68
389.466	332.15
389.846	358.82
390.225	368.31
390.605	366.28
390.984	345.71
391.363	352.49
391.743	367.41
392.122	367.86
392.501	349.78
392.881	377.12
393.26	371.47
393.639	379.61
394.018	380.96
394.397	349.1
394.776	365.6
395.155	389.33
395.534	360.63
395.913	375.77
396.292	378.93
396.671	369.21
397.05	372.15
397.429	386.39
397.808	385.94
398.186	383.68
398.565	397.01
398.944	392.49
399.323	396.33
399.701	400.4
400.08	401.08
400.458	404.01
400.837	406.73
401.215	408.31
401.594	404.01
401.972	424.35
402.351	409.66
402.729	409.21
403.107	423.45
403.486	432.71
403.864	406.5
404.242	406.5
404.62	431.13
404.999	444.69
405.377	429.78
405.755	442.66
406.133	432.49
406.511	457.12
406.889	439.04
407.267	451.25
407.645	457.35
408.023	450.34
408.401	488.98
408.779	484.46
409.156	483.11
409.534	472.71
409.912	498.02
410.29	498.02
410.667	510.68
411.045	517.23
411.422	523.79
411.8	510.23
412.178	535.54
412.555	545.71
412.933	549.32
413.31	530.79
413.687	563.33
414.065	565.14
414.442	577.12
414.819	593.16
415.197	587.96
415.574	600.85
415.951	618.02
416.328	615.99
416.705	639.71
417.082	632.26
417.46	634.74
417.837	638.58
418.214	658.47
418.591	658.02
418.967	672.93
419.344	679.04
419.721	681.97
420.098	704.57
420.475	725.14
420.852	705.7
421.228	724.68
421.605	737.79
421.982	742.54
422.358	745.25
422.735	793.38
423.111	783.21
423.488	789.77
423.864	801.07
424.241	809.43
424.617	806.72
424.994	861.4
425.37	827.73
425.746	874.28
426.123	884.23
426.499	907.05
426.875	889.2
427.251	917
427.627	944.34
428.003	954.96
428.379	931.91
428.756	924.23
429.132	961.97
429.507	962.42
429.883	983.43
430.259	1037.9
430.635	1025.24
431.011	1020.5
431.387	1064.34
431.763	1078.12
432.138	1067.5
432.514	1078.35
432.89	1084
433.265	1112.02
433.641	1132.36
434.016	1136.88
434.392	1196.99
434.767	1208.74
435.143	1236.54
435.518	1258.91
435.894	1237.21
436.269	1293.71
436.644	1312.92
437.02	1335.74
437.395	1337.1
437.77	1397.21
438.145	1399.69
438.52	1406.93
438.895	1420.94
439.271	1428.62
439.646	1499.35
440.021	1505.45
440.395	1491.44
440.77	1514.95
441.145	1550.2
441.52	1579.35
441.895	1581.61
442.27	1607.6
442.645	1632.01
443.019	1660.93
443.394	1645.34
443.769	1672.68
444.143	1673.59
444.518	1707.26
444.892	1714.04
445.267	1737.77
445.641	1731.89
446.016	1761.04
446.39	1780.93
446.764	1765.56
447.139	1816.63
447.513	1789.74
447.887	1810.76
448.262	1837.2
448.636	1853.47
449.01	1890.3
449.384	1904.54
449.758	1921.49
450.132	1971.21
450.506	1932.56
450.88	1945.44
451.254	1984.76
451.628	2024.99
452.002	2032.45
452.376	2088.49
452.75	2035.16
453.123	2062.05
453.497	2115.16
453.871	2112.22
454.244	2172.1
454.618	2185.89
454.992	2206.23
455.365	2218.2
455.739	2286.23
456.112	2282.38
456.486	2297.98
456.859	2346.11
457.232	2405.77
457.606	2400.8
457.979	2425.88
458.352	2443.74
458.725	2474.02
459.099	2490.29
459.472	2540.46
459.845	2555.6
460.218	2612.09
460.591	2628.82
460.964	2613.45
461.337	2704.29
461.71	2728.93
462.083	2786.55
462.456	2762.6
462.829	2808.25
463.201	2825.65
463.574	2860
463.947	2900.67
464.32	2991.29
464.692	2985.42
465.065	3020.22
465.438	3027.67
465.81	3114.23
466.183	3081.68
466.555	3247.33
466.928	3241.91
467.3	3212.3
467.672	3311.06
468.045	3377.72
468.417	3381.34
468.789	3400.77
469.161	3439.42
469.534	3509.02
469.906	3556.7
470.278	3603.48
470.65	3650.94
471.022	3705.4
471.394	3854.09
471.766	3834.21
472.138	3846.41
472.51	3954.88
472.882	4042.56
473.253	4082.79
473.625	4080.08
473.997	4241.65
474.369	4216.34
474.74	4286.85
475.112	4364.81
475.484	4421.99
475.855	4555.77
476.227	4610.23
476.598	4714.86
476.97	4711.02
477.341	4821.75
477.713	4928.42
478.084	4954.4
478.455	5069.65
478.827	5107.17
479.198	5301.97
479.569	5299.03
479.94	5442.3
480.311	5491.79
480.682	5630.09
481.053	5709.64
481.424	5869.18
481.795	5902.18
482.166	5956.64
482.537	6081.38
482.908	6227.36
483.279	6270.3
483.65	6341.03
484.021	6503.74
484.391	6577.86
484.762	6656.51
485.133	6702.38
485.503	6748.25
485.874	6956.38
486.244	7035.93
486.615	7151.63
486.985	7241.58
487.356	7357.96
487.726	7361.8
488.097	7485.18
488.467	7530.61
488.837	7744.16
489.207	7822.35
489.578	7938.28
489.948	7998.84
490.318	8131.04
490.688	8120.65
491.058	8284.71
491.428	8402
491.798	8378.72
492.168	8573.97
492.538	8571.71
492.908	8758.6
493.278	8752.5
493.648	8821.42
494.017	8913.85
494.387	9000.4
494.757	9080.17
495.126	9121.07
495.496	9080.17
495.866	9275.19
496.235	9289.66
496.605	9401.29
496.974	9449.2
497.344	9525.58
497.713	9572.14
498.082	9602.64
498.452	9683.32
498.821	9759.93
499.19	9647.84
499.559	9742.75
499.928	9763.77
500.298	9902.52
500.667	10020.26
501.036	9978.23
501.405	10000.15
501.774	10014.38
502.143	10095.74
502.512	10089.41
502.88	10189.75
503.249	10092.57
503.618	10284.21
503.987	10221.84
504.356	10272.68
504.724	10311.32
505.093	10416.41
505.462	10305.68
505.83	10401.94
506.199	10440.59
506.567	10509.06
506.936	10490.3
507.304	10555.16
507.672	10576.63
508.041	10557.65
508.409	10687.36
508.777	10642.39
509.145	10720.35
509.514	10676.74
509.882	10738.21
510.25	10758.54
510.618	10766
510.986	10810.52
511.354	10780.24
511.722	10872.44
512.09	10894.13
512.458	10947.69
512.826	10928.48
513.193	10906.56
513.561	10929.39
513.929	10952.66
514.297	11031.76
514.664	11088.03
515.032	11008.71
515.4	11112.21
515.767	11093.68
516.135	11144.52
516.502	11044.41
516.869	11122.6
517.237	11183.84
517.604	10997.41
517.972	11149.49
518.339	11128.03
518.706	11045.32
519.073	11104.75
519.44	11203.28
519.808	11127.57
520.175	11081.7
520.542	11205.31
520.909	11169.38
521.276	11161.47
521.643	11242.37
522.009	11177.74
522.376	11212.77
522.743	11190.62
523.11	11228.14
523.477	11274.69
523.843	11373.9
524.21	11342.71
524.577	11247.57
524.943	11254.8
525.31	11312.2
525.676	11344.29
526.043	11363.5
526.409	11286.67
526.776	11379.09
527.142	11375.03
527.508	11274.92
527.874	11346.55
528.241	11303.62
528.607	11333.67
528.973	11266.78
529.339	11176.84
529.705	11320.34
530.071	11229.27
530.437	11275.82
530.803	11228.36
531.169	11179.55
531.535	11142.72
531.901	11121.25
532.267	11136.16
532.632	11090.29
532.998	10996.5
533.364	11097.29
533.73	11084.86
534.095	11027.69
534.461	10972.1
534.826	10953.34
535.192	10903.85
535.557	10937.07
535.923	10827.7
536.288	10791.09
536.653	10781.6
537.019	10683.29
537.384	10618.21
537.749	10634.93
538.114	10616.18
538.479	10547.48
538.845	10475.84
539.21	10426.8
539.575	10429.74
539.94	10390.64
540.305	10359.91
540.67	10279.91
541.034	10230.2
541.399	10211.67
541.764	10202.63
542.129	10110.43
542.494	10061.61
542.858	9942.3
543.223	9984.33
543.587	9975.97
543.952	9859.13
544.316	9819.13
544.681	9791.34
545.045	9726.48
545.41	9759.02
545.774	9702.53
546.138	9608.07
546.503	9551.12
546.867	9526.03
547.231	9558.58
547.595	9387.96
547.959	9403.33
548.324	9384.12
548.688	9277.23
549.052	9270.22
549.416	9235.42
549.779	9151.81
550.143	9108.87
550.507	9139.15
550.871	9024.35
551.235	8978.7
551.599	9047.18
551.962	8994.52
552.326	8903.45
552.689	8922.89
553.053	8806.73
553.417	8733.29
553.78	8829.78
554.143	8717.47
554.507	8670.46
554.87	8683.35
555.234	8672.95
555.597	8637.47
555.96	8594.31
556.323	8536.23
556.686	8497.36
557.05	8525.16
557.413	8434.54
557.776	8435.67
558.139	8435.44
558.502	8355.44
558.865	8412.84
559.228	8388.44
559.59	8344.82
559.953	8317.93
560.316	8341.66
560.679	8271.38
561.041	8264.83
561.404	8289.68
561.767	8309.34
562.129	8145.05
562.492	8195.9
562.854	8297.14
563.217	8194.32
563.579	8202.68
563.941	8241.1
564.304	8205.17
564.666	8232.96
565.028	8087.43
565.39	8137.14
565.753	8092.63
566.115	8154.55
566.477	8197.71
566.839	8171.27
567.201	8167.43
567.563	8165.39
567.925	8193.19
568.287	8126.07
568.648	8100.76
569.01	8154.55
569.372	8180.53
569.734	8166.97
570.095	8099.63
570.457	8182.57
570.819	8158.84
571.18	8123.59
571.542	8150.25
571.903	8127.65
572.265	8175.11
572.626	8150.7
572.987	8131.72
573.349	8180.76
573.71	8010.37
574.071	8176.24
574.432	8164.71
574.794	8177.82
575.155	8148.22
575.516	8133.3
575.877	8165.84
576.238	8115.22
576.599	8136.69
576.96	8098.5
577.32	8084.49
577.681	8097.6
578.042	8117.94
578.403	8112.06
578.763	8139.4
579.124	8078.84
579.485	8118.84
579.845	8109.12
580.206	8074.32
580.566	8049.46
580.927	8053.53
581.287	8117.03
581.648	8033.42
582.008	8112.96
582.368	8028
582.728	8018.5
583.089	8040.88
583.449	8030.71
583.809	8028.45
584.169	8014.21
584.529	8008.56
584.889	8015.57
585.249	7906.19
585.609	7981.89
585.969	8006.07
586.329	7985.28
586.688	7991.84
587.048	7924.5
587.408	7962.23
587.768	7907.09
588.127	7965.85
588.487	7853.99
588.846	7958.62
589.206	7862.12
589.565	7920.88
589.925	7892.86
590.284	7845.18
590.643	7854.67
591.003	7872.52
591.362	7897.15
591.721	7854.21
592.08	7813.99
592.44	7800.88
592.799	7859.41
593.158	7846.98
593.517	7797.27
593.876	7826.19
594.235	7817.15
594.593	7789.13
594.952	7845.4
595.311	7761.11
595.67	7747.32
596.029	7813.76
596.387	7769.92
596.746	7766.53
597.104	7718.4
597.463	7757.49
597.822	7794.33
598.18	7703.03
598.538	7730.15
598.897	7756.14
599.255	7626.42
599.613	7793.65
599.972	7741.9
600.33	7773.31
600.688	7729.7
601.046	7783.71
601.404	7743.93
601.762	7734.67
602.12	7723.14
602.478	7707.33
602.836	7770.37
603.194	7715.91
603.552	7727.89
603.91	7650.83
604.268	7695.8
604.625	7648.8
604.983	7733.99
605.341	7688.12
605.698	7684.05
606.056	7766.99
606.413	7682.69
606.771	7681.34
607.128	7673.2
607.485	7605.86
607.843	7602.7
608.2	7608.8
608.557	7701.68
608.914	7677.72
609.272	7744.84
609.629	7731.73
609.986	7761.11
610.343	7689.7
610.7	7724.5
611.057	7680.66
611.414	7767.66
611.771	7682.24
612.127	7710.72
612.484	7735.8
612.841	7773.31
613.198	7723.14
613.554	7638.17
613.911	7777.83
614.267	7756.59
614.624	7791.84
614.98	7736.03
615.337	7785.06
615.693	7817.15
616.05	7775.8
616.406	7815.8
616.762	7818.51
617.118	7811.28
617.475	7750.04
617.831	7775.8
618.187	7777.83
618.543	7724.05
618.899	7809.02
619.255	7800.66
619.611	7763.6
619.967	7830.03
620.323	7830.49
620.678	7756.82
621.034	7801.11
621.39	7824.38
621.746	7798.62
622.101	7847.43
622.457	7802.69
622.812	7802.01
623.168	7824.38
623.523	7846.98
623.879	7865.97
624.234	7774.22
624.589	7821.22
624.945	7832.29
625.3	7806.53
625.655	7786.65
626.01	7826.19
626.365	7770.37
626.72	7759.53
627.075	7759.08
627.43	7754.56
627.785	7780.77
628.14	7834.33
628.495	7819.87
628.85	7757.04
629.205	7712.98
629.559	7823.25
629.914	7761.79
630.269	7797.72
630.623	7724.27
630.978	7729.47
631.332	7736.25
631.687	7740.09
632.041	7709.13
632.396	7696.93
632.75	7725.18
633.104	7687.21
633.459	7703.48
633.813	7710.72
634.167	7637.72
634.521	7644.95
634.875	7680.89
635.229	7620.55
635.583	7571.74
635.937	7589.14
636.291	7549.36
636.645	7607.22
636.999	7560.21
637.352	7568.35
637.706	7479.31
638.06	7561.57
638.413	7591.62
638.767	7535.35
639.121	7494.45
639.474	7508.46
639.828	7516.14
640.181	7465.98
640.534	7522.92
640.888	7452.19
641.241	7435.92
641.594	7479.08
641.947	7435.92
642.301	7409.25
642.654	7452.87
643.007	7422.14
643.36	7437.05
643.713	7321.35
644.066	7441.34
644.419	7371.29
644.771	7373.78
645.124	7388.69
645.477	7291.52
645.83	7264.4
646.182	7180.56
646.535	7187.11
646.888	7203.61
647.24	7150.5
647.593	7178.75
647.945	7159.54
648.298	7199.77
648.65	7139.43
649.002	7137.62
649.355	7128.81
649.707	7110.28
650.059	7164.97
650.411	7301.46
650.763	7282.7
651.115	7313.89
651.467	7312.76
651.819	7353.66
652.171	7330.61
652.523	7345.3
652.875	7337.84
653.227	7257.85
653.578	7298.75
653.93	7383.04
654.282	7303.72
654.633	7303.49
654.985	7256.49
655.337	7309.82
655.688	7305.3
656.039	7380.55
656.391	7295.13
656.742	7345.53
657.094	7273.89
657.445	7312.08
657.796	7329.26
658.147	7341.23
658.498	7330.61
658.849	7355.47
659.2	7303.27
659.551	7283.83
659.902	7372.42
660.253	7332.65
660.604	7396.37
660.955	7297.84
661.306	7375.13
661.656	7352.08
662.007	7389.37
662.358	7309.37
662.708	7414.45
663.059	7369.93
663.409	7352.08
663.76	7415.13
664.11	7387.56
664.461	7379.2
664.811	7432.98
665.161	7408.35
665.511	7408.12
665.862	7391.4
666.212	7448.8
666.562	7439.76
666.912	7409.48
667.262	7417.39
667.612	7391.63
667.962	7376.49
668.312	7361.12
668.662	7373.32
669.011	7451.97
669.361	7404.06
669.711	7352.31
670.06	7289.94
670.41	7370.16
670.76	7345.75
671.109	7369.48
671.459	7306.66
671.808	7329.03
672.157	7437.95
672.507	7322.93
672.856	7329.48
673.205	7347.56
673.554	7386.43
673.904	7284.51
674.253	7338.97
674.602	7334
674.951	7227.56
675.3	7128.58
675.649	7338.07
675.998	7250.16
676.346	7305.75
676.695	7290.16
677.044	7276.15
677.393	7277.28
677.741	7293.1
678.09	7245.42
678.438	7247.45
678.787	7278.41
679.135	7227.56
679.484	7185.31
679.832	7220.33
680.181	7140.56
680.529	7199.77
680.877	7136.04
681.225	7129.04
681.573	7174.23
681.922	7118.41
682.27	7077.74
682.618	7086.32
682.966	7071.64
683.314	7105.76
683.661	7062.82
684.009	7079.55
684.357	7019.89
684.705	6983.5
685.053	6949.83
685.4	6960.45
685.748	6943.05
686.095	6919.1
686.443	6911.64
686.79	6891.3
687.138	6966.33
687.485	6912.09
687.832	6891.75
688.18	6857.18
688.527	6795.03
688.874	6833.9
689.221	6748.48
689.568	6783.51
689.915	6759.78
690.262	6784.64
690.609	6713.68
690.956	6760.91
691.303	6673.23
691.65	6601.14
691.997	6593.23
692.344	6608.82
692.69	6590.97
693.037	6578.99
693.383	6507.58
693.73	6521.82
694.077	6443.63
694.423	6460.58
694.769	6422.16
695.116	6430.97
695.462	6371.77
695.808	6389.17
696.155	6423.29
696.501	6336.06
696.847	6337.64
697.193	6246.8
697.539	6292.67
697.885	6233.92
698.231	6217.87
698.577	6179.46
698.923	6204.31
699.269	6193.69
699.614	6179.23
699.96	6165.45
700.306	6122.96
700.651	6087.71
700.997	5992.12
701.342	6007.03
701.688	6064.66
702.033	6038.67
702.379	6007.26
702.724	5950.99
703.069	5956.19
703.415	5894.04
703.76	5900.37
704.105	5887.26
704.45	5920.25
704.795	5847.26
705.14	5818.56
705.485	5794.83
705.83	5797.32
706.175	5787.15
706.52	5757.32
706.865	5707.15
707.209	5760.03
707.554	5704.21
707.899	5702.63
708.243	5675.97
708.588	5664.22
708.932	5648.85
709.277	5596.65
709.621	5633.71
709.966	5581.96
710.31	5558
710.654	5553.48
710.998	5541.28
711.342	5569.98
711.687	5562.52
712.031	5464.22
712.375	5478.46
712.719	5499.47
713.063	5473.49
713.407	5488.4
713.75	5482.53
714.094	5462.41
714.438	5433.71
714.782	5455.63
715.125	5388.52
715.469	5379.7
715.812	5385.58
716.156	5353.72
716.499	5413.15
716.843	5374.05
717.186	5343.77
717.53	5370.66
717.873	5349.2
718.216	5379.93
718.559	5299.25
718.902	5316.2
719.246	5342.19
719.589	5323.89
719.932	5317.11
720.275	5294.96
720.617	5231.68
720.96	5268.07
721.303	5278.24
721.646	5277.33
721.989	5251.8
722.331	5296.77
722.674	5217.22
723.016	5211.8
723.359	5263.55
723.701	5245.92
724.044	5241.4
724.386	5168.41
724.729	5260.84
725.071	5176.32
725.413	5164.12
725.755	5206.6
726.097	5198.01
726.439	5177.67
726.782	5182.87
727.124	5206.83
727.465	5196.21
727.807	5186.94
728.149	5162.31
728.491	5232.59
728.833	5168.64
729.175	5205.7
729.516	5164.12
729.858	5151.91
730.199	5206.6
730.541	5157.56
730.882	5250.22
731.224	5156.21
731.565	5208.63
731.906	5209.09
732.248	5171.35
732.589	5127.51
732.93	5137.68
733.271	5167.28
733.612	5170.44
733.953	5150.1
734.294	5159.37
734.635	5191.91
734.976	5184.45
735.317	5160.05
735.658	5148.97
735.999	5204.11
736.339	5191.91
736.68	5196.66
737.021	5174.28
737.361	5185.81
737.702	5200.72
738.042	5228.97
738.383	5223.55
738.723	5240.27
739.063	5211.57
739.404	5234.17
739.744	5312.13
740.084	5252.47
740.424	5225.58
740.764	5277.11
741.104	5320.95
741.444	5296.77
741.784	5299.93
742.124	5313.49
742.464	5323.66
742.804	5341.51
743.143	5344.45
743.483	5370.44
743.823	5374.51
744.162	5462.64
744.502	5479.14
744.841	5465.35
745.181	5508.06
745.52	5527.5
745.86	5604.1
746.199	5557.55
746.538	5622.18
746.877	5654.72
747.216	5733.59
747.556	5750.09
747.895	5786.02
748.234	5800.26
748.573	5814.72
748.911	5907.82
749.25	5976.98
749.589	5946.69
749.928	6060.14
750.267	6140.36
750.605	6189.85
750.944	6295.16
751.283	6317.08
751.621	6377.87
751.96	6475.95
752.298	6594.59
752.636	6683.85
752.975	6708.03
753.313	6797.97
753.651	6878.65
753.989	6974.92
754.327	7112.09
754.666	7184.63
755.004	7348.46
755.342	7491.96
755.679	7548.46
756.017	7668
756.355	7804.72
756.693	7922.46
757.031	8118.16
757.368	8221.21
757.706	8340.3
758.044	8464.82
758.381	8619.39
758.719	8793.4
759.056	8924.92
759.394	9158.59
759.731	9241.3
760.068	9414.4
760.405	9564.23
760.743	9708.63
761.08	9841.96
761.417	10033.82
761.754	10204.44
762.091	10363.98
762.428	10573.01
762.765	10695.95
763.102	10914.47
763.438	11040.57
763.775	11192.43
764.112	11392.88
764.449	11652.53
764.785	11673.55
765.122	11844.84
765.458	11991.05
765.795	12148.34
766.131	12369.12
766.467	12495
766.804	12604.82
767.14	12838.94
