Data from hue_180_FLMS001491_00099.txt Node
Date: Tue Feb 07 16:47:45 GMT 2017
User: dcchb
Spectrometer: FLMS00149
Trigger mode: 0
Integration Time (sec): 2.000000E-2
Scans to average: 10
Electric dark correction enabled: true
Nonlinearity correction enabled: false
Boxcar width: 0
XAxis mode: Wavelengths
Number of Pixels in Spectrum: 2048
>>>>>Begin Spectral Data<<<<<
341.393	-17.27
341.776	-17.27
342.16	-17.27
342.543	-77.38
342.927	-51.85
343.31	-62.47
343.693	-74.22
344.077	-73.32
344.46	-74.45
344.843	-54.11
345.226	-43.71
345.61	-46.43
345.993	-7.1
346.376	-2.81
346.759	12.33
347.142	29.96
347.525	47.81
347.908	49.62
348.291	97.75
348.674	94.81
349.057	106.34
349.44	152.67
349.823	151.76
350.206	161.7
350.588	177.52
350.971	227.47
351.354	216.62
351.737	243.51
352.119	224.75
352.502	241.7
352.884	262.49
353.267	285.09
353.65	287.35
354.032	292.1
354.414	324.19
354.797	315.37
355.179	319.67
355.562	316.95
355.944	328.25
356.326	316.73
356.709	340.01
357.091	316.95
357.473	315.37
357.855	324.41
358.238	332.77
358.62	357.86
359.002	353.56
359.384	342.04
359.766	353.34
360.148	340.46
360.53	350.4
360.912	337.97
361.294	350.4
361.676	316.73
362.057	328.71
362.439	339.33
362.821	315.83
363.203	323.28
363.584	308.37
363.966	312.44
364.348	304.98
364.729	331.19
365.111	311.98
365.493	316.95
365.874	319.21
366.256	342.04
366.637	297.97
367.019	299.78
367.4	306.33
367.781	308.59
368.163	331.42
368.544	330.06
368.925	303.62
369.306	304.3
369.688	314.7
370.069	297.75
370.45	315.37
370.831	307.24
371.212	304.75
371.593	305.66
371.974	315.37
372.355	300.91
372.736	293.23
373.117	310.4
373.498	336.84
373.879	313.11
374.26	319.89
374.641	322.15
375.021	309.72
375.402	314.7
375.783	311.08
376.163	317.18
376.544	326.45
376.925	330.74
377.305	343.62
377.686	322.83
378.066	330.51
378.447	307.92
378.827	331.64
379.208	335.71
379.588	323.96
379.968	326.67
380.349	339.1
380.729	332.1
381.109	320.34
381.489	312.44
381.87	339.33
382.25	337.75
382.63	329.61
383.01	341.14
383.39	346.56
383.77	341.59
384.15	338.88
384.53	346.11
384.91	328.71
385.29	335.71
385.67	345.65
386.049	345.88
386.429	340.68
386.809	327.35
387.189	334.36
387.568	357.41
387.948	348.82
388.328	358.08
388.707	367.35
389.087	365.32
389.466	362.15
389.846	364.86
390.225	365.77
390.605	351.98
390.984	363.51
391.363	380.23
391.743	385.88
392.122	372.32
392.501	360.8
392.881	366.22
393.26	373.22
393.639	374.81
394.018	393.34
394.397	374.81
394.776	380.68
395.155	364.19
395.534	365.54
395.913	369.38
396.292	373.22
396.671	380.91
397.05	372.55
397.429	392.66
397.808	382.49
398.186	393.56
398.565	410.06
398.944	411.64
399.323	405.54
399.701	385.2
400.08	405.54
400.458	394.47
400.837	404.18
401.215	414.35
401.594	420.46
401.972	405.99
402.351	409.61
402.729	412.09
403.107	420.46
403.486	413
403.864	427.91
404.242	406.44
404.62	424.07
404.999	453.45
405.377	451.19
405.755	461.13
406.133	438.76
406.511	431.53
406.889	429.27
407.267	460.45
407.645	437.4
408.023	479.21
408.401	473.56
408.779	469.49
409.156	497.74
409.534	454.13
409.912	488.48
410.29	482.37
410.667	502.49
411.045	493.45
411.422	516.72
411.8	502.03
412.178	526.21
412.555	509.49
412.933	544.97
413.31	552.65
413.687	551.98
414.065	536.61
414.442	561.69
414.819	585.65
415.197	589.72
415.574	584.52
415.951	586.78
416.328	599.21
416.705	613.44
417.082	603.5
417.46	629.26
417.837	616.61
418.214	635.14
418.591	622.48
418.967	640.11
419.344	645.08
419.721	672.65
420.098	671.75
420.475	646.66
420.852	677.62
421.228	700.22
421.605	702.71
421.982	729.15
422.358	710.39
422.735	746.77
423.111	740.67
423.488	769.15
423.864	768.24
424.241	761.01
424.617	763.5
424.994	796.49
425.37	800.56
425.746	803.95
426.123	817.73
426.499	829.48
426.875	838.52
427.251	835.81
427.627	857.05
428.003	874.23
428.379	901.35
428.756	878.97
429.132	875.58
429.507	928.01
429.883	922.14
430.259	932.53
430.635	929.14
431.011	952.19
431.387	947.22
431.763	980.44
432.138	994.68
432.514	1005.3
432.89	1004.62
433.265	1051.62
433.641	1037.16
434.016	1079.19
434.392	1088.91
434.767	1092.53
435.143	1115.35
435.518	1139.98
435.894	1139.08
436.269	1182.02
436.644	1195.12
437.02	1202.58
437.395	1202.36
437.77	1226.31
438.145	1235.57
438.52	1262.47
438.895	1283.94
439.271	1283.94
439.646	1311.96
440.021	1313.76
440.395	1343.37
440.77	1329.58
441.145	1362.58
441.52	1395.34
441.895	1386.53
442.27	1417.94
442.645	1410.03
443.019	1435.8
443.394	1422.46
443.769	1466.3
444.143	1474.89
444.518	1474.21
444.892	1481.22
445.267	1512.18
445.641	1535
446.016	1553.53
446.39	1546.3
446.764	1546.75
447.139	1546.98
447.513	1586.53
447.887	1566.41
448.262	1592.85
448.636	1622.01
449.01	1625.4
449.384	1625.85
449.758	1652.51
450.132	1664.26
450.506	1657.71
450.88	1676.24
451.254	1708.56
451.628	1710.36
452.002	1735.45
452.376	1748.56
452.75	1784.71
453.123	1779.52
453.497	1813.19
453.871	1846.18
454.244	1867.2
454.618	1886.86
454.992	1887.54
455.365	1910.36
455.739	1943.13
456.112	1988.1
456.486	1965.5
456.859	1997.59
457.232	2041.43
457.606	2049.79
457.979	2081.2
458.352	2140.64
458.725	2149.9
459.099	2140.41
459.472	2198.49
459.845	2238.94
460.218	2227.87
460.591	2281.88
460.964	2272.38
461.337	2346.05
461.71	2349.44
462.083	2398.26
462.456	2410.46
462.829	2404.58
463.201	2449.55
463.574	2478.03
463.947	2497.46
464.32	2574.75
464.692	2603.9
465.065	2631.24
465.438	2658.59
465.81	2708.98
466.183	2719.15
466.555	2802.54
466.928	2820.17
467.3	2796.44
467.672	2822.65
468.045	2917.56
468.417	2985.13
468.789	3011.35
469.161	2993.49
469.534	3078.24
469.906	3124.34
470.278	3175.86
470.65	3197.11
471.022	3276.88
471.394	3306.93
471.766	3373.37
472.138	3435.29
472.51	3493.82
472.882	3503.99
473.253	3607.26
473.625	3660.37
473.997	3754.83
474.369	3788.73
474.74	3821.72
475.112	3909.63
475.484	3998.67
475.855	4045.9
476.227	4112.34
476.598	4225.33
476.97	4276.4
477.341	4339.9
477.713	4433.46
478.084	4483.63
478.455	4564.3
478.827	4648.14
479.198	4800.23
479.569	4840.68
479.94	4983.95
480.311	5048.36
480.682	5181.69
481.053	5262.36
481.424	5370.16
481.795	5425.3
482.166	5534.9
482.537	5592.97
482.908	5714.33
483.279	5804.49
483.65	5933.3
484.021	5991.83
484.391	6122.68
484.762	6180.08
485.133	6262.56
485.503	6314.76
485.874	6521.31
486.244	6576
486.615	6683.57
486.985	6806.73
487.356	6968.76
487.726	7012.15
488.097	7209.88
488.467	7231.12
488.837	7362.87
489.207	7431.8
489.578	7572.81
489.948	7673.15
490.318	7796.08
490.688	7825.46
491.058	7926.92
491.428	8017.77
491.798	8150.42
492.168	8322.17
492.538	8361.04
492.908	8432.9
493.278	8627.7
493.648	8610.07
494.017	8685.55
494.387	8785.21
494.757	8836.5
495.126	8950.63
495.496	8975.26
495.866	9029.49
496.235	9127.57
496.605	9296.38
496.974	9309.26
497.344	9383.84
497.713	9445.75
498.082	9467.22
498.452	9562.36
498.821	9608.91
499.19	9658.4
499.559	9707.67
499.928	9798.74
500.298	9849.13
500.667	9949.02
501.036	9960.09
501.405	10057.72
501.774	10031.5
502.143	10042.35
502.512	10151.05
502.88	10227.65
503.249	10222.01
503.618	10272.17
503.987	10348.33
504.356	10331.83
504.724	10302.46
505.093	10422.9
505.462	10355.56
505.83	10504.48
506.199	10497.25
506.567	10671.48
506.936	10617.25
507.304	10673.74
507.672	10747.19
508.041	10685.5
508.409	10745.16
508.777	10838.71
509.145	10873.97
509.514	10923.91
509.882	10922.55
510.25	10986.05
510.618	10980.4
510.986	10953.96
511.354	11106.95
511.722	11044.81
512.09	11172.26
512.458	11133.39
512.826	11199.83
513.193	11241.87
513.561	11186.05
513.929	11249.55
514.297	11353.27
514.664	11305.59
515.032	11371.35
515.4	11355.99
515.767	11477.11
516.135	11428.98
516.502	11316.44
516.869	11490.22
517.237	11518.02
517.604	11382.65
517.972	11516.89
518.339	11607.05
518.706	11487.73
519.073	11509.2
519.44	11533.16
519.808	11609.09
520.175	11560.05
520.542	11669.2
520.909	11656.32
521.276	11539.71
521.643	11675.53
522.009	11655.41
522.376	11699.48
522.743	11671.91
523.11	11765.47
523.477	11812.7
523.843	11789.42
524.21	11832.81
524.577	11932.69
524.943	11855.18
525.31	11886.37
525.676	11901.06
526.043	11914.39
526.409	11896.76
526.776	11995.07
527.142	11985.8
527.508	11942.19
527.874	11937.67
528.241	11959.81
528.607	11933.37
528.973	11925.92
529.339	11909.42
529.705	11988.51
530.071	11943.77
530.437	11953.94
530.803	12044.56
531.169	11949.87
531.535	11916.42
531.901	11926.59
532.267	11894.96
532.632	11887.5
532.998	11876.2
533.364	11860.83
533.73	11810.44
534.095	11889.08
534.461	11778.8
534.826	11756.65
535.192	11824
535.557	11768.18
535.923	11683.89
536.288	11689.09
536.653	11669.65
537.019	11594.4
537.384	11578.35
537.749	11491.8
538.114	11510.11
538.479	11421.97
538.845	11505.36
539.21	11381.3
539.575	11316.89
539.94	11311.47
540.305	11249.32
540.67	11270.34
541.034	11155.77
541.399	11205.93
541.764	11194.18
542.129	11101.98
542.494	11100.63
542.858	11080.51
543.223	10919.16
543.587	11026.5
543.952	10931.82
544.316	10905.38
544.681	10834.19
545.045	10895.66
545.41	10856.34
545.774	10859.73
546.138	10769.79
546.503	10670.13
546.867	10607.31
547.231	10666.51
547.595	10612.96
547.959	10588.78
548.324	10600.98
548.688	10473.52
549.052	10459.74
549.416	10421.55
549.779	10388.33
550.143	10264.72
550.507	10262.91
550.871	10259.52
551.235	10213.87
551.599	10280.08
551.962	10136.81
552.326	10149.69
552.689	10201.21
553.053	10032.86
553.417	10009.13
553.78	10059.75
554.143	9997.38
554.507	9997.6
554.87	9954.89
555.234	9963.48
555.597	9873.54
555.96	9884.16
556.323	9866.08
556.686	9898.85
557.05	9851.85
557.413	9786.08
557.776	9811.62
558.139	9830.15
558.502	9782.02
558.865	9685.3
559.228	9754.67
559.59	9685.75
559.953	9722.13
560.316	9756.71
560.679	9658.4
561.041	9786.99
561.404	9694.34
561.767	9701.11
562.129	9642.59
562.492	9785.86
562.854	9674
563.217	9634.22
563.579	9616.37
563.941	9704.05
564.304	9699.53
564.666	9702.02
565.028	9648.91
565.39	9681.23
565.753	9709.25
566.115	9677.61
566.477	9671.29
566.839	9704.05
567.201	9682.58
567.563	9718.29
567.925	9740.21
568.287	9654.34
568.648	9676.48
569.01	9751.96
569.372	9699.31
569.734	9645.75
570.095	9753.77
570.457	9759.64
570.819	9669.03
571.18	9665.18
571.542	9693.43
571.903	9738.4
572.265	9789.47
572.626	9751.96
572.987	9716.93
573.349	9674.22
573.71	9749.93
574.071	9758.74
574.432	9663.6
574.794	9838.29
575.155	9781.11
575.516	9692.98
575.877	9731.4
576.238	9750.15
576.599	9780.43
576.96	9796.93
577.32	9693.21
577.681	9696.6
578.042	9722.36
578.403	9689.14
578.763	9754.22
579.124	9753.99
579.485	9790.38
579.845	9751.06
580.206	9755.8
580.566	9794.45
580.927	9765.07
581.287	9752.64
581.648	9716.71
582.008	9735.69
582.368	9744.28
582.728	9794.9
583.089	9702.24
583.449	9709.7
583.809	9752.41
584.169	9714.45
584.529	9631.29
584.889	9724.62
585.249	9598.07
585.609	9653.88
585.969	9613.89
586.329	9573.21
586.688	9620.44
587.048	9599.42
587.408	9522.14
587.768	9572.3
588.127	9551.06
588.487	9507.67
588.846	9595.36
589.206	9506.77
589.565	9556.03
589.925	9565.53
590.284	9469.93
590.643	9434.91
591.003	9515.81
591.362	9510.61
591.721	9490.05
592.08	9476.49
592.44	9485.3
592.799	9504.74
593.158	9425.64
593.517	9445.3
593.876	9574.11
594.235	9458.41
594.593	9477.39
594.952	9429.48
595.311	9414.57
595.67	9392.2
596.029	9458.86
596.387	9432.65
596.746	9425.87
597.104	9375.25
597.463	9394.68
597.822	9455.25
598.18	9422.03
598.538	9317.4
598.897	9456.15
599.255	9302.93
599.613	9490.5
599.972	9345.42
600.33	9395.59
600.688	9335.25
601.046	9358.3
601.404	9340.67
601.762	9378.19
602.12	9362.37
602.478	9406.43
602.836	9398.3
603.194	9358.07
603.552	9321.24
603.91	9324.63
604.268	9339.99
604.625	9325.76
604.983	9339.54
605.341	9271.75
605.698	9333.67
606.056	9344.74
606.413	9350.84
606.771	9342.25
607.128	9332.54
607.485	9268.58
607.843	9317.4
608.2	9416.38
608.557	9374.12
608.914	9248.02
609.272	9389.48
609.629	9393.78
609.986	9303.84
610.343	9393.1
610.7	9431.07
611.057	9362.37
611.414	9468.58
611.771	9410.5
612.127	9396.04
612.484	9407.79
612.841	9487.79
613.198	9437.17
613.554	9367.79
613.911	9417.05
614.267	9438.52
614.624	9439.88
614.98	9417.28
615.337	9458.86
615.693	9467.9
616.05	9418.41
616.406	9500.22
616.762	9483.49
617.118	9437.39
617.475	9491.18
617.831	9473.1
618.187	9471.06
618.543	9438.3
618.899	9526.88
619.255	9513.1
619.611	9524.62
619.967	9503.38
620.323	9553.1
620.678	9463.83
621.034	9543.83
621.39	9515.13
621.746	9470.84
622.101	9628.35
622.457	9498.41
622.812	9532.31
623.168	9579.54
623.523	9591.74
623.879	9563.94
624.234	9521.01
624.589	9469.03
624.945	9538.41
625.3	9505.41
625.655	9549.25
626.01	9551.74
626.365	9521.23
626.72	9560.1
627.075	9535.24
627.43	9494.57
627.785	9508.13
628.14	9562.14
628.495	9587.9
628.85	9528.24
629.205	9485.53
629.559	9511.97
629.914	9528.01
630.269	9478.75
630.623	9404.17
630.978	9468.35
631.332	9490.27
631.687	9473.78
632.041	9387.22
632.396	9476.26
632.75	9400.33
633.104	9445.98
633.459	9338.86
633.813	9365.98
634.167	9316.94
634.521	9328.7
634.875	9375.02
635.229	9293.44
635.583	9280.34
635.937	9314.91
636.291	9213.22
636.645	9284.63
636.999	9284.18
637.352	9242.37
637.706	9189.26
638.06	9233.78
638.413	9223.16
638.767	9208.92
639.121	9164.41
639.474	9144.29
639.828	9196.5
640.181	9113.56
640.534	9145.42
640.888	9066.1
641.241	9057.06
641.594	9097.29
641.947	9125.99
642.301	9146.78
642.654	9109.04
643.007	9166.44
643.36	9080.57
643.713	9095.48
644.066	9121.02
644.419	9044.64
644.771	8958.54
645.124	8954.69
645.477	8915.15
645.83	8866.56
646.182	8871.98
646.535	8799.67
646.888	8811.87
647.24	8796.05
647.593	8800.12
647.945	8744.08
648.298	8778.88
648.65	8734.13
649.002	8726.23
649.355	8847.13
649.707	8762.61
650.059	8770.74
650.411	8886.67
650.763	8949.72
651.115	9045.09
651.467	8993.34
651.819	8979.55
652.171	9043.28
652.523	8934.13
652.875	8974.35
653.227	8943.39
653.578	8961.47
653.93	9019.55
654.282	8940.68
654.633	8973.9
654.985	8916.05
655.337	8910.63
655.688	9024.52
656.039	9032.66
656.391	8930.06
656.742	8950.63
657.094	9001.47
657.445	9063.84
657.796	9013
658.147	8966.9
658.498	8946.78
658.849	8986.11
659.2	8965.77
659.551	8989.72
659.902	9020
660.253	9044.86
660.604	8987.69
660.955	8996.05
661.306	8978.2
661.656	9009.16
662.007	9045.31
662.358	9034.69
662.708	9076.05
663.059	9065.43
663.409	8944.07
663.76	9034.92
664.11	9043.96
664.461	9005.31
664.811	9011.42
665.161	9076.5
665.511	9027.69
665.862	9008.93
666.212	9032.66
666.562	9105.65
666.912	9060.91
667.262	9057.06
667.612	9029.49
667.962	9100
668.312	9068.59
668.662	9075.14
669.011	9070.85
669.361	8982.26
669.711	9022.71
670.06	9034.01
670.41	9007.35
670.76	9008.48
671.109	9080.34
671.459	9036.27
671.808	9009.83
672.157	9051.41
672.507	8917.86
672.856	8954.47
673.205	8905.88
673.554	9029.72
673.904	8935.94
674.253	9015.26
674.602	8969.83
674.951	8794.02
675.3	8729.62
675.649	8873.34
675.998	8890.06
676.346	8865.43
676.695	8877.41
677.044	8851.42
677.393	8846.45
677.741	8856.17
678.09	8895.03
678.438	8838.54
678.787	8835.38
679.135	8833.34
679.484	8749.73
679.832	8836.96
680.181	8803.06
680.529	8795.6
680.877	8742.5
681.225	8727.36
681.573	8758.77
681.922	8668.83
682.27	8709.73
682.618	8683.74
682.966	8653.01
683.314	8626.57
683.661	8687.13
684.009	8599
684.357	8644.87
684.705	8548.83
685.053	8519.68
685.4	8545.89
685.748	8572.78
686.095	8485.1
686.443	8520.13
686.79	8467.93
687.138	8495.5
687.485	8479.68
687.832	8400.36
688.18	8417.76
688.527	8387.7
688.874	8370.75
689.221	8361.26
689.568	8326.69
689.915	8265.22
690.262	8256.18
690.609	8182.51
690.956	8157.2
691.303	8204.88
691.65	8186.35
691.997	8154.71
692.344	8109.74
692.69	8067.49
693.037	8034.72
693.383	7958.79
693.73	8035.85
694.077	7979.58
694.423	7963.76
694.769	7923.08
695.116	7948.62
695.462	7868.17
695.808	7857.55
696.155	7846.47
696.501	7775.06
696.847	7770.32
697.193	7688.51
697.539	7759.25
697.885	7753.82
698.231	7674.05
698.577	7636.08
698.923	7605.58
699.269	7603.77
699.614	7539.59
699.96	7478.12
700.306	7481.51
700.651	7438.8
700.997	7471.12
701.342	7401.97
701.688	7367.62
702.033	7367.62
702.379	7341.18
702.724	7293.72
703.069	7309.54
703.415	7190.9
703.76	7177.79
704.105	7195.42
704.45	7207.17
704.795	7145.02
705.14	7114.97
705.485	7093.95
705.83	7039.94
706.175	7099.38
706.52	7043.56
706.865	7011.24
707.209	7035.2
707.554	6940.06
707.899	6977.8
708.243	6898.02
708.588	6913.62
708.932	6839.27
709.277	6835.43
709.621	6813.06
709.966	6791.59
710.31	6788.88
710.654	6764.92
710.998	6797.01
711.342	6779.38
711.687	6707.97
712.031	6672.04
712.375	6692.15
712.719	6702.32
713.063	6639.27
713.407	6709.78
713.75	6589.56
714.094	6597.69
714.438	6632.5
714.782	6617.35
715.125	6578.03
715.469	6595.21
715.812	6557.92
716.156	6536.23
716.499	6543.46
716.843	6576.45
717.186	6485.15
717.53	6550.24
717.873	6468.21
718.216	6495.55
718.559	6503.46
718.902	6471.37
719.246	6472.27
719.589	6413.74
719.932	6420.75
720.275	6410.58
720.617	6369.9
720.96	6438.83
721.303	6397.02
721.646	6425.72
721.989	6427.53
722.331	6419.17
722.674	6366.74
723.016	6423.24
723.359	6399.28
723.701	6349.56
724.044	6384.82
724.386	6296.46
724.729	6374.2
725.071	6352.5
725.413	6352.28
725.755	6376.46
726.097	6347.76
726.439	6293.29
726.782	6282.22
727.124	6293.07
727.465	6273.41
727.807	6260.98
728.149	6287.87
728.491	6272.05
728.833	6328.55
729.175	6267.76
729.516	6253.07
729.858	6262.11
730.199	6244.71
730.541	6310.24
730.882	6281.54
731.224	6327.64
731.565	6273.41
731.906	6307.53
732.248	6261.43
732.589	6267.31
732.93	6213.98
733.271	6249.45
733.612	6300.75
733.953	6272.73
734.294	6236.57
734.635	6279.28
734.976	6338.94
735.317	6259.4
735.658	6273.63
735.999	6221.43
736.339	6231.6
736.68	6290.36
737.021	6277.93
737.361	6244.93
737.702	6331.71
738.042	6289.45
738.383	6302.79
738.723	6319.73
739.063	6373.97
739.404	6354.08
739.744	6337.36
740.084	6336.91
740.424	6318.15
740.764	6299.4
741.104	6433.4
741.444	6349.34
741.784	6329.23
742.124	6406.06
742.464	6477.02
742.804	6472.05
743.143	6452.16
743.483	6543.23
743.823	6493.29
744.162	6526.51
744.502	6526.51
744.841	6553.85
745.181	6644.25
745.52	6634.75
745.86	6687.41
746.199	6685.83
746.538	6743.9
746.877	6768.08
747.216	6817.12
747.556	6823.9
747.895	6881.08
748.234	6896.67
748.573	6917.69
748.911	7045.37
749.25	7077
749.589	7121.52
749.928	7227.28
750.267	7291.69
750.605	7321.52
750.944	7359.71
751.283	7503.21
751.621	7513.38
751.96	7547.05
752.298	7731.45
752.636	7720.38
752.975	7882.63
753.313	7959.92
753.651	8121.95
753.989	8095.51
754.327	8213.92
754.666	8260.93
755.004	8463.63
755.342	8561.71
755.679	8702.27
756.017	8766.22
756.355	8959.21
756.693	9104.52
757.031	9121.7
757.368	9261.58
757.706	9324.63
758.044	9538.63
758.381	9664.51
758.719	9801.45
759.056	9929.58
759.394	10091.39
759.731	10214.1
760.068	10359.63
760.405	10520.75
760.743	10685.27
761.08	10888.2
761.417	10962.1
761.754	11245.03
762.091	11279.6
762.428	11406.15
762.765	11576.55
763.102	11783.09
763.438	11925.92
763.775	11967.95
764.112	12217.66
764.449	12445.68
764.785	12568.38
765.122	12695.84
765.458	12818.55
765.795	12985.32
766.131	13184.41
766.467	13376.95
