Data from hue_30_FLMS001491_74.txt Node
Date: Mon Feb 06 15:05:55 GMT 2017
User: dcchb
Spectrometer: FLMS00149
Trigger mode: 0
Integration Time (sec): 2.000000E-2
Scans to average: 10
Electric dark correction enabled: true
Nonlinearity correction enabled: false
Boxcar width: 0
XAxis mode: Wavelengths
Number of Pixels in Spectrum: 2048
>>>>>Begin Spectral Data<<<<<
341.393	-5.73
341.776	-5.73
342.16	-5.73
342.543	-79.86
342.927	-65.39
343.31	-55.9
343.693	-65.85
344.077	-71.27
344.46	-69.46
344.843	-33.3
345.226	-39.18
345.61	-33.53
345.993	-34.43
346.376	-17.49
346.759	-14.1
347.142	16.64
347.525	39.01
347.908	70.42
348.291	82.17
348.674	116.97
349.057	109.29
349.44	113.81
349.823	133.7
350.206	170.08
350.588	167.14
350.971	196.97
351.354	203.75
351.737	218.44
352.119	244.43
352.502	245.33
352.884	264.77
353.267	282.85
353.65	294.14
354.032	286.24
354.414	292.11
354.797	312.22
355.179	308.16
355.562	322.17
355.944	314.48
356.326	320.36
356.709	342.51
357.091	359.91
357.473	301.83
357.855	340.25
358.238	339.79
358.62	339.57
359.002	333.47
359.384	328.95
359.766	348.61
360.148	342.28
360.53	334.37
360.912	349.28
361.294	352.67
361.676	341.15
362.057	328.04
362.439	327.82
362.821	335.05
363.203	341.15
363.584	334.14
363.966	340.47
364.348	324.88
364.729	296.86
365.111	305.44
365.493	332.34
365.874	301.83
366.256	339.34
366.637	324.2
367.019	300.25
367.4	309.51
367.781	317.65
368.163	300.47
368.544	310.19
368.925	319.45
369.306	302.05
369.688	324.88
370.069	304.54
370.45	320.81
370.831	318.55
371.212	326.01
371.593	313.13
371.974	324.88
372.355	305.9
372.736	307.7
373.117	310.19
373.498	320.58
373.879	306.12
374.26	315.39
374.641	301.38
375.021	307.25
375.402	297.08
375.783	323.97
376.163	326.46
376.544	310.19
376.925	297.08
377.305	325.33
377.686	321.94
378.066	323.75
378.447	333.47
378.827	324.2
379.208	352.45
379.588	341.83
379.968	329.85
380.349	333.92
380.729	313.35
381.109	338.89
381.489	334.6
381.87	347.25
382.25	339.12
382.63	332.79
383.01	338.66
383.39	345.44
383.77	338.21
384.15	361.49
384.53	354.93
384.91	362.84
385.29	344.99
385.67	330.98
386.049	345.67
386.429	350.19
386.809	357.42
387.189	335.73
387.568	358.1
387.948	355.39
388.328	354.03
388.707	343.86
389.087	375.05
389.466	357.87
389.846	336.86
390.225	345.67
390.605	378.44
390.984	383.63
391.363	367.82
391.743	372.79
392.122	370.53
392.501	375.27
392.881	383.63
393.26	364.88
393.639	373.01
394.018	381.83
394.397	372.33
394.776	380.24
395.155	384.76
395.534	390.87
395.913	368.49
396.292	373.46
396.671	372.11
397.05	366.23
397.429	396.51
397.808	397.42
398.186	385.22
398.565	415.27
398.944	394.71
399.323	387.02
399.701	402.16
400.08	392.9
400.458	390.87
400.837	389.74
401.215	399.9
401.594	395.16
401.972	408.49
402.351	408.04
402.729	432.67
403.107	432.9
403.486	392.9
403.864	418.44
404.242	411.66
404.62	406.68
404.999	401.94
405.377	385.89
405.755	419.34
406.133	411.2
406.511	425.21
406.889	446.23
407.267	452.78
407.645	448.72
408.023	416.18
408.401	457.76
408.779	455.72
409.156	443.07
409.534	435.38
409.912	450.75
410.29	458.89
410.667	468.15
411.045	454.14
411.422	455.5
411.8	447.59
412.178	457.53
412.555	470.41
412.933	468.83
413.31	471.54
413.687	472.22
414.065	466.8
414.442	490.52
414.819	500.24
415.197	485.55
415.574	496.17
415.951	495.72
416.328	509.51
416.705	524.65
417.082	506.34
417.46	505.44
417.837	508.6
418.214	510.18
418.591	501.6
418.967	514.93
419.344	522.16
419.721	532.1
420.098	524.42
420.475	540.69
420.852	540.92
421.228	534.14
421.605	531.88
421.982	523.29
422.358	536.62
422.735	550.86
423.111	566.23
423.488	582.27
423.864	556.96
424.241	554.48
424.617	551.31
424.994	575.72
425.37	561.03
425.746	567.58
426.123	588.15
426.499	570.97
426.875	594.48
427.251	602.84
427.627	584.08
428.003	616.17
428.379	591.09
428.756	611.42
429.132	607.13
429.507	622.5
429.883	625.21
430.259	633.12
430.635	623.85
431.011	630.86
431.387	637.64
431.763	643.06
432.138	650.52
432.514	654.81
432.89	672.21
433.265	670.41
433.641	679.9
434.016	670.18
434.392	650.07
434.767	685.09
435.143	711.08
435.518	691.65
435.894	735.72
436.269	718.99
436.644	716.28
437.02	707.47
437.395	723.06
437.77	717.86
438.145	747.24
438.52	735.49
438.895	739.33
439.271	761.25
439.646	775.94
440.021	747.69
440.395	770.29
440.77	762.38
441.145	777.52
441.52	781.36
441.895	760.35
442.27	791.98
442.645	787.24
443.019	787.47
443.394	794.7
443.769	792.21
444.143	808.03
444.518	807.8
444.892	815.94
445.267	826.79
445.641	832.44
446.016	845.77
446.39	818.42
446.764	857.97
447.139	838.54
447.513	855.03
447.887	848.03
448.262	844.41
448.636	849.16
449.01	857.75
449.384	880.34
449.758	898.65
450.132	885.99
450.506	887.58
450.88	873.11
451.254	904.3
451.628	904.75
452.002	918.31
452.376	925.77
452.75	910.17
453.123	904.98
453.497	943.39
453.871	947.91
454.244	963.51
454.618	990.4
454.992	979.55
455.365	973
455.739	1026.78
456.112	1021.81
456.486	1001.47
456.859	1019.55
457.232	1041.02
457.606	1050.51
457.979	1053.22
458.352	1071.75
458.725	1076.95
459.099	1054.58
459.472	1118.3
459.845	1094.58
460.218	1122.15
460.591	1146.33
460.964	1147.91
461.337	1144.97
461.71	1175.03
462.083	1169.38
462.456	1194.23
462.829	1182.26
463.201	1214.8
463.574	1208.02
463.947	1269.26
464.32	1255.7
464.692	1269.49
465.065	1259.54
465.438	1311.29
465.81	1311.29
466.183	1303.16
466.555	1341.35
466.928	1376.83
467.3	1370.27
467.672	1378.86
468.045	1395.13
468.417	1435.13
468.789	1466.54
469.161	1477.39
469.534	1467.22
469.906	1500.21
470.278	1500.67
470.65	1550.61
471.022	1549.25
471.394	1581.12
471.766	1605.52
472.138	1621.79
472.51	1649.82
472.882	1694.33
473.253	1695.01
473.625	1745.86
473.997	1798.96
474.369	1812.07
474.74	1837.38
475.112	1861.56
475.484	1907.44
475.855	1912.63
476.227	1948.56
476.598	1994.67
476.97	2041.44
477.341	2070.37
477.713	2091.16
478.084	2123.48
478.455	2198.5
478.827	2213.87
479.198	2297.03
479.569	2284.6
479.94	2366.18
480.311	2370.25
480.682	2465.39
481.053	2531.15
481.424	2593.29
481.795	2613.86
482.166	2656.34
482.537	2712.61
482.908	2795.1
483.279	2867.86
483.65	2894.3
484.021	2948.76
484.391	2976.33
484.762	3035.77
485.133	3081.42
485.503	3142.66
485.874	3248.87
486.244	3336.55
486.615	3365.02
486.985	3378.13
487.356	3499.03
487.726	3515.98
488.097	3617.9
488.467	3621.06
488.837	3712.81
489.207	3789.65
489.578	3868.97
489.948	3947.16
490.318	4015.63
490.688	4081.16
491.058	4085.68
491.428	4180.6
491.798	4239.8
492.168	4330.65
492.538	4384.88
492.908	4455.39
493.278	4551.89
493.648	4561.15
494.017	4588.5
494.387	4667.59
494.757	4756.4
495.126	4836.4
495.496	4865.55
495.866	4871.2
496.235	4959.56
496.605	5059.22
496.974	5096.05
497.344	5136.05
497.713	5147.58
498.082	5256.95
498.452	5240.91
498.821	5334.69
499.19	5393.9
499.559	5398.19
499.928	5445.65
500.298	5534.68
500.667	5536.94
501.036	5617.85
501.405	5640.22
501.774	5643.61
502.143	5759.54
502.512	5737.17
502.88	5831.63
503.249	5813.32
503.618	5851.96
503.987	5917.95
504.356	5926.77
504.724	6045.18
505.093	6059.19
505.462	6079.53
505.83	6129.25
506.199	6168.79
506.567	6264.16
506.936	6244.27
507.304	6302.12
507.672	6349.58
508.041	6367.43
508.409	6423.02
508.777	6465.28
509.145	6503.25
509.514	6502.57
509.882	6567.88
510.25	6548.22
510.618	6635.9
510.986	6666.86
511.354	6704.82
511.722	6810.58
512.09	6825.95
512.458	6831.83
512.826	6832.96
513.193	6926.06
513.561	6930.81
513.929	6954.31
514.297	6998.38
514.664	7067.53
515.032	7039.96
515.4	7149.56
515.767	7209.22
516.135	7221.65
516.502	7219.84
516.869	7250.8
517.237	7311.59
517.604	7280.63
517.972	7361.08
518.339	7368.08
518.706	7380.06
519.073	7454.63
519.44	7488.76
519.808	7496.44
520.175	7487.63
520.542	7674.74
520.909	7745.93
521.276	7637.91
521.643	7732.14
522.009	7781.18
522.376	7818.47
522.743	7782.54
523.11	7859.37
523.477	7993.15
523.843	7971.01
524.21	7981.63
524.577	8107.5
524.943	8079.7
525.31	8165.12
525.676	8238.12
526.043	8272.24
526.409	8271.34
526.776	8371.22
527.142	8458
527.508	8412.8
527.874	8521.95
528.241	8557.43
528.607	8571.67
528.973	8627.94
529.339	8606.92
529.705	8723.3
530.071	8741.83
530.437	8843.3
530.803	8891.66
531.169	8946.12
531.535	8929.17
531.901	8950.64
532.267	8960.36
532.632	9080.35
532.998	9113.57
533.364	9176.62
533.73	9149.05
534.095	9230.86
534.461	9244.87
534.826	9234.25
535.192	9396.73
535.557	9384.53
535.923	9410.97
536.288	9459.1
536.653	9533
537.019	9505.43
537.384	9488.25
537.749	9627.46
538.114	9657.97
538.479	9645.31
538.845	9674.46
539.21	9714.46
539.575	9775.03
539.94	9827.23
540.305	9832.2
540.67	9909.03
541.034	9916.72
541.399	9897.28
541.764	9980.67
542.129	10082.59
542.494	10044.85
542.858	10060.44
543.223	10088.24
543.587	10184.51
543.952	10162.81
544.316	10265.86
544.681	10283.71
545.045	10326.88
545.41	10380.43
545.774	10444.39
546.138	10434.67
546.503	10495.68
546.867	10508.11
547.231	10586.3
547.595	10651.39
547.959	10682.12
548.324	10663.82
548.688	10676.02
549.052	10721.89
549.416	10796.02
549.779	10762.34
550.143	10859.29
550.507	10916.46
550.871	10933.64
551.235	10929.12
551.599	11108.32
551.962	11042.56
552.326	11144.48
552.689	11087.31
553.053	11091.6
553.417	11087.31
553.78	11280.3
554.143	11264.48
554.507	11313.52
554.87	11280.97
555.234	11458.37
555.597	11371.59
555.96	11384.47
556.323	11456.11
556.686	11485.04
557.05	11590.12
557.413	11590.8
557.776	11612.72
558.139	11718.93
558.502	11694.3
558.865	11679.61
559.228	11813.62
559.59	11838.02
559.953	11842.32
560.316	11979.49
560.679	11927.96
561.041	11966.38
561.404	12094.74
561.767	12144.23
562.129	12120.5
562.492	12209.99
562.854	12195.07
563.217	12219.71
563.579	12259.25
563.941	12286.6
564.304	12386.48
564.666	12414.05
565.028	12417.67
565.39	12488.63
565.753	12485.24
566.115	12602.97
566.477	12538.34
566.839	12673.48
567.201	12763.2
567.563	12840.71
567.925	12806.36
568.287	12930.2
568.648	12856.98
569.01	12960.25
569.372	13070.76
569.734	12967.94
570.095	13150.76
570.457	13131.77
570.819	13244.54
571.18	13276.18
571.542	13362.73
571.903	13319.57
572.265	13456.28
572.626	13493.57
572.987	13558.88
573.349	13687.69
573.71	13695.6
574.071	13751.87
574.432	13864.41
574.794	14043.61
575.155	14033.67
575.516	13975.59
575.877	14103.05
576.238	14177.85
576.599	14312.31
576.96	14404.28
577.32	14488.57
577.681	14661.45
578.042	14722.92
578.403	14804.95
578.763	14989.35
579.124	15002.68
579.485	15194.54
579.845	15285.84
580.206	15322.68
580.566	15622.33
580.927	15729.45
581.287	15927.63
581.648	15981.42
582.008	16179.83
582.368	16435.19
582.728	16554.51
583.089	16741.85
583.449	16846.48
583.809	17127.83
584.169	17257.77
584.529	17436.74
584.889	17840.58
585.249	17861.37
585.609	18114.92
585.969	18459.54
586.329	18525.53
586.688	18754.45
587.048	19032.64
587.408	19275.34
587.768	19593.98
588.127	19769.79
588.487	20029.9
588.846	20334.97
589.206	20417.23
589.565	20734.96
589.925	21034.62
590.284	21326.81
590.643	21608.39
591.003	21885.22
591.362	22141.25
591.721	22348.93
592.08	22623.28
592.44	23027.11
592.799	23316.36
593.158	23471.61
593.517	23807.42
593.876	24250.8
594.235	24505.71
594.593	24654.63
594.952	25104.34
595.311	25196.54
595.67	25505.01
596.029	26047.59
596.387	26235.38
596.746	26553.57
597.104	26643.06
597.463	26908.59
597.822	27306.32
598.18	27581.34
598.538	27801.44
598.897	28293.86
599.255	28342.67
599.613	28942.21
599.972	29015.65
600.33	29322.99
600.688	29536.99
601.046	29827.38
601.404	30307.14
601.762	30364.09
602.12	30773.8
602.478	31108.02
602.836	31236.83
603.194	31302.82
603.552	31576.71
603.91	31773.54
604.268	32140.77
604.625	32245.85
604.983	32751.37
605.341	32694.87
605.698	33172.6
606.056	33247.4
606.413	33593.83
606.771	34010.77
607.128	34096.87
607.485	33983.2
607.843	34323.53
608.2	34746.57
608.557	35046.68
608.914	35042.61
609.272	35401.7
609.629	35629.71
609.986	35847.56
610.343	35914.45
610.7	36184.73
611.057	36329.58
611.414	36538.16
611.771	36732.28
612.127	36817.48
612.484	36951.49
612.841	37298.14
613.198	37297.47
613.554	37506.5
613.911	37934.06
614.267	37816.32
614.624	38061.51
614.98	38301.96
615.337	38469.19
615.693	38585.12
616.05	38743.98
616.406	38978.33
616.762	38931.32
617.118	39055.84
617.475	39177.64
617.831	39476.39
618.187	39565.65
618.543	39738.53
618.899	39991.41
619.255	40017.85
619.611	40086.32
619.967	40361.57
620.323	40337.16
620.678	40199.08
621.034	40326.99
621.39	40445.41
621.746	40494.67
622.101	40929.46
622.457	40735.57
622.812	40949.8
623.168	41072.06
623.523	41081.09
623.879	41360.64
624.234	40980.31
624.589	41218.27
624.945	41456.45
625.3	41353.86
625.655	41562.66
626.01	41618.71
626.365	41653.51
626.72	41531.7
627.075	41681.76
627.43	41624.36
627.785	41591.59
628.14	41823.67
628.495	41757.69
628.85	41792.94
629.205	41747.74
629.559	42083.78
629.914	41997.46
630.269	42006.95
630.623	41844.24
630.978	41853.96
631.332	42064.12
631.687	42245.13
632.041	41959.04
632.396	42143.67
632.75	42064.8
633.104	42125.14
633.459	41953.16
633.813	42112.71
634.167	42001.07
634.521	41986.83
634.875	42120.16
635.229	41957.46
635.583	42096.66
635.937	41950
636.291	42022.31
636.645	42015.31
636.999	41912.49
637.352	42057.34
637.706	41876.55
638.06	42027.06
638.413	41997.46
638.767	41954.29
639.121	41960.62
639.474	41711.81
639.828	41818.25
640.181	41843.33
640.534	41967.63
640.888	41746.39
641.241	41711.13
641.594	41805.82
641.947	41877.01
642.301	41613.06
642.654	41892.83
643.007	41724.69
643.36	41706.39
643.713	41635.66
644.066	41880.62
644.419	41627.3
644.771	41247.64
645.124	40963.13
645.477	40898.27
645.83	40706.87
646.182	40550.49
646.535	40438.17
646.888	40597.72
647.24	40367.22
647.593	40681.33
647.945	40568.57
648.298	40342.81
648.65	40144.85
649.002	40239.99
649.355	40412.41
649.707	40399.76
650.059	40435.01
650.411	40971.27
650.763	40906.86
651.115	41295.33
651.467	41195.67
651.819	41165.39
652.171	41126.97
652.523	41069.8
652.875	41053.75
653.227	40950.25
653.578	41155.22
653.93	41068.67
654.282	40910.48
654.633	40859.63
654.985	40908.9
655.337	40915.45
655.688	40934.21
656.039	40962.45
656.391	40693.53
656.742	40736.47
657.094	40684.95
657.445	40855.79
657.796	40806.75
658.147	40704.16
658.498	40649.69
658.849	40862.8
659.2	40798.62
659.551	40684.04
659.902	40879.52
660.253	40761.56
660.604	40836.36
660.955	40561.11
661.306	40837.71
661.656	40630.71
662.007	40766.75
662.358	40688.11
662.708	40660.77
663.059	40800.65
663.409	40369.02
663.76	40702.35
664.11	40634.78
664.461	40567.66
664.811	40650.15
665.161	40599.53
665.511	40656.7
665.862	40626.42
666.212	40543.48
666.562	40644.72
666.912	40613.54
667.262	40562.92
667.612	40505.52
667.962	40601.79
668.312	40468.46
668.662	40650.82
669.011	40515.23
669.361	40478.85
669.711	40508.23
670.06	40393.43
670.41	40368.35
670.76	40331.06
671.109	40446.76
671.459	40368.12
671.808	40394.79
672.157	40255.35
672.507	40113.89
672.856	40251.96
673.205	40305.3
673.554	40377.38
673.904	40143.04
674.253	40502.13
674.602	40245.41
674.951	39776.95
675.3	39586.67
675.649	40105.53
675.998	40249.25
676.346	40232.76
676.695	40318.63
677.044	39998.41
677.393	40185.3
677.741	40044.29
678.09	39969.26
678.438	39865.53
678.787	40140.33
679.135	40023.04
679.484	39750.28
679.832	39901.46
680.181	39749.15
680.529	39774.69
680.877	39660.57
681.225	39477.3
681.573	39766.55
681.922	39398.88
682.27	39403.17
682.618	39374.7
682.966	39213.12
683.314	39350.07
683.661	39234.14
684.009	39002.51
684.357	38946.46
684.705	39033.47
685.053	39123.41
685.4	39049.74
685.748	38786.47
686.095	38899.91
686.443	38749.86
686.79	38639.8
687.138	38749.18
687.485	38679.35
687.832	38506.02
688.18	38665.11
688.527	38503.31
688.874	38296.99
689.221	38354.61
689.568	38074.85
689.915	38048.63
690.262	38166.6
690.609	37875.08
690.956	37749.21
691.303	37823.55
691.65	37570.9
691.997	37635.99
692.344	37338.14
692.69	37383.57
693.037	37382.66
693.383	37152.61
693.73	37295.88
694.077	37090.69
694.423	36978.15
694.769	37028.77
695.116	36905.16
695.462	36785.39
695.808	36632.62
696.155	36839.4
696.501	36413.65
696.847	36379.52
697.193	36189.25
697.539	36351.73
697.885	35915.36
698.231	35963.26
698.577	35990.61
698.923	35999.87
699.269	35611.18
699.614	35496.16
699.96	35474.24
700.306	35581.13
700.651	35384.97
700.997	35273.34
701.342	35214.36
701.688	35143.85
702.033	35030.86
702.379	35074.25
702.724	34870.64
703.069	35034.7
703.415	34517.2
703.76	34596.75
704.105	34666.8
704.45	34527.82
704.795	34440.82
705.14	34416.19
705.485	34243.53
705.83	34078.12
706.175	34304.1
706.52	34080.83
706.865	34059.58
707.209	33792.93
707.554	33788.86
707.899	33875.41
708.243	33619.82
708.588	33685.13
708.932	33424.35
709.277	33288.31
709.621	33381.41
709.966	33186.39
710.31	33230.91
710.654	32967.41
710.998	33071.81
711.342	33075.2
711.687	32860.07
712.031	32781.2
712.375	32760.18
712.719	32703.46
713.063	32653.07
713.407	32668.21
713.75	32501.66
714.094	32511.6
714.438	32404.03
714.782	32413.07
715.125	32244.49
715.469	32289.91
715.812	32100.77
716.156	31950.49
716.499	32004.05
716.843	32059.41
717.186	31824.62
717.53	31953.2
717.873	31857.61
718.216	31733.77
718.559	31738.52
718.902	31557.73
719.246	31526.54
719.589	31256.49
719.932	31411.07
720.275	31319.54
720.617	31281.13
720.96	31305.53
721.303	31209.26
721.646	31184.18
721.989	31130.17
722.331	31096.95
722.674	31008.37
723.016	31125.2
723.359	30876.84
723.701	30881.14
724.044	30680.92
724.386	30537.64
724.729	30785.32
725.071	30616.29
725.413	30486.57
725.755	30697.87
726.097	30439.79
726.439	30329.29
726.782	30397.08
727.124	30459.45
727.465	30262.85
727.807	30236.86
728.149	30138.11
728.491	30124.55
728.833	30071.89
729.175	30132.23
729.516	30018.56
729.858	29920.26
730.199	30027.15
730.541	29864.89
730.882	29944.44
731.224	29899.47
731.565	29833.71
731.906	29776.08
732.248	29780.83
732.589	29564.79
732.93	29544.45
733.271	29468.74
733.612	29525.69
733.953	29494.73
734.294	29346.26
734.635	29423.1
734.976	29354.62
735.317	29248.19
735.658	29233.04
735.999	29167.51
736.339	29134.52
736.68	29219.03
737.021	29103.56
737.361	28983.33
737.702	29190.33
738.042	28904.01
738.383	29042.09
738.723	28916.9
739.063	28776.56
739.404	28840.51
739.744	28841.42
740.084	28736.79
740.424	28692.72
740.764	28684.13
741.104	28802.1
741.444	28540.63
741.784	28600.29
742.124	28583.57
742.464	28565.94
742.804	28379.73
743.143	28430.58
743.483	28393.29
743.823	28158.95
744.162	28288.44
744.502	28355.1
744.841	28202.79
745.181	28211.38
745.52	28002.57
745.86	28191.72
746.199	28072.85
746.538	27981.1
746.877	28068.33
747.216	28033.08
747.556	27786.3
747.895	27942.23
748.234	27764.16
748.573	27751.73
748.911	27716.47
749.25	27677.15
749.589	27570.49
749.928	27564.39
750.267	27651.62
750.605	27510.83
750.944	27463.15
751.283	27418.18
751.621	27464.28
751.96	27343.15
752.298	27323.94
752.636	27276.71
752.975	27107.9
753.313	27104.06
753.651	27135.25
753.989	27087.79
754.327	27082.14
754.666	26812.32
755.004	26820
755.342	26909.94
755.679	26894.58
756.017	26672.43
756.355	26793.11
756.693	26691.87
757.031	26586.33
757.368	26497.98
757.706	26556.28
758.044	26268.6
758.381	26466.56
