Data from hue_230_FLMS001491_00034.txt Node
Date: Tue Feb 07 16:37:08 GMT 2017
User: dcchb
Spectrometer: FLMS00149
Trigger mode: 0
Integration Time (sec): 2.000000E-2
Scans to average: 10
Electric dark correction enabled: true
Nonlinearity correction enabled: false
Boxcar width: 0
XAxis mode: Wavelengths
Number of Pixels in Spectrum: 2048
>>>>>Begin Spectral Data<<<<<
341.393	-27.68
341.776	-27.68
342.16	-27.68
342.543	-68.36
342.927	-57.74
343.31	-73.33
343.693	-66.78
344.077	-71.3
344.46	-71.07
344.843	-42.15
345.226	-38.53
345.61	-26.1
345.993	-28.81
346.376	-14.12
346.759	6.21
347.142	23.84
347.525	47.8
347.908	62.94
348.291	79.88
348.674	87.34
349.057	124.18
349.44	114.69
349.823	147.68
350.206	176.15
350.588	187.68
350.971	215.93
351.354	217.06
351.737	229.71
352.119	245.08
352.502	251.63
352.884	275.13
353.267	267.22
353.65	290.27
354.032	260.9
354.414	299.77
354.797	317.17
355.179	331.86
355.562	332.31
355.944	322.59
356.326	336.83
356.709	327.56
357.091	341.8
357.473	347.67
357.855	341.57
358.238	331.4
358.62	325.3
359.002	317.39
359.384	330.73
359.766	320.56
360.148	325.3
360.53	319.2
360.912	317.39
361.294	328.69
361.676	345.64
362.057	317.84
362.439	311.97
362.821	317.17
363.203	325.98
363.584	311.74
363.966	318.07
364.348	319.43
364.729	314.46
365.111	307.45
365.493	328.69
365.874	314.46
366.256	314.46
366.637	330.27
367.019	311.07
367.4	316.94
367.781	301.57
368.163	311.97
368.544	297.05
368.925	313.78
369.306	327.11
369.688	321.46
370.069	307
370.45	306.32
370.831	297.28
371.212	309.48
371.593	325.75
371.974	312.87
372.355	291.4
372.736	308.35
373.117	305.87
373.498	307
373.879	300.67
374.26	303.16
374.641	303.38
375.021	307.45
375.402	320.1
375.783	320.56
376.163	325.08
376.544	323.95
376.925	302.7
377.305	321.23
377.686	327.79
378.066	321.69
378.447	327.56
378.827	314.91
379.208	323.72
379.588	336.38
379.968	342.93
380.349	344.96
380.729	330.27
381.109	353.55
381.489	326.88
381.87	348.58
382.25	331.18
382.63	348.35
383.01	328.47
383.39	331.63
383.77	341.35
384.15	343.38
384.53	339.77
384.91	327.79
385.29	344.06
385.67	344.96
386.049	349.93
386.429	344.28
386.809	361.01
387.189	351.74
387.568	357.62
387.948	364.85
388.328	358.3
388.707	375.47
389.087	351.29
389.466	372.53
389.846	375.92
390.225	363.49
390.605	359.43
390.984	378.86
391.363	378.41
391.743	381.35
392.122	347.22
392.501	364.17
392.881	381.8
393.26	392.65
393.639	387.45
394.018	371.63
394.397	357.84
394.776	365.75
395.155	380.67
395.534	382.7
395.913	387.9
396.292	389.71
396.671	390.16
397.05	381.57
397.429	397.16
397.808	383.83
398.186	375.47
398.565	399.42
398.944	422.02
399.323	412.76
399.701	396.71
400.08	412.31
400.458	412.53
400.837	396.94
401.215	411.63
401.594	420.89
401.972	402.81
402.351	405.98
402.729	422.02
403.107	431.06
403.486	425.19
403.864	414.34
404.242	423.83
404.62	409.82
404.999	436.26
405.377	450.04
405.755	439.42
406.133	443.27
406.511	475.13
406.889	465.41
407.267	463.83
407.645	450.72
408.023	477.61
408.401	486.88
408.779	473.77
409.156	486.88
409.534	498.18
409.912	495.47
410.29	488.46
410.667	512.64
411.045	518.07
411.422	510.38
411.8	535.24
412.178	526.43
412.555	543.6
412.933	546.77
413.31	543.83
413.687	555.8
414.065	551.96
414.442	584.5
414.819	579.08
415.197	576.37
415.574	588.57
415.951	618.63
416.328	597.39
416.705	617.72
417.082	611.4
417.46	630.15
417.837	609.14
418.214	628.57
418.591	645.52
418.967	619.08
419.344	665.63
419.721	657.72
420.098	671.06
420.475	685.29
420.852	676.25
421.228	706.54
421.605	714.22
421.982	714.44
422.358	706.54
422.735	730.72
423.111	716.48
423.488	767.32
423.864	751.51
424.241	793.76
424.617	783.37
424.994	796.02
425.37	811.62
425.746	787.44
426.123	825.18
426.499	808.45
426.875	827.44
427.251	875.34
427.627	876.7
428.003	876.7
428.379	857.27
428.756	893.2
429.132	919.18
429.507	901.33
429.883	898.85
430.259	949.69
430.635	937.72
431.011	946.08
431.387	960.09
431.763	985.4
432.138	975.68
432.514	990.14
432.89	1001.22
433.265	1028.33
433.641	1067.66
434.016	1081.44
434.392	1074.44
434.767	1097.71
435.143	1111.04
435.518	1119.86
435.894	1128.9
436.269	1192.17
436.644	1184.04
437.02	1172.96
437.395	1203.02
437.77	1208.22
438.145	1227.65
438.52	1256.58
438.895	1253.87
439.271	1296.8
439.646	1315.56
440.021	1319.85
440.395	1326.18
440.77	1304.94
441.145	1356.24
441.52	1368.21
441.895	1380.42
442.27	1399.85
442.645	1400.98
443.019	1415.67
443.394	1429.23
443.769	1446.4
444.143	1447.08
444.518	1467.19
444.892	1478.27
445.267	1483.01
445.641	1470.13
446.016	1524.59
446.39	1529.34
446.764	1530.47
447.139	1518.94
447.513	1535.21
447.887	1564.37
448.262	1575.89
448.636	1555.1
449.01	1586.51
449.384	1609.56
449.758	1624.25
450.132	1649.11
450.506	1616.34
450.88	1649.34
451.254	1673.52
451.628	1664.48
452.002	1700.41
452.376	1715.77
452.75	1717.81
453.123	1708.09
453.497	1775.43
453.871	1773.63
454.244	1818.37
454.618	1813.4
454.992	1833.74
455.365	1842.32
455.739	1894.53
456.112	1890.46
456.486	1906.28
456.859	1931.59
457.232	1944.24
457.606	1984.69
457.979	1984.92
458.352	1989.67
458.725	2023.34
459.099	2024.92
459.472	2077.12
459.845	2099.49
460.218	2096.1
460.591	2121.64
460.964	2158.02
461.337	2189.66
461.71	2202.77
462.083	2228.3
462.456	2209.55
462.829	2262.88
463.201	2276.44
463.574	2245.7
463.947	2351.24
464.32	2361.63
464.692	2383.78
465.065	2384.46
465.438	2422.87
465.81	2448.86
466.183	2467.62
466.555	2550.55
466.928	2550.1
467.3	2545.58
467.672	2573.6
468.045	2628.74
468.417	2612.47
468.789	2668.52
469.161	2678.91
469.534	2702.64
469.906	2788.29
470.278	2768.85
470.65	2823.77
471.022	2828.29
471.394	2861.05
471.766	2900.15
472.138	2958.23
472.51	2982.63
472.882	3026.47
473.253	3031.45
473.625	3096.53
473.997	3138.79
474.369	3169.07
474.74	3180.14
475.112	3261.27
475.484	3293.59
475.855	3381.94
476.227	3386.46
476.598	3497.2
476.97	3493.13
477.341	3592.11
477.713	3615.84
478.084	3623.75
478.455	3720.92
478.827	3723.18
479.198	3793.01
479.569	3824.42
479.94	3914.81
480.311	3915.04
480.682	3985.77
481.053	4070.51
481.424	4109.61
481.795	4135.37
482.166	4221.02
482.537	4273.9
482.908	4317.51
483.279	4370.85
483.65	4436.61
484.021	4521.12
484.391	4560.22
484.762	4616.04
485.133	4661.01
485.503	4691.74
485.874	4775.58
486.244	4784.85
486.615	4890.61
486.985	4935.12
487.356	4997.04
487.726	5063.26
488.097	5123.37
488.467	5106.19
488.837	5214.21
489.207	5274.1
489.578	5337.83
489.948	5378.28
490.318	5458.73
490.688	5455.79
491.058	5565.39
491.428	5622.56
491.798	5662.11
492.168	5684.03
492.538	5734.43
492.908	5796.34
493.278	5891.48
493.648	5938.26
494.017	5927.41
494.387	5971.26
494.757	6021.42
495.126	6053.51
495.496	6117.01
495.866	6093.74
496.235	6154.53
496.605	6256.22
496.974	6206.28
497.344	6310.46
497.713	6302.32
498.082	6298.03
498.452	6367.4
498.821	6397.01
499.19	6422.32
499.559	6499.83
499.928	6466.38
500.298	6498.93
500.667	6545.03
501.036	6541.64
501.405	6579.15
501.774	6581.86
502.143	6721.97
502.512	6691.46
502.88	6775.3
503.249	6713.38
503.618	6809.88
503.987	6816.43
504.356	6804
504.724	6839.93
505.093	6841.74
505.462	6811.91
505.83	6905.92
506.199	6872.93
506.567	6977.33
506.936	7022.3
507.304	7085.35
507.672	7091.23
508.041	7061.62
508.409	7126.25
508.777	7170.32
509.145	7134.84
509.514	7194.95
509.882	7135.74
510.25	7233.14
510.618	7256.87
510.986	7259.36
511.354	7298.68
511.722	7315.85
512.09	7372.35
512.458	7355.4
512.826	7338.68
513.193	7373.7
513.561	7386.13
513.929	7398.11
514.297	7496.64
514.664	7474.04
515.032	7542.97
515.4	7501.61
515.767	7540.93
516.135	7602.4
516.502	7526.69
516.869	7563.08
517.237	7658.44
517.604	7538.22
517.972	7637.43
518.339	7615.28
518.706	7556.75
519.073	7690.76
519.44	7650.31
519.808	7711.55
520.175	7657.54
520.542	7736.41
520.909	7771.21
521.276	7776.41
521.643	7831.09
522.009	7798.33
522.376	7836.97
522.743	7792
523.11	7900.47
523.477	7901.15
523.843	7960.81
524.21	7978.21
524.577	7975.5
524.943	7976.17
525.31	7983.41
525.676	8067.7
526.043	8133.68
526.409	8069.96
526.776	8069.73
527.142	8102.72
527.508	8126
527.874	8146.34
528.241	8185.66
528.607	8191.08
528.973	8206.68
529.339	8187.24
529.705	8239.9
530.071	8309.27
530.437	8231.99
530.803	8244.42
531.169	8238.31
531.535	8241.48
531.901	8217.3
532.267	8160.58
532.632	8284.64
532.998	8272.21
533.364	8315.37
533.73	8276.28
534.095	8223.17
534.461	8285.09
534.826	8319.44
535.192	8293.68
535.557	8320.12
535.923	8268.37
536.288	8268.82
536.653	8326.45
537.019	8200.58
537.384	8215.49
537.749	8293.45
538.114	8259.56
538.479	8196.28
538.845	8207.13
539.21	8248.71
539.575	8159.67
539.94	8183.17
540.305	8142.05
540.67	8165.77
541.034	8196.06
541.399	8189.73
541.764	8192.44
542.129	8167.13
542.494	8174.59
542.858	8226.34
543.223	8159.67
543.587	8147.24
543.952	8109.05
544.316	8136.62
544.681	8012.33
545.045	8084.65
545.41	8114.02
545.774	8067.47
546.138	8086.68
546.503	8049.17
546.867	8050.3
547.231	8001.94
547.595	7981.6
547.959	8059.79
548.324	7996.51
548.688	8031.54
549.052	8053.69
549.416	7951.99
549.779	7973.01
550.143	7975.27
550.507	7958.32
550.871	7977.08
551.235	7908.61
551.599	7941.15
551.962	7900.92
552.326	7948.6
552.689	7897.76
553.053	7912
553.417	7878.55
553.78	7934.59
554.143	7932.11
554.507	7886.91
554.87	7966.68
555.234	7930.75
555.597	7847.59
555.96	7907.93
556.323	7903.41
556.686	7871.09
557.05	7896.4
557.413	7932.11
557.776	7863.86
558.139	7907.7
558.502	7954.48
558.865	7908.83
559.228	7969.62
559.59	7968.94
559.953	7901.83
560.316	7956.06
560.679	7947.7
561.041	7928.94
561.404	7935.95
561.767	7975.5
562.129	7971.43
562.492	7998.55
562.854	7940.02
563.217	8001.03
563.579	8074.25
563.941	8090.52
564.304	8009.39
564.666	8094.14
565.028	8076.28
565.39	8117.87
565.753	8096.4
566.115	8112.22
566.477	8155.38
566.839	8099.34
567.201	8238.77
567.563	8208.48
567.925	8180.69
568.287	8220.24
568.648	8307.47
569.01	8302.49
569.372	8238.09
569.734	8246.68
570.095	8345.43
570.457	8428.82
570.819	8338.42
571.18	8298.2
571.542	8354.24
571.903	8398.76
572.265	8307.69
572.626	8414.13
572.987	8465.43
573.349	8415.03
573.71	8460.68
574.071	8426.11
574.432	8523.5
574.794	8498.87
575.155	8520.34
575.516	8544.97
575.877	8570.06
576.238	8504.97
576.599	8636.5
576.96	8672.88
577.32	8586.1
577.681	8694.12
578.042	8669.49
578.403	8631.07
578.763	8660.45
579.124	8728.47
579.485	8754.91
579.845	8737.51
580.206	8802.37
580.566	8754.69
580.927	8801.69
581.287	8785.87
581.648	8803.27
582.008	8792.88
582.368	8892.76
582.728	8862.25
583.089	8843.72
583.449	8910.16
583.809	8920.1
584.169	8912.65
584.529	8929.14
584.889	9004.17
585.249	8969.82
585.609	8920.56
585.969	9018.63
586.329	8954.45
586.688	9063.83
587.048	9042.59
587.408	8961.01
587.768	8980.67
588.127	8991.97
588.487	9030.84
588.846	9080.33
589.206	9026.32
589.565	9077.39
589.925	9190.38
590.284	9083.72
590.643	9132.08
591.003	9146.54
591.362	9139.76
591.721	9132.75
592.08	9104.05
592.44	9150.38
592.799	9221.34
593.158	9213.43
593.517	9122.81
593.876	9235.35
594.235	9150.38
594.593	9211.85
594.952	9230.83
595.311	9119.87
595.67	9197.39
596.029	9286.42
596.387	9247.78
596.746	9302.02
597.104	9335.23
597.463	9240.32
597.822	9278.51
598.18	9255.24
598.538	9290.49
598.897	9361
599.255	9277.84
599.613	9333.2
599.972	9296.37
600.33	9387.44
600.688	9315.35
601.046	9378.17
601.404	9394.44
601.762	9364.16
602.12	9422.69
602.478	9438.73
602.836	9367.32
603.194	9380.66
603.552	9328.46
603.91	9292.75
604.268	9384.95
604.625	9378.4
604.983	9395.35
605.341	9382.47
605.698	9411.62
606.056	9385.4
606.413	9477.6
606.771	9437.15
607.128	9485.74
607.485	9349.47
607.843	9395.35
608.2	9552.86
608.557	9524.38
608.914	9505.63
609.272	9488.68
609.629	9506.98
609.986	9570.48
610.343	9490.26
610.7	9534.55
611.057	9568.45
611.414	9546.75
611.771	9471.28
612.127	9556.92
612.484	9547.43
612.841	9569.8
613.198	9604.83
613.554	9596.7
613.911	9666.98
614.267	9625.17
614.624	9601.22
614.98	9615
615.337	9669.01
615.693	9673.53
616.05	9664.49
616.406	9694.1
616.762	9652.51
617.118	9696.36
617.475	9722.8
617.831	9707.88
618.187	9747.2
618.543	9681.44
618.899	9723.7
619.255	9741.1
619.611	9755.11
619.967	9805.5
620.323	9817.71
620.678	9759.18
621.034	9682.34
621.39	9749.24
621.746	9782.68
622.101	9842.79
622.457	9749.24
622.812	9770.93
623.168	9811.61
623.523	9775.9
623.879	9779.29
624.234	9750.37
624.589	9762.57
624.945	9843.02
625.3	9778.84
625.655	9794.66
626.01	9784.71
626.365	9770.7
626.72	9737.94
627.075	9715.56
627.43	9773.19
627.785	9724.38
628.14	9780.19
628.495	9846.86
628.85	9735.9
629.205	9710.59
629.559	9707.65
629.914	9722.12
630.269	9691.84
630.623	9699.97
630.978	9676.02
631.332	9693.19
631.687	9673.53
632.041	9648.22
632.396	9660.88
632.75	9646.64
633.104	9683.7
633.459	9582.01
633.813	9570.26
634.167	9608.67
634.521	9596.24
634.875	9606.87
635.229	9624.72
635.583	9563.03
635.937	9518.73
636.291	9483.03
636.645	9523.48
636.999	9523.7
637.352	9514.67
637.706	9546.53
638.06	9522.57
638.413	9504.27
638.767	9444.61
639.121	9442.8
639.474	9383.37
639.828	9408.68
640.181	9484.61
640.534	9437.6
640.888	9408.23
641.241	9386.98
641.594	9406.65
641.947	9444.16
642.301	9393.31
642.654	9364.16
643.007	9389.7
643.36	9336.82
643.713	9350.6
644.066	9383.37
644.419	9303.82
644.771	9252.98
645.124	9188.8
645.477	9150.83
645.83	9109.03
646.182	9034.23
646.535	9030.38
646.888	9095.47
647.24	9058.86
647.593	9036.71
647.945	9061.57
648.298	8961.46
648.65	8971.4
649.002	8946.09
649.355	9061.12
649.707	9027.22
650.059	9032.42
650.411	9071.29
650.763	9150.15
651.115	9203.71
651.467	9148.57
651.819	9241.23
652.171	9228.12
652.523	9208.68
652.875	9097.27
653.227	9211.17
653.578	9184.05
653.93	9163.04
654.282	9169.59
654.633	9136.82
654.985	9113.09
655.337	9159.87
655.688	9138.63
656.039	9173.21
656.391	9130.72
656.742	9161.91
657.094	9181.79
657.445	9234.22
657.796	9183.37
658.147	9140.66
658.498	9146.77
658.849	9199.19
659.2	9154.9
659.551	9148.8
659.902	9217.27
660.253	9157.16
660.604	9205.29
660.955	9145.64
661.306	9222.92
661.656	9228.8
662.007	9182.92
662.358	9292.52
662.708	9227.44
663.059	9163.26
663.409	9196.48
663.76	9185.63
664.11	9208.01
664.461	9264.95
664.811	9230.83
665.161	9182.47
665.511	9198.06
665.862	9225.86
666.212	9184.05
666.562	9240.32
666.912	9236.48
667.262	9181.79
667.612	9219.53
667.962	9243.94
668.312	9194.22
668.662	9261.79
669.011	9157.39
669.361	9134.56
669.711	9219.31
670.06	9231.73
670.41	9157.61
670.76	9194
671.109	9162.36
671.459	9202.58
671.808	9203.71
672.157	9210.27
672.507	9099.76
672.856	9133.88
673.205	9136.37
673.554	9137.73
673.904	9148.8
674.253	9140.66
674.602	9085.07
674.951	8970.5
675.3	8907.68
675.649	9100.44
675.998	9027.67
676.346	9136.6
676.695	9126.65
677.044	9081.68
677.393	9041.46
677.741	9080.55
678.09	9024.28
678.438	9010.72
678.787	9053.89
679.135	9053.89
679.484	8947.22
679.832	8969.59
680.181	8949.03
680.529	8958.97
680.877	8944.51
681.225	8889.6
681.573	8956.04
681.922	8899.77
682.27	8842.82
682.618	8878.98
682.966	8769.15
683.314	8864.74
683.661	8784.06
684.009	8812.99
684.357	8751.3
684.705	8696.83
685.053	8758.3
685.4	8779.32
685.748	8668.59
686.095	8677.17
686.443	8598.98
686.79	8657.06
687.138	8681.92
687.485	8648.02
687.832	8601.24
688.18	8605.76
688.527	8566.67
688.874	8585.65
689.221	8456.39
689.568	8461.59
689.915	8439.67
690.262	8463.62
690.609	8388.37
690.956	8408.48
691.303	8434.92
691.65	8382.04
691.997	8318.31
692.344	8258.65
692.69	8255.04
693.037	8275.83
693.383	8214.13
693.73	8189.73
694.077	8128.94
694.423	8163.51
694.769	8096.17
695.116	8098.43
695.462	8117.87
695.808	8010.75
696.155	8067.47
696.501	7987.25
696.847	7953.8
697.193	7877.42
697.539	7944.54
697.885	7840.58
698.231	7854.14
698.577	7873.58
698.923	7848.95
699.269	7776.86
699.614	7681.72
699.96	7720.36
700.306	7670.19
700.651	7675.17
700.997	7690.31
701.342	7577.31
701.688	7575.28
702.033	7594.26
702.379	7525.56
702.724	7520.82
703.069	7522.85
703.415	7454.15
703.76	7394.27
704.105	7455.06
704.45	7419.8
704.795	7353.59
705.14	7353.14
705.485	7356.3
705.83	7294.38
706.175	7330.32
706.52	7227.95
706.865	7240.37
707.209	7168.29
707.554	7189.08
707.899	7183.43
708.243	7161.96
708.588	7185.91
708.932	7171.45
709.277	7078.12
709.621	7123.99
709.966	7001.51
710.31	7044.45
710.654	6981.85
710.998	6969.65
711.342	6969.65
711.687	6975.07
712.031	6911.34
712.375	6886.03
712.719	6916.09
713.063	6879.03
713.407	6969.2
713.75	6822.53
714.094	6905.02
714.438	6859.59
714.782	6848.29
715.125	6859.82
715.469	6845.81
715.812	6800.16
716.156	6785.7
716.499	6727.62
716.843	6780.5
717.186	6742.76
717.53	6801.97
717.873	6708.19
718.216	6730.33
718.559	6647.17
718.902	6668.41
719.246	6750.9
719.589	6652.82
719.932	6635.19
720.275	6644.01
720.617	6642.2
720.96	6626.61
721.303	6628.41
721.646	6644.91
721.989	6605.59
722.331	6628.41
722.674	6553.39
723.016	6595.19
723.359	6546.38
723.701	6551.13
724.044	6593.84
724.386	6538.7
724.729	6533.05
725.071	6564.01
725.413	6519.94
725.755	6512.94
726.097	6498.93
726.439	6517.68
726.782	6479.49
727.124	6529.21
727.465	6483.11
727.807	6523.78
728.149	6482.65
728.491	6438.14
728.833	6513.84
729.175	6444.92
729.516	6429.77
729.858	6387.52
730.199	6466.38
730.541	6455.76
730.882	6495.31
731.224	6473.39
731.565	6403.33
731.906	6458.02
732.248	6458.47
732.589	6416.89
732.93	6400.85
733.271	6426.16
733.612	6471.13
733.953	6450.34
734.294	6424.12
734.635	6433.62
734.976	6423.45
735.317	6398.81
735.658	6420.51
735.999	6465.48
736.339	6430.45
736.68	6447.85
737.021	6420.28
737.361	6415.76
737.702	6451.47
738.042	6422.54
738.383	6480.39
738.723	6511.13
739.063	6456.21
739.404	6500.73
739.744	6476.1
740.084	6446.72
740.424	6473.62
740.764	6520.17
741.104	6488.3
741.444	6464.12
741.784	6480.85
742.124	6550.68
742.464	6524.24
742.804	6552.48
743.143	6524.46
743.483	6552.48
743.823	6600.39
744.162	6631.35
744.502	6615.31
744.841	6583.44
745.181	6727.39
745.52	6702.08
745.86	6690.33
746.199	6711.12
746.538	6795.87
746.877	6816.43
747.216	6854.62
747.556	6830.44
747.895	6934.39
748.234	6890.33
748.573	6933.04
748.911	7011.23
749.25	7041.51
749.589	7060.04
749.928	7085.35
750.267	7174.61
750.605	7220.94
750.944	7232.01
751.283	7260.26
751.621	7391.56
751.96	7410.77
752.298	7484.21
752.636	7607.14
752.975	7597.88
753.313	7689.4
753.651	7775.05
753.989	7851.66
754.327	7898.44
754.666	7935.72
755.004	8067.7
755.342	8202.61
755.679	8299.33
756.017	8373.45
756.355	8470.17
756.693	8599.21
757.031	8720.11
757.368	8752.2
757.706	8852.31
758.044	8906.32
758.381	9097.73
758.719	9160.55
759.056	9313.31
759.394	9428.11
759.731	9401.45
760.068	9535.46
760.405	9661.55
760.743	9749.24
761.08	9902.23
761.417	10046.4
761.754	10106.51
762.091	10302.21
762.428	10307.41
762.765	10469.22
763.102	10606.84
763.438	10636.67
763.775	10773.84
764.112	10882.54
764.449	10966.38
764.785	11052.7
765.122	11213.15
765.458	11214.96
765.795	11360.27
766.131	11534.05
766.467	11552.8
766.804	11680.94
767.14	11757.32
767.476	11845.68
767.812	11883.64
768.148	12062.62
768.485	12042.28
768.821	12146.23
769.157	12276.85
