Data from hue_00_FLMS001491_9.txt Node
Date: Mon Feb 06 15:29:12 GMT 2017
User: dcchb
Spectrometer: FLMS00149
Trigger mode: 0
Integration Time (sec): 2.000000E-2
Scans to average: 10
Electric dark correction enabled: true
Nonlinearity correction enabled: false
Boxcar width: 0
XAxis mode: Wavelengths
Number of Pixels in Spectrum: 2048
>>>>>Begin Spectral Data<<<<<
341.393	-5.99
341.776	-5.99
342.16	-5.99
342.543	-66.55
342.927	-55.7
343.31	-90.05
343.693	-75.59
344.077	-48.47
344.46	-73.56
344.843	-47.12
345.226	-20.23
345.61	-36.04
345.993	-19.77
346.376	-1.69
346.759	-1.92
347.142	14.12
347.525	54.8
347.908	56.61
348.291	67.68
348.674	110.39
349.057	110.84
349.44	127.34
349.823	135.7
350.206	160.79
350.588	186.55
350.971	205.98
351.354	215.7
351.737	226.32
352.119	261.58
352.502	255.7
352.884	296.6
353.267	275.59
353.65	296.15
354.032	296.83
354.414	302.03
354.797	312.65
355.179	306.09
355.562	316.26
355.944	325.75
356.326	330.95
356.709	332.31
357.091	343.38
357.473	337.05
357.855	324.4
358.238	351.97
358.62	330.05
359.002	325.75
359.384	358.97
359.766	341.8
360.148	346.09
360.53	346.54
360.912	338.18
361.294	334.57
361.676	328.01
362.057	323.72
362.439	330.5
362.821	327.34
363.203	312.87
363.584	312.87
363.966	334.57
364.348	314
364.729	315.81
365.111	321.46
365.493	324.85
365.874	316.04
366.256	319.2
366.637	324.4
367.019	330.5
367.4	291.4
367.781	318.75
368.163	299.09
368.544	312.2
368.925	315.13
369.306	338.41
369.688	318.75
370.069	307.22
370.45	305.87
370.831	326.21
371.212	283.5
371.593	306.77
371.974	306.32
372.355	294.12
372.736	311.07
373.117	307.45
373.498	309.94
373.879	317.17
374.26	300.22
374.641	297.73
375.021	311.29
375.402	306.77
375.783	310.16
376.163	317.39
376.544	330.05
376.925	327.56
377.305	331.18
377.686	314
378.066	340.44
378.447	321.46
378.827	318.07
379.208	322.36
379.588	302.03
379.968	313.55
380.349	321.23
380.729	346.77
381.109	325.08
381.489	328.24
381.87	326.66
382.25	322.82
382.63	332.99
383.01	340.22
383.39	354.68
383.77	326.88
384.15	336.83
384.53	339.54
384.91	334.57
385.29	348.13
385.67	349.03
386.049	307.45
386.429	355.36
386.809	341.35
387.189	357.84
387.568	344.28
387.948	360.56
388.328	357.39
388.707	356.26
389.087	340.67
389.466	339.99
389.846	371.18
390.225	351.74
390.605	358.75
390.984	343.61
391.363	359.2
391.743	344.51
392.122	368.01
392.501	354
392.881	360.78
393.26	374.11
393.639	381.8
394.018	365.98
394.397	363.72
394.776	363.27
395.155	384.51
395.534	378.41
395.913	372.53
396.292	365.75
396.671	389.93
397.05	373.44
397.429	369.59
397.808	378.41
398.186	387.22
398.565	367.56
398.944	387.9
399.323	378.18
399.701	367.56
400.08	386.09
400.458	372.76
400.837	398.75
401.215	386.77
401.594	394.23
401.972	381.57
402.351	377.5
402.729	387.22
403.107	408.01
403.486	416.15
403.864	424.06
404.242	407.79
404.62	438.97
404.999	401.91
405.377	413.44
405.755	405.53
406.133	419.54
406.511	415.02
406.889	429.03
407.267	403.49
407.645	438.75
408.023	437.39
408.401	437.39
408.779	416.15
409.156	414.79
409.534	449.82
409.912	437.62
410.29	427.9
410.667	426.32
411.045	430.84
411.422	456.6
411.8	461.57
412.178	462.93
412.555	455.24
412.933	458.41
413.31	487.11
413.687	469.71
414.065	463.15
414.442	456.82
414.819	478.29
415.197	488.91
415.574	484.17
415.951	489.59
416.328	495.47
416.705	494.79
417.082	478.52
417.46	478.97
417.837	490.04
418.214	489.14
418.591	506.99
418.967	496.6
419.344	506.09
419.721	531.62
420.098	525.07
420.475	505.18
420.852	525.97
421.228	521.46
421.605	516.71
421.982	525.52
422.358	528.46
422.735	528.69
423.111	541.34
423.488	573.43
423.864	539.76
424.241	553.09
424.617	539.31
424.994	564.62
425.37	544.73
425.746	550.61
426.123	558.29
426.499	557.84
426.875	562.58
427.251	579.08
427.627	601.68
428.003	585.86
428.379	592.87
428.756	576.14
429.132	576.37
429.507	603.71
429.883	597.16
430.259	621.79
430.635	619.76
431.011	623.37
431.387	638.97
431.763	620.66
432.138	639.19
432.514	639.42
432.89	654.56
433.265	644.84
433.641	654.56
434.016	652.98
434.392	659.76
434.767	670.15
435.143	679.42
435.518	670.6
435.894	666.99
436.269	689.81
436.644	707.44
437.02	719.19
437.395	716.7
437.77	702.69
438.145	723.26
438.52	741.34
438.895	733.65
439.271	731.62
439.646	746.99
440.021	747.44
440.395	741.11
440.77	734.78
441.145	737.49
441.52	777.04
441.895	763.93
442.27	758.96
442.645	752.41
443.019	781.11
443.394	781.56
443.769	761
444.143	782.24
444.518	804.84
444.892	790.6
445.267	806.42
445.641	766.65
446.016	792.41
446.39	816.14
446.764	784.27
447.139	832.63
447.513	828.11
447.887	837.15
448.262	849.36
448.636	845.97
449.01	848.23
449.384	859.53
449.758	862.01
450.132	871.95
450.506	875.12
450.88	837.15
451.254	871.28
451.628	894.78
452.002	880.32
452.376	876.02
452.75	891.39
453.123	909.92
453.497	880.09
453.871	918.96
454.244	923.25
454.618	904.95
454.992	912.41
455.365	936.36
455.739	959.18
456.112	975.23
456.486	979.3
456.859	972.74
457.232	1018.39
457.606	992.18
457.979	993.99
458.352	1033.76
458.725	1029.24
459.099	1039.41
459.472	1045.51
459.845	1031.05
460.218	1080.31
460.591	1042.8
460.964	1064.94
461.337	1078.5
461.71	1097.71
462.083	1113.53
462.456	1089.8
462.829	1115.79
463.201	1143.13
463.574	1136.13
463.947	1137.03
464.32	1175.45
464.692	1181.78
465.065	1186.75
465.438	1238.95
465.81	1201.44
466.183	1225.17
466.555	1250.93
466.928	1246.86
467.3	1258.84
467.672	1295.67
468.045	1305.62
468.417	1304.49
468.789	1302.9
469.161	1335.9
469.534	1364.37
469.906	1354.2
470.278	1382.22
470.65	1382.45
471.022	1418.15
471.394	1468.1
471.766	1450.02
472.138	1458.83
472.51	1510.13
472.882	1537.93
473.253	1551.03
473.625	1565.72
473.997	1586.96
474.369	1611.6
474.74	1624.93
475.112	1642.1
475.484	1681.42
475.855	1719.62
476.227	1703.35
476.598	1767.07
476.97	1791.48
477.341	1810.91
477.713	1857.24
478.084	1867.18
478.455	1895.2
478.827	1888.65
479.198	1986.5
479.569	1979.5
479.94	2032.6
480.311	2064.01
480.682	2090.68
481.053	2113.96
481.424	2195.08
481.795	2157.57
482.166	2198.93
482.537	2220.85
482.908	2304.46
483.279	2361.86
483.65	2361.63
484.021	2406.83
484.391	2434.85
484.762	2457.9
485.133	2489.77
485.503	2525.47
485.874	2598.01
486.244	2615.64
486.615	2632.81
486.985	2650.89
487.356	2752.81
487.726	2756.2
488.097	2829.42
488.467	2883.2
488.837	2932.69
489.207	2972.92
489.578	2960.26
489.948	3002.75
490.318	3054.27
490.688	3078.68
491.058	3111.22
491.428	3166.13
491.798	3195.96
492.168	3275.06
492.538	3278.22
492.908	3296.98
493.278	3328.84
493.648	3341.04
494.017	3429.85
494.387	3439.57
494.757	3484.77
495.126	3542.84
495.496	3522.73
495.866	3562.73
496.235	3593.01
496.605	3592.79
496.974	3633.92
497.344	3702.61
497.713	3724.31
498.082	3744.87
498.452	3762.95
498.821	3776.96
499.19	3816.28
499.559	3825.55
499.928	3870.75
500.298	3873.91
500.667	3892.21
501.036	3952.1
501.405	3984.87
501.774	4020.57
502.143	4040.01
502.512	4000.69
502.88	4014.7
503.249	4064.41
503.618	4054.92
503.987	4129.72
504.356	4145.77
504.724	4137.18
505.093	4226.44
505.462	4210.62
505.83	4176.05
506.199	4295.59
506.567	4279.77
506.936	4291.53
507.304	4360.45
507.672	4357.51
508.041	4402.71
508.409	4357.96
508.777	4417.62
509.145	4457.62
509.514	4473.67
509.882	4455.82
510.25	4482.71
510.618	4551.18
510.986	4545.76
511.354	4551.18
511.722	4603.16
512.09	4640.44
512.458	4630.27
512.826	4695.81
513.193	4700.78
513.561	4702.36
513.929	4723.38
514.297	4766.77
514.664	4802.92
515.032	4755.69
515.4	4744.4
515.767	4848.57
516.135	4849.93
516.502	4828.91
516.869	4909.14
517.237	4881.79
517.604	4935.8
517.972	4975.35
518.339	5002.92
518.706	4997.95
519.073	4985.07
519.44	5022.35
519.808	5032.52
520.175	5063.93
520.542	5098.51
520.909	5094.44
521.276	5110.94
521.643	5133.54
522.009	5199.75
522.376	5178.96
522.743	5223.93
523.11	5310.71
523.477	5289.47
523.843	5312.74
524.21	5333.31
524.577	5392.29
524.943	5438.39
525.31	5417.37
525.676	5473.87
526.043	5530.36
526.409	5503.92
526.776	5591.83
527.142	5621.66
527.508	5646.74
527.874	5691.26
528.241	5712.51
528.607	5688.1
528.973	5806.29
529.339	5794.99
529.705	5846.74
530.071	5879.51
530.437	5886.06
530.803	5901.2
531.169	5947.08
531.535	5956.11
531.901	5948.43
532.267	6008.77
532.632	6021.2
532.998	6119.05
533.364	6072.5
533.73	6102.55
534.095	6170.35
534.461	6159.5
534.826	6147.97
535.192	6234.75
535.557	6250.12
535.923	6258.25
536.288	6369.44
536.653	6338.93
537.019	6357.46
537.384	6390
537.749	6434.97
538.114	6417.8
538.479	6432.03
538.845	6465.03
539.21	6444.24
539.575	6501.86
539.94	6491.69
540.305	6592.03
540.67	6523.56
541.034	6586.61
541.399	6647.4
541.764	6679.94
542.129	6629.09
542.494	6687.85
542.858	6738.92
543.223	6795.87
543.587	6810.78
543.952	6859.37
544.316	6829.09
544.681	6818.92
545.045	6870.44
545.41	6901.17
545.774	6893.94
546.138	6979.36
546.503	6970.55
546.867	6964.45
547.231	7072.47
547.595	7006.93
547.959	7107.5
548.324	7145.91
548.688	7136.42
549.052	7175.29
549.416	7167.38
549.779	7196.08
550.143	7207.83
550.507	7255.97
550.871	7318.34
551.235	7250.77
551.599	7342.52
551.962	7340.03
552.326	7395.62
552.689	7444.66
553.053	7418.67
553.417	7454.83
553.78	7517.43
554.143	7500.71
554.507	7527.15
554.87	7549.07
555.234	7573.47
555.597	7523.98
555.96	7644.21
556.323	7651.44
556.686	7620.7
557.05	7653.47
557.413	7753.58
557.776	7706.35
558.139	7716.29
558.502	7870.87
558.865	7817.76
559.228	7850.08
559.59	7839.91
559.953	7916.52
560.316	7987.7
560.679	7961.26
561.041	8033.57
561.404	8084.19
561.767	8089.62
562.129	8132.33
562.492	8197.64
562.854	8167.81
563.217	8221.59
563.579	8256.85
563.941	8220.91
564.304	8298.65
564.666	8327.35
565.028	8317.18
565.39	8348.14
565.753	8396.28
566.115	8428.14
566.477	8412.1
566.839	8486.22
567.201	8514.47
567.563	8491.19
567.925	8601.02
568.287	8603.28
568.648	8564.41
569.01	8645.54
569.372	8695.93
569.734	8726.44
570.095	8811.63
570.457	8830.39
570.819	8846.66
571.18	8808.47
571.542	8930.73
571.903	8978.41
572.265	9023.6
572.626	9065.86
572.987	9075.35
573.349	9108.12
573.71	9177.72
574.071	9234.22
574.432	9302.92
574.794	9306.76
575.155	9346.08
575.516	9356.93
575.877	9478.51
576.238	9492.74
576.599	9652.06
576.96	9642.35
577.32	9697.71
577.681	9780.19
578.042	9896.35
578.403	9979.06
578.763	9936.8
579.124	10074.2
579.485	10183.12
579.845	10298.15
580.206	10342.67
580.566	10471.02
580.927	10510.57
581.287	10650
581.648	10703.11
582.008	10843.67
582.368	10993.04
582.728	11143.32
583.089	11226.94
583.449	11295.18
583.809	11429.19
584.169	11667.6
584.529	11722.97
584.889	11951.89
585.249	12091.09
585.609	12153.47
585.969	12434.81
586.329	12574.25
586.688	12717.52
587.048	12863.96
587.408	13138.3
587.768	13239.09
588.127	13464.39
588.487	13673.2
588.846	13892.86
589.206	13995.45
589.565	14258.72
589.925	14518.38
590.284	14672.95
590.643	14905.26
591.003	15157
591.362	15427.05
591.721	15576.2
592.08	15881.5
592.44	16146.58
592.799	16431.32
593.158	16559.9
593.517	16923.51
593.876	17151.3
594.235	17309.26
594.593	17575.47
594.952	17817.5
595.311	18000.32
595.67	18363.25
596.029	18703.8
596.387	18953.74
596.746	19236.67
597.104	19405.93
597.463	19727.5
597.822	19997.55
598.18	20086.14
598.538	20418.56
598.897	20798.44
599.255	20805.89
599.613	21495.14
599.972	21547.8
600.33	21886.77
600.688	21966.32
601.046	22381.22
601.404	22609.46
601.762	22887.87
602.12	23173.06
602.478	23410.12
602.836	23699.6
603.194	23733.95
603.552	24043.1
603.91	24176.88
604.268	24597.88
604.625	24651.67
604.983	24990.19
605.341	25244.87
605.698	25435.83
606.056	25629.5
606.413	25848.7
606.771	26222.47
607.128	26541.34
607.485	26451.62
607.843	26734.55
608.2	27065.62
608.557	27379.73
608.914	27489.79
609.272	27587.41
609.629	27941.75
609.986	28244.57
610.343	28190.11
610.7	28575.86
611.057	28745.8
611.414	28897.88
611.771	28940.59
612.127	29314.6
612.484	29419.9
612.841	29708.26
613.198	29736.73
613.554	29983.28
613.911	30218.98
614.267	30406.77
614.624	30507.33
614.98	30651.06
615.337	31007.43
615.693	30972.18
616.05	31140.31
616.406	31439.74
616.762	31425.05
617.118	31542.33
617.475	31682.9
617.831	31931.7
618.187	31952.27
618.543	32260.28
618.899	32396.32
619.255	32498.47
619.611	32526.49
619.967	32708.86
620.323	32865.46
620.678	32911.79
621.034	32943.65
621.39	33056.87
621.746	33125.8
622.101	33521.49
622.457	33426.13
622.812	33492.34
623.168	33655.05
623.523	33782.73
623.879	33852.33
624.234	33549.51
624.589	33951.08
624.945	34038.09
625.3	34157.63
625.655	34154.02
626.01	34243.05
626.365	34241.02
626.72	34384.07
627.075	34502.71
627.43	34409.83
627.785	34548.81
628.14	34639.43
628.495	34633.33
628.85	34693.44
629.205	34722.36
629.559	34942.92
629.914	34851.17
630.269	34877.16
630.623	34772.31
630.978	34672.65
631.332	34915.13
631.687	34969.59
632.041	34856.6
632.396	35036.93
632.75	34943.6
633.104	34935.69
633.459	34992.41
633.813	35015.69
634.167	34928.46
634.521	35008.23
634.875	35122.35
635.229	35056.37
635.583	34977.72
635.937	35033.32
636.291	35036.03
636.645	35120.77
636.999	34936.14
637.352	35188.57
637.706	34904.73
638.06	35219.53
638.413	35021.57
638.767	35033.54
639.121	35066.08
639.474	34908.57
639.828	35019.98
640.181	34975.01
640.534	35138.62
640.888	34885.75
641.241	34801.91
641.594	34911.74
641.947	35077.83
642.301	34909.7
642.654	35014.56
643.007	34878.97
643.36	34805.07
643.713	34954.9
644.066	35031.73
644.419	34840.33
644.771	34677.39
645.124	34302.94
645.477	34224.98
645.83	34073.57
646.182	33891.2
646.535	33935.72
646.888	34001.03
647.24	33736.4
647.593	34017.52
647.945	34013.23
648.298	33714.71
648.65	33786.57
649.002	33848.04
649.355	33801.48
649.707	33826.79
650.059	33858.66
650.411	34349.04
650.763	34361.92
651.115	34667.22
651.467	34619.09
651.819	34605.98
652.171	34368.7
652.523	34476.72
652.875	34529.37
653.227	34415.03
653.578	34601.92
653.93	34475.36
654.282	34358.31
654.633	34241.02
654.985	34406.44
655.337	34259.33
655.688	34492.09
656.039	34461.81
656.391	34280.12
656.742	34295.26
657.094	34309.95
657.445	34411.64
657.796	34301.13
658.147	34253.68
658.498	34203.28
658.849	34303.62
659.2	34309.72
659.551	34107.01
659.902	34349.49
660.253	34211.42
660.604	34285.77
660.955	34156.5
661.306	34238.08
661.656	34079.67
662.007	34067.47
662.358	34133
662.708	34307.01
663.059	34199.67
663.409	33977.07
663.76	34301.13
664.11	34261.13
664.461	34238.76
664.811	34224.52
665.161	34187.01
665.511	33990.41
665.862	34158.76
666.212	34317.18
666.562	34165.54
666.912	34155.37
667.262	34099.33
667.612	34128.03
667.962	34124.87
668.312	34043.06
668.662	34222.72
669.011	34007.58
669.361	33999.45
669.711	34093.91
670.06	34011.42
670.41	33989.95
670.76	34045.32
671.109	34113.79
671.459	34027.92
671.808	33832.22
672.157	33955.6
672.507	33901.59
672.856	33926.68
673.205	33814.37
673.554	33908.83
673.904	33840.35
674.253	33954.47
674.602	33873.12
674.951	33399.69
675.3	33352.68
675.649	33686.01
675.998	33690.53
676.346	33705.89
676.695	33846.45
677.044	33473.58
677.393	33617.08
677.741	33614.6
678.09	33682.62
678.438	33497.99
678.787	33629.06
679.135	33613.01
679.484	33308.16
679.832	33538.89
680.181	33436.97
680.529	33405.56
680.877	33345.22
681.225	33316.07
681.573	33491.44
681.922	33260.03
682.27	33179.13
682.618	33309.75
682.966	33095.29
683.314	33068.4
683.661	32995.86
684.009	32899.13
684.357	32930.09
684.705	32766.03
685.053	32768.06
685.4	32795.86
685.748	32713.83
686.095	32748.18
686.443	32525.59
686.79	32561.74
687.138	32597
687.485	32566.49
687.832	32360.84
688.18	32476.1
688.527	32366.72
688.874	32288.53
689.221	32314.07
689.568	32073.39
689.915	32073.62
690.262	32014.86
690.609	31847.41
690.956	31733.29
691.303	31792.72
691.65	31674.53
691.997	31737.36
692.344	31412.17
692.69	31516.8
693.037	31448.1
693.383	31177.15
693.73	31378.95
694.077	31113.19
694.423	31226.41
694.769	31031.61
695.116	30969.69
695.462	30948
695.808	30849.02
696.155	30894.44
696.501	30762.47
696.847	30718.4
697.193	30442.48
697.539	30596.82
697.885	30329.03
698.231	30340.33
698.577	30330.84
698.923	30268.24
699.269	30072.99
699.614	29976.05
699.96	29981.02
700.306	29995.93
700.651	29840.46
700.997	29831.87
701.342	29729.73
701.688	29537.19
702.033	29549.84
702.379	29485.44
702.724	29357.53
703.069	29541.26
703.415	29092
703.76	29132.91
704.105	29161.83
704.45	29184.2
704.795	28818.11
705.14	28872.57
705.485	28905.12
705.83	28648.63
706.175	28820.6
706.52	28557.55
706.865	28540.83
707.209	28616.08
707.554	28437.33
707.899	28348.75
708.243	28298.8
708.588	28375.19
708.932	28160.5
709.277	28133.84
709.621	28172.25
709.966	27951.47
710.31	28019.72
710.654	27802.55
710.998	27837.57
711.342	27760.51
711.687	27778.82
712.031	27645.26
712.375	27489.11
712.719	27546.28
713.063	27494.53
713.407	27596
713.75	27405.27
714.094	27430.58
714.438	27292.5
714.782	27336.8
715.125	27175.22
715.469	27192.39
715.812	27120.98
716.156	26849.58
716.499	26942.23
716.843	26935.22
717.186	26723.7
717.53	27066.97
717.873	26838.28
718.216	26855.68
718.559	26598.06
718.902	26553.54
719.246	26545.86
719.589	26524.16
719.932	26434.22
720.275	26459.53
720.617	26324.39
720.96	26312.19
721.303	26322.36
721.646	26252.08
721.989	26100.22
722.331	26158.97
722.674	26106.32
723.016	26056.38
723.359	26137.28
723.701	26159.43
724.044	25927.11
724.386	25846.44
724.729	25923.05
725.071	25878.53
725.413	25918.98
725.755	25748.81
726.097	25716.95
726.439	25631.3
726.782	25602.6
727.124	25762.6
727.465	25528.71
727.807	25573.45
728.149	25442.83
728.491	25469.95
728.833	25533.45
729.175	25384.98
729.516	25388.15
729.858	25288.04
730.199	25338.2
730.541	25196.51
730.882	25260.24
731.224	25395.6
731.565	25065.89
731.906	25142.05
732.248	25050.98
732.589	25027.7
732.93	24861.83
733.271	24934.15
733.612	25021.38
733.953	25006.01
734.294	24925.11
734.635	24793.36
734.976	24874.71
735.317	24724.43
735.658	24653.93
735.999	24667.26
736.339	24534.61
736.68	24777.54
737.021	24608.51
737.361	24367.61
737.702	24650.76
738.042	24507.72
738.383	24456.87
738.723	24463.88
739.063	24310.21
739.404	24313.6
739.744	24258.01
740.084	24113.38
740.424	24339.13
740.764	24242.19
741.104	24254.16
741.444	24121.74
741.784	23996.09
742.124	24099.82
742.464	24104.79
742.804	23901.63
743.143	23846.27
743.483	23935.08
743.823	23859.15
744.162	23761.3
744.502	23821.18
744.841	23788.41
745.181	23918.13
745.52	23707.74
745.86	23803.78
746.199	23654.18
746.538	23701.41
746.877	23758.81
747.216	23618.02
747.556	23667.74
747.895	23568.31
748.234	23396.79
748.573	23452.15
748.911	23378.71
749.25	23434.98
749.589	23368.54
749.928	23370.8
750.267	23242.67
750.605	23263.46
750.944	23189.11
751.283	23152.27
751.621	23253.51
751.96	22981.88
752.298	23010.58
752.636	23102.1
752.975	23015.78
753.313	22858.5
753.651	22994.99
753.989	22764.03
754.327	22715
754.666	22776.69
755.004	22734.43
755.342	22649.46
755.679	22696.01
756.017	22440.88
756.355	22595.23
756.693	22581.67
757.031	22514.1
757.368	22411.73
757.706	22423.03
758.044	22250.83
758.381	22240.21
758.719	22172.41
759.056	22243.37
759.394	22103.49
759.731	21999.08
760.068	21952.76
760.405	21889.93
760.743	21904.17
761.08	21937.39
