Data from hue_100_FLMS001491_00055.txt Node
Date: Tue Feb 07 17:03:22 GMT 2017
User: dcchb
Spectrometer: FLMS00149
Trigger mode: 0
Integration Time (sec): 2.000000E-2
Scans to average: 10
Electric dark correction enabled: true
Nonlinearity correction enabled: false
Boxcar width: 0
XAxis mode: Wavelengths
Number of Pixels in Spectrum: 2048
>>>>>Begin Spectral Data<<<<<
341.393	-10.88
341.776	-10.88
342.16	-10.88
342.543	-59.69
342.927	-58.78
343.31	-64.89
343.693	-82.74
344.077	-66.69
344.46	-63.3
344.843	-39.35
345.226	-35.06
345.61	-30.31
345.993	-32.12
346.376	-13.59
346.759	11.95
347.142	28.67
347.525	50.82
347.908	48.33
348.291	63.92
348.674	112.74
349.057	111.61
349.44	115.9
349.823	138.27
350.206	157.26
350.588	192.28
350.971	213.98
351.354	238.61
351.737	224.6
352.119	231.6
352.502	269.8
352.884	262.11
353.267	269.12
353.65	301.21
354.032	291.26
354.414	291.72
354.797	314.54
355.179	312.73
355.562	329.91
355.944	327.19
356.326	338.95
356.709	320.19
357.091	333.75
357.473	336.01
357.855	336.46
358.238	352.05
358.62	350.47
359.002	347.76
359.384	341.66
359.766	351.83
360.148	324.03
360.53	322
360.912	319.74
361.294	338.27
361.676	340.53
362.057	333.52
362.439	347.08
362.821	318.83
363.203	338.95
363.584	330.36
363.966	342.11
364.348	349.57
364.729	343.24
365.111	322.68
365.493	336.23
365.874	304.14
366.256	327.87
366.637	325.84
367.019	326.52
367.4	329.23
367.781	302.56
368.163	315.22
368.544	303.24
368.925	304.6
369.306	318.38
369.688	327.19
370.069	310.25
370.45	305.05
370.831	332.62
371.212	318.38
371.593	322
371.974	307.53
372.355	308.21
372.736	330.36
373.117	314.54
373.498	319.74
373.879	309.57
374.26	307.31
374.641	324.93
375.021	325.61
375.402	308.21
375.783	329.68
376.163	339.85
376.544	336.01
376.925	334.43
377.305	354.76
377.686	333.75
378.066	314.31
378.447	323.13
378.827	324.48
379.208	337.36
379.588	347.76
379.968	339.4
380.349	347.53
380.729	345.73
381.109	343.92
381.489	335.33
381.87	344.37
382.25	343.69
382.63	352.28
383.01	358.83
383.39	328.55
383.77	335.1
384.15	352.96
384.53	362.9
384.91	341.21
385.29	361.09
385.67	370.81
386.049	354.99
386.429	356.12
386.809	351.37
387.189	368.32
387.568	372.17
387.948	366.52
388.328	378.94
388.707	362.45
389.087	366.52
389.466	356.8
389.846	372.17
390.225	375.78
390.605	358.38
390.984	354.31
391.363	375.78
391.743	373.75
392.122	359.51
392.501	378.49
392.881	365.39
393.26	404.03
393.639	386.18
394.018	373.3
394.397	401.77
394.776	376.23
395.155	384.37
395.534	379.62
395.913	390.92
396.292	397.25
396.671	390.47
397.05	388.21
397.429	394.31
397.808	406.97
398.186	389.57
398.565	388.21
398.944	408.55
399.323	410.81
399.701	421.88
400.08	404.25
400.458	396.35
400.837	380.75
401.215	424.37
401.594	417.14
401.972	425.5
402.351	432.95
402.729	426.4
403.107	426.4
403.486	441.99
403.864	425.95
404.242	429.79
404.62	429.79
404.999	442.22
405.377	462.56
405.755	421.2
406.133	430.24
406.511	442.67
406.889	445.61
407.267	453.75
407.645	450.36
408.023	465.5
408.401	460.07
408.779	456.23
409.156	455.33
409.534	473.18
409.912	484.7
410.29	503.69
410.667	501.43
411.045	484.93
411.422	459.39
411.8	474.76
412.178	471.6
412.555	474.08
412.933	489.68
413.31	507.76
413.687	509.34
414.065	476.12
414.442	517.47
414.819	505.04
415.197	519.96
415.574	521.31
415.951	524.03
416.328	519.05
416.705	531.71
417.082	534.87
417.46	522.44
417.837	533.52
418.214	541.65
418.591	547.98
418.967	550.92
419.344	538.26
419.721	529
420.098	547.98
420.475	554.53
420.852	566.28
421.228	572.84
421.605	559.73
421.982	596.79
422.358	583.69
422.735	586.62
423.111	583.91
423.488	563.35
423.864	602.44
424.241	597.24
424.617	601.31
424.994	603.12
425.37	601.31
425.746	598.37
426.123	600.86
426.499	606.28
426.875	603.8
427.251	623.23
427.627	625.04
428.003	634.76
428.379	642.21
428.756	646.96
429.132	655.32
429.507	658.71
429.883	656.23
430.259	672.5
430.635	653.74
431.011	667.07
431.387	689.67
431.763	699.84
432.138	720.18
432.514	688.32
432.89	705.72
433.265	713.17
433.641	713.85
434.016	707.3
434.392	721.99
434.767	744.13
435.143	750.46
435.518	764.7
435.894	748.88
436.269	766.96
436.644	784.81
437.02	772.38
437.395	776.45
437.77	795.88
438.145	795.88
438.52	783.45
438.895	811.02
439.271	800.63
439.646	815.09
440.021	808.76
440.395	821.65
440.77	831.81
441.145	831.36
441.52	823.45
441.895	863.23
442.27	861.87
442.645	855.09
443.019	848.09
443.394	847.86
443.769	868.2
444.143	864.58
444.518	875.43
444.892	895.32
445.267	900.51
445.641	882.43
446.016	917.91
446.39	915.88
446.764	881.3
447.139	917.91
447.513	914.75
447.887	920.4
448.262	917.24
448.636	934.18
449.01	954.3
449.384	944.81
449.758	965.14
450.132	962.21
450.506	945.48
450.88	988.19
451.254	986.61
451.628	995.88
452.002	1019.38
452.376	1020.51
452.75	1008.53
453.123	1029.78
453.497	1055.31
453.871	1039.49
454.244	1055.09
454.618	1098.47
454.992	1095.54
455.365	1110.23
455.739	1114.97
456.112	1114.52
456.486	1123.56
456.859	1145.03
457.232	1150.9
457.606	1164.91
457.979	1161.52
458.352	1224.35
458.725	1222.54
459.099	1197
459.472	1211.92
459.845	1242.88
460.218	1254.4
460.591	1253.5
460.964	1294.18
461.337	1295.08
461.71	1308.64
462.083	1319.71
462.456	1340.28
462.829	1358.13
463.201	1348.41
463.574	1378.69
463.947	1368.07
464.32	1437.45
464.692	1451.68
465.065	1482.42
465.438	1474.28
465.81	1494.62
466.183	1522.19
466.555	1542.53
466.928	1575.98
467.3	1580.5
467.672	1622.98
468.045	1645.8
468.417	1630.89
468.789	1668.4
469.161	1709.31
469.534	1751.56
469.906	1768.74
470.278	1785.69
470.65	1836.99
471.022	1864.33
471.394	1890.54
471.766	1933.25
472.138	1954.5
472.51	2005.12
472.882	2043.31
473.253	2072.46
473.625	2108.39
473.997	2171.89
474.369	2223.87
474.74	2252.79
475.112	2298.89
475.484	2319.23
475.855	2366.69
476.227	2437.87
476.598	2544.09
476.97	2568.94
477.341	2652.11
477.713	2694.82
478.084	2752.22
478.455	2851.2
478.827	2876.51
479.198	2978.42
479.569	3017.07
479.94	3133.67
480.311	3200.34
480.682	3367.57
481.053	3409.6
481.424	3480.78
481.795	3546.55
482.166	3695.69
482.537	3731.63
482.908	3906.31
483.279	3972.52
483.65	4037.61
484.021	4189.47
484.391	4245.28
484.762	4392.62
485.133	4456.8
485.503	4607.08
485.874	4735.67
486.244	4838.26
486.615	4958.03
486.985	5068.09
487.356	5198.93
487.726	5344.24
488.097	5501.97
488.467	5554.85
488.837	5754.4
489.207	5851.57
489.578	6043.65
489.948	6175.85
490.318	6365.23
490.688	6409.07
491.058	6542.85
491.428	6708.95
491.798	6841.15
492.168	7036.62
492.538	7138.77
492.908	7248.14
493.278	7450.17
493.648	7493.56
494.017	7712.54
494.387	7833.21
494.757	7912.98
495.126	8152.53
495.496	8170.38
495.866	8259.64
496.235	8433.87
496.605	8615.34
496.974	8740.53
497.344	8828.67
497.713	8918.16
498.082	9060.07
498.452	9213.29
498.821	9315.43
499.19	9427.75
499.559	9581.19
499.928	9672.71
500.298	9769.66
500.667	9861.18
501.036	9912.03
501.405	10160.38
501.774	10159.48
502.143	10205.35
502.512	10364.44
502.88	10517.89
503.249	10478.79
503.618	10586.13
503.987	10667.04
504.356	10777.99
504.724	10858.44
505.093	10952.68
505.462	11072.22
505.83	11164.2
506.199	11232.44
506.567	11432.67
506.936	11283.97
507.304	11556.73
507.672	11617.52
508.041	11640.8
508.409	11842.37
508.777	11853.67
509.145	11921.01
509.514	11958.98
509.882	12053.67
510.25	12124.17
510.618	12138.86
510.986	12143.61
511.354	12295.92
511.722	12410.04
512.09	12469.47
512.458	12419.76
512.826	12537.04
513.193	12597.38
513.561	12617.72
513.929	12755.34
514.297	12809.35
514.664	12871.95
515.032	12876.24
515.4	13037.82
515.767	13038.05
516.135	13158.04
516.502	13034.88
516.869	13177.93
517.237	13230.58
517.604	13156.01
517.972	13243.92
518.339	13334.31
518.706	13323.24
519.073	13275.78
519.44	13393.29
519.808	13494.98
520.175	13417.25
520.542	13534.31
520.909	13631.48
521.276	13602.55
521.643	13669.89
522.009	13731.36
522.376	13882.32
522.743	13813.39
523.11	13882.54
523.477	13971.13
523.843	13986.04
524.21	14010.9
524.577	14058.36
524.943	14209.32
525.31	14219.26
525.676	14171.12
526.043	14211.8
526.409	14228.3
526.776	14396.2
527.142	14335.87
527.508	14370.22
527.874	14428.74
528.241	14459.03
528.607	14435.07
528.973	14509.65
529.339	14483.88
529.705	14544.9
530.071	14529.08
530.437	14591.45
530.803	14577.22
531.169	14638.23
531.535	14549.65
531.901	14533.15
532.267	14535.41
532.632	14547.16
532.998	14541.74
533.364	14613.15
533.73	14579.48
534.095	14610.66
534.461	14617.67
534.826	14673.71
535.192	14582.64
535.557	14691.34
535.923	14598.23
536.288	14568.63
536.653	14577.22
537.019	14498.35
537.384	14513.26
537.749	14507.84
538.114	14478.91
538.479	14386.26
538.845	14428.07
539.21	14403.66
539.575	14372.48
539.94	14348.97
540.305	14305.58
540.67	14252.25
541.034	14310.78
541.399	14229.43
541.764	14270.33
542.129	14238.24
542.494	14216.77
542.858	14252.25
543.223	14193.27
543.587	14242.54
543.952	14127.28
544.316	14041.86
544.681	14084.12
545.045	14094.74
545.41	14017.23
545.774	14012.26
546.138	13938.81
546.503	13950.11
546.867	13877.57
547.231	13894.75
547.595	13903.79
547.959	13892.26
548.324	13767.07
548.688	13752.6
549.052	13729.33
549.416	13816.56
549.779	13816.78
550.143	13714.41
550.507	13795.54
550.871	13738.14
551.235	13661.53
551.599	13670.35
551.962	13632.16
552.326	13668.99
552.689	13615.88
553.053	13556
553.417	13485.72
553.78	13603
554.143	13374.31
554.507	13518.26
554.87	13509
555.234	13571.14
555.597	13447.75
555.96	13438.26
556.323	13463.12
556.686	13431.93
557.05	13413.4
557.413	13472.16
557.776	13439.84
558.139	13468.77
558.502	13444.14
558.865	13539.73
559.228	13479.17
559.59	13451.6
559.953	13417.92
560.316	13506.96
560.679	13565.72
561.041	13568.88
561.404	13575.66
561.767	13621.31
562.129	13474.65
562.492	13514.87
562.854	13612.5
563.217	13538.15
563.579	13567.3
563.941	13483.91
564.304	13565.94
564.666	13658.6
565.028	13614.3
565.39	13617.47
565.753	13654.75
566.115	13624.47
566.477	13688.43
566.839	13679.84
567.201	13782.89
567.563	13758.25
567.925	13835.09
568.287	13783.56
568.648	13820.17
569.01	13778.37
569.372	13878.7
569.734	13720.51
570.095	13890.68
570.457	13948.08
570.819	13945.82
571.18	13914.18
571.542	13970.45
571.903	13970.68
572.265	13987.4
572.626	14021.98
572.987	13987.85
573.349	13948.76
573.71	14058.81
574.071	14100.84
574.432	13986.72
574.794	14132.93
575.155	14073.27
575.516	13930
575.877	14108.98
576.238	14093.61
576.599	14137.68
576.96	14057.91
577.32	14087.28
577.681	14149.66
578.042	14126.61
578.403	14159.15
578.763	14145.14
579.124	14092.48
579.485	14115.31
579.845	14223.1
580.206	14125.02
580.566	14174.29
580.927	14117.79
581.287	14168.64
581.648	14090
582.008	14157.11
582.368	14153.05
582.728	14132.26
583.089	14067.17
583.449	14081.86
583.809	14087.51
584.169	14130.9
584.529	14057
584.889	14181.52
585.249	14092.03
585.609	14023.11
585.969	14114.18
586.329	14048.19
586.688	14074.86
587.048	14045.7
587.408	13978.59
587.768	13955.31
588.127	13926.61
588.487	14002.32
588.846	14107.4
589.206	13935.88
589.565	14017.68
589.925	14037.79
590.284	13973.84
590.643	13921.41
591.003	13964.58
591.362	14024.46
591.721	13956.89
592.08	13923.9
592.44	13971.36
592.799	13977.23
593.158	14022.88
593.517	13904.46
593.876	13934.29
594.235	13947.85
594.593	13909.66
594.952	13878.93
595.311	13903.56
595.67	13920.96
596.029	13950.34
596.387	13908.31
596.746	13993.28
597.104	13916.44
597.463	13953.28
597.822	13912.6
598.18	13843.45
598.538	13854.75
598.897	13925.26
599.255	13856.1
599.613	14019.04
599.972	13937.46
600.33	13910.11
600.688	13878.25
601.046	13787.86
601.404	13950.57
601.762	13949.21
602.12	13958.25
602.478	13939.04
602.836	13924.13
603.194	13866.5
603.552	13922.54
603.91	13794.64
604.268	13861.3
604.625	13863.34
604.983	13887.29
605.341	13821.98
605.698	13888.87
606.056	13925.48
606.413	13937.46
606.771	13857.46
607.128	13974.07
607.485	13917.35
607.843	13772.94
608.2	14019.04
608.557	13996.44
608.914	13928.87
609.272	14021.3
609.629	13978.14
609.986	14036.44
610.343	13888.42
610.7	14152.37
611.057	13991.69
611.414	14013.61
611.771	14096.78
612.127	14107.62
612.484	14105.14
612.841	14182.42
613.198	14091.13
613.554	14146.94
613.911	14152.37
614.267	14142.42
614.624	14081.41
614.98	14094.06
615.337	14227.85
615.693	14185.59
616.05	14165.47
616.406	14186.04
616.762	14224
617.118	14197.34
617.475	14210.67
617.831	14285.02
618.187	14230.33
618.543	14226.49
618.899	14356.88
619.255	14243.89
619.611	14294.06
619.967	14350.33
620.323	14410.44
620.678	14294.29
621.034	14256.77
621.39	14250.44
621.746	14262.65
622.101	14411.34
622.457	14381.74
622.812	14267.39
623.168	14399.82
623.523	14338.58
623.879	14435.98
624.234	14295.19
624.589	14345.13
624.945	14323.21
625.3	14287.05
625.655	14245.25
626.01	14288.18
626.365	14291.35
626.72	14286.83
627.075	14328.41
627.43	14299.26
627.785	14289.77
628.14	14265.36
628.495	14323.21
628.85	14217.68
629.205	14216.77
629.559	14302.65
629.914	14301.74
630.269	14183.55
630.623	14212.03
630.978	14194.4
631.332	14316.43
631.687	14278.24
632.041	14259.94
632.396	14207.51
632.75	14162.76
633.104	14161.63
633.459	14074.4
633.813	14030.34
634.167	14072.82
634.521	14164.35
634.875	14025.59
635.229	14034.4
635.583	13921.87
635.937	14052.94
636.291	13835.31
636.645	14047.06
636.999	13924.13
637.352	13997.8
637.706	13857.91
638.06	13880.74
638.413	13948.08
638.767	13844.58
639.121	13775.2
639.474	13789.89
639.828	13857.91
640.181	13828.99
640.534	13836.44
640.888	13778.59
641.241	13752.38
641.594	13725.49
641.947	13869.89
642.301	13741.31
642.654	13750.57
643.007	13676.22
643.36	13803.9
643.713	13738.82
644.066	13791.25
644.419	13704.7
644.771	13571.82
645.124	13470.35
645.477	13411.6
645.83	13308.77
646.182	13347.19
646.535	13301.32
646.888	13348.77
647.24	13272.62
647.593	13334.31
647.945	13294.31
648.298	13174.09
648.65	13236.23
649.002	13143.58
649.355	13259.74
649.707	13197.59
650.059	13331.15
650.411	13445.49
650.763	13520.97
651.115	13547.19
651.467	13588.99
651.819	13539.5
652.171	13570.69
652.523	13519.62
652.875	13491.37
653.227	13475.32
653.578	13599.39
653.93	13540.86
654.282	13436.68
654.633	13509.22
654.985	13539.73
655.337	13617.92
655.688	13538.6
656.039	13618.37
656.391	13457.92
656.742	13500.63
657.094	13458.6
657.445	13600.97
657.796	13413.18
658.147	13481.43
658.498	13544.93
658.849	13478.71
659.2	13460.86
659.551	13417.25
659.902	13564.13
660.253	13433.74
660.604	13489.79
660.955	13404.14
661.306	13496.57
661.656	13544.47
662.007	13490.24
662.358	13511.03
662.708	13530.92
663.059	13534.31
663.409	13472.84
663.76	13557.36
664.11	13573.17
664.461	13599.39
664.811	13528.66
665.161	13518.71
665.511	13553.51
665.862	13501.54
666.212	13609.33
666.562	13620.63
666.912	13514.64
667.262	13503.35
667.612	13579.5
667.962	13533.4
668.312	13555.32
668.662	13651.36
669.011	13553.74
669.361	13565.94
669.711	13508.32
670.06	13538.37
670.41	13460.63
670.76	13441.43
671.109	13532.72
671.459	13509.22
671.808	13478.71
672.157	13437.58
672.507	13406.17
672.856	13290.02
673.205	13469.9
673.554	13429.45
673.904	13431.03
674.253	13457.25
674.602	13494.53
674.951	13293.63
675.3	13146.52
675.649	13367.3
675.998	13353.97
676.346	13436.23
676.695	13424.93
677.044	13257.48
677.393	13398.04
677.741	13341.77
678.09	13410.47
678.438	13277.59
678.787	13300.41
679.135	13365.5
679.484	13106.52
679.832	13269.23
680.181	13183.58
680.529	13171.6
680.877	13133.64
681.225	13135.9
681.573	13090.93
681.922	13073.75
682.27	13068.33
682.618	13034.88
682.966	13007.09
683.314	13026.97
683.661	12948.33
684.009	12886.19
684.357	12854.77
684.705	12818.62
685.053	12860.65
685.4	12761.44
685.748	12726.87
686.095	12736.36
686.443	12681.67
686.79	12680.77
687.138	12716.93
687.485	12645.74
687.832	12632.41
688.18	12620.43
688.527	12645.29
688.874	12608
689.221	12500.89
689.568	12493.2
689.915	12424.96
690.262	12462.69
690.609	12323.72
690.956	12283.94
691.303	12338.63
691.65	12323.72
691.997	12250.27
692.344	12185.64
692.69	12150.61
693.037	12173.66
693.383	12104.29
693.73	12057.28
694.077	12024.06
694.423	12003.05
694.769	11910.85
695.116	11908.36
695.462	11866.55
695.808	11768.7
696.155	11866.1
696.501	11707.91
696.847	11749.72
697.193	11638.99
697.539	11651.87
697.885	11590.18
698.231	11491.87
698.577	11564.19
698.923	11510.63
699.269	11406
699.614	11321.71
699.96	11354.25
700.306	11400.12
700.651	11198.77
700.997	11230.18
701.342	11143.18
701.688	11185.89
702.033	11106.8
702.379	11129.85
702.724	11052.11
703.069	11065.22
703.415	10899.57
703.76	10878.33
704.105	10950.87
704.45	10855.05
704.795	10834.04
705.14	10839.69
705.485	10730.31
705.83	10753.59
706.175	10690.09
706.52	10680.14
706.865	10644.89
707.209	10627.94
707.554	10540.94
707.899	10648.05
708.243	10488.51
708.588	10495.06
708.932	10436.31
709.277	10402.41
709.621	10488.51
709.966	10378.91
710.31	10354.28
710.654	10288.74
710.998	10252.36
711.342	10310.21
711.687	10291
712.031	10230.66
712.375	10123.32
712.719	10191.57
713.063	10129.65
713.407	10200.16
713.75	10154.51
714.094	10075.87
714.438	10048.97
714.782	10072.93
715.125	10065.02
715.469	9989.54
715.812	9993.83
716.156	9959.03
716.499	9993.38
716.843	9991.12
717.186	9960.39
717.53	9966.04
717.873	9938.24
718.216	9883.78
718.559	9897.34
718.902	9792.71
719.246	9822.31
719.589	9826.38
719.932	9733.5
720.275	9746.38
720.617	9763.33
720.96	9757.23
721.303	9721.98
721.646	9689.43
721.989	9698.7
722.331	9776.44
722.674	9768.08
723.016	9725.37
723.359	9685.37
723.701	9691.02
724.044	9636.78
724.386	9574.64
724.729	9581.87
725.071	9566.27
725.413	9643.33
725.755	9586.16
726.097	9505.48
726.439	9523.56
726.782	9537.57
727.124	9586.84
727.465	9526.73
727.807	9478.37
728.149	9483.56
728.491	9504.35
728.833	9510.46
729.175	9491.7
729.516	9464.58
729.858	9483.11
730.199	9419.16
730.541	9496.9
730.882	9443.34
731.224	9483.11
731.565	9416.9
731.906	9434.53
732.248	9420.74
732.589	9408.31
732.93	9353.62
733.271	9418.03
733.612	9423.9
733.953	9496.45
734.294	9401.31
734.635	9451.7
734.976	9484.24
735.317	9385.26
735.658	9361.08
735.999	9372.83
736.339	9458.93
736.68	9534.86
737.021	9395.66
737.361	9399.05
737.702	9490.8
738.042	9456.9
738.383	9444.92
738.723	9415.32
739.063	9494.64
739.404	9423.45
739.744	9449.89
740.084	9505.03
740.424	9543
740.764	9472.04
741.104	9518.82
741.444	9494.19
741.784	9549.78
742.124	9536.9
742.464	9485.15
742.804	9557.23
743.143	9589.78
743.483	9652.15
743.823	9586.39
744.162	9609.66
744.502	9667.51
744.841	9669.77
745.181	9749.77
745.52	9787.29
745.86	9810.34
746.199	9769.88
746.538	9903.44
746.877	9917.45
747.216	9979.82
747.556	10036.09
747.895	10062.53
748.234	10139.59
748.573	10147.95
748.911	10196.09
749.25	10285.13
749.589	10310.44
749.928	10399.02
750.267	10500.94
750.605	10554.04
750.944	10618.45
751.283	10637.43
751.621	10737.99
751.96	10811.66
752.298	10931.66
752.636	11031.77
752.975	11057.08
753.313	11212.11
753.651	11297.75
753.989	11360.8
754.327	11461.14
754.666	11503.4
755.004	11706.78
755.342	11832.65
755.679	11958.53
756.017	12066.55
756.355	12254.11
756.693	12314.9
757.031	12472.41
757.368	12516.03
757.706	12694.78
758.044	12847.77
