Data from hue_250_FLMS001491_00019.txt Node
Date: Tue Feb 07 16:00:38 GMT 2017
User: dcchb
Spectrometer: FLMS00149
Trigger mode: 0
Integration Time (sec): 2.000000E-2
Scans to average: 10
Electric dark correction enabled: true
Nonlinearity correction enabled: false
Boxcar width: 0
XAxis mode: Wavelengths
Number of Pixels in Spectrum: 2048
>>>>>Begin Spectral Data<<<<<
341.393	-11.06
341.776	-11.06
342.16	-11.06
342.543	-44.05
342.927	-70.72
343.31	-76.37
343.693	-66.65
344.077	-49.02
344.46	-39.98
344.843	-57.16
345.226	-54.22
345.61	-43.37
345.993	-15.35
346.376	-5.18
346.759	-11.96
347.142	42.27
347.525	26.45
347.908	75.04
348.291	57.41
348.674	97.19
349.057	120.91
349.44	119.78
349.823	163.63
350.206	162.5
350.588	189.84
350.971	203.62
351.354	221.03
351.737	220.57
352.119	231.65
352.502	268.26
352.884	254.47
353.267	253.79
353.65	303.28
354.032	255.83
354.414	304.64
354.797	290.63
355.179	292.44
355.562	301.48
355.944	317.52
356.326	324.98
356.709	333.11
357.091	323.62
357.473	338.08
357.855	340.12
358.238	332.43
358.62	343.28
359.002	331.08
359.384	325.88
359.766	333.56
360.148	328.37
360.53	343.28
360.912	330.85
361.294	332.43
361.676	336.95
362.057	320.46
362.439	310.29
362.821	321.36
363.203	311.64
363.584	309.38
363.966	336.5
364.348	304.64
364.729	304.86
365.111	305.77
365.493	325.43
365.874	307.58
366.256	320.46
366.637	319.1
367.019	315.49
367.4	311.64
367.781	297.86
368.163	304.19
368.544	289.5
368.925	318.2
369.306	303.96
369.688	305.77
370.069	329.27
370.45	298.09
370.831	293.11
371.212	309.16
371.593	321.81
371.974	307.12
372.355	310.06
372.736	306.45
373.117	323.85
373.498	300.35
373.879	293.11
374.26	317.07
374.641	324.07
375.021	304.86
375.402	294.7
375.783	326.33
376.163	317.52
376.544	334.69
376.925	320.68
377.305	320.68
377.686	310.97
378.066	309.38
378.447	319.1
378.827	335.15
379.208	319.33
379.588	309.61
379.968	336.73
380.349	319.33
380.729	338.76
381.109	332.43
381.489	334.24
381.87	319.55
382.25	318.2
382.63	328.37
383.01	326.33
383.39	335.6
383.77	336.28
384.15	326.56
384.53	312.55
384.91	346.22
385.29	342.6
385.67	324.75
386.049	343.96
386.429	336.05
386.809	354.81
387.189	339.89
387.568	332.43
387.948	362.26
388.328	344.86
388.707	345.09
389.087	348.93
389.466	365.2
389.846	348.25
390.225	358.87
390.605	354.81
390.984	351.42
391.363	369.04
391.743	346.22
392.122	359.78
392.501	353.9
392.881	363.17
393.26	361.81
393.639	356.61
394.018	380.34
394.397	369.04
394.776	370.63
395.155	378.76
395.534	383.05
395.913	362.26
396.292	367.46
396.671	384.41
397.05	402.49
397.429	372.89
397.808	373.11
398.186	379.89
398.565	385.77
398.944	398.87
399.323	383.96
399.701	383.28
400.08	387.12
400.458	390.51
400.837	423.96
401.215	395.48
401.594	394.58
401.972	411.98
402.351	416.5
402.729	393.45
403.107	398.87
403.486	416.73
403.864	419.66
404.242	434.35
404.62	424.64
404.999	433.68
405.377	441.36
405.755	425.09
406.133	433.22
406.511	451.3
406.889	453.79
407.267	435.48
407.645	460.34
408.023	453.34
408.401	446.33
408.779	451.53
409.156	488.36
409.534	461.92
409.912	477.97
410.29	503.5
410.667	508.48
411.045	478.65
411.422	492.88
411.8	521.58
412.178	535.82
412.555	538.31
412.933	542.37
413.31	536.72
413.687	556.84
414.065	551.64
414.442	551.19
414.819	568.81
415.197	558.64
415.574	565.2
415.951	574.69
416.328	570.62
416.705	574.69
417.082	602.48
417.46	635.48
417.837	611.07
418.214	627.34
418.591	616.95
418.967	609.04
419.344	631.41
419.721	627.79
420.098	643.84
420.475	640.9
420.852	652.65
421.228	661.01
421.605	681.8
421.982	677.74
422.358	701.01
422.735	721.58
423.111	702.82
423.488	721.35
423.864	712.09
424.241	748.7
424.617	738.53
424.994	741.92
425.37	781.46
425.746	769.26
426.123	775.13
426.499	788.02
426.875	799.32
427.251	817.62
427.627	824.17
428.003	853.1
428.379	831.4
428.756	852.2
429.132	864.85
429.507	878.41
429.883	885.41
430.259	895.36
430.635	891.74
431.011	897.84
431.387	922.48
431.763	932.64
432.138	957.96
432.514	939.2
432.89	962.02
433.265	1004.51
433.641	991.17
434.016	988.24
434.392	995.69
434.767	1050.38
435.143	1054.45
435.518	1074.56
435.894	1119.76
436.269	1091.74
436.644	1118.63
437.02	1150.94
437.395	1137.39
437.77	1151.85
438.145	1176.93
438.52	1178.74
438.895	1191.85
439.271	1207.21
439.646	1237.27
440.021	1235.24
440.395	1235.46
440.77	1273.43
441.145	1265.29
441.52	1315.46
441.895	1315.91
442.27	1320.43
442.645	1319.3
443.019	1342.58
443.394	1350.04
443.769	1377.61
444.143	1355.46
444.518	1369.47
444.892	1388.9
445.267	1402.24
445.641	1390.49
446.016	1391.62
446.39	1449.92
446.764	1452.18
447.139	1441.33
447.513	1449.69
447.887	1458.51
448.262	1476.81
448.636	1485.17
449.01	1512.06
449.384	1505.96
449.758	1499.41
450.132	1570.37
450.506	1575.79
450.88	1545.74
451.254	1566.75
451.628	1580.99
452.002	1582.12
452.376	1588.67
452.75	1617.37
453.123	1614.21
453.497	1659.63
453.871	1641.55
454.244	1692.85
454.618	1688.56
454.992	1705.73
455.365	1726.75
455.739	1773.53
456.112	1768.33
456.486	1780.76
456.859	1797.03
457.232	1852.62
457.606	1815.56
457.979	1847.65
458.352	1901.21
458.725	1916.8
459.099	1950.7
459.472	1973.07
459.845	1944.82
460.218	1966.52
460.591	1971.04
460.964	1999.51
461.337	2028.21
461.71	2078.83
462.083	2080.86
462.456	2069.79
462.829	2097.81
463.201	2154.76
463.574	2139.84
463.947	2144.82
464.32	2201.99
464.692	2216
465.065	2259.16
465.438	2289.67
465.81	2284.47
466.183	2318.82
466.555	2314.08
466.928	2406.96
467.3	2396.11
467.672	2386.62
468.045	2486.05
468.417	2467.97
468.789	2466.39
469.161	2541.64
469.534	2534.18
469.906	2598.82
470.278	2599.04
470.65	2634.75
471.022	2681.3
471.394	2693.28
471.766	2751.35
472.138	2747.74
472.51	2806.27
472.882	2852.37
473.253	2878.36
473.625	2928.98
473.997	2964.91
474.369	2990.44
474.74	3018.47
475.112	3026.6
475.484	3096.2
475.855	3134.39
476.227	3148.18
476.598	3263.43
476.97	3262.3
477.341	3335.75
477.713	3357.67
478.084	3390.43
478.455	3435.18
478.827	3477.44
479.198	3563.76
479.569	3598.11
479.94	3645.79
480.311	3721.72
480.682	3760.59
481.053	3824.09
481.424	3870.87
481.795	3906.8
482.166	3927.82
482.537	3978.44
482.908	4075.61
483.279	4070.87
483.65	4146.12
484.021	4239
484.391	4253.69
484.762	4274.48
485.133	4347.24
485.503	4391.54
485.874	4466.34
486.244	4499.78
486.615	4512.21
486.985	4599.44
487.356	4682.83
487.726	4711.3
488.097	4796.27
488.467	4862.71
488.837	4893.44
489.207	4914.69
489.578	4990.84
489.948	5001.92
490.318	5118.98
490.688	5084.4
491.058	5159.2
491.428	5245.98
491.798	5248.46
492.168	5366.65
492.538	5341.79
492.908	5370.04
493.278	5443.03
493.648	5480.32
494.017	5528
494.387	5557.83
494.757	5598.74
495.126	5656.81
495.496	5647.55
495.866	5688.45
496.235	5705.63
496.605	5830.6
496.974	5795.34
497.344	5830.14
497.713	5873.76
498.082	5891.61
498.452	5970.25
498.821	6005.51
499.19	5982
499.559	6031.27
499.928	6063.36
500.298	6060.19
500.667	6177.25
501.036	6122.11
501.405	6205.73
501.774	6171.15
502.143	6292.28
502.512	6242.34
502.88	6250.02
503.249	6290.24
503.618	6327.98
503.987	6325.72
504.356	6386.51
504.724	6401.43
505.093	6361.88
505.462	6440.52
505.83	6490.24
506.199	6475.55
506.567	6547.86
506.936	6513.74
507.304	6540.18
507.672	6605.72
508.041	6621.08
508.409	6588.99
508.777	6669.9
509.145	6743.57
509.514	6667.64
509.882	6718.03
510.25	6749.67
510.618	6764.36
510.986	6835.09
511.354	6812.94
511.722	6828.31
512.09	6883.45
512.458	6833.05
512.826	6897.91
513.193	6939.72
513.561	6896.1
513.929	6968.87
514.297	6978.81
514.664	7003.67
515.032	7031.02
515.4	7067.17
515.767	7035.99
516.135	7071.92
516.502	7046.83
516.869	7131.8
517.237	7157.57
517.604	7088.42
517.972	7110.79
518.339	7165.93
518.706	7099.71
519.073	7120.96
519.44	7182.42
519.808	7247.28
520.175	7252.03
520.542	7273.04
520.909	7294.96
521.276	7292.03
521.643	7338.58
522.009	7374.51
522.376	7398.69
522.743	7338.35
523.11	7427.62
523.477	7457.9
523.843	7489.53
524.21	7492.25
524.577	7473.49
524.943	7478.46
525.31	7508.52
525.676	7603.66
526.043	7572.24
526.409	7587.61
526.776	7584.67
527.142	7598.91
527.508	7588.97
527.874	7641.4
528.241	7653.82
528.607	7718.23
528.973	7754.39
529.339	7695.18
529.705	7730.21
530.071	7734.27
530.437	7783.99
530.803	7789.19
531.169	7789.19
531.535	7792.58
531.901	7719.13
532.267	7751.45
532.632	7794.61
532.998	7790.54
533.364	7839.13
533.73	7800.26
534.095	7841.62
534.461	7742.86
534.826	7804.78
535.192	7801.16
535.557	7833.71
535.923	7827.6
536.288	7812.69
536.653	7843.65
537.019	7764.1
537.384	7810.88
537.749	7767.95
538.114	7835.29
538.479	7784.67
538.845	7838
539.21	7828.51
539.575	7841.84
539.94	7800.71
540.305	7767.49
540.67	7797.32
541.034	7789.41
541.399	7730.21
541.764	7748.96
542.129	7748.28
542.494	7718.91
542.858	7684.56
543.223	7692.02
543.587	7701.73
543.952	7674.84
544.316	7708.74
544.681	7663.77
545.045	7703.31
545.41	7704.9
545.774	7681.62
546.138	7733.14
546.503	7709.42
546.867	7636.2
547.231	7647.04
547.595	7682.07
547.959	7659.93
548.324	7652.92
548.688	7616.99
549.052	7619.47
549.416	7626.03
549.779	7600.49
550.143	7654.73
550.507	7677.78
550.871	7579.02
551.235	7580.38
551.599	7632.58
551.962	7613.37
552.326	7603.66
552.689	7621.73
553.053	7582.41
553.417	7626.48
553.78	7655.86
554.143	7594.16
554.507	7571.57
554.87	7594.39
555.234	7701.51
555.597	7587.61
555.96	7602.98
556.323	7628.51
556.686	7591.45
557.05	7610.66
557.413	7647.27
557.776	7578.12
558.139	7598.68
558.502	7635.52
558.865	7628.29
559.228	7639.59
559.59	7627.16
559.953	7621.28
560.316	7702.41
560.679	7639.36
561.041	7659.47
561.404	7764.78
561.767	7801.84
562.129	7717.55
562.492	7808.62
562.854	7780.83
563.217	7761.62
563.579	7779.24
563.941	7754.61
564.304	7809.07
564.666	7838.9
565.028	7832.35
565.39	7843.42
565.753	7897.66
566.115	7863.31
566.477	7868.96
566.839	7890.2
567.201	7948.73
567.563	7891.33
567.925	7955.51
568.287	7886.13
568.648	7998.22
569.01	8042.74
569.372	8028.96
569.734	7973.14
570.095	8045.9
570.457	8021.27
570.819	8092.46
571.18	8068.05
571.542	8111.21
571.903	8109.41
572.265	8099.01
572.626	8134.72
572.987	8098.56
573.349	8203.87
573.71	8205.67
574.071	8223.07
574.432	8252.9
574.794	8352.34
575.155	8298.33
575.516	8276.41
575.877	8269.63
576.238	8342.85
576.599	8405.67
576.96	8370.64
577.32	8387.82
577.681	8420.13
578.042	8429.4
578.403	8442.05
578.763	8482.28
579.124	8433.46
579.485	8544.2
579.845	8526.8
580.206	8509.62
580.566	8493.58
580.927	8556.4
581.287	8587.13
581.648	8598.43
582.008	8650.18
582.368	8608.15
582.728	8622.61
583.089	8614.48
583.449	8670.29
583.809	8644.98
584.169	8706.68
584.529	8631.88
584.889	8724.3
585.249	8691.76
585.609	8665.77
585.969	8701.93
586.329	8683.4
586.688	8717.53
587.048	8720.01
587.408	8761.14
587.768	8736.06
588.127	8756.39
588.487	8703.29
588.846	8827.35
589.206	8763.17
589.565	8781.48
589.925	8836.84
590.284	8784.87
590.643	8824.19
591.003	8869.16
591.362	8877.97
591.721	8867.13
592.08	8861.48
592.44	8855.6
592.799	8894.7
593.158	8912.1
593.517	8911.64
593.876	8884.75
594.235	8877.07
594.593	8938.54
594.952	8969.04
595.311	8903.96
595.67	8899.89
596.029	8968.37
596.387	8980.34
596.746	9007.01
597.104	8955.03
597.463	8998.87
597.822	9021.47
598.18	8963.17
598.538	9012.21
598.897	9059.21
599.255	8947.35
599.613	9068.48
599.972	9053.56
600.33	9113.45
600.688	8997.07
601.046	9044.07
601.404	9051.75
601.762	9028.25
602.12	9074.58
602.478	9131.53
602.836	9077.74
603.194	9043.39
603.552	9038.42
603.91	9056.95
604.268	9143.5
604.625	9060.34
604.983	9097.63
605.341	9039.1
605.698	9128.14
606.056	9135.82
606.413	9189.38
606.771	9133.33
607.128	9187.8
607.485	9136.05
607.843	9164.52
608.2	9189.38
608.557	9262.37
608.914	9160.23
609.272	9161.81
609.629	9225.31
609.986	9271.63
610.343	9180.34
610.7	9185.76
611.057	9298.98
611.414	9241.58
611.771	9341.01
612.127	9310.5
612.484	9329.94
612.841	9264.18
613.198	9308.47
613.554	9318.41
613.911	9383.72
614.267	9283.39
614.624	9332.2
614.98	9367.23
615.337	9374.46
615.693	9361.35
616.05	9348.92
616.406	9410.39
616.762	9364.74
617.118	9392.99
617.475	9341.01
617.831	9399.54
618.187	9417.85
618.543	9448.35
618.899	9419.88
619.255	9432.99
619.611	9393.67
619.967	9433.89
620.323	9502.14
620.678	9452.19
621.034	9429.82
621.39	9415.36
621.746	9428.92
622.101	9537.84
622.457	9493.1
622.812	9389.6
623.168	9500.78
623.523	9456.94
623.879	9498.07
624.234	9421.69
624.589	9458.75
624.945	9397.73
625.3	9412.65
625.655	9432.31
626.01	9440.44
626.365	9423.5
626.72	9414.23
627.075	9410.84
627.43	9412.42
627.785	9407.9
628.14	9364.51
628.495	9447.9
628.85	9457.62
629.205	9401.57
629.559	9432.08
629.914	9418.3
630.269	9466.66
630.623	9331.07
630.978	9359.99
631.332	9392.54
631.687	9408.35
632.041	9355.47
632.396	9359.99
632.75	9300.79
633.104	9300.33
633.459	9255.36
633.813	9235.93
634.167	9265.08
634.521	9230.28
634.875	9278.87
635.229	9218.3
635.583	9270.5
635.937	9293.78
636.291	9236.83
636.645	9176.95
636.999	9215.37
637.352	9202.26
637.706	9126.33
638.06	9249.71
638.413	9163.61
638.767	9130.85
639.121	9155.71
639.474	9095.14
639.828	9124.52
640.181	9112.32
640.534	9076.61
640.888	9064.41
641.241	9089.04
641.594	9107.57
641.947	9099.66
642.301	9048.82
642.654	9055.37
643.007	9087.68
643.36	9035.03
643.713	9051.75
644.066	9028.7
644.419	9000.23
644.771	9052.88
645.124	8855.37
645.477	8915.71
645.83	8818.99
646.182	8722.04
646.535	8737.64
646.888	8670.29
647.24	8697.19
647.593	8771.53
647.945	8729.05
648.298	8712.33
648.65	8681.14
649.002	8656.51
649.355	8721.59
649.707	8663.52
650.059	8713.68
650.411	8852.66
650.763	8876.16
651.115	8942.6
651.467	8897.63
651.819	8902.83
652.171	8862.38
652.523	8854.92
652.875	8915.03
653.227	8819.9
653.578	8887.46
653.93	8895.83
654.282	8790.97
654.633	8836.62
654.985	8892.21
655.337	8843.4
655.688	8857.86
656.039	8917.29
656.391	8830.29
656.742	8859.89
657.094	8892.89
657.445	8906.22
657.796	8898.76
658.147	8939.67
658.498	8867.13
658.849	8893.79
659.2	8807.47
659.551	8781.93
659.902	8881.59
660.253	8928.59
660.604	8856.5
660.955	8823.96
661.306	8864.19
661.656	8828.26
662.007	8881.81
662.358	8902.83
662.708	8861.93
663.059	8886.79
663.409	8849.27
663.76	8849.95
664.11	8937.86
664.461	8924.98
664.811	8886.33
665.161	8871.42
665.511	8818.99
665.862	8904.19
666.212	8906.45
666.562	8920.23
666.912	8871.65
667.262	8885.2
667.612	8850.18
667.962	8931.53
668.312	8841.14
668.662	8908.25
669.011	8891.98
669.361	8863.06
669.711	8841.14
670.06	8866.22
670.41	8848.14
670.76	8859.67
671.109	8862.15
671.459	8769.95
671.808	8835.71
672.157	8805.66
672.507	8795.26
672.856	8790.07
673.205	8806.11
673.554	8867.58
673.904	8855.83
674.253	8843.4
674.602	8801.36
674.951	8619.67
675.3	8592.56
675.649	8750.52
675.998	8712.55
676.346	8731.54
676.695	8731.54
677.044	8673.23
677.393	8693.57
677.741	8828.03
678.09	8699.67
678.438	8624.19
678.787	8688.37
679.135	8684.31
679.484	8577.19
679.832	8644.53
680.181	8517.08
680.529	8610.64
680.877	8571.31
681.225	8583.52
681.573	8696.28
681.922	8557.08
682.27	8534.48
682.618	8488.38
682.966	8513.46
683.314	8457.19
683.661	8434.59
684.009	8486.57
684.357	8397.31
684.705	8408.15
685.053	8417.19
685.4	8421.04
685.748	8373.13
686.095	8287.25
686.443	8260.81
686.79	8339.46
687.138	8269.4
687.485	8304.65
687.832	8253.58
688.18	8250.87
688.527	8244.54
688.874	8211.1
689.221	8123.19
689.568	8167.48
689.915	8162.06
690.262	8151.44
690.609	8149.4
690.956	8045.23
691.303	8020.37
691.65	7980.37
691.997	7987.6
692.344	7996.19
692.69	7965.91
693.037	7934.72
693.383	7866.02
693.73	7874.61
694.077	7815.4
694.423	7810.43
694.769	7831.67
695.116	7772.24
695.462	7767.27
695.808	7735.63
696.155	7728.85
696.501	7644.78
696.847	7673.48
697.193	7591.68
697.539	7598.91
697.885	7543.32
698.231	7502.87
698.577	7559.14
698.923	7553.04
699.269	7529.53
699.614	7479.59
699.96	7404.57
700.306	7439.14
700.651	7393.49
700.997	7371.8
701.342	7304
701.688	7304
702.033	7234.85
702.379	7294.96
702.724	7281.18
703.069	7266.72
703.415	7142.88
703.76	7143.1
704.105	7132.26
704.45	7163.67
704.795	7082.77
705.14	7051.13
705.485	7045.03
705.83	7099.04
706.175	7058.13
706.52	6962.99
706.865	6968.19
707.209	6957.35
707.554	6958.93
707.899	6883.22
708.243	6944.46
708.588	6906.05
708.932	6828.08
709.277	6843.45
709.621	6827.63
709.966	6829.44
710.31	6767.75
710.654	6710.35
710.998	6779.5
711.342	6714.41
711.687	6708.99
712.031	6679.39
712.375	6689.56
712.719	6647.52
713.063	6616.79
713.407	6709.22
713.75	6655.21
714.094	6602.33
714.438	6662.89
714.782	6611.14
715.125	6645.04
715.469	6603.46
715.812	6598.71
716.156	6529.33
716.499	6524.36
716.843	6513.74
717.186	6553.06
717.53	6506.74
717.873	6474.42
718.216	6539.05
718.559	6469.9
718.902	6463.8
719.246	6466.96
719.589	6399.39
719.932	6422.22
720.275	6405.95
720.617	6431.94
720.96	6405.27
721.303	6416.79
721.646	6404.14
721.989	6388.09
722.331	6366.4
722.674	6377.25
723.016	6404.37
723.359	6384.93
723.701	6337.7
724.044	6338.15
724.386	6285.27
724.729	6341.09
725.071	6308.32
725.413	6314.65
725.755	6301.09
726.097	6284.59
726.439	6306.74
726.782	6293.63
727.124	6280.75
727.465	6225.61
727.807	6230.13
728.149	6266.74
728.491	6195.56
728.833	6281.2
729.175	6271.94
729.516	6236.46
729.858	6235.33
730.199	6264.26
730.541	6193.52
730.882	6230.13
731.224	6229.91
731.565	6215.44
731.906	6227.2
732.248	6216.8
732.589	6191.72
732.93	6165.05
733.271	6153.07
733.612	6178.83
733.953	6190.59
734.294	6230.36
734.635	6173.41
734.976	6178.38
735.317	6143.58
735.658	6177.7
735.999	6213.18
736.339	6204.37
736.68	6160.3
737.021	6162.11
737.361	6187.42
737.702	6158.72
738.042	6183.58
738.383	6174.32
738.723	6212.96
739.063	6194.2
739.404	6176.57
739.744	6212.96
740.084	6196.91
740.424	6179.74
740.764	6236.01
741.104	6249.34
741.444	6250.7
741.784	6193.07
742.124	6209.34
742.464	6214.31
742.804	6254.99
743.143	6263.8
743.483	6292.05
743.823	6285.5
744.162	6278.72
744.502	6402.33
744.841	6324.37
745.181	6375.44
745.52	6374.54
745.86	6460.64
746.199	6433.97
746.538	6436
746.877	6482.33
747.216	6476.45
747.556	6555.55
747.895	6527.98
748.234	6559.62
748.573	6597.58
748.911	6674.41
749.25	6712.38
749.589	6713.96
749.928	6811.59
750.267	6889.55
750.605	6919.15
750.944	6925.71
751.283	6924.58
751.621	6995.31
751.96	7001.19
752.298	7100.17
752.636	7257.9
752.975	7147.4
753.313	7341.29
753.651	7309.2
753.989	7436.88
754.327	7486.14
754.666	7578.35
755.004	7659.02
755.342	7745.12
755.679	7806.59
756.017	7848.17
756.355	7935.85
756.693	8018.56
757.031	8185.11
757.368	8204.09
757.706	8315.05
758.044	8426.23
758.381	8529.51
758.719	8552.56
759.056	8680.92
759.394	8786.45
759.731	8824.64
760.068	8927.46
760.405	9097.63
760.743	9181.69
761.08	9300.56
761.417	9352.54
761.754	9479.09
762.091	9581.23
762.428	9702.81
762.765	9688.12
763.102	9933.54
763.438	9954.1
763.775	9993.2
764.112	10142.35
764.449	10253.3
764.785	10288.11
765.122	10384.15
765.458	10564.71
765.795	10600.64
766.131	10702.56
766.467	10817.81
766.804	10819.62
767.14	10862.78
767.476	11038.82
767.812	11065.03
768.148	11181.42
768.485	11126.95
768.821	11159.72
769.157	11347.74
