Data from hue_30_FLMS001491_28.txt Node
Date: Mon Feb 06 15:04:57 GMT 2017
User: dcchb
Spectrometer: FLMS00149
Trigger mode: 0
Integration Time (sec): 2.000000E-2
Scans to average: 10
Electric dark correction enabled: true
Nonlinearity correction enabled: false
Boxcar width: 0
XAxis mode: Wavelengths
Number of Pixels in Spectrum: 2048
>>>>>Begin Spectral Data<<<<<
341.393	-8.22
341.776	-8.22
342.16	-8.22
342.543	-53.19
342.927	-84.15
343.31	-73.3
343.693	-74.21
344.077	-68.78
344.46	-66.07
344.843	-47.54
345.226	-36.69
345.61	-33.98
345.993	-4.83
346.376	4.66
346.759	7.37
347.142	26.13
347.525	41.5
347.908	46.02
348.291	69.97
348.674	89.4
349.057	120.36
349.44	120.82
349.823	139.12
350.206	173.02
350.588	191.1
350.971	229.74
351.354	226.58
351.737	238.55
352.119	240.13
352.502	258.89
352.884	272.45
353.267	292.34
353.65	272.9
354.032	301.83
354.414	297.53
354.797	314.71
355.179	316.97
355.562	316.07
355.944	319.23
356.326	322.84
356.709	355.16
357.091	319.45
357.473	337.76
357.855	317.42
358.238	364.2
358.62	344.54
359.002	329.62
359.384	331.43
359.766	324.65
360.148	335.27
360.53	310.42
360.912	335.5
361.294	337.99
361.676	334.6
362.057	351.54
362.439	338.44
362.821	319.68
363.203	347.7
363.584	338.66
363.966	330.3
364.348	312.22
364.729	311.77
365.111	309.74
365.493	326.91
365.874	334.82
366.256	319.23
366.637	329.4
367.019	327.59
367.4	321.26
367.781	301.6
368.163	318.55
368.544	319.23
368.925	313.35
369.306	318.1
369.688	305.44
370.069	304.77
370.45	314.26
370.831	331.66
371.212	319.45
371.593	324.65
371.974	297.99
372.355	296.18
372.736	321.04
373.117	293.92
373.498	307.48
373.879	316.07
374.26	312.22
374.641	313.13
375.021	339.12
375.402	313.58
375.783	323.75
376.163	335.95
376.544	342.05
376.925	340.47
377.305	316.74
377.686	329.4
378.066	340.92
378.447	318.1
378.827	349.51
379.208	333.92
379.588	321.49
379.968	333.92
380.349	342.73
380.729	347.7
381.109	339.79
381.489	343.41
381.87	340.25
382.25	352.45
382.63	362.62
383.01	347.25
383.39	352
383.77	349.74
384.15	343.64
384.53	337.53
384.91	335.27
385.29	344.76
385.67	360.36
386.049	366.46
386.429	365.1
386.809	328.04
387.189	336.86
387.568	360.36
387.948	326.46
388.328	373.01
388.707	348.61
389.087	352.9
389.466	356.52
389.846	351.77
390.225	363.07
390.605	370.98
390.984	366.69
391.363	360.81
391.743	377.31
392.122	371.66
392.501	372.79
392.881	379.11
393.26	379.11
393.639	373.92
394.018	374.82
394.397	375.05
394.776	380.92
395.155	401.49
395.534	379.79
395.913	378.89
396.292	396.06
396.671	393.58
397.05	384.99
397.429	389.28
397.808	403.29
398.186	364.65
398.565	383.86
398.944	383.18
399.323	398.55
399.701	384.09
400.08	396.74
400.458	383.63
400.837	405.1
401.215	409.4
401.594	405.1
401.972	400.58
402.351	387.02
402.729	424.76
403.107	421.83
403.486	402.16
403.864	410.98
404.242	405.55
404.62	401.71
404.999	411.88
405.377	422.28
405.755	417.08
406.133	427.25
406.511	429.28
406.889	423.41
407.267	417.76
407.645	430.19
408.023	436.74
408.401	435.61
408.779	436.51
409.156	454.37
409.534	449.62
409.912	443.07
410.29	459.56
410.667	450.3
411.045	448.04
411.422	436.51
411.8	456.63
412.178	488.72
412.555	460.47
412.933	469.06
413.31	459.56
413.687	475.83
414.065	450.98
414.442	470.86
414.819	491.88
415.197	493.91
415.574	497.53
415.951	500.69
416.328	494.59
416.705	505.89
417.082	488.04
417.46	514.7
417.837	512.9
418.214	511.77
418.591	537.53
418.967	523.97
419.344	505.21
419.721	515.16
420.098	530.07
420.475	539.11
420.852	515.61
421.228	537.08
421.605	531.2
421.982	527.81
422.358	526.46
422.735	526
423.111	556.96
423.488	516.96
423.864	555.38
424.241	571.88
424.617	557.41
424.994	570.97
425.37	567.13
425.746	580.01
426.123	540.69
426.499	567.81
426.875	586.34
427.251	595.83
427.627	582.72
428.003	594.02
428.379	588.15
428.756	603.74
429.132	584.76
429.507	603.52
429.883	616.62
430.259	608.71
430.635	616.17
431.011	629.73
431.387	665.43
431.763	627.24
432.138	637.19
432.514	624.98
432.89	657.75
433.265	675.38
433.641	656.85
434.016	664.3
434.392	675.6
434.767	699.78
435.143	699.11
435.518	691.42
435.894	710.41
436.269	713.12
436.644	714.92
437.02	713.34
437.395	706.56
437.77	704.08
438.145	736.39
438.52	723.51
438.895	750.63
439.271	737.07
439.646	739.56
440.021	746.34
440.395	754.92
440.77	758.09
441.145	754.92
441.52	781.59
441.895	760.35
442.27	771.19
442.645	789.27
443.019	783.62
443.394	779.1
443.769	807.58
444.143	784.3
444.518	802.15
444.892	800.8
445.267	820.46
445.641	818.65
446.016	835.6
446.39	848.71
446.764	843.06
447.139	837.41
447.513	841.25
447.887	841.7
448.262	853
448.636	843.06
449.01	850.51
449.384	860.91
449.758	850.06
450.132	860.91
450.506	896.16
450.88	886.22
451.254	891.87
451.628	879.67
452.002	905.43
452.376	922.15
452.75	899.33
453.123	898.87
453.497	927.35
453.871	912.66
454.244	944.98
454.618	948.36
454.992	948.59
455.365	975.26
455.739	957.4
456.112	981.58
456.486	983.62
456.859	1004.63
457.232	1010.74
457.606	1006.67
457.979	1038.76
458.352	1026.78
458.725	1060.68
459.099	1054.35
459.472	1078.08
459.845	1086.21
460.218	1085.76
460.591	1109.94
460.964	1074.46
461.337	1138.19
461.71	1129.15
462.083	1170.28
462.456	1171.86
462.829	1159.88
463.201	1186.55
463.574	1190.84
463.947	1205.76
464.32	1251.41
464.692	1245.76
465.065	1259.32
465.438	1277.85
465.81	1249.15
466.183	1262.03
466.555	1317.17
466.928	1335.25
467.3	1342.03
467.672	1336.15
468.045	1388.13
468.417	1370.5
468.789	1419.76
469.161	1434.91
469.534	1474.23
469.906	1462.25
470.278	1475.13
470.65	1504.73
471.022	1535.24
471.394	1575.02
471.766	1580.89
472.138	1626.77
472.51	1592.87
472.882	1679.65
473.253	1682.81
473.625	1704.05
473.997	1732.53
474.369	1753.09
474.74	1780.66
475.112	1832.86
475.484	1841.22
475.855	1903.14
476.227	1924.38
476.598	1977.72
476.97	1953.76
477.341	2044.38
477.713	2083.7
478.084	2111.5
478.455	2147.66
478.827	2181.78
479.198	2254.55
479.569	2273.3
479.94	2347.65
480.311	2388.78
480.682	2428.55
481.053	2518.95
481.424	2550.36
481.795	2577.93
482.166	2652.05
482.537	2673.07
482.908	2714.19
483.279	2781.76
483.65	2892.95
484.021	2925.04
484.391	2964.58
484.762	3080.51
485.133	3095.88
485.503	3150.79
485.874	3245.25
486.244	3246.38
486.615	3335.65
486.985	3385.59
487.356	3475.3
487.726	3480.95
488.097	3566.38
488.467	3611.57
488.837	3751.91
489.207	3797.78
489.578	3861.73
489.948	3938.12
490.318	3941.28
490.688	4033.03
491.058	4091.33
491.428	4197.77
491.798	4235.06
492.168	4275.74
492.538	4360.7
492.908	4390.76
493.278	4508.27
493.648	4526.8
494.017	4635.95
494.387	4673.69
494.757	4752.78
495.126	4809.05
495.496	4848.38
495.866	4867.81
496.235	4981.48
496.605	5007.47
496.974	5055.83
497.344	5141.93
497.713	5145.32
498.082	5202.94
498.452	5283.17
498.821	5266.22
499.19	5301.47
499.559	5416.5
499.928	5482.26
500.298	5476.38
500.667	5533.56
501.036	5564.29
501.405	5622.59
501.774	5650.61
502.143	5729.26
502.512	5736.71
502.88	5836.6
503.249	5845.19
503.618	5884.28
503.987	5931.28
504.356	5966.54
504.724	5978.97
505.093	6035.01
505.462	6039.53
505.83	6090.15
506.199	6200.2
506.567	6229.13
506.936	6235.01
507.304	6354.1
507.672	6373.53
508.041	6372.18
508.409	6405.17
508.777	6431.84
509.145	6533.3
509.514	6511.16
509.882	6530.82
510.25	6540.76
510.618	6621.44
510.986	6686.07
511.354	6739.85
511.722	6779.62
512.09	6809
512.458	6790.02
512.826	6854.2
513.193	6892.62
513.561	6923.35
513.929	6991.37
514.297	7028.21
514.664	7011.93
515.032	7102.33
515.4	7120.86
515.767	7110.91
516.135	7137.13
516.502	7125.15
516.869	7217.8
517.237	7282.21
517.604	7282.21
517.972	7294.19
518.339	7335.54
518.706	7351.59
519.073	7365.37
519.44	7481.53
519.808	7438.36
520.175	7516.1
520.542	7568.53
520.909	7575.31
521.276	7639.49
521.643	7672.03
522.009	7639.26
522.376	7741.63
522.743	7766.94
523.11	7848.97
523.477	7906.6
523.843	7940.95
524.21	8040.38
524.577	8034.28
524.943	8122.87
525.31	8109.98
525.676	8197.44
526.043	8200.83
526.409	8276.76
526.776	8334.39
527.142	8352.01
527.508	8378
527.874	8473.36
528.241	8426.59
528.607	8521.05
528.973	8599.92
529.339	8603.53
529.705	8629.74
530.071	8758.33
530.437	8751.78
530.803	8892.34
531.169	8864.31
531.535	8812.79
531.901	8914.48
532.267	8856.86
532.632	8971.66
532.998	8953.58
533.364	9051.88
533.73	9031.99
534.095	9200.8
534.461	9169.39
534.826	9240.8
535.192	9232.89
535.557	9370.52
535.923	9299.33
536.288	9292.33
536.653	9355.83
537.019	9403.06
537.384	9448.93
537.749	9493.22
538.114	9603.96
538.479	9575.26
538.845	9638.08
539.21	9612.54
539.575	9717.63
539.94	9673.33
540.305	9745.42
540.67	9777.06
541.034	9779.32
541.399	9864.29
541.764	9917.62
542.129	9943.61
542.494	9992.87
542.858	10067
543.223	10053.44
543.587	10136.6
543.952	10178.86
544.316	10151.29
544.681	10202.81
545.045	10177.95
545.41	10344.28
545.774	10360.32
546.138	10377.27
546.503	10415.23
546.867	10423.82
547.231	10495.46
547.595	10518.51
547.959	10603.03
548.324	10593.08
548.688	10679.63
549.052	10683.7
549.416	10704.72
549.779	10746.75
550.143	10744.72
550.507	10852.74
550.871	10848.67
551.235	10872.85
551.599	10974.54
551.962	10986.07
552.326	10999.17
552.689	11045.73
553.053	11043.24
553.417	11055.44
553.78	11197.13
554.143	11148.55
554.507	11182.9
554.87	11194.42
555.234	11273.07
555.597	11323.69
555.96	11336.34
556.323	11377.7
556.686	11379.73
557.05	11483.68
557.413	11508.31
557.776	11568.65
558.139	11611.36
558.502	11617.01
558.865	11660.85
559.228	11723.22
559.59	11758.02
559.953	11752.83
560.316	11951.47
560.679	11864.24
561.041	11978.58
561.404	11934.29
561.767	12009.09
562.129	11987.85
562.492	12071.46
562.854	12032.59
563.217	12079.82
563.579	12148.07
563.941	12255.86
564.304	12275.98
564.666	12401.85
565.028	12451.11
565.39	12383.77
565.753	12431.23
566.115	12517.33
566.477	12528.63
566.839	12611.56
567.201	12658.34
567.563	12623.76
567.925	12763.2
568.287	12762.97
568.648	12808.17
569.01	12915.96
569.372	13004.32
569.734	12930.42
570.095	13000.48
570.457	13076.86
570.819	13087.93
571.18	13240.02
571.542	13202.05
571.903	13206.8
572.265	13371.32
572.626	13346.23
572.987	13392.56
573.349	13514.36
573.71	13660.57
574.071	13669.39
574.432	13795.03
574.794	13843.62
575.155	13917.29
575.516	13889.49
575.877	14101.01
576.238	14124.52
576.599	14271.18
576.96	14267.56
577.32	14471.4
577.681	14587.78
578.042	14738.06
578.403	14736.48
578.763	14874.33
579.124	14992.97
579.485	15086.52
579.845	15307.54
580.206	15446.51
580.566	15534.87
580.927	15704.36
581.287	15895.32
581.648	15980.74
582.008	16250.56
582.368	16361.52
582.728	16582.98
583.089	16762.64
583.449	16961.28
583.809	17216.86
584.169	17407.14
584.529	17534.6
584.889	17990.18
585.249	18041.25
585.609	18147.01
585.969	18509.71
586.329	18565.08
586.688	18994.22
587.048	19206.64
587.408	19388.56
587.768	19553.07
588.127	19833.29
588.487	20139.05
588.846	20521.41
589.206	20672.37
589.565	20957.78
589.925	21363.65
590.284	21500.14
590.643	21892.45
591.003	22152.55
591.362	22416.05
591.721	22698.75
592.08	23065.52
592.44	23373.09
592.799	23636.81
593.158	23928.33
593.517	24088.77
593.876	24428.43
594.235	24566.05
594.593	25029.54
594.952	25309.98
595.311	25451
595.67	25828.61
596.029	26175.27
596.387	26560.8
596.746	26855.03
597.104	26926.89
597.463	27240.55
597.822	27740.43
598.18	27875.11
598.538	28071.95
598.897	28510.58
599.255	28711.25
599.613	29274.17
599.972	29355.53
600.33	29764.33
600.688	29831.67
601.046	30227.37
601.404	30670.97
601.762	30838.2
602.12	31128.14
602.478	31323.61
602.836	31493.55
603.194	31646.54
603.552	32064.61
603.91	32024.61
604.268	32565.61
604.625	32658.49
604.983	33075.2
605.341	33115.43
605.698	33425.48
606.056	33762.19
606.413	33954.5
606.771	34050.09
607.128	34341.61
607.485	34567.14
607.843	34772.56
608.2	35011.42
608.557	35364.64
608.914	35410.51
609.272	35769.82
609.629	36006.2
609.986	36178.85
610.343	36183.37
610.7	36515.57
611.057	36659.74
611.414	36902.67
611.771	37055.66
612.127	37293.62
612.484	37563.22
612.841	37643.9
613.198	37761.41
613.554	37757.11
613.911	38076.65
614.267	38192.58
614.624	38267.84
614.98	38465.8
615.337	38855.62
615.693	38874.15
616.05	39047.02
616.406	39262.39
616.762	39262.84
617.118	39257.64
617.475	39669.15
617.831	39854.23
618.187	39845.2
618.543	40146.2
618.899	40269.59
619.255	40296.03
619.611	40446.76
619.967	40571.73
620.323	40800.88
620.678	40739.86
621.034	40642.46
621.39	40752.29
621.746	40775.57
622.101	41288.77
622.457	41056.46
622.812	41212.39
623.168	41432.5
623.523	41516.79
623.879	41532.38
624.234	41468.2
624.589	41592.95
624.945	41706.39
625.3	41812.6
625.655	41849.44
626.01	41830.23
626.365	41976.89
626.72	41968.53
627.075	42042.43
627.43	42026.83
627.785	41944.35
628.14	42240.61
628.495	42128.75
628.85	42072.26
629.205	42146.38
629.559	42432.25
629.914	42323.32
630.269	42404.22
630.623	42308.18
630.978	42255.53
631.332	42471.79
631.687	42533.03
632.041	42291.68
632.396	42366.48
632.75	42395.18
633.104	42400.16
633.459	42354.73
633.813	42187.73
634.167	42261.18
634.521	42446.48
634.875	42452.36
635.229	42457.78
635.583	42209.2
635.937	42271.12
636.291	42341.63
636.645	42251.46
636.999	42263.44
637.352	42411.23
637.706	42232.7
638.06	42373.26
638.413	42319.93
638.767	42229.77
639.121	42195.64
639.474	41992.26
639.828	42072.93
640.181	42173.72
640.534	42174.17
640.888	42110.9
641.241	41904.8
641.594	42058.47
641.947	42175.76
642.301	41951.35
642.654	42114.74
643.007	41996.55
643.36	42096.44
643.713	41887.63
644.066	42105.47
644.419	41875.65
644.771	41598.82
645.124	41334.87
645.477	41204.03
645.83	41034.32
646.182	40851.27
646.535	40781.89
646.888	40834.1
647.24	40590.49
647.593	40983.7
647.945	40745.74
648.298	40671.16
648.65	40633.42
649.002	40489.25
649.355	40755
649.707	40600.66
650.059	40745.96
650.411	41184.6
650.763	41421.42
651.115	41767.4
651.467	41454.42
651.819	41574.42
652.171	41480.18
652.523	41495.77
652.875	41426.62
653.227	41263.46
653.578	41555.88
653.93	41243.58
654.282	41269.79
654.633	41086.74
654.985	41207.87
655.337	41289
655.688	41342.33
656.039	41331.03
656.391	40986.86
656.742	41054.88
657.094	41187.31
657.445	41186.4
657.796	41043.81
658.147	41009.68
658.498	41212.39
658.849	41107.99
659.2	41200.64
659.551	40992.96
659.902	41171.94
660.253	41020.98
660.604	41169
660.955	40933.3
661.306	41000.42
661.656	40920.42
662.007	40938.05
662.358	40930.36
662.708	40953.41
663.059	40903.92
663.409	40692.86
663.76	41072.51
664.11	40858.73
664.461	40985.96
664.811	40940.31
665.161	40931.49
665.511	40825.28
665.862	40898.27
666.212	41006.07
666.562	41037.48
666.912	40821.67
667.262	40855.11
667.612	40861.44
667.962	40752.06
668.312	40762.46
668.662	41049.23
669.011	40865.51
669.361	40725.17
669.711	40766.53
670.06	40641.56
670.41	40761.78
670.76	40583.03
671.109	40732.63
671.459	40728.56
671.808	40614.89
672.157	40627.77
672.507	40498.06
672.856	40602.24
673.205	40551.39
673.554	40651.05
673.904	40512.75
674.253	40630.94
674.602	40508
674.951	40009.26
675.3	39885.19
675.649	40513.2
675.998	40351.4
676.346	40299.19
676.695	40501.45
677.044	40231.4
677.393	40222.36
677.741	40371.96
678.09	40321.11
678.438	40095.58
678.787	40244.51
679.135	40219.65
679.484	40010.84
679.832	40256.48
680.181	39879.54
680.529	40062.14
680.877	39917.96
681.225	39761.36
681.573	39970.84
681.922	39810.85
682.27	39770.39
682.618	39705.09
682.966	39649.95
683.314	39707.57
683.661	39478.65
684.009	39406.34
684.357	39353
684.705	39287.24
685.053	39216.51
685.4	39242.95
685.748	39006.57
686.095	39070.3
686.443	38843.64
686.79	38950.08
687.138	38929.74
687.485	38971.77
687.832	38767.94
688.18	38808.61
688.527	38550.31
688.874	38460.6
689.221	38332.92
689.568	38340.6
689.915	38356.87
690.262	38443.2
690.609	38171.57
690.956	38068.07
691.303	37944.23
691.65	37799.6
691.997	37843.67
692.344	37619.04
692.69	37581.3
693.037	37536.78
693.383	37351.7
693.73	37522.32
694.077	37239.84
694.423	37292.04
694.769	37066.51
695.116	36977.7
695.462	37065.16
695.808	36898.38
696.155	36919.4
696.501	36711.27
696.847	36788.33
697.193	36440.99
697.539	36496.81
697.885	36187.89
698.231	36055.46
698.577	36281.45
698.923	36088.91
699.269	35870.61
699.614	35815.7
699.96	35757.85
700.306	35749.94
700.651	35589.94
700.997	35421.58
701.342	35543.16
701.688	35430.85
702.033	35287.57
702.379	35221.81
702.724	35131.65
703.069	35208.48
703.415	34729.85
703.76	34839.68
704.105	34933.69
704.45	34619.34
704.795	34508.61
705.14	34443.08
705.485	34417.77
705.83	34239.92
706.175	34247.38
706.52	34227.26
706.865	34153.59
707.209	34062.97
707.554	33946.82
707.899	34051.45
708.243	33831.57
708.588	33731.46
708.932	33594.29
709.277	33488.3
709.621	33508.86
709.966	33370.34
710.31	33497.34
710.654	33217.57
710.998	33279.27
711.342	33302.09
711.687	33094.19
712.031	33004.47
712.375	32812.84
712.719	32862.55
713.063	32800.41
713.407	32791.14
713.75	32563.58
714.094	32599.51
714.438	32435.67
714.782	32681.54
715.125	32425.5
715.469	32483.13
715.812	32272.51
716.156	32041.78
716.499	32090.14
716.843	32149.8
717.186	31990.26
717.53	32075.68
717.873	32115.68
718.216	32016.02
718.559	31809.02
718.902	31637.5
719.246	31681.34
719.589	31607.22
719.932	31598.41
720.275	31525.64
720.617	31454.23
720.96	31382.14
721.303	31383.72
721.646	31319.09
721.989	31154.12
722.331	31228.92
722.674	31193.22
723.016	31104.63
723.359	31070.28
723.701	31078.87
724.044	30836.84
724.386	30743.29
724.729	30957.29
725.071	30874.13
725.413	30789.39
725.755	30801.37
726.097	30630.97
726.439	30505.33
726.782	30447.25
727.124	30585.1
727.465	30454.48
727.807	30393.01
728.149	30402.05
728.491	30299.91
728.833	30307.37
729.175	30126.13
729.516	30214.04
729.858	30181.04
730.199	30146.69
730.541	30043.19
730.882	30103.08
731.224	30088.16
731.565	29870.99
731.906	29958.68
732.248	29939.02
732.589	29735.4
732.93	29588.29
733.271	29695.41
733.612	29677.78
733.953	29709.19
734.294	29546.03
734.635	29459.71
734.976	29598.01
735.317	29466.71
735.658	29373.15
735.999	29463.1
736.339	29282.54
736.68	29491.34
737.021	29280.5
737.361	29171.8
737.702	29200.73
738.042	29305.81
738.383	29043.45
738.723	29141.52
739.063	29093.39
739.404	29077.79
739.744	29051.35
740.084	28784.7
740.424	28847.29
740.764	28750.8
741.104	28896.1
741.444	28750.57
741.784	28663.79
742.124	28630.8
742.464	28625.6
742.804	28558.94
743.143	28619.05
743.483	28564.81
743.823	28434.2
744.162	28454.53
744.502	28400.52
744.841	28335.89
745.181	28407.3
745.52	28217.03
745.86	28236.01
746.199	28182.68
746.538	28193.52
746.877	28147.42
747.216	28191.49
747.556	28148.33
747.895	28056.58
748.234	28076.47
748.573	27937.94
748.911	27902.46
749.25	27812.74
749.589	27830.14
749.928	27733.65
750.267	27920.09
750.605	27742.46
750.944	27669.02
751.283	27600.55
751.621	27636.25
751.96	27537.5
752.298	27464.28
752.636	27434.45
752.975	27379.08
753.313	27262.48
753.651	27241.68
753.989	27178.41
754.327	27207.34
754.666	27123.04
755.004	27174.34
755.342	27086.66
755.679	26982.93
756.017	26939.09
756.355	26936.61
756.693	26806.22
757.031	26839.66
757.368	26718.99
757.706	26721.7
758.044	26733.68
758.381	26782.94
758.719	26514.92
759.056	26561.48
