Data from hue_130_FLMS001491_00077.txt Node
Date: Tue Feb 07 16:58:05 GMT 2017
User: dcchb
Spectrometer: FLMS00149
Trigger mode: 0
Integration Time (sec): 2.000000E-2
Scans to average: 10
Electric dark correction enabled: true
Nonlinearity correction enabled: false
Boxcar width: 0
XAxis mode: Wavelengths
Number of Pixels in Spectrum: 2048
>>>>>Begin Spectral Data<<<<<
341.393	-7.56
341.776	-7.56
342.16	-7.56
342.543	-49.36
342.927	-77.61
343.31	-68.8
343.693	-57.95
344.077	-66.54
344.46	-62.7
344.843	-72.87
345.226	-38.97
345.61	-27.44
345.993	1.71
346.376	1.03
346.759	16.62
347.142	35.83
347.525	24.99
347.908	53.23
348.291	80.58
348.674	78.32
349.057	102.95
349.44	116.28
349.823	137.98
350.206	144.98
350.588	196.05
350.971	222.04
351.354	225.66
351.737	231.99
352.119	253.45
352.502	272.21
352.884	293
353.267	286
353.65	286.45
354.032	298.65
354.414	292.77
354.797	323.73
355.179	341.36
355.562	326.45
355.944	330.29
356.326	350.17
356.709	340.23
357.091	342.94
357.473	328.48
357.855	338.42
358.238	349.72
358.62	351.98
359.002	359.44
359.384	344.75
359.766	342.27
360.148	335.49
360.53	351.76
360.912	342.94
361.294	318.99
361.676	338.42
362.057	329.16
362.439	311.08
362.821	345.65
363.203	328.71
363.584	309.72
363.966	311.53
364.348	315.15
364.729	331.42
365.111	308.82
365.493	306.79
365.874	328.93
366.256	313.57
366.637	323.06
367.019	319.89
367.4	310.63
367.781	330.29
368.163	333.23
368.544	313.57
368.925	314.24
369.306	313.34
369.688	307.01
370.069	332.32
370.45	309.27
370.831	310.63
371.212	325.32
371.593	326.67
371.974	329.38
372.355	303.4
372.736	315.37
373.117	322.6
373.498	316.28
373.879	310.63
374.26	307.92
374.641	288.93
375.021	304.98
375.402	328.48
375.783	330.51
376.163	324.86
376.544	338.2
376.925	316.5
377.305	330.06
377.686	318.54
378.066	331.87
378.447	337.97
378.827	310.85
379.208	350.17
379.588	313.79
379.968	340.46
380.349	339.1
380.729	347.69
381.109	327.58
381.489	347.91
381.87	320.57
382.25	330.97
382.63	330.51
383.01	346.33
383.39	333.23
383.77	354.47
384.15	337.97
384.53	352.43
384.91	362.15
385.29	334.81
385.67	337.75
386.049	360.34
386.429	365.54
386.809	344.98
387.189	365.54
387.568	356.73
387.948	363.96
388.328	349.04
388.707	368.03
389.087	353.79
389.466	356.73
389.846	388.82
390.225	352.89
390.605	368.03
390.984	337.29
391.363	354.24
391.743	345.65
392.122	371.87
392.501	363.96
392.881	381.13
393.26	366.9
393.639	386.78
394.018	373
394.397	372.32
394.776	347.01
395.155	381.81
395.534	373.45
395.913	383.39
396.292	378.65
396.671	387.01
397.05	380.46
397.429	394.24
397.808	366.9
398.186	390.85
398.565	361.47
398.944	389.5
399.323	398.53
399.701	394.47
400.08	402.38
400.458	421.81
400.837	415.94
401.215	400.12
401.594	401.7
401.972	405.99
402.351	403.96
402.729	421.58
403.107	428.82
403.486	434.92
403.864	397.86
404.242	419.55
404.62	428.36
404.999	408.48
405.377	414.58
405.755	432.66
406.133	415.48
406.511	403.51
406.889	431.3
407.267	423.84
407.645	440.57
408.023	431.98
408.401	423.62
408.779	439.89
409.156	424.07
409.534	455.48
409.912	446.22
410.29	455.93
410.667	452.09
411.045	440.12
411.422	448.02
411.8	446.22
412.178	455.71
412.555	466.56
412.933	448.93
413.31	462.94
413.687	493
414.065	459.78
414.442	458.87
414.819	462.04
415.197	475.82
415.574	488.7
415.951	464.52
416.328	485.09
416.705	485.09
417.082	487.35
417.46	492.32
417.837	509.49
418.214	510.62
418.591	511.75
418.967	495.93
419.344	513.11
419.721	510.85
420.098	521.92
420.475	533.9
420.852	530.51
421.228	535.48
421.605	526.44
421.982	520.34
422.358	530.06
422.735	540
423.111	541.13
423.488	525.31
423.864	537.74
424.241	561.47
424.617	543.84
424.994	573.45
425.37	573.67
425.746	575.71
426.123	547.23
426.499	562.37
426.875	567.12
427.251	583.84
427.627	589.49
428.003	602.82
428.379	588.59
428.756	592.43
429.132	594.91
429.507	618.19
429.883	608.92
430.259	610.73
430.635	609.15
431.011	610.05
431.387	639.43
431.763	638.75
432.138	676.49
432.514	650.28
432.89	619.55
433.265	661.13
433.641	676.49
434.016	644.18
434.392	657.96
434.767	667
435.143	662.48
435.518	671.07
435.894	688.24
436.269	694.57
436.644	700.67
437.02	698.87
437.395	697.96
437.77	730.05
438.145	722.37
438.52	723.95
438.895	707.68
439.271	737.28
439.646	753.1
440.021	749.49
440.395	749.26
440.77	762.82
441.145	768.02
441.52	779.09
441.895	777.28
442.27	798.75
442.645	801.69
443.019	791.74
443.394	794.68
443.769	776.83
444.143	799.88
444.518	822.48
444.892	816.83
445.267	821.35
445.641	829.94
446.016	817.05
446.39	848.69
446.764	813.67
447.139	826.77
447.513	844.17
447.887	842.59
448.262	849.37
448.636	857.96
449.01	834.46
449.384	864.51
449.758	888.01
450.132	860.9
450.506	892.98
450.88	887.56
451.254	916.04
451.628	899.76
452.002	910.61
452.376	917.39
452.75	935.7
453.123	928.01
453.497	931.18
453.871	979.54
454.244	944.74
454.618	965.98
454.992	976.6
455.365	986.77
455.739	1007.33
456.112	1014.11
456.486	1012.3
456.859	1037.84
457.232	1024.96
457.606	1062.7
457.979	1059.08
458.352	1068.12
458.725	1104.05
459.099	1088.69
459.472	1118.06
459.845	1126.65
460.218	1123.49
460.591	1149.7
460.964	1149.48
461.337	1164.39
461.71	1212.3
462.083	1226.99
462.456	1238.74
462.829	1211.17
463.201	1235.35
463.574	1241
463.947	1254.33
464.32	1287.55
464.692	1321.22
465.065	1313.54
465.438	1344.05
465.81	1364.16
466.183	1401.45
466.555	1403.48
466.928	1416.59
467.3	1407.55
467.672	1424.27
468.045	1458.39
468.417	1519.86
468.789	1525.28
469.161	1533.65
469.534	1571.16
469.906	1637.6
470.278	1610.03
470.65	1658.84
471.022	1689.12
471.394	1710.82
471.766	1752.62
472.138	1816.12
472.51	1817.48
472.882	1875.78
473.253	1884.15
473.625	1942.9
473.997	1979.06
474.369	2020.41
474.74	2066.06
475.112	2108.77
475.484	2193.52
475.855	2219.5
476.227	2225.61
476.598	2323.68
476.97	2403.68
477.341	2435.32
477.713	2492.26
478.084	2501.76
478.455	2606.84
478.827	2642.54
479.198	2769.09
479.569	2804.8
479.94	2903.1
480.311	2944.46
480.682	3047.96
481.053	3157.56
481.424	3214.96
481.795	3314.39
482.166	3372.69
482.537	3460.83
482.908	3567.49
483.279	3683.87
483.65	3772.01
484.021	3870.76
484.391	3981.04
484.762	4079.79
485.133	4180.81
485.503	4228.49
485.874	4393.01
486.244	4504.64
486.615	4622.38
486.985	4724.97
487.356	4844.29
487.726	4948.92
488.097	5077.06
488.467	5174
488.837	5334.45
489.207	5406.76
489.578	5573.77
489.948	5686.31
490.318	5805.4
490.688	5936.47
491.058	6094.2
491.428	6248.55
491.798	6326.29
492.168	6542.1
492.538	6626.39
492.908	6726.96
493.278	6902.77
493.648	6987.06
494.017	7170.33
494.387	7260.5
494.757	7378.46
495.126	7466.6
495.496	7588.18
495.866	7649.64
496.235	7815.29
496.605	7968.28
496.974	8091.44
497.344	8166.69
497.713	8234.03
498.082	8333.47
498.452	8463.86
498.821	8614.59
499.19	8636.74
499.559	8786.79
499.928	8913.79
500.298	9011.64
500.667	9151.3
501.036	9152.43
501.405	9306.32
501.774	9239.88
502.143	9483.49
502.512	9535.7
502.88	9602.81
503.249	9697.5
503.618	9745.18
503.987	9836.93
504.356	9933.43
504.724	10018.17
505.093	10087.55
505.462	10158.05
505.83	10217.49
506.199	10402.57
506.567	10469.91
506.936	10458.38
507.304	10563.69
507.672	10653.41
508.041	10663.58
508.409	10797.13
508.777	10835.1
509.145	10896.79
509.514	10880.07
509.882	11020.63
510.25	11050.68
510.618	11117.12
510.986	11157.12
511.354	11323.67
511.722	11354.86
512.09	11466.27
512.458	11368.19
512.826	11494.74
513.193	11514.4
513.561	11488.41
513.929	11651.57
514.297	11657.45
514.664	11759.14
515.032	11716.66
515.4	11773.38
515.767	11891.11
516.135	11907.38
516.502	11826.71
516.869	11971.11
517.237	11997.33
517.604	11993.48
517.972	12082.52
518.339	12195.51
518.706	12182.41
519.073	12117.55
519.44	12235.96
519.808	12301.05
520.175	12284.32
520.542	12324.77
520.909	12427.82
521.276	12321.16
521.643	12405.9
522.009	12443.42
522.376	12552.11
522.743	12507.14
523.11	12543.3
523.477	12662.85
523.843	12685.22
524.21	12800.47
524.577	12823.07
524.943	12841.6
525.31	12809.06
525.676	12894.93
526.043	12880.24
526.409	12913.23
526.776	12954.14
527.142	13005.43
527.508	13033.91
527.874	13059.67
528.241	13113.68
528.607	13037.07
528.973	13080.01
529.339	13030.29
529.705	13148.71
530.071	13094.02
530.437	13130.86
530.803	13063.96
531.169	13147.13
531.535	13078.43
531.901	13030.07
532.267	13110.06
532.632	13107.13
532.998	13124.98
533.364	13173.34
533.73	13145.77
534.095	13211.08
534.461	13029.84
534.826	13089.73
535.192	13120.46
535.557	13068.94
535.923	13045.21
536.288	12991.88
536.653	13116.39
537.019	12899.9
537.384	13088.6
537.749	12968.15
538.114	12983.97
538.479	12908.26
538.845	12975.61
539.21	12783.52
539.575	12791.88
539.94	12784.2
540.305	12842.5
540.67	12757.31
541.034	12745.33
541.399	12700.58
541.764	12670.98
542.129	12609.97
542.494	12651.55
542.858	12675.27
543.223	12557.99
543.587	12649.74
543.952	12652
544.316	12533.13
544.681	12416.3
545.045	12543.07
545.41	12489.06
545.774	12489.06
546.138	12332.23
546.503	12313.25
546.867	12276.41
547.231	12365
547.595	12228.51
547.959	12270.99
548.324	12268.73
548.688	12242.97
549.052	12172.69
549.416	12155.97
549.779	12066.93
550.143	12050.43
550.507	12085.69
550.871	12065.35
551.235	12066.48
551.599	12028.96
551.962	12030.55
552.326	11948.06
552.689	12022.86
553.053	11885.69
553.417	11921.17
553.78	11950.77
554.143	11851.57
554.507	11829.65
554.87	11872.81
555.234	11889.53
555.597	11731.34
555.96	11718.92
556.323	11729.31
556.686	11748.74
557.05	11783.32
557.413	11739.48
557.776	11679.37
558.139	11699.71
558.502	11654.51
558.865	11646.37
559.228	11677.11
559.59	11729.54
559.953	11700.84
560.316	11731.12
560.679	11720.95
561.041	11783.32
561.404	11673.49
561.767	11706.03
562.129	11689.76
562.492	11712.36
562.854	11728.63
563.217	11656.54
563.579	11658.13
563.941	11821.74
564.304	11734.96
564.666	11768.86
565.028	11719.14
565.39	11752.13
565.753	11780.61
566.115	11828.29
566.477	11812.47
566.839	11777.67
567.201	11835.07
567.563	11867.16
567.925	11875.07
568.287	11856.54
568.648	11808.86
569.01	11875.52
569.372	11952.36
569.734	11812.02
570.095	11886.14
570.457	11971.11
570.819	11895.18
571.18	11946.03
571.542	12060.15
571.903	12047.04
572.265	12049.08
572.626	11990.09
572.987	12020.83
573.349	12056.08
573.71	12050.66
574.071	12080.71
574.432	11977.67
574.794	12088.4
575.155	12106.25
575.516	12036.19
575.877	12081.17
576.238	12040.49
576.599	12146.47
576.96	12063.31
577.32	12086.36
577.681	12094.95
578.042	12094.72
578.403	12095.18
578.763	12032.13
579.124	12166.59
579.485	12110.77
579.845	12116.64
580.206	12121.16
580.566	12094.95
580.927	12167.26
581.287	12213.59
581.648	12141.95
582.008	12109.64
582.368	12163.88
582.728	12134.5
583.089	12145.34
583.449	12047.72
583.809	12085.46
584.169	12115.51
584.529	12079.13
584.889	12114.16
585.249	12060.83
585.609	12012.24
585.969	12041.84
586.329	11997.1
586.688	12038
587.048	11960.26
587.408	11999.81
587.768	11999.13
588.127	11932.02
588.487	11953.94
588.846	12026.25
589.206	12001.17
589.565	11967.5
589.925	11970.89
590.284	11890.66
590.643	11923.43
591.003	11930.89
591.362	11982.41
591.721	11891.79
592.08	11871.68
592.44	11947.38
592.799	11924.79
593.158	11864.45
593.517	11895.18
593.876	11951.68
594.235	11925.46
594.593	11864.45
594.952	11919.36
595.311	11905.58
595.67	11894.28
596.029	11898.12
596.387	11932.47
596.746	11933.6
597.104	11863.09
597.463	11816.54
597.822	11925.69
598.18	11828.06
598.538	11809.53
598.897	11875.52
599.255	11760.5
599.613	11907.38
599.972	11758.69
600.33	11824.9
600.688	11730.67
601.046	11824.67
601.404	11811.34
601.762	11803.21
602.12	11902.86
602.478	11889.76
602.836	11805.92
603.194	11769.99
603.552	11790.78
603.91	11757.78
604.268	11748.52
604.625	11772.7
604.983	11773.38
605.341	11782.87
605.698	11841.17
606.056	11793.72
606.413	11833.04
606.771	11877.55
607.128	11809.99
607.485	11807.27
607.843	11791
608.2	11877.78
608.557	11820.61
608.914	11836.88
609.272	11888.4
609.629	11921.17
609.986	11952.58
610.343	11892.7
610.7	11941.73
611.057	11908.29
611.414	11892.47
611.771	11942.41
612.127	11951.9
612.484	11980.6
612.841	11971.79
613.198	11945.35
613.554	11920.27
613.911	12087.27
614.267	11976.54
614.624	11984.44
614.98	12036.65
615.337	12049.75
615.693	11955.97
616.05	11972.92
616.406	12042.3
616.762	11978.12
617.118	12020.6
617.475	11993.03
617.831	12060.6
618.187	12135.4
618.543	12190.99
618.899	12181.73
619.255	12128.17
619.611	12099.7
619.967	12217.66
620.323	12232.35
620.678	12148.28
621.034	12116.87
621.39	12115.51
621.746	12103.31
622.101	12267.15
622.457	12155.06
622.812	12154.61
623.168	12167.72
623.523	12198
623.879	12235.96
624.234	12096.08
624.589	12137.89
624.945	12149.41
625.3	12132.92
625.655	12173.37
626.01	12207.04
626.365	12083.2
626.72	12198
627.075	12070.54
627.43	12132.01
627.785	12101.05
628.14	12124.1
628.495	12193.25
628.85	12101.28
629.205	12115.06
629.559	12129.53
629.914	12064.89
630.269	12138.57
630.623	12033.26
630.978	12002.75
631.332	12078.23
631.687	12075.97
632.041	12004.33
632.396	11979.25
632.75	11993.03
633.104	12074.39
633.459	11895.41
633.813	11947.84
634.167	11920.04
634.521	11895.41
634.875	11897.44
635.229	11946.71
635.583	11938.8
635.937	11932.47
636.291	11899.93
636.645	11822.19
636.999	11837.33
637.352	11874.39
637.706	11813.15
638.06	11835.97
638.413	11776.77
638.767	11828.06
639.121	11765.69
639.474	11730.89
639.828	11751.23
640.181	11742.87
640.534	11732.7
640.888	11650.22
641.241	11648.63
641.594	11609.99
641.947	11670.33
642.301	11696.77
642.654	11676.66
643.007	11646.15
643.36	11642.98
643.713	11603.89
644.066	11711.91
644.419	11607.28
644.771	11540.16
645.124	11418.58
645.477	11397.12
645.83	11362.77
646.182	11269.21
646.535	11303.56
646.888	11269.89
647.24	11269.44
647.593	11317.12
647.945	11281.19
648.298	11193.73
648.65	11176.33
649.002	11155.54
649.355	11293.39
649.707	11247.29
650.059	11246.39
650.411	11371.13
650.763	11442.09
651.115	11483.89
651.467	11514.17
651.819	11506.27
652.171	11435.53
652.523	11424.23
652.875	11434.63
653.227	11400.73
653.578	11499.03
653.93	11579.48
654.282	11403.44
654.633	11445.7
654.985	11443.89
655.337	11510.11
655.688	11519.15
656.039	11457.9
656.391	11433.5
656.742	11451.35
657.094	11458.36
657.445	11558.47
657.796	11465.81
658.147	11466.72
658.498	11458.13
658.849	11494.06
659.2	11456.1
659.551	11504.68
659.902	11510.56
660.253	11465.81
660.604	11557.34
660.955	11505.59
661.306	11523.44
661.656	11534.74
662.007	11491.12
662.358	11556.21
662.708	11529.54
663.059	11591.91
663.409	11475.53
663.76	11561.63
664.11	11589.88
664.461	11509.65
664.811	11547.62
665.161	11536.09
665.511	11498.81
665.862	11509.88
666.212	11549.88
666.562	11568.18
666.912	11511.69
667.262	11510.11
667.612	11537
667.962	11523.89
668.312	11479.15
668.662	11570.22
669.011	11586.72
669.361	11553.5
669.711	11551.69
670.06	11576.32
670.41	11496.32
670.76	11528.19
671.109	11550.56
671.459	11568.41
671.808	11492.25
672.157	11579.03
672.507	11445.93
672.856	11416.55
673.205	11537.68
673.554	11522.54
673.904	11463.33
674.253	11567.73
674.602	11473.5
674.951	11343.33
675.3	11217.69
675.649	11450.9
675.998	11422.65
676.346	11385.59
676.695	11342.43
677.044	11325.93
677.393	11311.69
677.741	11370.9
678.09	11302.88
678.438	11238.48
678.787	11274.63
679.135	11308.76
679.484	11238.7
679.832	11259.27
680.181	11163
680.529	11255.88
680.877	11132.49
681.225	11102.21
681.573	11239.61
681.922	11183.56
682.27	11118.03
682.618	11068.76
682.966	11150.57
683.314	11096.11
683.661	11014.07
684.009	11009.1
684.357	10939.27
684.705	10956.45
685.053	10949.44
685.4	10934.75
685.748	10833.06
686.095	10884.59
686.443	10814.53
686.79	10799.62
687.138	10805.27
687.485	10800.52
687.832	10771.82
688.18	10776.11
688.527	10732.05
688.874	10755.55
689.221	10681.65
689.568	10625.16
689.915	10638.72
690.262	10623.35
690.609	10622.9
690.956	10489.34
691.303	10480.98
691.65	10480.53
691.997	10436.24
692.344	10366.41
692.69	10324.6
693.037	10339.06
693.383	10271.72
693.73	10289.57
694.077	10155.11
694.423	10170.03
694.769	10137.26
695.116	10089.13
695.462	10114.21
695.808	10078.96
696.155	10059.07
696.501	10007.77
696.847	9982.46
697.193	9932.07
697.539	9908.57
697.885	9789.47
698.231	9741.57
698.577	9773.88
698.923	9781.79
699.269	9740.66
699.614	9614.79
699.96	9647.78
700.306	9643.94
700.651	9573.89
700.997	9527.11
701.342	9518.52
701.688	9530.05
702.033	9443.72
702.379	9468.13
702.724	9412.08
703.069	9404.63
703.415	9325.31
703.76	9322.37
704.105	9306.55
704.45	9241.01
704.795	9234.01
705.14	9182.26
705.485	9243.5
705.83	9199.89
706.175	9161.24
706.52	9095.71
706.865	9074.92
707.209	9032.88
707.554	9038.53
707.899	8991.76
708.243	8959.89
708.588	8915.82
708.932	8843.28
709.277	8804.64
709.621	8872.66
709.966	8808.48
710.31	8752.67
710.654	8706.79
710.998	8757.18
711.342	8745.21
711.687	8724.64
712.031	8667.02
712.375	8669.73
712.719	8709.28
713.063	8619.11
713.407	8620.92
713.75	8609.17
714.094	8571.88
714.438	8554.48
714.782	8579.56
715.125	8495.27
715.469	8539.79
715.812	8469.06
716.156	8450.07
716.499	8475.84
716.843	8427.02
717.186	8371.88
717.53	8442.17
717.873	8401.04
718.216	8457.98
718.559	8417.98
718.902	8333.47
719.246	8356.52
719.589	8333.02
719.932	8303.41
720.275	8261.38
720.617	8373.47
720.96	8316.07
721.303	8306.35
721.646	8311.77
721.989	8250.98
722.331	8248.95
722.674	8287.82
723.016	8235.39
723.359	8210.08
723.701	8250.08
724.044	8184.32
724.386	8195.39
724.729	8204.88
725.071	8175.73
725.413	8225.9
725.755	8236.75
726.097	8117.88
726.439	8134.15
726.782	8177.54
727.124	8184.09
727.465	8141.38
727.807	8177.54
728.149	8161.27
728.491	8098.67
728.833	8098.45
729.175	8055.96
729.516	8143.42
729.858	8113.59
730.199	8106.81
730.541	8101.16
730.882	8067.49
731.224	8111.1
731.565	8002.4
731.906	8115.62
732.248	8039.46
732.589	7981.61
732.93	8039.69
733.271	8037.88
733.612	8028.62
733.953	8080.14
734.294	8015.96
734.635	8005.79
734.976	8064.77
735.317	7990.2
735.658	8028.84
735.999	8051.89
736.339	8057.99
736.68	8059.35
737.021	8061.16
737.361	7995.4
737.702	8054.15
738.042	8057.32
738.383	8095.06
738.723	8101.61
739.063	8061.84
739.404	8121.5
739.744	8112.46
740.084	8092.8
740.424	8079.24
740.764	8093.47
741.104	8180.48
741.444	8116.98
741.784	8127.82
742.124	8149.52
742.464	8226.13
742.804	8191.78
743.143	8236.07
743.483	8295.05
743.823	8230.19
744.162	8303.19
744.502	8374.14
744.841	8273.36
745.181	8392.22
745.52	8485.33
745.86	8466.8
746.199	8471.99
746.538	8523.97
746.877	8580.24
747.216	8629.28
747.556	8694.59
747.895	8739.33
748.234	8687.13
748.573	8805.55
748.911	8830.63
749.25	8847.13
749.589	8907.01
749.928	8981.13
750.267	9084.63
750.605	9171.86
750.944	9192.65
751.283	9288.24
751.621	9316.49
751.96	9424.74
752.298	9518.52
752.636	9592.42
752.975	9635.81
753.313	9707.22
753.651	9853.43
753.989	9935.23
754.327	10065.63
754.666	10103.14
755.004	10269.24
755.342	10399.18
755.679	10459.29
756.017	10571.6
756.355	10720.52
756.693	10867.86
757.031	10997.35
757.368	11079.38
757.706	11238.7
758.044	11339.72
758.381	11571.12
758.719	11728.63
759.056	11820.16
759.394	11950.1
759.731	12069.41
760.068	12254.72
