Data from hue_170_FLMS001491_00044.txt Node
Date: Tue Feb 07 16:48:44 GMT 2017
User: dcchb
Spectrometer: FLMS00149
Trigger mode: 0
Integration Time (sec): 2.000000E-2
Scans to average: 10
Electric dark correction enabled: true
Nonlinearity correction enabled: false
Boxcar width: 0
XAxis mode: Wavelengths
Number of Pixels in Spectrum: 2048
>>>>>Begin Spectral Data<<<<<
341.393	-14.29
341.776	-14.29
342.16	-14.29
342.543	-62.88
342.927	-91.81
343.31	-68.3
343.693	-84.35
344.077	-55.2
344.46	-58.13
344.843	-61.98
345.226	-32.6
345.61	-33.73
345.993	-18.81
346.376	-8.64
346.759	29.77
347.142	12.82
347.525	45.82
347.908	57.8
348.291	75.65
348.674	88.53
349.057	111.35
349.44	128.75
349.823	150
350.206	163.56
350.588	202.88
350.971	217.34
351.354	213.05
351.737	246.26
352.119	243.55
352.502	259.15
352.884	283.78
353.267	297.34
353.65	281.29
354.032	321.52
354.414	328.07
354.797	304.79
355.179	324
355.562	307.96
355.944	324.91
356.326	359.03
356.709	337.79
357.091	339.37
357.473	331.69
357.855	336.66
358.238	359.93
358.62	364.68
359.002	358.58
359.384	341.86
359.766	348.41
360.148	331.91
360.53	339.14
360.912	324.68
361.294	345.92
361.676	334.17
362.057	324.68
362.439	366.04
362.821	323.32
363.203	327.39
363.584	322.19
363.966	325.81
364.348	321.74
364.729	330.33
365.111	328.75
365.493	320.16
365.874	323.55
366.256	315.42
366.637	336.66
367.019	278.13
367.4	301.86
367.781	316.09
368.163	305.7
368.544	344.57
368.925	317.9
369.306	328.52
369.688	308.41
370.069	303.44
370.45	315.19
370.831	312.7
371.212	289.88
371.593	302.53
371.974	312.48
372.355	304.57
372.736	324.91
373.117	339.6
373.498	330.33
373.879	320.84
374.26	315.64
374.641	319.03
375.021	312.7
375.402	309.54
375.783	334.62
376.163	338.47
376.544	335.53
376.925	345.7
377.305	357.22
377.686	327.62
378.066	337.34
378.447	321.07
378.827	341.63
379.208	328.97
379.588	326.94
379.968	325.13
380.349	338.92
380.729	349.31
381.109	349.31
381.489	354.06
381.87	321.52
382.25	337.34
382.63	354.51
383.01	346.38
383.39	343.66
383.77	346.6
384.15	342.99
384.53	362.65
384.91	363.32
385.29	345.25
385.67	352.93
386.049	364.68
386.429	351.57
386.809	348.63
387.189	344.57
387.568	378.69
387.948	380.72
388.328	372.82
388.707	358.13
389.087	380.05
389.466	358.35
389.846	371.01
390.225	380.95
390.605	383.21
390.984	366.26
391.363	393.83
391.743	361.74
392.122	375.07
392.501	371.91
392.881	376.2
393.26	383.89
393.639	378.92
394.018	375.53
394.397	387.05
394.776	378.01
395.155	394.51
395.534	417.56
395.913	379.82
396.292	399.71
396.671	389.54
397.05	383.66
397.429	416.66
397.808	406.49
398.186	408.07
398.565	386.15
398.944	395.19
399.323	396.32
399.701	401.74
400.08	415.3
400.458	417.11
400.837	393.15
401.215	426.37
401.594	432.93
401.972	422.98
402.351	424.34
402.729	432.7
403.107	438.58
403.486	446.71
403.864	441.06
404.242	434.96
404.62	446.94
404.999	430.44
405.377	436.54
405.755	452.36
406.133	429.31
406.511	457.11
406.889	475.41
407.267	456.2
407.645	436.77
408.023	449.2
408.401	490.78
408.779	485.58
409.156	495.98
409.534	492.59
409.912	487.39
410.29	486.48
410.667	521.06
411.045	503.89
411.422	490.78
411.8	499.82
412.178	493.49
412.555	552.02
412.933	545.47
413.31	525.58
413.687	540.95
414.065	549.31
414.442	550.89
414.819	559.93
415.197	552.02
415.574	581.62
415.951	586.82
416.328	567.39
416.705	581.17
417.082	590.89
417.46	612.36
417.837	591.79
418.214	607.61
418.591	602.19
418.967	608.52
419.344	617.33
419.721	635.41
420.098	638.34
420.475	634.73
420.852	639.93
421.228	656.88
421.605	650.55
421.982	643.09
422.358	669.76
422.735	680.38
423.111	671.79
423.488	683.09
423.864	688.96
424.241	696.87
424.617	701.17
424.994	697.1
425.37	718.34
425.746	708.63
426.123	735.29
426.499	724.67
426.875	744.78
427.251	764.44
427.627	763.31
428.003	778.23
428.379	773.03
428.756	751.56
429.132	792.01
429.507	793.37
429.883	800.6
430.259	807.38
430.635	818
431.011	813.71
431.387	844.67
431.763	836.08
432.138	859.36
432.514	867.27
432.89	868.85
433.265	872.91
433.641	912.01
434.016	923.76
434.392	912.91
434.767	942.52
435.143	928.05
435.518	945
435.894	945.46
436.269	978.22
436.644	997.21
437.02	993.59
437.395	984.32
437.77	1011.67
438.145	1035.85
438.52	1044.66
438.895	1036.3
439.271	1048.28
439.646	1082.4
440.021	1080.37
440.395	1083.98
440.77	1097.09
441.145	1099.12
441.52	1126.92
441.895	1140.48
442.27	1138.44
442.645	1170.08
443.019	1180.03
443.394	1176.41
443.769	1171.21
444.143	1193.13
444.518	1219.12
444.892	1178.67
445.267	1208.95
445.641	1254.6
446.016	1237.65
446.39	1250.08
446.764	1253.7
447.139	1245.11
447.513	1297.99
447.887	1274.49
448.262	1277.65
448.636	1302.73
449.01	1320.59
449.384	1330.98
449.758	1332.56
450.132	1359.23
450.506	1337.54
450.88	1396.97
451.254	1345.9
451.628	1387.7
452.002	1411.88
452.376	1436.97
452.75	1459.34
453.123	1434.93
453.497	1474.48
453.871	1490.98
454.244	1503.18
454.618	1511.09
454.992	1538.66
455.365	1542.95
455.739	1590.64
456.112	1595.16
456.486	1625.44
456.859	1613.46
457.232	1627.7
457.606	1639.9
457.979	1660.69
458.352	1731.42
458.725	1712.44
459.099	1765.77
459.472	1774.36
459.845	1789.95
460.218	1814.81
460.591	1831.31
460.964	1849.39
461.337	1859.56
461.71	1921.93
462.083	1942.72
462.456	1932.32
462.829	1960.8
463.201	2013.45
463.574	2032.21
463.947	2024.52
464.32	2095.48
464.692	2082.6
465.065	2144.97
465.438	2166.44
465.81	2209.38
466.183	2207.34
466.555	2268.81
466.928	2248.02
467.3	2324.85
467.672	2360.33
468.045	2405.3
468.417	2410.28
468.789	2491.4
469.161	2516.49
469.534	2571.85
469.906	2636.26
470.278	2647.11
470.65	2660.89
471.022	2701.12
471.394	2789.02
471.766	2819.53
472.138	2884.61
472.51	2940.88
472.882	3027.66
473.253	3030.82
473.625	3139.97
473.997	3191.27
474.369	3193.76
474.74	3266.3
475.112	3367.54
475.484	3427.42
475.855	3505.39
476.227	3531.38
476.598	3623.58
476.97	3705.83
477.341	3766.4
477.713	3881.42
478.084	3941.53
478.455	4061.08
478.827	4139.27
479.198	4283.67
479.569	4270.34
479.94	4408.19
480.311	4471.01
480.682	4625.58
481.053	4726.6
481.424	4850.44
481.795	4933.15
482.166	5035.52
482.537	5174.04
482.908	5261.73
483.279	5348.28
483.65	5512.79
484.021	5624.88
484.391	5727.7
484.762	5820.58
485.133	5914.36
485.503	6057.86
485.874	6216.73
486.244	6347.8
486.615	6420.79
486.985	6585.08
487.356	6683.38
487.726	6805.87
488.097	6983.04
488.467	7042.02
488.837	7244.27
489.207	7385.06
489.578	7521.55
489.948	7635.9
490.318	7745.28
490.688	7789.8
491.058	8046.06
491.428	8198.82
491.798	8277.24
492.168	8448.08
492.538	8511.81
492.908	8667.06
493.278	8819.6
493.648	8840.39
494.017	8996.77
494.387	9164.22
494.757	9275.86
495.126	9354.5
495.496	9416.65
495.866	9623.87
496.235	9639.01
496.605	9703.19
496.974	9841.72
497.344	9959.46
497.713	9995.84
498.082	10192.67
498.452	10242.16
498.821	10316.96
499.19	10372.1
499.559	10477.86
499.928	10658.19
500.298	10678.98
500.667	10730.96
501.036	10741.36
501.405	10899.32
501.774	10937.74
502.143	11025.19
502.512	11111.52
502.88	11185.64
503.249	11180.67
503.618	11318.06
503.987	11279.87
504.356	11361.9
504.724	11458.4
505.093	11536.59
505.462	11550.15
505.83	11571.16
506.199	11756.92
506.567	11863.13
506.936	11837.37
507.304	11889.12
507.672	11877.6
508.041	11989.91
508.409	12051.83
508.777	12197.36
509.145	12259.73
509.514	12271.71
509.882	12269.9
510.25	12276.91
510.618	12403.23
510.986	12364.82
511.354	12543.12
511.722	12555.77
512.09	12631.02
512.458	12603.23
512.826	12688.88
513.193	12712.15
513.561	12739.95
513.929	12880.06
514.297	12864.69
514.664	12945.14
515.032	12931.35
515.4	13027.4
515.767	13019.94
516.135	13002.09
516.502	12940.85
516.869	13217.68
517.237	13142.42
517.604	13028.3
517.972	13209.54
518.339	13240.05
518.706	13183.1
519.073	13253.61
519.44	13363.89
519.808	13360.04
520.175	13330.89
520.542	13398.69
520.909	13520.94
521.276	13441.85
521.643	13500.61
522.009	13565.46
522.376	13571.56
522.743	13636.42
523.11	13677.32
523.477	13753.03
523.843	13767.72
524.21	13788.96
524.577	13845
524.943	13789.86
525.31	13864.89
525.676	13994.6
526.043	13936.98
526.409	13897.66
526.776	14083.19
527.142	13940.82
527.508	14013.81
527.874	14085.9
528.241	14034.15
528.607	14087.48
528.973	14132.68
529.339	14030.31
529.705	14219.68
530.071	14250.42
530.437	14150.76
530.803	14173.58
531.169	14117.54
531.535	14095.39
531.901	14124.32
532.267	14095.62
532.632	14071.44
532.998	14112.34
533.364	14087.93
533.73	14111.44
534.095	14202.96
534.461	14047.48
534.826	14072.12
535.192	14049.29
535.557	14095.62
535.923	13985.79
536.288	13956.19
536.653	13951.89
537.019	13927.71
537.384	13873.48
537.749	13863.99
538.114	13870.31
538.479	13760.03
538.845	13884.1
539.21	13729.07
539.575	13812.46
539.94	13577.67
540.305	13706.7
540.67	13699.24
541.034	13671.45
541.399	13660.83
541.764	13524.11
542.129	13614.95
542.494	13458.57
542.858	13399.14
543.223	13472.36
543.587	13444.56
543.952	13392.36
544.316	13338.12
544.681	13285.24
545.045	13325.69
545.41	13268.52
545.774	13244.34
546.138	13193.95
546.503	13195.75
546.867	13070.79
547.231	13235.75
547.595	13128.41
547.959	13049.32
548.324	12997.57
548.688	12984.91
549.052	12998.02
549.416	12928.42
549.779	12801.41
550.143	12805.71
550.507	12901.75
550.871	12760.74
551.235	12751.25
551.599	12786.73
551.962	12689.55
552.326	12676.45
552.689	12684.81
553.053	12637.8
553.417	12612.27
553.78	12689.33
554.143	12510.8
554.507	12563
554.87	12543.57
555.234	12593.06
555.597	12483.46
555.96	12495.89
556.323	12487.98
556.686	12495.43
557.05	12481.88
557.413	12500.63
557.776	12450.92
558.139	12421.31
558.502	12354.19
558.865	12401.65
559.228	12443.46
559.59	12422.22
559.953	12389.67
560.316	12464.25
560.679	12409.56
561.041	12449.33
561.404	12441.88
561.767	12517.81
562.129	12378.15
562.492	12389
562.854	12416.34
563.217	12338.83
563.579	12402.1
563.941	12444.81
564.304	12465.6
564.666	12464.25
565.028	12534.08
565.39	12534.53
565.753	12538.37
566.115	12534.08
566.477	12516.9
566.839	12455.89
567.201	12553.06
567.563	12551.48
567.925	12549.22
568.287	12619.95
568.648	12553.51
569.01	12586.05
569.372	12609.78
569.734	12558.71
570.095	12636.45
570.457	12682.32
570.819	12674.86
571.18	12646.62
571.542	12713.96
571.903	12674.19
572.265	12716.9
572.626	12678.48
572.987	12719.16
573.349	12751.25
573.71	12753.73
574.071	12753.28
574.432	12716.22
574.794	12809.1
575.155	12787.63
575.516	12723.68
575.877	12797.35
576.238	12782.66
576.599	12785.14
576.96	12790.12
577.32	12777.91
577.681	12836.22
578.042	12885.03
578.403	12775.65
578.763	12842.77
579.124	12822.66
579.485	12882.09
579.845	12799.15
580.206	12793.73
580.566	12778.82
580.927	12778.82
581.287	12880.73
581.648	12802.32
582.008	12815.88
582.368	12760.29
582.728	12809.1
583.089	12765.94
583.449	12823.11
583.809	12747.86
584.169	12796.67
584.529	12818.82
584.889	12850
585.249	12739.5
585.609	12661.53
585.969	12721.19
586.329	12719.84
586.688	12700.63
587.048	12680.97
587.408	12621.53
587.768	12633.28
588.127	12638.93
588.487	12642.77
588.846	12731.59
589.206	12621.98
589.565	12678.71
589.925	12586.05
590.284	12622.44
590.643	12582.89
591.003	12635.09
591.362	12695.88
591.721	12576.34
592.08	12564.81
592.44	12562.33
592.799	12582.89
593.158	12576.79
593.517	12584.25
593.876	12591.93
594.235	12547.86
594.593	12548.77
594.952	12519.61
595.311	12506.28
595.67	12505.15
596.029	12602.78
596.387	12600.97
596.746	12575.88
597.104	12524.36
597.463	12455.21
597.822	12488.88
598.18	12436.45
598.538	12481.65
598.897	12550.57
599.255	12398.71
599.613	12579.5
599.972	12551.03
600.33	12526.17
600.688	12496.79
601.046	12524.36
601.404	12512.16
601.762	12456.79
602.12	12543.57
602.478	12475.55
602.836	12506.06
603.194	12437.36
603.552	12471.03
603.91	12395.78
604.268	12523.91
604.625	12410.46
604.983	12454.76
605.341	12460.63
605.698	12465.15
606.056	12414.53
606.413	12533.4
606.771	12503.57
607.128	12553.29
607.485	12485.94
607.843	12436
608.2	12554.42
608.557	12586.51
608.914	12586.05
609.272	12574.75
609.629	12632.38
609.986	12602.55
610.343	12540.4
610.7	12625.37
611.057	12660.18
611.414	12597.8
611.771	12575.21
612.127	12609.78
612.484	12599.16
612.841	12709.21
613.198	12614.53
613.554	12570.23
613.911	12711.25
614.267	12710.8
614.624	12732.94
614.98	12664.7
615.337	12730.68
615.693	12756.67
616.05	12733.62
616.406	12790.12
616.762	12764.58
617.118	12772.26
617.475	12706.95
617.831	12753.05
618.187	12772.72
618.543	12828.98
618.899	12874.63
619.255	12749.66
619.611	12717.12
619.967	12826.72
620.323	12783.56
620.678	12804.13
621.034	12744.02
621.39	12875.31
621.746	12839.83
622.101	12846.39
622.457	12783.56
622.812	12823.34
623.168	12917.8
623.523	12728.2
623.879	12914.86
624.234	12766.61
624.589	12830.34
624.945	12858.36
625.3	12854.97
625.655	12830.34
626.01	12864.46
626.365	12862.66
626.72	12806.16
627.075	12882.09
627.43	12782.88
627.785	12821.08
628.14	12808.87
628.495	12812.71
628.85	12788.08
629.205	12685.49
629.559	12794.41
629.914	12752.6
630.269	12704.92
630.623	12713.73
630.978	12575.21
631.332	12790.57
631.687	12771.59
632.041	12651.36
632.396	12712.15
632.75	12534.98
633.104	12705.6
633.459	12611.82
633.813	12618.82
634.167	12548.09
634.521	12612.49
634.875	12632.15
635.229	12534.3
635.583	12500.63
635.937	12519.61
636.291	12443.68
636.645	12472.61
636.999	12436
637.352	12471.03
637.706	12403.23
638.06	12436.9
638.413	12435.32
638.767	12310.58
639.121	12439.39
639.474	12357.36
639.828	12280.75
640.181	12310.58
640.534	12366.17
640.888	12294.54
641.241	12253.41
641.594	12310.58
641.947	12391.48
642.301	12291.15
642.654	12285.27
643.007	12271.71
643.36	12263.58
643.713	12231.26
644.066	12285.27
644.419	12180.64
644.771	12195.1
645.124	12112.62
645.477	12023.13
645.83	11927.99
646.182	11859.74
646.535	11869.24
646.888	11852.29
647.24	11809.35
647.593	11846.19
647.945	11898.16
648.298	11859.97
648.65	11800.31
649.002	11772.74
649.355	11814.55
649.707	11836.02
650.059	11842.34
650.411	12055.9
650.763	12022.45
651.115	12177.02
651.467	12116.69
651.819	12092.05
652.171	12121.21
652.523	12097.48
652.875	12058.61
653.227	11989.68
653.578	12121.88
653.93	12021.32
654.282	12007.76
654.633	11993.75
654.985	12019.51
655.337	12029.68
655.688	12047.99
656.039	12088.44
656.391	12052.51
656.742	12047.99
657.094	12061.1
657.445	12087.08
657.796	12069
658.147	12064.94
658.498	11972.06
658.849	12125.27
659.2	12072.39
659.551	12034.2
659.902	12056.58
660.253	12038.05
660.604	12049.57
660.955	12031.04
661.306	12108.33
661.656	12090.93
662.007	12054.09
662.358	12015.45
662.708	12123.69
663.059	12068.33
663.409	12024.71
663.76	12109.46
664.11	12097.7
664.461	12106.07
664.811	12069.68
665.161	12129.34
665.511	12085.05
665.862	12063.36
666.212	12110.36
666.562	12132.96
666.912	12126.63
667.262	12021.77
667.612	12137.7
667.962	12139.51
668.312	12120.53
668.662	12152.39
669.011	12002.34
669.361	12164.14
669.711	12026.07
670.06	12032.62
670.41	12009.57
670.76	12096.8
671.109	12087.76
671.459	12117.59
671.808	12023.81
672.157	12109.68
672.507	11983.58
672.856	12067.65
673.205	12047.08
673.554	12070.36
673.904	12038.27
674.253	12020.19
674.602	12022.9
674.951	11818.16
675.3	11741.1
675.649	11984.26
675.998	11835.56
676.346	11913.3
676.695	11965.28
677.044	11836.92
677.393	11932.74
677.741	11894.09
678.09	11866.52
678.438	11864.04
678.787	11877.82
679.135	11892.29
679.484	11758.73
679.832	11840.99
680.181	11809.8
680.529	11798.73
680.877	11759.18
681.225	11727.32
681.573	11828.56
681.922	11680.54
682.27	11596.7
682.618	11645.51
682.966	11585.63
683.314	11629.47
683.661	11591.5
684.009	11588.57
684.357	11527.1
684.705	11506.31
685.053	11550.15
685.4	11481.68
685.748	11472.18
686.095	11386.54
686.443	11348.12
686.79	11316.03
687.138	11334.56
687.485	11292.3
687.832	11319.42
688.18	11259.76
688.527	11215.69
688.874	11183.38
689.221	11165.53
689.568	11130.72
689.915	11096.83
690.262	11000.56
690.609	10994.68
690.956	10994
691.303	10876.49
691.65	10891.41
691.997	10909.94
692.344	10811.86
692.69	10878.53
693.037	10740
693.383	10715.14
693.73	10704.97
694.077	10705.2
694.423	10650.51
694.769	10598.31
695.116	10575.94
695.462	10563.73
695.808	10542.94
696.155	10558.31
696.501	10469.5
696.847	10508.14
697.193	10370.97
697.539	10429.5
697.885	10359.22
698.231	10279.67
698.577	10294.81
698.923	10217.08
699.269	10179.56
699.614	10102.05
699.96	10086.68
700.306	10120.81
700.651	10006.69
700.997	9969.62
701.342	10012.56
701.688	9947.48
702.033	9890.98
702.379	9918.55
702.724	9803.75
703.069	9909.51
703.415	9665.68
703.76	9758.11
704.105	9764.21
704.45	9704.32
704.795	9634.04
705.14	9605.11
705.485	9513.37
705.83	9561.95
706.175	9598.56
706.52	9541.84
706.865	9469.98
707.209	9455.51
707.554	9402.63
707.899	9434.5
708.243	9356.31
708.588	9326.48
708.932	9316.76
709.277	9260.49
709.621	9233.83
709.966	9198.57
710.31	9255.07
710.654	9136.2
710.998	9225.46
711.342	9157.89
711.687	9098.01
712.031	9068.18
712.375	9043.32
712.719	9002.42
713.063	9073.6
713.407	9061.85
713.75	8999.03
714.094	8982.53
714.438	8927.17
714.782	9015.75
715.125	8943.21
715.469	8939.82
715.812	8854.85
716.156	8852.59
716.499	8897.79
716.843	8921.97
717.186	8811.24
717.53	8835.87
717.873	8798.13
718.216	8812.59
718.559	8701.18
718.902	8717.68
719.246	8725.14
719.589	8679.26
719.932	8674.97
720.275	8672.71
720.617	8681.98
720.96	8644.46
721.303	8703.44
721.646	8662.77
721.989	8609.66
722.331	8650.79
722.674	8631.81
723.016	8648.53
723.359	8562.2
723.701	8613.05
724.044	8531.47
724.386	8525.82
724.729	8591.36
725.071	8566.72
725.413	8560.85
725.755	8554.97
726.097	8567.18
726.439	8468.65
726.782	8487.4
727.124	8530.79
727.465	8530.34
727.807	8488.99
728.149	8508.42
728.491	8427.74
728.833	8514.3
729.175	8435.88
729.516	8473.62
729.858	8486.05
730.199	8487.86
730.541	8465.03
730.882	8471.36
731.224	8500.51
731.565	8440.63
731.906	8438.14
732.248	8431.13
732.589	8412.6
732.93	8412.38
733.271	8477.91
733.612	8470.91
733.953	8472.26
734.294	8393.4
734.635	8405.15
734.976	8477.46
735.317	8420.51
735.658	8424.13
735.999	8402.21
736.339	8402.66
736.68	8504.58
737.021	8413.73
737.361	8452.15
737.702	8468.2
738.042	8464.58
738.383	8466.16
738.723	8521.08
739.063	8501.19
739.404	8542.54
739.744	8471.13
740.084	8470.91
740.424	8451.02
740.764	8479.72
741.104	8568.08
741.444	8605.82
741.784	8544.13
742.124	8562.43
742.464	8564.24
742.804	8536.89
743.143	8597.46
743.483	8635.65
743.823	8599.04
744.162	8615.99
744.502	8680.85
744.841	8775.76
745.181	8821.86
745.52	8765.36
745.86	8781.86
746.199	8869.09
746.538	8853.72
746.877	8969.88
747.216	8952.48
747.556	9059.82
747.895	9068.18
748.234	9085.58
748.573	9127.61
748.911	9227.27
749.25	9283.77
749.589	9309.08
749.928	9439.92
750.267	9442.63
750.605	9558.56
750.944	9596.75
751.283	9588.39
751.621	9709.74
751.96	9819.12
752.298	9895.95
752.636	10001.49
752.975	10095.72
753.313	10119.9
753.651	10308.37
753.989	10394.7
754.327	10410.74
754.666	10523.06
755.004	10677.4
755.342	10826.78
755.679	11012.08
756.017	10994.23
756.355	11220.67
756.693	11379.98
757.031	11442.81
757.368	11575.68
757.706	11733.87
758.044	11815.45
758.381	11991.27
