Data from hue_34_FLMS001491_00013.txt Node
Date: Tue Feb 07 17:25:15 GMT 2017
User: dcchb
Spectrometer: FLMS00149
Trigger mode: 0
Integration Time (sec): 2.000000E-2
Scans to average: 10
Electric dark correction enabled: true
Nonlinearity correction enabled: false
Boxcar width: 0
XAxis mode: Wavelengths
Number of Pixels in Spectrum: 2048
>>>>>Begin Spectral Data<<<<<
341.393	-27.64
341.776	-27.64
342.16	-27.64
342.543	-44.82
342.927	-71.48
343.31	-72.16
343.693	-60.41
344.077	-48.2
344.46	-59.5
344.843	-69
345.226	-42.33
345.61	-25.61
345.993	-2.1
346.376	-18.6
346.759	3.09
347.142	27.73
347.525	42.64
347.908	67.05
348.291	91.9
348.674	66.37
349.057	99.14
349.44	116.31
349.823	142.07
350.206	173.03
350.588	181.62
350.971	196.08
351.354	216.42
351.737	225.46
352.119	259.13
352.502	249.19
352.884	274.27
353.267	298.23
353.65	292.8
354.032	316.76
354.414	310.43
354.797	306.14
355.179	321.05
355.562	327.6
355.944	335.06
356.326	331.45
356.709	333.93
357.091	327.83
357.473	342.97
357.855	335.74
358.238	365.34
358.62	347.26
359.002	351.33
359.384	314.72
359.766	331.67
360.148	332.12
360.53	338.68
360.912	338.68
361.294	336.64
361.676	325.12
362.057	341.84
362.439	333.03
362.821	336.64
363.203	340.03
363.584	332.8
363.966	328.06
364.348	339.81
364.729	333.03
365.111	337.55
365.493	314.95
365.874	310.66
366.256	314.5
366.637	318.57
367.019	324.67
367.4	311.11
367.781	336.64
368.163	315.18
368.544	307.94
368.925	313.14
369.306	337.32
369.688	298.23
370.069	326.25
370.45	328.06
370.831	334.38
371.212	314.27
371.593	314.05
371.974	316.08
372.355	301.39
372.736	320.6
373.117	330.54
373.498	315.4
373.879	298.23
374.26	319.24
374.641	292.35
375.021	308.62
375.402	319.47
375.783	328.73
376.163	322.63
376.544	323.08
376.925	332.58
377.305	333.93
377.686	314.05
378.066	332.8
378.447	330.32
378.827	343.65
379.208	320.82
379.588	344.55
379.968	339.36
380.349	344.55
380.729	318.34
381.109	361.73
381.489	341.62
381.87	359.24
382.25	322.41
382.63	353.37
383.01	320.37
383.39	349.3
383.77	349.52
384.15	347.72
384.53	341.62
384.91	348.39
385.29	323.76
385.67	371.45
386.049	362.41
386.429	350.43
386.809	346.13
387.189	327.83
387.568	350.43
387.948	361.73
388.328	365.8
388.707	363.08
389.087	342.97
389.466	340.49
389.846	350.88
390.225	349.07
390.605	349.3
390.984	368.73
391.363	363.31
391.743	344.55
392.122	378
392.501	368.06
392.881	381.84
393.26	355.85
393.639	375.51
394.018	387.72
394.397	403.08
394.776	389.52
395.155	380.03
395.534	380.26
395.913	391.78
396.292	385.23
396.671	391.78
397.05	395.85
397.429	372.57
397.808	381.39
398.186	397.66
398.565	390.2
398.944	392.01
399.323	412.35
399.701	385.23
400.08	378
400.458	408.28
400.837	401.95
401.215	397.89
401.594	413.48
401.972	416.42
402.351	409.86
402.729	396.53
403.107	416.19
403.486	439.24
403.864	429.52
404.242	428.84
404.62	408.73
404.999	424.55
405.377	429.75
405.755	422.97
406.133	446.47
406.511	422.97
406.889	438.79
407.267	439.01
407.645	420.03
408.023	426.58
408.401	442.4
408.779	439.69
409.156	437.88
409.534	438.34
409.912	456.64
410.29	449.64
410.667	426.81
411.045	472.46
411.422	459.8
411.8	488.96
412.178	468.62
412.555	474.04
412.933	489.18
413.31	474.95
413.687	475.85
414.065	482.85
414.442	490.09
414.819	477.66
415.197	503.87
415.574	489.63
415.951	504.1
416.328	478.11
416.705	500.93
417.082	503.64
417.46	503.87
417.837	535.06
418.214	497.32
418.591	513.36
418.967	491.44
419.344	535.96
419.721	529.41
420.098	498.22
420.475	535.28
420.852	534.38
421.228	545.68
421.605	523.31
421.982	545
422.358	533.7
422.735	540.25
423.111	539.58
423.488	550.65
423.864	564.89
424.241	558.33
424.617	547.71
424.994	568.95
425.37	567.15
425.746	563.08
426.123	553.36
426.499	591.55
426.875	570.31
427.251	588.61
427.627	593.13
428.003	595.85
428.379	608.27
428.756	584.09
429.132	589.74
429.507	620.48
429.883	606.69
430.259	610.31
430.635	607.6
431.011	611.66
431.387	633.13
431.763	625.22
432.138	632.91
432.514	643.75
432.89	649.63
433.265	657.09
433.641	644.66
434.016	639.91
434.392	679.91
434.767	691.89
435.143	695.96
435.518	686.01
435.894	685.34
436.269	697.54
436.644	709.29
437.02	731.21
437.395	702.51
437.77	706.8
438.145	725.79
438.52	724.2
438.895	720.14
439.271	734.83
439.646	735.96
440.021	754.71
440.395	770.08
440.77	765.33
441.145	771.89
441.52	767.59
441.895	761.04
442.27	778.44
442.645	777.99
443.019	812.34
443.394	786.35
443.769	777.99
444.143	782.06
444.518	799.68
444.892	802.85
445.267	796.07
445.641	818.89
446.016	799.68
446.39	837.42
446.764	824.77
447.139	824.99
447.513	811.66
447.887	825.67
448.262	829.96
448.636	821.15
449.01	842.39
449.384	854.14
449.758	871.54
450.132	874.71
450.506	885.1
450.88	902.96
451.254	898.66
451.628	878.32
452.002	891.66
452.376	905.22
452.75	891.43
453.123	890.3
453.497	916.06
453.871	949.73
454.244	953.58
454.618	958.32
454.992	966.68
455.365	991.09
455.739	982.5
456.112	1003.74
456.486	1006.91
456.859	988.38
457.232	1027.25
457.606	992.22
457.979	1033.35
458.352	1046.46
458.725	1045.55
459.099	1072.22
459.472	1058.43
459.845	1073.8
460.218	1092.33
460.591	1106.11
460.964	1092.78
461.337	1131.2
461.71	1138.43
462.083	1152.89
462.456	1158.32
462.829	1158.09
463.201	1196.51
463.574	1191.31
463.947	1224.08
464.32	1232.44
464.692	1217.98
465.065	1297.97
465.438	1264.98
465.81	1309.5
466.183	1314.47
466.555	1346.11
466.928	1313.79
467.3	1342.72
467.672	1379.1
468.045	1392.21
468.417	1399.44
468.789	1384.98
469.161	1446.22
469.534	1433.56
469.906	1490.74
470.278	1546.1
470.65	1510.85
471.022	1550.85
471.394	1558.98
471.766	1587.68
472.138	1623.39
472.51	1654.35
472.882	1675.37
473.253	1703.16
473.625	1736.38
473.997	1754.23
474.369	1808.92
474.74	1825.19
475.112	1900.67
475.484	1908.81
475.855	1957.84
476.227	2003.72
476.598	2035.36
476.97	2064.96
477.341	2102.25
477.713	2127.56
478.084	2184.73
478.455	2251.62
478.827	2278.74
479.198	2365.97
479.569	2398.74
479.94	2454.55
480.311	2516.25
480.682	2560.77
481.053	2639.86
481.424	2707.43
481.795	2746.75
482.166	2839.4
482.537	2882.11
482.908	2984.48
483.279	3020.87
483.65	3116.23
484.021	3184.7
484.391	3250.92
484.762	3332.27
485.133	3375.66
485.503	3473.74
485.874	3560.06
486.244	3607.97
486.615	3743.33
486.985	3784.01
487.356	3857
487.726	3974.29
488.097	4067.17
488.467	4090.44
488.837	4247.73
489.207	4313.04
489.578	4402.07
489.948	4456.08
490.318	4588.06
490.688	4678
491.058	4722.52
491.428	4875.96
491.798	4913.7
492.168	5026.69
492.538	5121.15
492.908	5214.71
493.278	5292.67
493.648	5344.87
494.017	5415.83
494.387	5536.51
494.757	5661.02
495.126	5718.88
495.496	5782.83
495.866	5796.39
496.235	5920.9
496.605	6026.21
496.974	6077.51
497.344	6185.98
497.713	6222.36
498.082	6315.7
498.452	6448.35
498.821	6449.7
499.19	6496.26
499.559	6608.57
499.928	6659.42
500.298	6696.25
500.667	6786.42
501.036	6880.65
501.405	6911.61
501.774	6955.23
502.143	7032.51
502.512	7114.09
502.88	7183.7
503.249	7232.51
503.618	7315.9
503.987	7338.72
504.356	7448.32
504.724	7505.95
505.093	7516.12
505.462	7575.1
505.83	7644.47
506.199	7750.23
506.567	7832.72
506.936	7880.85
507.304	7966.5
507.672	7964.69
508.041	8030.9
508.409	8145.03
508.777	8159.94
509.145	8202.43
509.514	8290.11
509.882	8314.51
510.25	8355.42
510.618	8401.52
510.986	8489.42
511.354	8553.6
511.722	8543.21
512.09	8670.89
512.458	8647.16
512.826	8759.25
513.193	8744.33
513.561	8841.05
513.929	8863.65
514.297	8980.48
514.664	9061.84
515.032	9119.24
515.4	9120.82
515.767	9109.75
516.135	9279.23
516.502	9173.02
516.869	9371.89
517.237	9302.96
517.604	9348.84
517.972	9395.84
518.339	9539.34
518.706	9533.92
519.073	9522.84
519.44	9621.6
519.808	9743.18
520.175	9684.42
520.542	9817.98
520.909	9913.79
521.276	9875.6
521.643	9946.33
522.009	10034.47
522.376	10036.95
522.743	10082.6
523.11	10191.53
523.477	10311.3
523.843	10350.84
524.21	10462.03
524.577	10466.32
524.943	10499.99
525.31	10603.72
525.676	10694.79
526.043	10753.54
526.409	10752.64
526.776	10929.13
527.142	10975.01
527.508	11002.13
527.874	11125.51
528.241	11135.23
528.607	11159.64
528.973	11202.57
529.339	11211.84
529.705	11341.1
530.071	11388.56
530.437	11461.77
530.803	11508.55
531.169	11625.61
531.535	11589.23
531.901	11641.43
532.267	11680.3
532.632	11811.6
532.998	11834.65
533.364	11811.82
533.73	11927.53
534.095	12032.16
534.461	12038.26
534.826	12075.77
535.192	12170
535.557	12316.89
535.923	12116.9
536.288	12306.72
536.653	12256.1
537.019	12309.89
537.384	12375.42
537.749	12473.05
538.114	12527.28
538.479	12570.45
538.845	12566.15
539.21	12612.71
539.575	12704.68
539.94	12668.52
540.305	12830.33
540.67	12813.6
541.034	12812.93
541.399	12970.89
541.764	12948.97
542.129	13014.28
542.494	13043.65
542.858	13143.09
543.223	13078
543.587	13174.05
543.952	13228.96
544.316	13317.77
544.681	13334.49
545.045	13468.95
545.41	13429.18
545.774	13589.63
546.138	13567.93
546.503	13610.19
546.867	13497.43
547.231	13761.83
547.595	13760.92
547.959	13812.67
548.324	13724.99
548.688	13816.06
549.052	13924.76
549.416	13968.83
549.779	14032.33
550.143	13993.46
550.507	14143.29
550.871	14218.09
551.235	14207.01
551.599	14320.23
551.962	14324.98
552.326	14368.14
552.689	14505.31
553.053	14393.22
553.417	14480.68
553.78	14645.19
554.143	14541.92
554.507	14724.74
554.87	14724.97
555.234	14901.68
555.597	14722.48
555.96	14882.93
556.323	14894.23
556.686	14897.62
557.05	14981.68
557.413	15045.18
557.776	15095.35
558.139	15190.49
558.502	15184.61
558.865	15228
559.228	15282.92
559.59	15326.31
559.953	15395.46
560.316	15540.54
560.679	15484.49
561.041	15644.26
561.404	15672.74
561.767	15755.67
562.129	15719.74
562.492	15915.44
562.854	15892.17
563.217	15914.99
563.579	15883.35
563.941	16042.67
564.304	16171.93
564.666	16138.04
565.028	16208.09
565.39	16341.65
565.753	16397.46
566.115	16401.76
566.477	16438.59
566.839	16508.65
567.201	16645.14
567.563	16610.34
567.925	16724.69
568.287	16708.19
568.648	16871.8
569.01	16874.29
569.372	17029.31
569.734	16987.51
570.095	17147.05
570.457	17189.08
570.819	17157.9
571.18	17344.11
571.542	17330.1
571.903	17499.13
572.265	17509.75
572.626	17627.71
572.987	17611.22
573.349	17806.69
573.71	17906.35
574.071	17794.49
574.432	18076.97
574.794	18217.3
575.155	18245.1
575.516	18152.67
575.877	18344.31
576.238	18476.96
576.599	18575.49
576.96	18592.89
577.32	18697.52
577.681	18851.41
578.042	19003.95
578.403	19090.73
578.763	19146.54
579.124	19350.38
579.485	19575.46
579.845	19760.31
580.206	19739.75
580.566	19956.24
580.927	20011.15
581.287	20272.84
581.648	20252.73
582.008	20603.46
582.368	20787.18
582.728	20926.38
583.089	21081.86
583.449	21351.91
583.809	21556.42
584.169	21714.61
584.529	21824.21
584.889	22147.14
585.249	22266.01
585.609	22348.04
585.969	22701.93
586.329	22905.54
586.688	23084.97
587.048	23279.54
587.408	23477.96
587.768	23712.3
588.127	23895.12
588.487	24081.78
588.846	24594.08
589.206	24660.3
589.565	24843.57
589.925	25170.57
590.284	25336.21
590.643	25651.01
591.003	25899.59
591.362	26149.07
591.721	26374.83
592.08	26686.69
592.44	26897.75
592.799	27192.43
593.158	27262.04
593.517	27591.52
593.876	27875.58
594.235	28034.9
594.593	28394.89
594.952	28607.09
595.311	28768.21
595.67	28970.47
596.029	29389.44
596.387	29672.37
596.746	30087.73
597.104	29999.59
597.463	30208.17
597.822	30596.86
598.18	30713.92
598.538	30915.5
598.897	31411.08
599.255	31314.13
599.613	31884.06
599.972	31978.52
600.33	32266.88
600.688	32263.94
601.046	32638.17
601.404	32934.66
601.762	32958.84
602.12	33424.14
602.478	33669.78
602.836	33632.27
603.194	33790
603.552	33991.58
603.91	34157.68
604.268	34476.99
604.625	34471.79
604.983	34754.72
605.341	34759.92
605.698	35191.55
606.056	35476.28
606.413	35518.54
606.771	35728.03
607.128	35758.99
607.485	35877.86
607.843	36103.16
608.2	36410.72
608.557	36585.41
608.914	36601.68
609.272	36976.81
609.629	37040.09
609.986	37259.51
610.343	37262.45
610.7	37630.58
611.057	37821.53
611.414	37795.09
611.771	37969.78
612.127	38217.23
612.484	38286.15
612.841	38462.65
613.198	38489.76
613.554	38660.83
613.911	38799.14
614.267	39034.16
614.624	39080.94
614.98	39109.64
615.337	39546.01
615.693	39392.34
616.05	39627.36
616.406	39927.24
616.762	39836.62
617.118	39824.64
617.475	39974.92
617.831	40146.9
618.187	40101.47
618.543	40395.03
618.899	40657.17
619.255	40613.78
619.611	40629.6
619.967	40965.41
620.323	41038.17
620.678	40878.63
621.034	40911.4
621.39	40964.73
621.746	41080.21
622.101	41480.65
622.457	41258.28
622.812	41395.9
623.168	41430.48
623.523	41578.05
623.879	41691.71
624.234	41463.47
624.589	41779.17
624.945	41891.94
625.3	41913.63
625.655	41841.32
626.01	41894.2
626.365	42046.06
626.72	42081.08
627.075	42026.17
627.43	42004.7
627.785	42038.15
628.14	42214.86
628.495	42232.49
628.85	42293.28
629.205	42037.02
629.559	42312.04
629.914	42107.07
630.269	42279.72
630.623	42201.98
630.978	42095.55
631.332	42327.18
631.687	42452.37
632.041	42354.52
632.396	42415.09
632.75	42325.6
633.104	42273.62
633.459	42144.58
633.813	42220.74
634.167	42316.56
634.521	42241.76
634.875	42320.62
635.229	42246.73
635.583	42238.37
635.937	42313.17
636.291	42166.5
636.645	42160.4
636.999	42126.51
637.352	42205.37
637.706	42157.92
638.06	42193.62
638.413	42208.76
638.767	42025.72
639.121	42084.7
639.474	41994.31
639.828	42008.77
640.181	42028.43
640.534	42096.22
640.888	42051.25
641.241	41889.68
641.594	41991.59
641.947	42003.8
642.301	41907.98
642.654	42057.13
643.007	41981.42
643.36	41817.36
643.713	41896
644.066	41799.28
644.419	41807.42
644.771	41466.86
645.124	41021.22
645.477	41165.17
645.83	40774.22
646.182	40659.88
646.535	40671.18
646.888	40781.23
647.24	40521.58
647.593	40612.87
647.945	40574
648.298	40460.11
648.65	40566.55
649.002	40237.52
649.355	40519.77
649.707	40508.24
650.059	40664.4
650.411	41061
650.763	41230.26
651.115	41521.32
651.467	41419.18
651.819	41505.73
652.171	41286.98
652.523	41397.03
652.875	41296.24
653.227	41160.88
653.578	41247.43
653.93	41297.6
654.282	41126.08
654.633	41039.08
654.985	41114.33
655.337	41075.46
655.688	41072.97
656.039	41390.03
656.391	40901.68
656.742	41012.86
657.094	41129.24
657.445	41108
657.796	41006.99
658.147	41054.44
658.498	40994.33
658.849	41216.02
659.2	41132.18
659.551	40959.08
659.902	41008.79
660.253	40963.37
660.604	41018.29
660.955	40872.98
661.306	40940.77
661.656	40952.98
662.007	40825.52
662.358	41037.49
662.708	40822.13
663.059	40914.11
663.409	40590.95
663.76	40943.94
664.11	40993.88
664.461	40966.99
664.811	40915.92
665.161	40841.57
665.511	40621.69
665.862	40871.4
666.212	40939.19
666.562	40832.08
666.912	40718.86
667.262	40781.23
667.612	40777.84
667.962	40864.17
668.312	40708.01
668.662	40956.82
669.011	40877.5
669.361	40790.5
669.711	40714.79
670.06	40797.5
670.41	40700.1
670.76	40645.64
671.109	40729.71
671.459	40714.11
671.808	40633.21
672.157	40737.84
672.507	40413.33
672.856	40494.23
673.205	40552.08
673.554	40633.66
673.904	40493.33
674.253	40668.01
674.602	40536.94
674.951	39929.05
675.3	39847.02
675.649	40498.53
675.998	40400.22
676.346	40399.32
676.695	40555.93
677.044	40292.43
677.393	40329.94
677.741	40395.7
678.09	40307.12
678.438	40157.97
678.787	40212.66
679.135	40264.63
679.484	39992.32
679.832	40097.86
680.181	39807.92
680.529	40170.4
680.877	39988.03
681.225	39818.77
681.573	39906.22
681.922	39866.68
682.27	39567.7
682.618	39694.48
682.966	39681.82
683.314	39760.69
683.661	39522.73
684.009	39457.42
684.357	39413.58
684.705	39425.11
685.053	39359.57
685.4	39281.83
685.748	39053.59
686.095	39179.69
686.443	38894.73
686.79	38947.61
687.138	39098.34
687.485	39132.46
687.832	38883.2
688.18	38847.27
688.527	38766.37
688.874	38780.38
689.221	38658.12
689.568	38481.4
689.915	38436.66
690.262	38468.75
690.609	38308.53
690.956	38222.2
691.303	38214.97
691.65	38069.21
691.997	37911.7
692.344	37739.05
692.69	37730.69
693.037	37783.57
693.383	37466.51
693.73	37650.01
694.077	37340.64
694.423	37495.67
694.769	37249.12
695.116	37084.15
695.462	37196.47
695.808	36984.95
696.155	37189.91
696.501	36785.18
696.847	36880.54
697.193	36545.18
697.539	36611.62
697.885	36431.51
698.231	36316.49
698.577	36375.24
698.923	36245.08
699.269	36137.06
699.614	36012.54
699.96	35870.17
700.306	35788.82
700.651	35742.04
700.997	35508.6
701.342	35597.41
701.688	35573.23
702.033	35477.64
702.379	35353.58
702.724	35184.31
703.069	35402.39
703.415	34996.3
703.76	34964.89
704.105	34923.3
704.45	34865.45
704.795	34749.07
705.14	34646.25
705.485	34587.72
705.83	34469.98
706.175	34546.37
706.52	34412.36
706.865	34349.31
707.209	34280.84
707.554	34054.4
707.899	34298.46
708.243	33946.83
708.588	33926.72
708.932	33678.37
709.277	33798.59
709.621	33668.42
709.966	33645.82
710.31	33553.62
710.654	33319.05
710.998	33437.02
711.342	33396.34
711.687	33298.94
712.031	33137.82
712.375	33053.75
712.719	33091.49
713.063	33044.26
713.407	33088.1
713.75	32897.14
714.094	32938.72
714.438	32784.6
714.782	32828.22
715.125	32693.76
715.469	32687.66
715.812	32534.67
716.156	32299.87
716.499	32365.63
716.843	32442.47
717.186	32229.82
717.53	32348.01
717.873	32264.39
718.216	32146.43
718.559	32174.9
718.902	31882.93
719.246	31908.47
719.589	31805.19
719.932	31689.94
720.275	31817.4
720.617	31730.17
720.96	31685.42
721.303	31614.01
721.646	31609.27
721.989	31434.36
722.331	31525.2
722.674	31482.49
723.016	31427.58
723.359	31362.49
723.701	31476.39
724.044	31238.66
724.386	31161.6
724.729	31326.56
725.071	31111.88
725.413	31100.13
725.755	31073.24
726.097	30997.53
726.439	30832.57
726.782	30847.25
727.124	30870.98
727.465	30836.18
727.807	30770.42
728.149	30676.18
728.491	30471.44
728.833	30694.26
729.175	30486.59
729.516	30468.05
729.858	30437.32
730.199	30455.4
730.541	30332.69
730.882	30343.09
731.224	30417.43
731.565	30082.3
731.906	30178.34
732.248	30150.32
732.589	30035.52
732.93	29906.94
733.271	29862.87
733.612	29976.09
733.953	29944
734.294	29845.02
734.635	29883.89
734.976	29667.85
735.317	29600.06
735.658	29620.85
735.999	29557.12
736.339	29541.98
736.68	29634.63
737.021	29579.49
737.361	29383.79
737.702	29576.1
738.042	29428.99
738.383	29324.13
738.723	29419.27
739.063	29303.11
739.404	29469.21
739.744	29228.99
740.084	29179.5
740.424	29323.23
740.764	29171.14
741.104	29117.58
741.444	29089.79
741.784	28982.44
742.124	28976.79
742.464	28903.58
742.804	28872.39
743.143	28883.24
743.483	28843.46
743.823	28650.25
744.162	28758.72
744.502	28790.81
744.841	28585.84
745.181	28654.77
745.52	28551.04
745.86	28591.72
746.199	28563.25
746.538	28462.68
746.877	28439.41
747.216	28454.77
747.556	28318.51
747.895	28419.07
748.234	28289.36
748.573	28211.17
748.911	28225.4
749.25	28171.62
749.589	27983.15
749.928	28099.98
750.267	28090.72
750.605	28071.51
750.944	28042.58
751.283	27784.74
751.621	27829.93
751.96	27709.26
752.298	27645.08
752.636	27775.02
752.975	27485.53
753.313	27481.69
753.651	27599.43
753.989	27468.36
754.327	27394.46
754.666	27254.81
755.004	27284.64
755.342	27216.39
755.679	27173.45
756.017	27191.3
756.355	27168.25
756.693	26877.64
757.031	27115.83
757.368	26934.59
757.706	26985.89
