Data from hue_220_FLMS001491_00036.txt Node
Date: Tue Feb 07 16:39:22 GMT 2017
User: dcchb
Spectrometer: FLMS00149
Trigger mode: 0
Integration Time (sec): 2.000000E-2
Scans to average: 10
Electric dark correction enabled: true
Nonlinearity correction enabled: false
Boxcar width: 0
XAxis mode: Wavelengths
Number of Pixels in Spectrum: 2048
>>>>>Begin Spectral Data<<<<<
341.393	-0.95
341.776	-0.95
342.16	-0.95
342.543	-68.06
342.927	-81.4
343.31	-80.49
343.693	-52.92
344.077	-56.99
344.46	-57.22
344.843	-59.02
345.226	-55.18
345.61	-22.87
345.993	-11.79
346.376	-4.34
346.759	-0.04
347.142	25.27
347.525	52.39
347.908	48.32
348.291	72.72
348.674	88.77
349.057	113.4
349.44	138.49
349.823	143
350.206	176.45
350.588	192.72
350.971	211.93
351.354	216.22
351.737	235.43
352.119	235.88
352.502	262.32
352.884	241.76
353.267	288.31
353.65	286.73
354.032	313.4
354.414	300.51
354.797	310.01
355.179	312.72
355.562	324.24
355.944	338.03
356.326	329.21
356.709	311.59
357.091	330.34
357.473	340.97
357.855	324.92
358.238	357.24
358.62	312.27
359.002	339.16
359.384	337.58
359.766	325.6
360.148	317.24
360.53	326.95
360.912	330.57
361.294	311.14
361.676	345.49
362.057	319.27
362.439	321.76
362.821	320.63
363.203	319.95
363.584	319.5
363.966	324.02
364.348	331.47
364.729	307.29
365.111	309.33
365.493	288.09
365.874	317.01
366.256	309.1
366.637	300.06
367.019	319.95
367.4	324.47
367.781	316.79
368.163	307.29
368.544	318.14
368.925	317.24
369.306	322.44
369.688	310.46
370.069	321.08
370.45	306.62
370.831	314.98
371.212	300.29
371.593	323.11
371.974	339.61
372.355	333.51
372.736	314.98
373.117	319.72
373.498	312.27
373.879	320.63
374.26	295.54
374.641	308.2
375.021	334.86
375.402	322.66
375.783	323.79
376.163	321.98
376.544	339.16
376.925	332.38
377.305	322.44
377.686	328.54
378.066	339.61
378.447	323.56
378.827	317.01
379.208	322.44
379.588	345.03
379.968	317.69
380.349	328.99
380.729	320.85
381.109	320.18
381.489	322.44
381.87	316.11
382.25	321.76
382.63	341.19
383.01	335.54
383.39	339.38
383.77	336.45
384.15	342.55
384.53	346.62
384.91	339.38
385.29	335.09
385.67	334.19
386.049	343.45
386.429	344.13
386.809	328.08
387.189	349.33
387.568	346.39
387.948	335.32
388.328	378.7
388.707	352.94
389.087	358.82
389.466	345.26
389.846	341.19
390.225	368.31
390.605	367.41
390.984	350.68
391.363	364.92
391.743	369.89
392.122	361.98
392.501	366.5
392.881	383.45
393.26	370.57
393.639	357.91
394.018	373.73
394.397	362.21
394.776	356.78
395.155	374.19
395.534	370.8
395.913	373.96
396.292	373.51
396.671	375.31
397.05	392.72
397.429	378.03
397.808	371.25
398.186	388.87
398.565	402.43
398.944	406.05
399.323	408.31
399.701	416.22
400.08	401.3
400.458	382.09
400.837	398.59
401.215	419.16
401.594	414.64
401.972	426.84
402.351	415.77
402.729	424.81
403.107	405.37
403.486	422.77
403.864	413.73
404.242	415.09
404.62	445.14
404.999	415.99
405.377	400.85
405.755	425.03
406.133	429.55
406.511	455.09
406.889	448.53
407.267	463.9
407.645	444.47
408.023	467.29
408.401	449.21
408.779	476.56
409.156	485.59
409.534	496.67
409.912	490.11
410.29	515.65
410.667	496.22
411.045	511.13
411.422	510.23
411.8	516.55
412.178	523.33
412.555	561.3
412.933	512.03
413.31	542.09
413.687	574.86
414.065	570.79
414.442	569.66
414.819	600.85
415.197	604.01
415.574	616.66
415.951	611.02
416.328	615.99
416.705	618.7
417.082	613.05
417.46	625.48
417.837	622.99
418.214	664.57
418.591	649.88
418.967	671.8
419.344	686.95
419.721	700.28
420.098	669.54
420.475	704.35
420.852	713.84
421.228	733.27
421.605	744.34
421.982	740.96
422.358	754.51
422.735	769.43
423.111	765.14
423.488	789.09
423.864	793.38
424.241	805.81
424.617	802.65
424.994	841.07
425.37	838.35
425.746	862.08
426.123	861.86
426.499	862.53
426.875	900.5
427.251	924
427.627	905.24
428.003	932.36
428.379	936.2
428.756	961.74
429.132	934.85
429.507	984.56
429.883	971.68
430.259	975.53
430.635	1017.11
431.011	1025.92
431.387	1013.72
431.763	1044.45
432.138	1068.63
432.514	1054.62
432.89	1074.05
433.265	1097.78
433.641	1119.7
434.016	1130.32
434.392	1167.16
434.767	1186.37
435.143	1196.08
435.518	1222.98
435.894	1241.96
436.269	1289.87
436.644	1261.62
437.02	1275.18
437.395	1314.73
437.77	1327.61
438.145	1373.71
438.52	1394.5
438.895	1408.51
439.271	1387.27
439.646	1441.73
440.021	1485.57
440.395	1482.86
440.77	1448.06
441.145	1486.92
441.52	1545.23
441.895	1511.56
442.27	1605.34
442.645	1552.01
443.019	1562.85
443.394	1618.45
443.769	1610.31
444.143	1621.38
444.518	1633.81
444.892	1641.04
445.267	1669.07
445.641	1647.6
446.016	1687.82
446.39	1703.64
446.764	1701.16
447.139	1716.3
447.513	1759.69
447.887	1738.22
448.262	1739.57
448.636	1751.32
449.01	1781.38
449.384	1808.95
449.758	1824.77
450.132	1839.46
450.506	1817.08
450.88	1843.75
451.254	1849.85
451.628	1893.47
452.002	1903.41
452.376	1907.7
452.75	1938.66
453.123	1934.6
453.497	1974.59
453.871	1974.59
454.244	2040.58
454.618	2022.05
454.992	2028.38
455.365	2053.01
455.739	2124.42
456.112	2126.23
456.486	2133.23
456.859	2178.43
457.232	2201.03
457.606	2214.59
457.979	2220.46
458.352	2262.05
458.725	2290.74
459.099	2284.87
459.472	2322.83
459.845	2385.66
460.218	2367.13
460.591	2412.78
460.964	2413.23
461.337	2443.51
461.71	2491.87
462.083	2494.36
462.456	2530.96
462.829	2518.99
463.201	2589.95
463.574	2559.44
463.947	2601.47
464.32	2676.95
464.692	2701.81
465.065	2713.11
465.438	2739.77
465.81	2735.03
466.183	2819.09
466.555	2855.25
466.928	2867.23
467.3	2873.55
467.672	2919.65
468.045	2971.86
468.417	2966.89
468.789	3022.03
469.161	3034.68
469.534	3080.78
469.906	3124.17
470.278	3118.97
470.65	3149.25
471.022	3220.44
471.394	3280.32
471.766	3301.34
472.138	3301.57
472.51	3408.23
472.882	3457.27
473.253	3459.98
473.625	3509.7
473.997	3560.54
474.369	3608.9
474.74	3612.52
475.112	3655.45
475.484	3729.58
475.855	3789.69
476.227	3814.09
476.598	3885.51
476.97	3886.41
477.341	4001.43
477.713	4043.47
478.084	4064.71
478.455	4146.74
478.827	4142.22
479.198	4288.88
479.569	4265.83
479.94	4403.46
480.311	4456.34
480.682	4525.71
481.053	4576.33
481.424	4651.59
481.795	4669.21
482.166	4763.22
482.537	4742.43
482.908	4852.26
483.279	4919.38
483.65	4987.17
484.021	5075.3
484.391	5122.76
484.762	5124.12
485.133	5178.8
485.503	5239.59
485.874	5321.4
486.244	5384.22
486.615	5461.06
486.985	5498.57
487.356	5582.86
487.726	5644.55
488.097	5668.74
488.467	5712.8
488.837	5878.9
489.207	5934.72
489.578	5942.63
489.948	5966.81
490.318	6104.2
490.688	6050.19
491.058	6202.05
491.428	6227.14
491.798	6256.52
492.168	6358.66
492.538	6403.18
492.908	6484.98
493.278	6550.52
493.648	6544.87
494.017	6559.79
494.387	6612.21
494.757	6705.09
495.126	6704.19
495.496	6769.95
495.866	6716.84
496.235	6815.15
496.605	6910.96
496.974	6881.13
497.344	6928.14
497.713	6972.88
498.082	6957.51
498.452	7086.55
498.821	7074.35
499.19	7094.91
499.559	7115.93
499.928	7171.29
500.298	7189.37
500.667	7225.08
501.036	7221.46
501.405	7287
501.774	7267.11
502.143	7321.35
502.512	7321.8
502.88	7433.43
503.249	7407.67
503.618	7452.64
503.987	7365.87
504.356	7456.94
504.724	7492.42
505.093	7424.4
505.462	7490.16
505.83	7556.14
506.199	7577.39
506.567	7595.24
506.936	7599.76
507.304	7675.46
507.672	7679.53
508.041	7760.21
508.409	7665.52
508.777	7754.78
509.145	7802.46
509.514	7704.84
509.882	7797.49
510.25	7820.99
510.618	7826.87
510.986	7856.25
511.354	7875.23
511.722	7895.34
512.09	7941.9
512.458	7957.49
512.826	7944.83
513.193	7958.17
513.561	8002.46
513.929	8003.59
514.297	8041.78
514.664	8016.02
515.032	8071.16
515.4	8048.79
515.767	8087.88
516.135	8049.24
516.502	7988.22
516.869	8116.81
517.237	8102.34
517.604	8095.34
517.972	8123.59
518.339	8085.39
518.706	8093.98
519.073	8128.78
519.44	8136.47
519.808	8094.66
520.175	8129.01
520.542	8211.04
520.909	8235.22
521.276	8178.05
521.643	8156.13
522.009	8244.49
522.376	8208.78
522.743	8232.74
523.11	8276.8
523.477	8290.81
523.843	8343.02
524.21	8321.55
524.577	8308.67
524.943	8384.14
525.31	8377.59
525.676	8374.65
526.043	8342.11
526.409	8439.96
526.776	8451.94
527.142	8360.42
527.508	8398.15
527.874	8444.93
528.241	8430.92
528.607	8367.42
528.973	8412.17
529.339	8378.04
529.705	8488.32
530.071	8428.21
530.437	8442.45
530.803	8448.55
531.169	8457.59
531.535	8472.5
531.901	8408.55
532.267	8404.03
532.632	8468.44
532.998	8386.4
533.364	8384.6
533.73	8373.75
534.095	8358.83
534.461	8319.96
534.826	8403.58
535.192	8391.15
535.557	8411.49
535.923	8326.07
536.288	8416.23
536.653	8346.63
537.019	8263.7
537.384	8327.2
537.749	8314.32
538.114	8256.92
538.479	8231.15
538.845	8209.23
539.21	8191.61
539.575	8172.4
539.94	8196.8
540.305	8166.52
540.67	8103.47
541.034	8129.69
541.399	8065.51
541.764	8072.97
542.129	8090.37
542.494	8104.83
542.858	8027.09
543.223	8032.74
543.587	8062.12
543.952	8023.7
544.316	8004.72
544.681	7978.05
545.045	7970.14
545.41	7960.65
545.774	7884.95
546.138	7903.25
546.503	7839.75
546.867	7793.2
547.231	7906.64
547.595	7836.81
547.959	7793.65
548.324	7704.61
548.688	7736.25
549.052	7790.94
549.416	7709.13
549.779	7672.52
550.143	7620.32
550.507	7693.54
550.871	7632.3
551.235	7633.66
551.599	7672.07
551.962	7585.29
552.326	7610.83
552.689	7547.56
553.053	7519.76
553.417	7520.21
553.78	7576.93
554.143	7521.34
554.507	7433.89
554.87	7430.5
555.234	7475.92
555.597	7433.43
555.96	7440.44
556.323	7408.8
556.686	7416.26
557.05	7400.22
557.413	7453.55
557.776	7370.39
558.139	7380.1
558.502	7364.28
558.865	7391.63
559.228	7384.17
559.59	7321.35
559.953	7345.08
560.316	7455.13
560.679	7391.4
561.041	7393.89
561.404	7425.75
561.767	7383.94
562.129	7321.35
562.492	7404.73
562.854	7389.37
563.217	7377.84
563.579	7372.65
563.941	7388.92
564.304	7405.86
564.666	7402.02
565.028	7410.16
565.39	7396.15
565.753	7456.48
566.115	7468.69
566.477	7418.52
566.839	7397.5
567.201	7454
567.563	7425.98
567.925	7505.52
568.287	7515.01
568.648	7508.69
569.01	7446.77
569.372	7508.23
569.734	7468.69
570.095	7539.19
570.457	7523.38
570.819	7604.96
571.18	7534.45
571.542	7588.68
571.903	7577.84
572.265	7572.87
572.626	7554.79
572.987	7646.54
573.349	7573.54
573.71	7655.35
574.071	7648.12
574.432	7651.28
574.794	7673.43
575.155	7703.71
575.516	7708.23
575.877	7733.77
576.238	7753.65
576.599	7749.13
576.96	7749.13
577.32	7716.14
577.681	7719.53
578.042	7865.97
578.403	7775.12
578.763	7859.19
579.124	7819.41
579.485	7875.91
579.845	7901.9
580.206	7888.79
580.566	7841.33
580.927	7895.57
581.287	7940.99
581.648	7917.49
582.008	7979.86
582.368	7943.93
582.728	7996.36
583.089	8010.82
583.449	8042.91
583.809	8053.53
584.169	8030.48
584.529	8104.6
584.889	8168.1
585.249	8066.86
585.609	8090.14
585.969	8105.96
586.329	8101.44
586.688	8094.89
587.048	8123.81
587.408	8112.51
587.768	8166.07
588.127	8164.71
588.487	8193.19
588.846	8189.8
589.206	8111.83
589.565	8214.43
589.925	8193.64
590.284	8217.14
590.643	8283.13
591.003	8260.53
591.362	8325.39
591.721	8337.37
592.08	8292.17
592.44	8349.12
592.799	8348.21
593.158	8281.77
593.517	8270.25
593.876	8387.99
594.235	8347.31
594.593	8343.24
594.952	8375.33
595.311	8430.47
595.67	8424.59
596.029	8448.1
596.387	8429.57
596.746	8555.66
597.104	8386.4
597.463	8429.34
597.822	8540.3
598.18	8413.97
598.538	8446.97
598.897	8522.45
599.255	8423.24
599.613	8584.82
599.972	8495.78
600.33	8566.06
600.688	8475.89
601.046	8588.43
601.404	8605.83
601.762	8565.83
602.12	8554.99
602.478	8631.14
602.836	8577.59
603.194	8541.88
603.552	8540.98
603.91	8534.2
604.268	8572.16
604.625	8491.26
604.983	8571.03
605.341	8530.81
605.698	8636.79
606.056	8599.73
606.413	8614.65
606.771	8626.62
607.128	8652.39
607.485	8637.24
607.843	8675.66
608.2	8708.66
608.557	8712.27
608.914	8667.98
609.272	8755.66
609.629	8736.68
609.986	8736.68
610.343	8683.8
610.7	8749.33
611.057	8756.11
611.414	8716.11
611.771	8742.55
612.127	8747.52
612.484	8782.33
612.841	8792.49
613.198	8786.62
613.554	8705.04
613.911	8866.17
614.267	8817.35
614.624	8829.1
614.98	8807.41
615.337	8871.81
615.693	8824.13
616.05	8814.19
616.406	8935.09
616.762	8879.5
617.118	8868.2
617.475	8901.19
617.831	8899.38
618.187	8888.54
618.543	8920.18
618.899	8977.57
619.255	8949.33
619.611	8880.4
619.967	8965.82
620.323	8986.39
620.678	8928.99
621.034	8891.02
621.39	8883.57
621.746	8915.66
622.101	9025.03
622.457	8901.42
622.812	8950
623.168	8966.05
623.523	8900.29
623.879	8987.07
624.234	8955.88
624.589	8919.5
624.945	8924.92
625.3	8976.22
625.655	8928.31
626.01	9059.83
626.365	8950.91
626.72	8947.29
627.075	8916.33
627.43	8934.19
627.785	8899.38
628.14	8937.8
628.495	8911.36
628.85	8851.7
629.205	8892.83
629.559	8926.73
629.914	8880.63
630.269	8924.92
630.623	8874.53
630.978	8900.51
631.332	8856.67
631.687	8893.51
632.041	8889.22
632.396	8947.07
632.75	8832.27
633.104	8855.54
633.459	8808.77
633.813	8781.2
634.167	8730.8
634.521	8791.82
634.875	8850.8
635.229	8787.75
635.583	8754.76
635.937	8730.12
636.291	8731.03
636.645	8714.76
636.999	8692.16
637.352	8758.82
637.706	8681.99
638.06	8714.53
638.413	8645.61
638.767	8675.21
639.121	8644.48
639.474	8644.93
639.828	8636.34
640.181	8632.27
640.534	8621.2
640.888	8584.59
641.241	8527.87
641.594	8545.5
641.947	8619.62
642.301	8560.64
642.654	8565.38
643.007	8583.46
643.36	8555.89
643.713	8558.6
644.066	8599.96
644.419	8591.37
644.771	8475.44
645.124	8447.19
645.477	8418.27
645.83	8367.65
646.182	8295.33
646.535	8338.04
646.888	8349.34
647.24	8253.75
647.593	8339.4
647.945	8316.8
648.298	8309.34
648.65	8256.92
649.002	8271.6
649.355	8312.96
649.707	8283.13
650.059	8302.56
650.411	8420.3
650.763	8413.07
651.115	8481.54
651.467	8418.95
651.819	8504.14
652.171	8475.22
652.523	8486.74
652.875	8437.48
653.227	8436.57
653.578	8487.87
653.93	8565.38
654.282	8418.27
654.633	8472.5
654.985	8494.88
655.337	8548.66
655.688	8488.55
656.039	8500.75
656.391	8406.52
656.742	8409.45
657.094	8425.27
657.445	8509.34
657.796	8482.9
658.147	8421.88
658.498	8475.67
658.849	8486.29
659.2	8513.41
659.551	8439.06
659.902	8493.97
660.253	8401.77
660.604	8555.21
660.955	8518.15
661.306	8538.04
661.656	8507.98
662.007	8538.94
662.358	8560.41
662.708	8522.45
663.059	8534.87
663.409	8529
663.76	8599.28
664.11	8542.56
664.461	8605.61
664.811	8594.76
665.161	8581.88
665.511	8552.5
665.862	8531.71
666.212	8571.94
666.562	8595.44
666.912	8529
667.262	8543.69
667.612	8569
667.962	8550.47
668.312	8525.61
668.662	8561.54
669.011	8536.23
669.361	8562.9
669.711	8539.17
670.06	8507.3
670.41	8488.1
670.76	8499.85
671.109	8491.94
671.459	8463.24
671.808	8486.74
672.157	8547.53
672.507	8432.96
672.856	8446.52
673.205	8458.94
673.554	8492.39
673.904	8464.14
674.253	8521.99
674.602	8444.26
674.951	8363.13
675.3	8317.48
675.649	8384.37
675.998	8460.07
676.346	8443.13
676.695	8499.17
677.044	8387.08
677.393	8441.32
677.741	8347.99
678.09	8406.52
678.438	8372.84
678.787	8408.1
679.135	8325.39
679.484	8332.62
679.832	8304.15
680.181	8316.35
680.529	8291.94
680.877	8314.99
681.225	8237.03
681.573	8366.07
681.922	8207.65
682.27	8207.2
682.618	8154.32
682.966	8278.61
683.314	8248.33
683.661	8143.02
684.009	8094.89
684.357	8096.69
684.705	8119.07
685.053	8119.74
685.4	8035.9
685.748	7995.45
686.095	8058.95
686.443	7972.86
686.79	7966.3
687.138	7969.24
687.485	8034.77
687.832	7919.07
688.18	7973.76
688.527	7921.78
688.874	7883.14
689.221	7896.02
689.568	7853.76
689.915	7856.25
690.262	7859.19
690.609	7790.71
690.956	7716.14
691.303	7758.17
691.65	7691.51
691.997	7672.98
692.344	7638.85
692.69	7625.29
693.037	7589.36
693.383	7515.69
693.73	7639.08
694.077	7533.32
694.423	7500.78
694.769	7479.08
695.116	7427.33
695.462	7407.67
695.808	7443.15
696.155	7436.82
696.501	7336.26
696.847	7372.19
697.193	7345.3
697.539	7330.84
697.885	7244.06
698.231	7250.39
698.577	7201.35
698.923	7167.68
699.269	7171.75
699.614	7143.72
699.96	7122.26
700.306	7095.82
700.651	7019.21
700.997	7042.94
701.342	7020.79
701.688	6996.16
702.033	6956.84
702.379	6945.99
702.724	6897.86
703.069	6945.54
703.415	6845.43
703.76	6945.09
704.105	6791.87
704.45	6816.28
704.795	6760.01
705.14	6784.19
705.485	6721.59
705.83	6728.59
706.175	6715.71
706.52	6638.65
706.865	6668.93
707.209	6645.21
707.554	6581.93
707.899	6619.67
708.243	6588.71
708.588	6538.09
708.932	6510.29
709.277	6524.31
709.621	6521.37
709.966	6405.66
710.31	6425.55
710.654	6405.89
710.998	6433.69
711.342	6424.2
711.687	6442.5
712.031	6393.91
712.375	6383.97
712.719	6348.04
713.063	6397.53
713.407	6351.88
713.75	6259.68
714.094	6338.32
714.438	6293.8
714.782	6292
715.125	6179.23
715.469	6252.67
715.812	6219.68
716.156	6237.31
716.499	6210.19
716.843	6200.47
717.186	6166.8
717.53	6151.66
717.873	6182.85
718.216	6143.52
718.559	6144.65
718.902	6141.04
719.246	6125.67
719.589	6131.55
719.932	6041.61
720.275	6079.57
720.617	6116.18
720.96	6090.42
721.303	6096.52
721.646	6078.22
721.989	6034.15
722.331	6082.06
722.674	6046.13
723.016	6021.72
723.359	6087.71
723.701	6010.65
724.044	6012.23
724.386	6004.32
724.729	6031.66
725.071	5965.9
725.413	6014.49
725.755	5984.89
726.097	5998.44
726.439	5998.44
726.782	5970.42
727.124	5955.73
727.465	5995.51
727.807	6007.26
728.149	5925.45
728.491	5974.26
728.833	5967.26
729.175	5980.59
729.516	5996.18
729.858	5940.37
730.199	5974.72
730.541	5959.57
730.882	5927.94
731.224	6046.8
731.565	5907.82
731.906	5932.01
732.248	5917.99
732.589	5940.59
732.93	5935.62
733.271	5924.32
733.612	5953.93
733.953	5944.66
734.294	5947.15
734.635	5946.92
734.976	5953.7
735.317	5970.87
735.658	5937.65
735.999	5976.07
736.339	5993.47
736.68	6016.75
737.021	5982.63
737.361	5988.05
737.702	6018.1
738.042	5979.24
738.383	5946.02
738.723	6029.18
739.063	6003.42
739.404	6018.1
739.744	6063.3
740.084	6075.28
740.424	6064.2
740.764	6032.57
741.104	6118.67
741.444	6043.41
741.784	6116.86
742.124	6081.61
742.464	6131.1
742.804	6149.4
743.143	6142.62
743.483	6147.14
743.823	6196.63
744.162	6197.99
744.502	6256.97
744.841	6283.86
745.181	6363.86
745.52	6277.31
745.86	6315.05
746.199	6367.25
746.538	6415.16
746.877	6440.47
747.216	6519.56
747.556	6593
747.895	6599.78
748.234	6605.21
748.573	6637.75
748.911	6712.32
749.25	6758.65
749.589	6779.67
749.928	6879.1
750.267	7013.33
750.605	7001.13
750.944	7103.05
751.283	7149.6
751.621	7226.89
751.96	7270.95
752.298	7396.15
752.636	7426.88
752.975	7509.59
753.313	7661.45
753.651	7793.65
753.989	7882.46
754.327	7924.27
754.666	8056.47
755.004	8134.43
755.342	8342.79
755.679	8434.09
756.017	8556.79
756.355	8649
756.693	8747.75
757.031	8959.95
757.368	9016.44
757.706	9147.74
758.044	9275.87
758.381	9514.28
758.719	9591.57
759.056	9701.4
759.394	9863.2
759.731	10006.93
760.068	10191.78
760.405	10281.5
760.743	10441.04
761.08	10646.46
761.417	10714.48
761.754	11012.55
762.091	11139.55
762.428	11281.92
762.765	11401.01
763.102	11650.72
763.438	11716.71
763.775	11910.15
764.112	12093.88
764.449	12336.58
764.785	12438.73
765.122	12554.88
765.458	12676.91
765.795	12870.58
766.131	13008.2
766.467	13237.58
766.804	13307.4
767.14	13379.72
767.476	13530.22
767.812	13709.88
768.148	13947.61
768.485	14051.34
768.821	14078.01
769.157	14302.41
