Data from hue_50_FLMS001491_14.txt Node
Date: Mon Feb 06 15:09:40 GMT 2017
User: dcchb
Spectrometer: FLMS00149
Trigger mode: 0
Integration Time (sec): 2.000000E-2
Scans to average: 10
Electric dark correction enabled: true
Nonlinearity correction enabled: false
Boxcar width: 0
XAxis mode: Wavelengths
Number of Pixels in Spectrum: 2048
>>>>>Begin Spectral Data<<<<<
341.393	-16.14
341.776	-16.14
342.16	-16.14
342.543	-65.86
342.927	-76.93
343.31	-83.03
343.693	-81.45
344.077	-55.69
344.46	-71.74
344.843	-46.88
345.226	-52.3
345.61	-34.9
345.993	-9.59
346.376	5.1
346.759	11.2
347.142	33.35
347.525	53.23
347.908	38.09
348.291	85.32
348.674	98.88
349.057	110.41
349.44	126.45
349.823	120.58
350.206	168.71
350.588	173
350.971	222.27
351.354	241.25
351.737	236.51
352.119	274.02
352.502	251.19
352.884	263.85
353.267	294.36
353.65	296.16
354.032	279.89
354.414	290.74
354.797	308.59
355.179	327.58
355.562	340.68
355.944	340.01
356.326	327.35
356.709	337.97
357.091	339.33
357.473	341.59
357.855	345.65
358.238	344.75
358.62	337.07
359.002	323.51
359.384	341.14
359.766	342.72
360.148	339.1
360.53	330.06
360.912	355.15
361.294	329.16
361.676	352.43
362.057	333.68
362.439	326.9
362.821	337.52
363.203	313.34
363.584	308.82
363.966	329.16
364.348	314.7
364.729	323.73
365.111	321.25
365.493	301.14
365.874	334.13
366.256	324.41
366.637	337.97
367.019	306.79
367.4	332.1
367.781	306.33
368.163	342.72
368.544	318.31
368.925	315.15
369.306	335.94
369.688	322.6
370.069	324.64
370.45	299.78
370.831	294.58
371.212	313.11
371.593	308.14
371.974	323.06
372.355	321.47
372.736	310.85
373.117	309.95
373.498	334.58
373.879	311.31
374.26	333.9
374.641	305.88
375.021	325.09
375.402	322.38
375.783	320.8
376.163	301.36
376.544	322.38
376.925	322.83
377.305	328.71
377.686	328.93
378.066	334.13
378.447	333
378.827	318.08
379.208	333
379.588	316.5
379.968	332.77
380.349	327.12
380.729	324.64
381.109	324.86
381.489	336.16
381.87	340.23
382.25	328.03
382.63	337.07
383.01	327.8
383.39	353.56
383.77	325.09
384.15	336.16
384.53	346.78
384.91	342.04
385.29	367.12
385.67	333.23
386.049	340.91
386.429	341.14
386.809	331.87
387.189	328.93
387.568	344.07
387.948	359.44
388.328	344.52
388.707	351.08
389.087	333.45
389.466	355.82
389.846	352.43
390.225	351.3
390.605	368.25
390.984	358.31
391.363	353.11
391.743	371.64
392.122	362.6
392.501	364.41
392.881	372.32
393.26	349.04
393.639	361.25
394.018	364.19
394.397	349.5
394.776	368.93
395.155	374.13
395.534	373.45
395.913	361.7
396.292	363.73
396.671	364.41
397.05	360.34
397.429	360.8
397.808	365.09
398.186	400.79
398.565	363.06
398.944	377.07
399.323	385.88
399.701	386.33
400.08	386.56
400.458	398.31
400.837	393.56
401.215	391.98
401.594	371.42
401.972	376.39
402.351	386.33
402.729	394.02
403.107	380.46
403.486	381.81
403.864	381.36
404.242	384.07
404.62	381.36
404.999	405.31
405.377	406.22
405.755	391.08
406.133	369.38
406.511	411.42
406.889	406.67
407.267	396.95
407.645	428.36
408.023	400.57
408.401	388.59
408.779	410.51
409.156	421.58
409.534	427.46
409.912	415.48
410.29	431.08
410.667	415.48
411.045	428.82
411.422	431.98
411.8	455.93
412.178	422.49
412.555	435.6
412.933	429.72
413.31	435.6
413.687	447.8
414.065	456.61
414.442	438.08
414.819	455.26
415.197	440.79
415.574	437.4
415.951	461.58
416.328	460.68
416.705	465.65
417.082	463.84
417.46	457.97
417.837	455.93
418.214	455.03
418.591	459.1
418.967	464.3
419.344	475.14
419.721	467.69
420.098	464.3
420.475	483.05
420.852	486.22
421.228	506.1
421.605	488.48
421.982	512.88
422.358	506.78
422.735	506.33
423.111	516.27
423.488	495.71
423.864	490.96
424.241	499.32
424.617	516.5
424.994	507.68
425.37	502.94
425.746	496.16
426.123	528.02
426.499	530.73
426.875	512.66
427.251	501.36
427.627	532.99
428.003	528.7
428.379	555.82
428.756	543.84
429.132	556.27
429.507	551.98
429.883	570.28
430.259	576.61
430.635	567.34
431.011	544.75
431.387	550.17
431.763	595.37
432.138	573.9
432.514	573.22
432.89	602.82
433.265	588.81
433.641	597.4
434.016	584.74
434.392	591.52
434.767	582.71
435.143	606.66
435.518	619.09
435.894	595.59
436.269	623.39
436.644	624.74
437.02	620.9
437.395	616.38
437.77	625.65
438.145	636.49
438.52	652.99
438.895	635.82
439.271	635.14
439.646	673.1
440.021	648.92
440.395	661.8
440.77	649.38
441.145	661.8
441.52	666.1
441.895	678.98
442.27	655.7
442.645	664.74
443.019	674.01
443.394	704.74
443.769	708.13
444.143	696.61
444.518	689.6
444.892	707
445.267	700.9
445.641	710.16
446.016	724.85
446.39	713.78
446.764	714.01
447.139	736.38
447.513	724.85
447.887	729.6
448.262	721.24
448.636	755.14
449.01	744.97
449.384	754.91
449.758	737.28
450.132	744.06
450.506	756.27
450.88	747.9
451.254	763.27
451.628	776.15
452.002	779.54
452.376	780.45
452.75	798.3
453.123	786.1
453.497	796.94
453.871	797.85
454.244	815.92
454.618	804.17
454.992	829.03
455.365	825.87
455.739	835.36
456.112	850.73
456.486	860.22
456.859	887.11
457.232	878.52
457.606	868.8
457.979	878.3
458.352	900.22
458.725	895.7
459.099	916.26
459.472	919.88
459.845	943.15
460.218	930.5
460.591	968.46
460.964	944.06
461.337	962.36
461.71	998.97
462.083	1007.78
462.456	985.19
462.829	1024.51
463.201	1015.47
463.574	1049.82
463.947	1038.97
464.32	1024.96
464.692	1076.03
465.065	1079.42
465.438	1099.76
465.81	1107.22
466.183	1116.93
466.555	1142.02
466.928	1134.11
467.3	1152.87
467.672	1177.05
468.045	1242.81
468.417	1209.13
468.789	1239.42
469.161	1254.11
469.534	1261.56
469.906	1250.26
470.278	1332.75
470.65	1342.92
471.022	1345.18
471.394	1378.85
471.766	1409.58
472.138	1431.73
472.51	1457.94
472.882	1479.18
473.253	1526.41
473.625	1584.27
473.997	1588.56
474.369	1593.53
474.74	1626.75
475.112	1690.93
475.484	1711.27
475.855	1765.96
476.227	1798.05
476.598	1869.91
476.97	1877.82
477.341	1968.21
477.713	2006.63
478.084	2055.89
478.455	2091.15
478.827	2135.89
479.198	2224.48
479.569	2227.64
479.94	2353.51
480.311	2386.96
480.682	2452.27
481.053	2533.62
481.424	2653.62
481.795	2715.08
482.166	2772.71
482.537	2823.1
482.908	2939.94
483.279	3018.35
483.65	3142.64
484.021	3169.54
484.391	3264.45
484.762	3371.56
485.133	3385.8
485.503	3551.67
485.874	3666.02
486.244	3710.09
486.615	3858.33
486.985	3941.04
487.356	4092.45
487.726	4159.79
488.097	4327.24
488.467	4397.75
488.837	4506.45
489.207	4645.43
489.578	4785.31
489.948	4865.99
490.318	5017.62
490.688	5158.18
491.058	5247.9
491.428	5390.72
491.798	5444.28
492.168	5672.97
492.538	5740.99
492.908	5898.28
493.278	6061.89
493.648	6145.5
494.017	6302.79
494.387	6400.41
494.757	6464.59
495.126	6667.07
495.496	6733.74
495.866	6902.77
496.235	7001.52
496.605	7127.62
496.974	7295.98
497.344	7373.72
497.713	7513.6
498.082	7619.36
498.452	7832.24
498.821	7852.8
499.19	7999.24
499.559	8149.97
499.928	8250.53
500.298	8389.96
500.667	8570.52
501.036	8513.35
501.405	8709.5
501.774	8771.65
502.143	8910.4
502.512	9048.7
502.88	9184.74
503.249	9263.84
503.618	9375.25
503.987	9435.81
504.356	9636.71
504.724	9606.65
505.093	9804.39
505.462	9823.6
505.83	9959.87
506.199	10063.59
506.567	10325.73
506.936	10286.41
507.304	10509.68
507.672	10601.2
508.041	10637.81
508.409	10761.88
508.777	10861.31
509.145	10977.47
509.514	10961.42
509.882	11122.32
510.25	11256.78
510.618	11339.04
510.986	11491.12
511.354	11580.61
511.722	11721.85
512.09	11798.69
512.458	11859.48
512.826	11945.35
513.193	12039.13
513.561	12078
513.929	12270.54
514.297	12407.94
514.664	12484.54
515.032	12489.29
515.4	12653.13
515.767	12721.15
516.135	12844.99
516.502	12752.11
516.869	13024.42
517.237	13156.39
517.604	13145.54
517.972	13251.76
518.339	13416.95
518.706	13456.04
519.073	13587.34
519.44	13679.32
519.808	13826.43
520.175	13815.36
520.542	13999.98
520.909	14144.39
521.276	14114.78
521.643	14323.37
522.009	14331.5
522.376	14436.13
522.743	14613.98
523.11	14674.32
523.477	14870.24
523.843	14877.93
524.21	15133.06
524.577	15284.92
524.943	15306.17
525.31	15401.98
525.676	15528.31
526.043	15578.25
526.409	15723.56
526.776	15914.51
527.142	15958.58
527.508	16095.98
527.874	16166.03
528.241	16303.43
528.607	16309.75
528.973	16523.53
529.339	16519.47
529.705	16686.69
530.071	16781.83
530.437	16944.54
530.803	17032.22
531.169	17164.87
531.535	17163.97
531.901	17238.77
532.267	17288.03
532.632	17393.57
532.998	17349.73
533.364	17627.91
533.73	17645.31
534.095	17787
534.461	17916.94
534.826	17954.91
535.192	17914.23
535.557	18133.21
535.923	18115.36
536.288	18139.09
536.653	18271.51
537.019	18196.48
537.384	18378.63
537.749	18517.83
538.114	18443.94
538.479	18606.19
538.845	18677.6
539.21	18710.14
539.575	18654.1
539.94	18793.08
540.305	18956.46
540.67	18891.61
541.034	19051.38
541.399	19076.91
541.764	19224.71
542.129	19294.99
542.494	19265.61
542.858	19335.44
543.223	19475.32
543.587	19556.68
543.952	19528.88
544.316	19597.8
544.681	19596.67
545.045	19806.16
545.41	19838.48
545.774	19946.5
546.138	19891.58
546.503	20067.85
546.867	20102.65
547.231	20130.9
547.595	20214.96
547.959	20224.23
548.324	20281.85
548.688	20335.41
549.052	20417.67
549.416	20551.45
549.779	20468.52
550.143	20641.17
550.507	20750.77
550.871	20780.37
551.235	20800.26
551.599	20888.84
551.962	21035.73
552.326	21016.75
552.689	21178.33
553.053	21149.4
553.417	21213.58
553.78	21523.4
554.143	21417.64
554.507	21580.12
554.87	21618.09
555.234	21722.49
555.597	21759.1
555.96	21855.15
556.323	21990.28
556.686	21954.8
557.05	22120
557.413	22271.18
557.776	22147.34
558.139	22338.07
558.502	22443.15
558.865	22469.82
559.228	22683.6
559.59	22643.15
559.953	22594.56
560.316	22975.57
560.679	22865.51
561.041	23083.81
561.404	23083.81
561.767	23307.08
562.129	23216.69
562.492	23536.91
562.854	23466.18
563.217	23544.82
563.579	23571.26
563.941	23818.26
564.304	23926.73
564.666	24046.73
565.028	23957.24
565.39	24247.63
565.753	24215.76
566.115	24314.97
566.477	24405.81
566.839	24519.71
567.201	24689.65
567.563	24646.26
567.925	24847.16
568.287	24841.28
568.648	24947.95
569.01	25160.14
569.372	25265
569.734	25175.74
570.095	25378.67
570.457	25589.51
570.819	25613.69
571.18	25554.03
571.542	25722.61
571.903	25879.45
572.265	25953.12
572.626	25949.05
572.987	25975.49
573.349	26184.52
573.71	26204.41
574.071	26282.83
574.432	26436.72
574.794	26542.71
575.155	26542.93
575.516	26584.51
575.877	26746.09
576.238	26834.68
576.599	26989.25
576.96	27084.16
577.32	27101.79
577.681	27243.93
578.042	27357.6
578.403	27385.85
578.763	27451.83
579.124	27511.49
579.485	27721.43
579.845	27793.52
580.206	27804.37
580.566	27884.82
580.927	27907.19
581.287	28269.89
581.648	28226.5
582.008	28339.49
582.368	28299.72
582.728	28532.71
583.089	28526.38
583.449	28665.36
583.809	28739.94
584.169	28915.07
584.529	28936.77
584.889	29290.43
585.249	29035.07
585.609	29125.24
585.969	29358.68
586.329	29286.59
586.688	29482.97
587.048	29418.11
587.408	29595.73
587.768	29686.8
588.127	29767.25
588.487	29713.24
588.846	30082.5
589.206	29957.53
589.565	30073.23
589.925	30260.12
590.284	30303.74
590.643	30456.28
591.003	30600.45
591.362	30710.05
591.721	30717.06
592.08	30806.32
592.44	30987.79
592.799	31101.46
593.158	31082.7
593.517	31217.16
593.876	31298.06
594.235	31225.07
594.593	31426.65
594.952	31617.37
595.311	31583.7
595.67	31649.24
596.029	31866.86
596.387	32034.77
596.746	32221.2
597.104	32070.02
597.463	32170.58
597.822	32328.54
598.18	32314.08
598.538	32441.76
598.897	32423
599.255	32468.65
599.613	32968.98
599.972	32791.58
600.33	32925.82
600.688	32841.75
601.046	33096.21
601.404	33187.05
601.762	33126.71
602.12	33439.02
602.478	33325.35
602.836	33508.85
603.194	33417.55
603.552	33459.59
603.91	33507.72
604.268	33575.06
604.625	33707.72
604.983	33822.97
605.341	33651.67
605.698	33962.17
606.056	34094.37
606.413	34064.09
606.771	34367.81
607.128	34248.49
607.485	34239.68
607.843	34496.4
608.2	34597.18
608.557	34705.66
608.914	34581.59
609.272	34810.74
609.629	34815.03
609.986	35041.01
610.343	35065.19
610.7	35171.18
611.057	35246.21
611.414	35109.03
611.771	35167.56
612.127	35356.94
612.484	35389.71
612.841	35570.72
613.198	35400.78
613.554	35481
613.911	35832.41
614.267	35628.57
614.624	35732.97
614.98	35746.76
615.337	36043.47
615.693	36050.7
616.05	35849.13
616.406	36269.68
616.762	36102.23
617.118	36150.59
617.475	36152.62
617.831	36496.79
618.187	36466.29
618.543	36374.09
618.899	36666.06
619.255	36717.13
619.611	36668.77
619.967	36815.66
620.323	36932.72
620.678	36753.74
621.034	36776.34
621.39	36756.45
621.746	36831.93
622.101	37131.58
622.457	36934.3
622.812	37110.11
623.168	37104.01
623.523	37135.65
623.879	37242.09
624.234	36956.44
624.589	37324.57
624.945	37326.83
625.3	37264.91
625.655	37368.41
626.01	37359.6
626.365	37362.53
626.72	37256.1
627.075	37383.78
627.43	37411.8
627.785	37344.46
628.14	37519.37
628.495	37457.45
628.85	37426.71
629.205	37400.95
629.559	37596.2
629.914	37453.83
630.269	37413.83
630.623	37258.81
630.978	37194.4
631.332	37483.89
631.687	37610.21
632.041	37343.33
632.396	37527.5
632.75	37341.07
633.104	37479.82
633.459	37211.13
633.813	37269.66
634.167	37378.35
634.521	37145.82
634.875	37270.56
635.229	37266.27
635.583	37078.47
635.937	37151.92
636.291	37075.08
636.645	37114.41
636.999	37059.27
637.352	37241.86
637.706	37011.36
638.06	37125.03
638.413	37083.9
638.767	36970.23
639.121	37113.95
639.474	36754.41
639.828	36948.76
640.181	37037.8
640.534	36940.17
640.888	36889.78
641.241	36756.45
641.594	36675.55
641.947	36932.04
642.301	36791.93
642.654	36904.69
643.007	36761.42
643.36	36854.53
643.713	36714.19
644.066	36780.4
644.419	36697.02
644.771	36291.38
645.124	36011.16
645.477	35986.3
645.83	35777.27
646.182	35746.08
646.535	35701.11
646.888	35631.28
647.24	35517.16
647.593	35687.32
647.945	35565.75
648.298	35492.3
648.65	35373.66
649.002	35309.03
649.355	35515.13
649.707	35357.84
650.059	35582.02
650.411	35941.55
650.763	36015.45
651.115	36343.13
651.467	36186.29
651.819	36164.37
652.171	36110.82
652.523	36063.36
652.875	36120.53
653.227	35917.37
653.578	36211.6
653.93	36096.81
654.282	35991.72
654.633	35912.63
654.985	35926.87
655.337	35953.98
655.688	35885.96
656.039	36004.38
656.391	35784.72
656.742	35802.8
657.094	35702.69
657.445	35987.66
657.796	35897.26
658.147	35805.74
658.498	35811.39
658.849	35839.86
659.2	35784.95
659.551	35810.26
659.902	35863.82
660.253	35753.09
660.604	35775.68
660.955	35617.04
661.306	35880.54
661.656	35652.52
662.007	35733.42
662.358	35772.29
662.708	35719.64
663.059	35732.52
663.409	35517.61
663.76	35701.79
664.11	35706.31
664.461	35552.41
664.811	35693.2
665.161	35769.36
665.511	35742.69
665.862	35622.02
666.212	35631.51
666.562	35753.54
666.912	35602.13
667.262	35677.83
667.612	35549.7
667.962	35678.29
668.312	35554.9
668.662	35577.72
669.011	35631.05
669.361	35628.12
669.711	35565.29
670.06	35436.94
670.41	35389.93
670.76	35326.88
671.109	35454.56
671.459	35560.32
671.808	35410.04
672.157	35463.38
672.507	35282.14
672.856	35184.29
673.205	35244.62
673.554	35395.35
673.904	35369.82
674.253	35322.81
674.602	35234.23
674.951	34843.96
675.3	34757.41
675.649	35268.35
675.998	35172.31
676.346	35333.21
676.695	35337.96
677.044	34968.47
677.393	35085.31
677.741	35131.41
678.09	35085.98
678.438	35021.58
678.787	35053.44
679.135	35077.4
679.484	34793.11
679.832	35041.47
680.181	34778.42
680.529	34842.15
680.877	34708.14
681.225	34809.16
681.573	34856.16
681.922	34676.96
682.27	34729.16
682.618	34599.9
682.966	34516.51
683.314	34596.28
683.661	34556.05
684.009	34356.96
684.357	34247.14
684.705	34187.48
685.053	34310.19
685.4	34140.02
685.748	34051.44
686.095	34093.92
686.443	33976.63
686.79	33848.5
687.138	33852.8
687.485	33832.46
687.832	33806.24
688.18	33775.51
688.527	33665.68
688.874	33573.71
689.221	33547.95
689.568	33446.25
689.915	33322.41
690.262	33409.19
690.609	33226.15
690.956	33222.08
691.303	33052.59
691.65	33025.47
691.997	33049.2
692.344	32852.6
692.69	32833.61
693.037	32877.23
693.383	32624.58
693.73	32809.21
694.077	32378.94
694.423	32669.32
694.769	32545.71
695.116	32190.69
695.462	32290.8
695.808	32187.53
696.155	32145.95
696.501	32122.22
696.847	32026.4
697.193	31752.96
697.539	31886.97
697.885	31708.9
698.231	31533.08
698.577	31618.05
698.923	31450.37
699.269	31377.16
699.614	31235.46
699.96	31188.46
700.306	31282.92
700.651	30995.47
700.997	30858.07
701.342	30891.29
701.688	30842.25
702.033	30842.93
702.379	30776.49
702.724	30577.85
703.069	30616.27
703.415	30362.27
703.76	30271.65
704.105	30428.93
704.45	30360.46
704.795	30207.24
705.14	30150.29
705.485	30090.64
705.83	29958.21
706.175	29995.5
706.52	29921.83
706.865	29873.47
707.209	29727.71
707.554	29564.1
707.899	29781.49
708.243	29760.02
708.588	29458.11
708.932	29287.94
709.277	29343.76
709.621	29316.42
709.966	29174.73
710.31	29167.5
710.654	28947.16
710.998	28973.83
711.342	29087.72
711.687	28865.36
712.031	28756.21
712.375	28557.57
712.719	28768.64
713.063	28705.14
713.407	28705.59
713.75	28412.49
714.094	28592.37
714.438	28326.16
714.782	28472.6
715.125	28326.16
715.469	28351.02
715.812	28130.91
716.156	28014.31
716.499	27990.13
716.843	28103.12
717.186	27913.07
717.53	28064.47
717.873	28004.59
718.216	27916
718.559	27694.31
718.902	27621.55
719.246	27772.28
719.589	27575.45
719.932	27458.16
720.275	27494.32
720.617	27404.38
720.96	27467.88
721.303	27453.19
721.646	27390.59
721.989	27195.8
722.331	27319.41
722.674	27127.78
723.016	27211.39
723.359	27144.95
723.701	27191.05
724.044	27020.89
724.386	27013.65
724.729	27120.54
725.071	26906.09
725.413	26928.91
725.755	26872.64
726.097	26800.1
726.439	26601.46
726.782	26781.12
727.124	26721.91
727.465	26587.9
727.807	26583.61
728.149	26605.08
728.491	26515.14
728.833	26469.26
729.175	26400.34
729.516	26374.8
729.858	26314.69
730.199	26301.36
730.541	26318.53
730.882	26262.26
731.224	26277.63
731.565	26025.21
731.906	26079.89
732.248	26092.32
732.589	25836.96
732.93	25947.47
733.271	25897.75
733.612	25918.09
733.953	25894.14
734.294	25828.15
734.635	25760.58
734.976	25795.83
735.317	25670.64
735.658	25680.81
735.999	25676.06
736.339	25587.93
736.68	25701.82
737.021	25603.07
737.361	25385.9
737.702	25635.84
738.042	25381.15
738.383	25452.79
738.723	25599.91
739.063	25362.4
739.404	25418.22
739.744	25243.53
740.084	25212.12
740.424	25246.24
740.764	25115.85
741.104	25188.62
741.444	24991.79
741.784	25026.59
742.124	25075.17
742.464	25018.68
742.804	24984.33
743.143	24948.62
743.483	24955.18
743.823	24795.63
744.162	24781.85
744.502	24820.27
744.841	24749.08
745.181	24805.12
745.52	24660.95
745.86	24754.96
746.199	24592.02
746.538	24522.87
746.877	24644
747.216	24619.59
747.556	24522.42
747.895	24488.07
748.234	24422.54
748.573	24386.15
748.911	24363.1
749.25	24281.52
749.589	24201.75
749.928	24220.51
750.267	24279.26
750.605	24157.91
750.944	24039.27
751.283	24032.04
751.621	24020.06
751.96	23902.32
752.298	23814.42
752.636	23884.7
752.975	23796.56
753.313	23650.35
753.651	23848.09
753.989	23678.15
754.327	23631.14
754.666	23450.13
755.004	23499.85
755.342	23573.07
755.679	23449.68
756.017	23356.8
756.355	23456.69
756.693	23262.57
757.031	23218.73
757.368	23157.48
