Data from hue_120_FLMS001491_00051.txt Node
Date: Tue Feb 07 16:59:39 GMT 2017
User: dcchb
Spectrometer: FLMS00149
Trigger mode: 0
Integration Time (sec): 2.000000E-2
Scans to average: 10
Electric dark correction enabled: true
Nonlinearity correction enabled: false
Boxcar width: 0
XAxis mode: Wavelengths
Number of Pixels in Spectrum: 2048
>>>>>Begin Spectral Data<<<<<
341.393	-21.6
341.776	-21.6
342.16	-21.6
342.543	-76.06
342.927	-79.67
343.31	-64.31
343.693	-59.79
344.077	-72.67
344.46	-69.73
344.843	-51.65
345.226	-33.57
345.61	-33.12
345.993	-8.26
346.376	2.36
346.759	12.75
347.142	28.35
347.525	33.54
347.908	67.22
348.291	60.89
348.674	96.14
349.057	91.85
349.44	111.51
349.823	144.5
350.206	155.35
350.588	203.94
350.971	204.16
351.354	231.51
351.737	223.82
352.119	245.52
352.502	269.7
352.884	259.98
353.267	279.87
353.65	266.53
354.032	276.7
354.414	296.59
354.797	281.45
355.179	309.47
355.562	315.12
355.944	324.61
356.326	318.51
356.709	324.16
357.091	324.84
357.473	316.7
357.855	335.01
358.238	344.5
358.62	344.27
359.002	345.63
359.384	347.21
359.766	336.59
360.148	336.81
360.53	328
360.912	311.73
361.294	327.32
361.676	329.58
362.057	338.62
362.439	349.92
362.821	318.28
363.203	320.99
363.584	316.25
363.966	322.35
364.348	316.7
364.729	323.71
365.111	317.83
365.493	309.47
365.874	323.25
366.256	306.53
366.637	324.84
367.019	318.28
367.4	316.7
367.781	302.01
368.163	339.98
368.544	317.6
368.925	312.18
369.306	335.91
369.688	316.47
370.069	314.44
370.45	314.44
370.831	297.94
371.212	322.8
371.593	308.34
371.974	328
372.355	311.05
372.736	301.79
373.117	312.18
373.498	334.1
373.879	310.15
374.26	312.41
374.641	309.24
375.021	320.99
375.402	333.65
375.783	337.94
376.163	322.58
376.544	311.05
376.925	345.85
377.305	318.06
377.686	344.04
378.066	329.36
378.447	333.2
378.827	341.11
379.208	316.47
379.588	330.26
379.968	320.77
380.349	329.36
380.729	327.77
381.109	308.11
381.489	331.39
381.87	341.78
382.25	321.22
382.63	333.42
383.01	342.24
383.39	337.72
383.77	340.88
384.15	331.16
384.53	343.82
384.91	341.33
385.29	361.45
385.67	349.02
386.049	358.06
386.429	367.32
386.809	353.76
387.189	346.53
387.568	356.02
387.948	351.95
388.328	339.98
388.707	336.59
389.087	352.41
389.466	357.15
389.846	346.53
390.225	370.26
390.605	370.26
390.984	371.84
391.363	335.91
391.743	365.51
392.122	386.76
392.501	337.49
392.881	361.45
393.26	369.81
393.639	375.23
394.018	381.33
394.397	366.19
394.776	372.97
395.155	360.54
395.534	367.32
395.913	363.03
396.292	366.19
396.671	364.16
397.05	391.05
397.429	383.82
397.808	379.75
398.186	378.85
398.565	408.45
398.944	375.68
399.323	384.72
399.701	393.31
400.08	381.33
400.458	405.06
400.837	408.45
401.215	415.91
401.594	384.04
401.972	399.41
402.351	413.65
402.729	402.8
403.107	413.2
403.486	418.17
403.864	413.42
404.242	410.48
404.62	415.68
404.999	411.84
405.377	423.14
405.755	424.04
406.133	443.25
406.511	453.42
406.889	410.71
407.267	439.41
407.645	427.21
408.023	436.02
408.401	428.79
408.779	419.07
409.156	447.32
409.534	456.81
409.912	460.43
410.29	465.62
410.667	449.8
411.045	462.69
411.422	466.75
411.8	456.58
412.178	476.24
412.555	457.04
412.933	455.45
413.31	479.86
413.687	473.31
414.065	473.98
414.442	473.98
414.819	483.7
415.197	471.72
415.574	501.55
415.951	480.54
416.328	483.7
416.705	511.05
417.082	504.94
417.46	490.03
417.837	509.46
418.214	503.81
418.591	526.86
418.967	512.85
419.344	517.6
419.721	494.32
420.098	531.61
420.475	509.92
420.852	526.41
421.228	531.84
421.605	530.71
421.982	537.03
422.358	523.93
422.735	572.29
423.111	550.14
423.488	561.44
423.864	568.67
424.241	554.66
424.617	544.94
424.994	559.63
425.37	558.73
425.746	581.33
426.123	585.62
426.499	577.94
426.875	590.14
427.251	584.26
427.627	602.34
428.003	613.42
428.379	593.3
428.756	618.39
429.132	629.69
429.507	628.56
429.883	601.21
430.259	632.62
430.635	617.26
431.011	636.92
431.387	656.35
431.763	627.88
432.138	677.6
432.514	649.57
432.89	666.52
433.265	657.26
433.641	669.91
434.016	668.78
434.392	665.17
434.767	678.27
435.143	687.31
435.518	691.15
435.894	723.7
436.269	698.16
436.644	727.31
437.02	686.86
437.395	713.3
437.77	749.91
438.145	712.85
438.52	743.36
438.895	742.68
439.271	750.36
439.646	758.72
440.021	754.66
440.395	758.95
440.77	780.64
441.145	768.67
441.52	771.15
441.895	779.29
442.27	794.65
442.645	779.51
443.019	807.08
443.394	813.64
443.769	810.7
444.143	779.06
444.518	828.1
444.892	824.94
445.267	819.74
445.641	867.19
446.016	836.24
446.39	819.74
446.764	856.35
447.139	836.69
447.513	837.59
447.887	862
448.262	875.33
448.636	859.29
449.01	878.04
449.384	869.68
449.758	876.46
450.132	889.57
450.506	905.61
450.88	904.71
451.254	889.34
451.628	929.79
452.002	924.37
452.376	942
452.75	942.9
453.123	950.81
453.497	953.29
453.871	935.89
454.244	993.52
454.618	982.22
454.992	985.84
455.365	1018.38
455.739	1012.28
456.112	1030.81
456.486	1041.65
456.859	1047.3
457.232	1062.9
457.606	1056.12
457.979	1086.62
458.352	1098.15
458.725	1085.49
459.099	1108.09
459.472	1139.28
459.845	1141.09
460.218	1142.44
460.591	1192.16
460.964	1159.84
461.337	1186.73
461.71	1210.01
462.083	1213.85
462.456	1232.83
462.829	1233.06
463.201	1257.69
463.574	1253.4
463.947	1280.74
464.32	1290.23
464.692	1291.14
465.065	1338.59
465.438	1353.74
465.81	1388.08
466.183	1412.49
466.555	1415.2
466.928	1433.28
467.3	1451.13
467.672	1439.61
468.045	1505.14
468.417	1508.76
468.789	1530.91
469.161	1576.78
469.534	1596.44
469.906	1604.8
470.278	1630.56
470.65	1632.6
471.022	1693.16
471.394	1723.44
471.766	1753.5
472.138	1786.04
472.51	1826.04
472.882	1834.85
473.253	1867.17
473.625	1914.85
473.997	1955.53
474.369	1994.4
474.74	2012.7
475.112	2062.42
475.484	2114.17
475.855	2174.5
476.227	2193.04
476.598	2286.82
476.97	2341.73
477.341	2383.54
477.713	2461.5
478.084	2465.34
478.455	2580.37
478.827	2660.82
479.198	2728.84
479.569	2779.46
479.94	2851.78
480.311	2925.9
480.682	3044.09
481.053	3135.38
481.424	3201.6
481.795	3272.1
482.166	3310.75
482.537	3422.16
482.908	3508.03
483.279	3618.76
483.65	3705.76
484.021	3807.91
484.391	3896.49
484.762	3963.84
485.133	4081.35
485.503	4214.9
485.874	4325.18
486.244	4402.02
486.615	4554.78
486.985	4662.12
487.356	4793.19
487.726	4871.16
488.097	5009.46
488.467	5112.73
488.837	5277.02
489.207	5395.44
489.578	5506.85
489.948	5572.16
490.318	5785.26
490.688	5865.71
491.058	5988.19
491.428	6147.51
491.798	6259.14
492.168	6438.12
492.538	6501.4
492.908	6707.27
493.278	6839.69
493.648	6888.73
494.017	7057.77
494.387	7143.64
494.757	7285.33
495.126	7473.12
495.496	7519.68
495.866	7634.25
496.235	7815.26
496.605	7939.78
496.974	8008.48
497.344	8090.73
497.713	8250.73
498.082	8337.96
498.452	8464.28
498.821	8564.85
499.19	8659.53
499.559	8796.93
499.928	8907.66
500.298	9011.61
500.667	9166.41
501.036	9177.94
501.405	9260.19
501.774	9323.24
502.143	9475.78
502.512	9564.37
502.88	9663.8
503.249	9680.3
503.618	9768.88
503.987	9850.69
504.356	9962.77
504.724	10056.56
505.093	10068.08
505.462	10168.65
505.83	10234.41
506.199	10363.67
506.567	10441.63
506.936	10484.34
507.304	10656.77
507.672	10680.5
508.041	10735.41
508.409	10775.41
508.777	10892.69
509.145	11019.47
509.514	11047.94
509.882	11036.64
510.25	11091.33
510.618	11191.67
510.986	11208.17
511.354	11297.2
511.722	11417.88
512.09	11452.68
512.458	11504.43
512.826	11506.91
513.193	11541.94
513.561	11613.13
513.929	11712.56
514.297	11720.92
514.664	11779.22
515.032	11792.78
515.4	11914.14
515.767	12003.17
516.135	11996.85
516.502	11901.48
516.869	12008.6
517.237	12053.34
517.604	11969.5
517.972	12149.61
518.339	12185.54
518.706	12187.8
519.073	12193
519.44	12163.17
519.808	12363.84
520.175	12308.48
520.542	12392.32
520.909	12415.14
521.276	12447.46
521.643	12429.38
522.009	12549.37
522.376	12596.38
522.743	12619.65
523.11	12695.13
523.477	12745.75
523.843	12745.75
524.21	12834.34
524.577	12864.85
524.943	12862.59
525.31	12931.74
525.676	12933.32
526.043	12952.98
526.409	12894.9
526.776	13059.19
527.142	13111.17
527.508	13048.57
527.874	13055.8
528.241	13105.07
528.607	13138.28
528.973	13146.65
529.339	13082.92
529.705	13151.84
530.071	13199.75
530.437	13183.71
530.803	13183.93
531.169	13199.07
531.535	13121.34
531.901	13112.97
532.267	13145.06
532.632	13120.43
532.998	13117.27
533.364	13271.39
533.73	13138.51
534.095	13202.92
534.461	13162.92
534.826	13153.88
535.192	13082.24
535.557	13149.58
535.923	13097.38
536.288	13091.51
536.653	13077.5
537.019	13070.04
537.384	13018.06
537.749	12990.94
538.114	12977.16
538.479	12917.73
538.845	12930.38
539.21	12821.23
539.575	12886.99
539.94	12823.72
540.305	12914.34
540.67	12799.76
541.034	12804.96
541.399	12821.68
541.764	12754.57
542.129	12714.57
542.494	12660.56
542.858	12684.51
543.223	12640.67
543.587	12652.2
543.952	12548.47
544.316	12546.89
544.681	12511.63
545.045	12472.77
545.41	12568.58
545.774	12467.79
546.138	12450.62
546.503	12464.4
546.867	12462.6
547.231	12418.76
547.595	12344.18
547.959	12346.44
548.324	12273.67
548.688	12262.83
549.052	12224.18
549.416	12230.74
549.779	12111.42
550.143	12125.43
550.507	12128.82
550.871	12065.32
551.235	11999.11
551.599	12089.05
551.962	12017.41
552.326	11986.9
552.689	12056.28
553.053	11950.29
553.417	11982.61
553.78	12023.29
554.143	11941.93
554.507	11885.66
554.87	11870.3
555.234	11997.3
555.597	11878.2
555.96	11929.28
556.323	11785.1
556.686	11793.24
557.05	11859
557.413	11790.98
557.776	11818.55
558.139	11851.31
558.502	11779.45
558.865	11739.9
559.228	11819.22
559.59	11838.43
559.953	11811.77
560.316	11849.73
560.679	11854.48
561.041	11826.45
561.404	11859.45
561.767	11823.52
562.129	11749.62
562.492	11910.52
562.854	11847.24
563.217	11839.11
563.579	11822.84
563.941	11869.84
564.304	11854.93
564.666	11877.75
565.028	11859.9
565.39	11943.29
565.753	11894.48
566.115	11908.94
566.477	11976.51
566.839	11952.33
567.201	11955.04
567.563	11936.73
567.925	12060.8
568.287	12004.98
568.648	11993.23
569.01	12001.82
569.372	12086.33
569.734	12026.68
570.095	12151.64
570.457	12043.17
570.819	12169.95
571.18	12182.38
571.542	12129.5
571.903	12248.36
572.265	12133.11
572.626	12137.41
572.987	12159.33
573.349	12171.3
573.71	12192.77
574.071	12248.14
574.432	12202.94
574.794	12284.97
575.155	12257.4
575.516	12185.09
575.877	12185.99
576.238	12211.53
576.599	12258.76
576.96	12216.95
577.32	12270.51
577.681	12213.11
578.042	12253.56
578.403	12304.63
578.763	12283.62
579.124	12278.19
579.485	12310.28
579.845	12297.4
580.206	12308.48
580.566	12343.96
580.927	12298.98
581.287	12404.97
581.648	12235.03
582.008	12326.78
582.368	12233.9
582.728	12301.24
583.089	12263.96
583.449	12193.45
583.809	12280.45
584.169	12320.45
584.529	12158.42
584.889	12344.86
585.249	12268.48
585.609	12196.84
585.969	12261.47
586.329	12227.8
586.688	12224.86
587.048	12255.82
587.408	12194.35
587.768	12196.61
588.127	12135.37
588.487	12185.32
588.846	12161.81
589.206	12085.88
589.565	12144.41
589.925	12188.93
590.284	12052.44
590.643	12149.16
591.003	12097.86
591.362	12070.06
591.721	12117.75
592.08	12162.49
592.44	12123.4
592.799	12188.48
593.158	12100.57
593.517	12120.01
593.876	12064.64
594.235	12130.4
594.593	12073
594.952	12070.06
595.311	12063.51
595.67	12070.97
596.029	12094.47
596.387	12096.5
596.746	12133.57
597.104	12058.31
597.463	12043.4
597.822	12031.87
598.18	12009.73
598.538	12020.35
598.897	11977.41
599.255	11980.8
599.613	12143.73
599.972	12096.05
600.33	12062.15
600.688	11966.11
601.046	12065.32
601.404	12126.11
601.762	12056.73
602.12	12058.09
602.478	12029.61
602.836	12099.67
603.194	11975.38
603.552	12057.41
603.91	11906.23
604.268	12094.24
604.625	11985.09
604.983	11998.43
605.341	11986.9
605.698	12010.18
606.056	12093.11
606.413	12052.66
606.771	12124.75
607.128	12089.72
607.485	12024.64
607.843	12060.12
608.2	12033.23
608.557	12207.24
608.914	12112.32
609.272	12129.72
609.629	12192.09
609.986	12067.58
610.343	12065.09
610.7	12151.19
611.057	12178.31
611.414	12076.39
611.771	12124.53
612.127	12233
612.484	12175.6
612.841	12262.83
613.198	12153.23
613.554	12159.1
613.911	12255.82
614.267	12259.44
614.624	12185.32
614.98	12255.82
615.337	12312.54
615.693	12374.46
616.05	12216.27
616.406	12366.33
616.762	12348.47
617.118	12315.48
617.475	12328.59
617.831	12297.63
618.187	12360.9
618.543	12372.88
618.899	12363.62
619.255	12443.16
619.611	12350.96
619.967	12388.93
620.323	12511.63
620.678	12396.61
621.034	12366.55
621.39	12374.24
621.746	12352.54
622.101	12415.59
622.457	12397.51
622.812	12510.96
623.168	12422.15
623.523	12404.07
623.879	12489.49
624.234	12382.6
624.589	12468.7
624.945	12399.09
625.3	12468.7
625.655	12483.16
626.01	12427.12
626.365	12426.44
626.72	12345.99
627.075	12392.54
627.43	12449.72
627.785	12350.51
628.14	12378.3
628.495	12427.79
628.85	12313.67
629.205	12334.24
629.559	12467.79
629.914	12301.47
630.269	12341.7
630.623	12287.01
630.978	12325.88
631.332	12387.8
631.687	12332.66
632.041	12276.16
632.396	12295.37
632.75	12225.31
633.104	12206.56
633.459	12236.61
633.813	12195.48
634.167	12188.93
634.521	12221.92
634.875	12259.89
635.229	12202.49
635.583	12071.65
635.937	12127.46
636.291	12096.73
636.645	12172.66
636.999	12091.31
637.352	12164.07
637.706	12099.22
638.06	12067.35
638.413	11991.65
638.767	12010.18
639.121	12042.72
639.474	11950.07
639.828	11977.64
640.181	12023.51
640.534	12012.66
640.888	11913.91
641.241	11970.41
641.594	11926.56
641.947	11928.37
642.301	11924.98
642.654	11799.34
643.007	11844.76
643.36	11955.72
643.713	11882.27
644.066	11866.91
644.419	11816.51
644.771	11743.97
645.124	11589.85
645.477	11607.7
645.83	11522.51
646.182	11521.38
646.535	11508.5
646.888	11574.26
647.24	11448.84
647.593	11429.4
647.945	11475.73
648.298	11509.17
648.65	11456.97
649.002	11385.79
649.355	11470.76
649.707	11406.8
650.059	11502.85
650.411	11635.73
650.763	11657.19
651.115	11766.57
651.467	11645.67
651.819	11678.44
652.171	11656.29
652.523	11752.11
652.875	11670.75
653.227	11650.41
653.578	11714.59
653.93	11675.95
654.282	11675.95
654.633	11587.36
654.985	11680.92
655.337	11645.89
655.688	11672.56
656.039	11686.35
656.391	11640.92
656.742	11735.38
657.094	11762.95
657.445	11758.89
657.796	11687.48
658.147	11720.47
658.498	11711.43
658.849	11712.56
659.2	11649.06
659.551	11714.14
659.902	11703.75
660.253	11700.36
660.604	11704.2
660.955	11664.88
661.306	11781.48
661.656	11718.43
662.007	11760.92
662.358	11803.86
662.708	11698.32
663.059	11749.62
663.409	11665.1
663.76	11767.02
664.11	11722.28
664.461	11748.94
664.811	11779.9
665.161	11757.53
665.511	11700.58
665.862	11781.03
666.212	11796.4
666.562	11807.02
666.912	11772.9
667.262	11768.83
667.612	11779.9
667.962	11836.85
668.312	11746.23
668.662	11828.49
669.011	11778.09
669.361	11713.46
669.711	11780.35
670.06	11706.23
670.41	11658.78
670.76	11685.22
671.109	11689.74
671.459	11741.26
671.808	11740.13
672.157	11656.97
672.507	11613.13
672.856	11681.6
673.205	11696.51
673.554	11732.9
673.904	11606.12
674.253	11680.92
674.602	11675.27
674.951	11436.63
675.3	11402.74
675.649	11574.71
675.998	11539.23
676.346	11574.26
676.695	11630.53
677.044	11506.46
677.393	11531.77
677.741	11606.12
678.09	11569.06
678.438	11452.68
678.787	11518.67
679.135	11504.2
679.484	11378.56
679.832	11454.94
680.181	11383.53
680.529	11398.44
680.877	11341.95
681.225	11345.79
681.573	11410.42
681.922	11334.26
682.27	11246.13
682.618	11276.19
682.966	11303.08
683.314	11301.27
683.661	11174.49
684.009	11174.27
684.357	11108.73
684.705	11103.31
685.053	11109.41
685.4	11133.82
685.748	10992.13
686.095	11017.21
686.443	11035.06
686.79	10956.87
687.138	11002.3
687.485	10989.19
687.832	10883.43
688.18	10972.01
688.527	10833.26
688.874	10938.79
689.221	10901.73
689.568	10847.27
689.915	10758.46
690.262	10750.55
690.609	10760.49
690.956	10713.49
691.303	10748.29
691.65	10654.28
691.997	10644.34
692.344	10541.52
692.69	10519.82
693.037	10537.45
693.383	10378.13
693.73	10453.16
694.077	10375.19
694.423	10345.14
694.769	10371.8
695.116	10269.89
695.462	10257.23
695.808	10205.93
696.155	10275.99
696.501	10155.54
696.847	10200.73
697.193	10070.34
697.539	10040.96
697.885	10043
698.231	9994.86
698.577	10085.03
698.923	9894.53
699.269	9916.22
699.614	9788.32
699.96	9817.92
700.306	9789.45
700.651	9820.63
700.997	9761.42
701.342	9730.69
701.688	9681.2
702.033	9644.59
702.379	9673.52
702.724	9614.31
703.069	9643.46
703.415	9435.33
703.76	9452.28
704.105	9457.03
704.45	9454.54
704.795	9424.48
705.14	9300.87
705.485	9314.2
705.83	9280.31
706.175	9256.13
706.52	9253.87
706.865	9228.33
707.209	9234.88
707.554	9126.86
707.899	9192.85
708.243	9135.9
708.588	9135.23
708.932	9012.29
709.277	9070.37
709.621	9015.23
709.966	8979.52
710.31	8971.16
710.654	8900.88
710.998	8979.75
711.342	8930.26
711.687	8912.63
712.031	8840.77
712.375	8807.32
712.719	8863.82
713.063	8808.23
713.407	8892.97
713.75	8818.4
714.094	8787.44
714.438	8751.96
714.782	8728
715.125	8743.37
715.469	8717.38
715.812	8662.02
716.156	8603.04
716.499	8640.55
716.843	8648.46
717.186	8557.39
717.53	8633.32
717.873	8603.94
718.216	8590.16
718.559	8566.88
718.902	8525.3
719.246	8549.48
719.589	8493.66
719.932	8496.15
720.275	8476.26
720.617	8464.51
720.96	8503.15
721.303	8481.91
721.646	8490.72
721.989	8471.74
722.331	8493.89
722.674	8424.51
723.016	8407.34
723.359	8424.28
723.701	8450.27
724.044	8353.78
724.386	8375.02
724.729	8361.46
725.071	8420.22
725.413	8339.99
725.755	8358.98
726.097	8312.65
726.439	8273.33
726.782	8341.12
727.124	8264.74
727.465	8325.08
727.807	8294.57
728.149	8322.37
728.491	8316.94
728.833	8282.59
729.175	8202.37
729.516	8220.67
729.858	8282.59
730.199	8278.07
730.541	8208.92
730.882	8213.22
731.224	8258.41
731.565	8198.98
731.906	8186.1
732.248	8265.87
732.589	8167.12
732.93	8150.62
733.271	8217.06
733.612	8191.52
733.953	8188.58
734.294	8222.48
734.635	8197.4
734.976	8255.02
735.317	8232.2
735.658	8227.45
735.999	8214.12
736.339	8199.88
736.68	8242.82
737.021	8259.32
737.361	8125.53
737.702	8243.72
738.042	8248.47
738.383	8169.6
738.723	8293.89
739.063	8242.14
739.404	8248.02
739.744	8302.03
740.084	8256.83
740.424	8284.85
740.764	8341.12
741.104	8297.73
741.444	8305.87
741.784	8312.2
742.124	8342.93
742.464	8347.9
742.804	8367.56
743.143	8368.47
743.483	8345.87
743.823	8401.46
744.162	8462.7
744.502	8485.3
744.841	8443.04
745.181	8558.07
745.52	8546.31
745.86	8539.31
746.199	8601
746.538	8678.74
746.877	8694.33
747.216	8760.55
747.556	8744.5
747.895	8794.22
748.234	8814.56
748.573	8879.64
748.911	8926.19
749.25	8984.27
749.589	8939.98
749.928	9066.53
750.267	9178.84
750.605	9195.56
750.944	9289.57
751.283	9389.68
751.621	9474.43
751.96	9500.19
752.298	9578.6
752.636	9759.84
752.975	9746.28
753.313	9912.15
753.651	9993.06
753.989	10013.39
754.327	10171.13
754.666	10226.27
755.004	10406.83
755.342	10521.4
755.679	10593.94
756.017	10760.49
756.355	10941.73
756.693	10979.02
757.031	11168.39
757.368	11246.13
757.706	11410.65
758.044	11510.98
758.381	11610.42
758.719	11832.33
759.056	11881.37
759.394	12073
759.731	12239.33
760.068	12329.94
