Data from hue_60_FLMS001491_99.txt Node
Date: Mon Feb 06 15:18:14 GMT 2017
User: dcchb
Spectrometer: FLMS00149
Trigger mode: 0
Integration Time (sec): 2.000000E-2
Scans to average: 10
Electric dark correction enabled: true
Nonlinearity correction enabled: false
Boxcar width: 0
XAxis mode: Wavelengths
Number of Pixels in Spectrum: 2048
>>>>>Begin Spectral Data<<<<<
341.393	-0.03
341.776	-0.03
342.16	-0.03
342.543	-67.6
342.927	-65.56
343.31	-63.53
343.693	-60.37
344.077	-63.08
344.46	-45.22
344.843	-77.54
345.226	-30.54
345.61	-28.73
345.993	-19.24
346.376	-1.38
346.759	2.01
347.142	34.77
347.525	21.67
347.908	71.38
348.291	68.44
348.674	76.35
349.057	115
349.44	134.21
349.823	153.41
350.206	161.78
350.588	218.05
350.971	203.81
351.354	214.2
351.737	250.59
352.119	256.91
352.502	296.46
352.884	296.91
353.267	290.36
353.65	283.58
354.032	306.4
354.414	310.25
354.797	314.09
355.179	334.65
355.562	320.42
355.944	328.78
356.326	341.66
356.709	328.55
357.091	332.84
357.473	341.21
357.855	350.7
358.238	352.5
358.62	353.86
359.002	367.42
359.384	335.78
359.766	346.86
360.148	334.65
360.53	345.73
360.912	359.51
361.294	338.04
361.676	307.99
362.057	350.7
362.439	319.29
362.821	325.61
363.203	341.66
363.584	332.17
363.966	326.29
364.348	329
364.729	319.96
365.111	325.61
365.493	315.67
365.874	312.05
366.256	333.3
366.637	312.28
367.019	328.78
367.4	325.16
367.781	324.71
368.163	325.39
368.544	307.76
368.925	312.51
369.306	333.3
369.688	336.23
370.069	315.44
370.45	325.39
370.831	310.47
371.212	324.71
371.593	310.7
371.974	310.92
372.355	339.4
372.736	312.51
373.117	314.77
373.498	332.17
373.879	324.03
374.26	323.13
374.641	326.52
375.021	320.87
375.402	318.38
375.783	339.17
376.163	310.92
376.544	331.26
376.925	336.69
377.305	330.58
377.686	344.82
378.066	321.55
378.447	339.85
378.827	334.43
379.208	332.39
379.588	340.3
379.968	333.97
380.349	369
380.729	346.63
381.109	362.67
381.489	325.39
381.87	343.24
382.25	344.37
382.63	343.92
383.01	342.11
383.39	339.62
383.77	334.43
384.15	336.91
384.53	348.21
384.91	350.25
385.29	329
385.67	347.53
386.049	381.66
386.429	360.19
386.809	356.12
387.189	375.33
387.568	360.87
387.948	363.58
388.328	373.97
388.707	364.48
389.087	382.11
389.466	349.79
389.846	378.72
390.225	372.39
390.605	382.79
390.984	366.29
391.363	366.52
391.743	380.98
392.122	379.4
392.501	370.13
392.881	370.81
393.26	400.64
393.639	413.97
394.018	394.09
394.397	400.87
394.776	356.8
395.155	399.28
395.534	389.79
395.913	367.87
396.292	399.06
396.671	404.71
397.05	394.76
397.429	386.18
397.808	379.62
398.186	384.59
398.565	400.87
398.944	421.88
399.323	416.68
399.701	409.23
400.08	387.98
400.458	370.81
400.837	411.94
401.215	385.95
401.594	404.25
401.972	418.27
402.351	407.64
402.729	391.83
403.107	394.54
403.486	418.04
403.864	434.76
404.242	423.92
404.62	420.3
404.999	439.06
405.377	407.19
405.755	399.06
406.133	439.28
406.511	466.85
406.889	442.45
407.267	437.47
407.645	434.08
408.023	444.25
408.401	453.97
408.779	468.21
409.156	458.94
409.534	437.47
409.912	449.45
410.29	445.84
410.667	463.46
411.045	472.28
411.422	471.37
411.8	460.75
412.178	486.51
412.555	478.38
412.933	472.95
413.31	485.38
413.687	515.44
414.065	481.54
414.442	494.42
414.819	492.84
415.197	502.33
415.574	500.07
415.951	498.04
416.328	523.12
416.705	515.21
417.082	539.17
417.46	543.69
417.837	540.07
418.214	541.88
418.591	524.93
418.967	512.05
419.344	534.19
419.721	525.16
420.098	550.69
420.475	521.54
420.852	556.34
421.228	540.3
421.605	538.26
421.982	549.34
422.358	563.8
422.735	581.43
423.111	565.15
423.488	578.26
423.864	548.66
424.241	557.7
424.617	575.55
424.994	581.2
425.37	613.97
425.746	576.68
426.123	610.35
426.499	596.79
426.875	614.19
427.251	610.35
427.627	607.19
428.003	626.85
428.379	623.68
428.756	637.47
429.132	618.49
429.507	648.77
429.883	633.4
430.259	635.89
430.635	645.6
431.011	637.7
431.387	647.41
431.763	679.5
432.138	677.02
432.514	682.89
432.89	684.93
433.265	668.65
433.641	711.37
434.016	721.76
434.392	720.86
434.767	728.77
435.143	710.69
435.518	717.92
435.894	734.64
436.269	726.51
436.644	731.25
437.02	749.56
437.395	749.78
437.77	761.99
438.145	765.83
438.52	768.31
438.895	745.04
439.271	772.83
439.646	790.01
440.021	776.22
440.395	781.19
440.77	785.49
441.145	766.73
441.52	813.96
441.895	799.72
442.27	825.71
442.645	813.51
443.019	822.55
443.394	820.74
443.769	807.63
444.143	824.13
444.518	836.33
444.892	829.78
445.267	825.03
445.641	865.49
446.016	854.41
446.39	871.14
446.764	847.63
447.139	863.68
447.513	881.3
447.887	867.97
448.262	873.4
448.636	883.56
449.01	886.05
449.384	888.31
449.758	920.63
450.132	925.6
450.506	947.74
450.88	912.72
451.254	929.66
451.628	931.25
452.002	936.22
452.376	989.78
452.75	938.25
453.123	996.33
453.497	985.48
453.871	969.44
454.244	1011.92
454.618	978.25
454.992	1020.51
455.365	1005.14
455.739	1032.71
456.112	1074.97
456.486	1065.71
456.859	1053.28
457.232	1080.4
457.606	1071.36
457.979	1079.94
458.352	1088.76
458.725	1124.91
459.099	1142.99
459.472	1174.86
459.845	1161.98
460.218	1170.79
460.591	1202.88
460.964	1190
461.337	1231.35
461.71	1242.88
462.083	1237.68
462.456	1257.79
462.829	1274.74
463.201	1279.71
463.574	1283.78
463.947	1348.64
464.32	1346.38
464.692	1355.64
465.065	1377.11
465.438	1408.97
465.81	1428.18
466.183	1409.88
466.555	1457.11
466.928	1472.02
467.3	1465.24
467.672	1493.27
468.045	1535.98
468.417	1568.74
468.789	1579.37
469.161	1614.17
469.534	1620.04
469.906	1659.14
470.278	1685.8
470.65	1725.58
471.022	1727.38
471.394	1764.67
471.766	1804.22
472.138	1849.87
472.51	1883.31
472.882	1912.46
473.253	1954.95
473.625	1976.87
473.997	2044.21
474.369	2065
474.74	2085.34
475.112	2148.84
475.484	2203.3
475.855	2275.39
476.227	2272.91
476.598	2412.34
476.97	2440.13
477.341	2518.1
477.713	2549.51
478.084	2592.9
478.455	2712.22
478.827	2801.25
479.198	2873.79
479.569	2893
479.94	3036.05
480.311	3088.48
480.682	3206.67
481.053	3277.17
481.424	3354.91
481.795	3460.45
482.166	3564.62
482.537	3664.06
482.908	3768.23
483.279	3862.02
483.65	3985.63
484.021	4095.68
484.391	4157.15
484.762	4286.41
485.133	4389.91
485.503	4526.41
485.874	4666.06
486.244	4747.19
486.615	4944.47
486.985	5113.28
487.356	5254.97
487.726	5341.07
488.097	5494.97
488.467	5588.75
488.837	5797.56
489.207	5996.2
489.578	6123.2
489.948	6225.34
490.318	6479.58
490.688	6504.89
491.058	6710.53
491.428	6891.77
491.798	7036.17
492.168	7305.09
492.538	7432.32
492.908	7531.98
493.278	7743.27
493.648	7896.49
494.017	8093.09
494.387	8244.73
494.757	8337.15
495.126	8501.44
495.496	8651.5
495.866	8882.45
496.235	9047.87
496.605	9221.88
496.974	9307.52
497.344	9573.73
497.713	9735.76
498.082	9844.23
498.452	10068.41
498.821	10250.1
499.19	10371.68
499.559	10619.13
499.928	10719.24
500.298	10841.27
500.667	11070.64
501.036	11063.41
501.405	11330.3
501.774	11457.07
502.143	11665.2
502.512	11726.67
502.88	12012.09
503.249	12117.62
503.618	12309.93
503.987	12391.96
504.356	12569.36
504.724	12762.35
505.093	12828.11
505.462	12979.52
505.83	13183.13
506.199	13348.77
506.567	13598.71
506.936	13631.03
507.304	13882.32
507.672	14027.17
508.041	14198.24
508.409	14313.49
508.777	14510.1
509.145	14676.2
509.514	14766.82
509.882	14942.63
510.25	15044.55
510.618	15185.79
510.986	15336.74
511.354	15473.24
511.722	15510.98
512.09	15877.97
512.458	15928.14
512.826	16163.84
513.193	16265.08
513.561	16386.43
513.929	16576.03
514.297	16695.35
514.664	16873.88
515.032	17007.66
515.4	17215.79
515.767	17389.57
516.135	17418.04
516.502	17432.96
516.869	17756.34
517.237	17897.35
517.604	17911.14
517.972	18164.24
518.339	18335.53
518.706	18373.5
519.073	18528.98
519.44	18687.84
519.808	18868.63
520.175	18926.48
520.542	19211.22
520.909	19400.59
521.276	19393.81
521.643	19751.99
522.009	19856.4
522.376	19980.69
522.743	20104.3
523.11	20306.56
523.477	20535.48
523.843	20716.94
524.21	20922.59
524.577	21032.64
524.943	21174.56
525.31	21368.9
525.676	21531.38
526.043	21689.34
526.409	21736.35
526.776	22041.2
527.142	22047.53
527.508	22324.36
527.874	22449.55
528.241	22565.25
528.607	22760.73
528.973	22889.54
529.339	22998.01
529.705	23143.77
530.071	23418.11
530.437	23478.68
530.803	23602.51
531.169	23756.41
531.535	23797.76
531.901	23871.43
532.267	23998.21
532.632	24182.16
532.998	24280.92
533.364	24457.18
533.73	24582.38
534.095	24636.39
534.461	24785.08
534.826	24842.03
535.192	25034.79
535.557	25182.81
535.923	25236.82
536.288	25227.78
536.653	25334.9
537.019	25470.04
537.384	25564.5
537.749	25727.66
538.114	25733.98
538.479	25851.95
538.845	26012.17
539.21	26080.19
539.575	26061.89
539.94	26197.93
540.305	26352.5
540.67	26226.17
541.034	26423.91
541.399	26543.45
541.764	26673.17
542.129	26738.7
542.494	26877.01
542.858	26855.31
543.223	27001.3
543.587	27161.52
543.952	27100.73
544.316	27276.32
544.681	27260.72
545.045	27391.57
545.41	27652.35
545.774	27565.57
546.138	27688.96
546.503	27779.35
546.867	27758.79
547.231	27982.29
547.595	28046.69
547.959	28149.06
548.324	28232
548.688	28218.89
549.052	28429.28
549.416	28377.98
549.779	28435.16
550.143	28577.75
550.507	28825.65
550.871	28872.21
551.235	28872.21
551.599	29083.05
551.962	29081.92
552.326	29168.92
552.689	29305.42
553.053	29274.68
553.417	29429.03
553.78	29760.55
554.143	29717.83
554.507	29857.49
554.87	29928.22
555.234	30113.3
555.597	30069.24
555.96	30116.69
556.323	30298.84
556.686	30449.57
557.05	30548.55
557.413	30704.93
557.776	30844.36
558.139	31031.47
558.502	31086.61
558.865	31174.07
559.228	31421.97
559.59	31412.93
559.953	31574.96
560.316	31854.5
560.679	31812.24
561.041	32009.98
561.404	32198.9
561.767	32377.2
562.129	32380.59
562.492	32648.83
562.854	32729.28
563.217	32670.53
563.579	32805.89
563.941	33065.09
564.304	33121.81
564.666	33339.21
565.028	33444.06
565.39	33509.6
565.753	33772.64
566.115	33867.1
566.477	34092.63
566.839	34106.65
567.201	34289.01
567.563	34415.56
567.925	34513.19
568.287	34566.52
568.648	34796.34
569.01	34902.56
569.372	35178.93
569.734	34966.51
570.095	35306.84
570.457	35307.07
570.819	35446.5
571.18	35440.4
571.542	35665.47
571.903	35738.47
572.265	35868.41
572.626	36067.05
572.987	35972.81
573.349	36243.76
573.71	36247.38
574.071	36336.87
574.432	36627.03
574.794	36777.99
575.155	36757.42
575.516	36535.96
575.877	36720.81
576.238	36883.75
576.599	37110.41
576.96	37117.64
577.32	36994.48
577.681	37175.94
578.042	37365.77
578.403	37310.18
578.763	37389.05
579.124	37526.22
579.485	37619.55
579.845	37644.86
580.206	37476.73
580.566	37616.61
580.927	37684.86
581.287	37909.48
581.648	37737.06
582.008	37952.42
582.368	37790.84
582.728	38019.54
583.089	37904.51
583.449	37911.74
583.809	37971.4
584.169	38108.35
584.529	38070.16
584.889	38345.86
585.249	38051.63
585.609	38018.63
585.969	38230.6
586.329	38250.27
586.688	38305.41
587.048	38174.56
587.408	38173.88
587.768	38287.1
588.127	38223.6
588.487	38205.97
588.846	38469.02
589.206	38124.62
589.565	38297.72
589.925	38438.51
590.284	38330.26
590.643	38351.73
591.003	38453.42
591.362	38541.33
591.721	38451.39
592.08	38480.09
592.44	38620.43
592.799	38542.69
593.158	38542.69
593.517	38537.49
593.876	38554.21
594.235	38601.89
594.593	38706.3
594.952	38826.75
595.311	38563.7
595.67	38712.17
596.029	38976.12
596.387	38823.58
596.746	38893.86
597.104	38737.71
597.463	38794.21
597.822	39043.46
598.18	38927.08
598.538	38780.42
598.897	39138.15
599.255	38717.37
599.613	39391.03
599.972	39106.06
600.33	39202.33
600.688	39093.86
601.046	39291.14
601.404	39461.98
601.762	39237.81
602.12	39441.42
602.478	39445.26
602.836	39543.11
603.194	39405.94
603.552	39439.16
603.91	39541.53
604.268	39594.18
604.625	39474.87
604.983	39750.34
605.341	39426.96
605.698	39656.56
606.056	39891.13
606.413	39777.91
606.771	39979.49
607.128	40117.11
607.485	39902.88
607.843	39966.15
608.2	40356.65
608.557	40397.1
608.914	40108.75
609.272	40432.35
609.629	40555.74
609.986	40686.81
610.343	40515.74
610.7	40729.75
611.057	40647.04
611.414	40669.18
611.771	40846.36
612.127	40831.89
612.484	40997.09
612.841	41139.46
613.198	40938.33
613.554	41110.08
613.911	41308.72
614.267	41310.52
614.624	41186.69
614.98	41368.6
615.337	41555.49
615.693	41481.82
616.05	41389.39
616.406	41740.34
616.762	41554.13
617.118	41532.44
617.475	41608.6
617.831	41771.75
618.187	41857.4
618.543	41854.46
618.899	42039.32
619.255	41978.98
619.611	42101.69
619.967	42215.13
620.323	42302.14
620.678	42091.07
621.034	41998.87
621.39	42037.96
621.746	41998.87
622.101	42487.44
622.457	42306.66
622.812	42286.32
623.168	42457.39
623.523	42436.14
623.879	42478.18
624.234	42278.86
624.589	42430.72
624.945	42509.14
625.3	42657.38
625.655	42439.99
626.01	42687.89
626.365	42752.52
626.72	42489.02
627.075	42662.13
627.43	42654.9
627.785	42595.24
628.14	42712.3
628.495	42715.68
628.85	42723.37
629.205	42585.52
629.559	42788.23
629.914	42610.15
630.269	42728.34
630.623	42566.76
630.978	42482.92
631.332	42716.14
631.687	42723.82
632.041	42623.26
632.396	42815.34
632.75	42551.17
633.104	42629.36
633.459	42506.88
633.813	42502.81
634.167	42520.89
634.521	42466.2
634.875	42550.94
635.229	42451.51
635.583	42342.14
635.937	42287.9
636.291	42247
636.645	42337.84
636.999	42292.65
637.352	42415.13
637.706	42162.93
638.06	42170.84
638.413	42207.9
638.767	42023.27
639.121	42214.68
639.474	41796.84
639.828	42025.53
640.181	42083.38
640.534	42127
640.888	41832.54
641.241	41691.53
641.594	41818.31
641.947	41934.91
642.301	41836.39
642.654	41849.27
643.007	41921.13
643.36	41821.24
643.713	41788.03
644.066	41919.77
644.419	41674.36
644.771	41404.08
645.124	41068.5
645.477	41028.27
645.83	40849.97
646.182	40473.03
646.535	40410.43
646.888	40588.06
647.24	40297.67
647.593	40540.6
647.945	40506.48
648.298	40402.53
648.65	40206.6
649.002	40132.48
649.355	40365.24
649.707	40352.36
650.059	40271.91
650.411	40854.94
650.763	40853.13
651.115	41361.6
651.467	41167.25
651.819	41143.52
652.171	41058.55
652.523	41013.58
652.875	41077.76
653.227	40879.8
653.578	41181.04
653.93	41069.17
654.282	40858.78
654.633	40877.54
654.985	40809.07
655.337	40871.44
655.688	40948.5
656.039	40947.37
656.391	40681.61
656.742	40836.41
657.094	40640.26
657.445	40873.47
657.796	40731.1
658.147	40736.98
658.498	40800.03
658.849	40705.12
659.2	40761.16
659.551	40743.76
659.902	40783.53
660.253	40754.83
660.604	40673.25
660.955	40367.72
661.306	40617.21
661.656	40572.69
662.007	40609.98
662.358	40611.33
662.708	40663.31
663.059	40581.28
663.409	40379.7
663.76	40669.86
664.11	40669.41
664.461	40582.63
664.811	40525.46
665.161	40538.57
665.511	40391.9
665.862	40528.4
666.212	40590.99
666.562	40502.41
666.912	40380.83
667.262	40433.71
667.612	40488.85
667.962	40392.36
668.312	40366.14
668.662	40613.37
669.011	40404.33
669.361	40393.03
669.711	40294.73
670.06	40254.51
670.41	40283.21
670.76	40164.79
671.109	40398.91
671.459	40241.17
671.808	40178.12
672.157	40394.16
672.507	40134.06
672.856	40135.87
673.205	40078.24
673.554	40272.81
673.904	40020.39
674.253	40283.21
674.602	40051.8
674.951	39557.12
675.3	39525.94
675.649	40089.31
675.998	39887.74
676.346	39926.15
676.695	40105.13
677.044	39924.35
677.393	40032.14
677.741	40034.63
678.09	39967.51
678.438	39822.65
678.787	39853.39
679.135	39882.09
679.484	39583.11
679.832	39832.14
680.181	39513.74
680.529	39660.85
680.877	39381.76
681.225	39360.97
681.573	39815.87
681.922	39481.87
682.27	39247.98
682.618	39368.65
682.966	39120.75
683.314	39328.43
683.661	39247.75
684.009	39113.97
684.357	38961.89
684.705	38832.62
685.053	38917.82
685.4	38804.6
685.748	38600.09
686.095	38757.82
686.443	38642.35
686.79	38533.87
687.138	38623.81
687.485	38580.43
687.832	38374.78
688.18	38462.01
688.527	38200.55
688.874	38255.01
689.221	38175.01
689.568	38102.92
689.915	37805.76
690.262	37912.2
690.609	37807.11
690.956	37580.68
691.303	37674.46
691.65	37755.14
691.997	37552.66
692.344	37407.35
692.69	37241.25
693.037	37290.06
693.383	37058.88
693.73	37078.09
694.077	36999.9
694.423	36990.64
694.769	36775.5
695.116	36721.49
695.462	36639.23
695.808	36549.75
696.155	36734.37
696.501	36428.62
696.847	36370.77
697.193	36311.11
697.539	36236.99
697.885	36021.62
698.231	36034.28
698.577	35959.48
698.923	35855.53
699.269	35607.85
699.614	35557.23
699.96	35448.76
700.306	35595.65
700.651	35432.94
700.997	35263.9
701.342	35150.01
701.688	35108.43
702.033	35021.2
702.379	34988.43
702.724	34821.88
703.069	35044.02
703.415	34532.4
703.76	34686.97
704.105	34581.89
704.45	34605.84
704.795	34213.31
705.14	34314.32
705.485	34348
705.83	34152.75
706.175	34160.2
706.52	34124.27
706.865	33989.13
707.209	33830.27
707.554	33856.03
707.899	33868.69
708.243	33562.25
708.588	33535.14
708.932	33324.97
709.277	33312.77
709.621	33375.14
709.966	33043.62
710.31	33221.47
710.654	32930.18
710.998	32926.79
711.342	33065.32
711.687	32958.2
712.031	32821.71
712.375	32626.68
712.719	32789.39
713.063	32640.47
713.407	32735.16
713.75	32426.46
714.094	32450.87
714.438	32399.35
714.782	32364.09
715.125	32238.67
715.469	32332.23
715.812	32099.24
716.156	32095.17
716.499	32005.23
716.843	31977.21
717.186	31716.88
717.53	32014.5
717.873	31856.08
718.216	31753.26
718.559	31643.43
718.902	31432.82
719.246	31521.18
719.589	31478.47
719.932	31446.38
720.275	31348.3
720.617	31235.08
720.96	31173.16
721.303	31129.32
721.646	31137.68
721.989	31011.36
722.331	31154.63
722.674	31055.43
723.016	31003.45
723.359	30883
723.701	31019.27
724.044	30671.26
724.386	30615.44
724.729	30690.01
725.071	30599.85
725.413	30634.87
725.755	30526.63
726.097	30468.55
726.439	30251.38
726.782	30354.88
727.124	30476.68
727.465	30281.44
727.807	30108.11
728.149	30263.58
728.491	30014.1
728.833	30160.99
729.175	30052.06
729.516	29994.89
729.858	29988.11
730.199	29856.59
730.541	29822.01
730.882	29810.49
731.224	29904.04
731.565	29778.85
731.906	29830.37
732.248	29704.05
732.589	29614.79
732.93	29409.14
733.271	29485.3
733.612	29530.95
733.953	29670.6
734.294	29357.17
734.635	29244.17
734.976	29305.87
735.317	29172.76
735.658	29149.49
735.999	29107.45
736.339	29148.81
736.68	29189.94
737.021	29051.41
737.361	28923.96
737.702	29055.48
738.042	28934.8
738.383	28897.52
738.723	28969.83
739.063	28779.33
739.404	28806.67
739.744	28802.38
740.084	28600.58
740.424	28764.64
740.764	28568.94
741.104	28778.88
741.444	28490.07
741.784	28353.58
742.124	28410.98
742.464	28431.54
742.804	28347.93
743.143	28310.64
743.483	28323.97
743.823	28235.84
744.162	28090.98
744.502	28178.44
744.841	28022.29
745.181	28111.77
745.52	28013.02
745.86	28034.49
746.199	27976.19
746.538	27901.84
746.877	27891.89
747.216	27870.88
747.556	27798.56
747.895	27914.49
748.234	27667.94
748.573	27591.11
748.911	27508.4
749.25	27513.37
749.589	27321.51
749.928	27482.19
750.267	27403.09
750.605	27279.03
750.944	27265.02
751.283	27220.72
751.621	27247.39
751.96	27028.19
752.298	27089.88
752.636	27041.75
752.975	27037.23
753.313	26841.98
753.651	27003.78
753.989	26725.37
754.327	26760.85
754.666	26647.18
755.004	26689.44
755.342	26683.34
755.679	26634.98
756.017	26415.32
756.355	26609.44
