Data from hue_220_FLMS001491_00060.txt Node
Date: Tue Feb 07 16:39:40 GMT 2017
User: dcchb
Spectrometer: FLMS00149
Trigger mode: 0
Integration Time (sec): 2.000000E-2
Scans to average: 10
Electric dark correction enabled: true
Nonlinearity correction enabled: false
Boxcar width: 0
XAxis mode: Wavelengths
Number of Pixels in Spectrum: 2048
>>>>>Begin Spectral Data<<<<<
341.393	-7.36
341.776	-7.36
342.16	-7.36
342.543	-65.21
342.927	-68.6
343.31	-51.43
343.693	-62.95
344.077	-70.18
344.46	-61.59
344.843	-60.46
345.226	-55.49
345.61	-16.17
345.993	-21.37
346.376	-10.97
346.759	-4.19
347.142	24.28
347.525	41.45
347.908	57.27
348.291	80.1
348.674	92.98
349.057	118.74
349.44	148.8
349.823	128.01
350.206	160.55
350.588	171.85
350.971	185.86
351.354	238.28
351.737	226.53
352.119	257.27
352.502	252.07
352.884	275.57
353.267	293.2
353.65	288.23
354.032	306.31
354.414	299.98
354.797	301.79
355.179	316.25
355.562	305.63
355.944	327.32
356.326	329.58
356.709	351.95
357.091	325.51
357.473	356.7
357.855	326.87
358.238	343.37
358.62	337.04
359.002	329.13
359.384	330.49
359.766	336.81
360.148	320.09
360.53	348.11
360.912	323.93
361.294	330.71
361.676	325.29
362.057	330.49
362.439	327.32
362.821	324.61
363.203	321.45
363.584	306.98
363.966	316.25
364.348	317.15
364.729	308.57
365.111	322.12
365.493	311.5
365.874	318.73
366.256	297.27
366.637	324.38
367.019	319.86
367.4	302.01
367.781	312.63
368.163	304.5
368.544	298.85
368.925	310.6
369.306	318.51
369.688	329.36
370.069	318.96
370.45	299.98
370.831	297.27
371.212	304.95
371.593	305.63
371.974	307.89
372.355	312.18
372.736	304.95
373.117	307.66
373.498	319.19
373.879	306.31
374.26	308.57
374.641	306.53
375.021	314.44
375.402	328
375.783	324.38
376.163	311.05
376.544	325.97
376.925	314.21
377.305	316.25
377.686	315.57
378.066	316.7
378.447	320.77
378.827	308.34
379.208	349.02
379.588	326.42
379.968	317.15
380.349	333.88
380.729	327.77
381.109	321.22
381.489	330.71
381.87	332.97
382.25	343.59
382.63	325.06
383.01	328.23
383.39	329.58
383.77	326.42
384.15	334.33
384.53	332.52
384.91	347.43
385.29	329.81
385.67	346.98
386.049	335.46
386.429	352.41
386.809	352.63
387.189	354.44
387.568	349.24
387.948	331.16
388.328	350.6
388.707	348.34
389.087	355.8
389.466	333.2
389.846	353.99
390.225	363.71
390.605	352.86
390.984	352.86
391.363	353.76
391.743	370.26
392.122	370.71
392.501	358.73
392.881	379.07
393.26	401.22
393.639	361.22
394.018	374.78
394.397	370.03
394.776	383.82
395.155	386.76
395.534	369.81
395.913	382.91
396.292	356.47
396.671	376.81
397.05	378.85
397.429	370.48
397.808	375
398.186	374.1
398.565	390.82
398.944	389.47
399.323	408
399.701	395.57
400.08	399.41
400.458	388.56
400.837	393.31
401.215	426.08
401.594	427.88
401.972	414.78
402.351	428.79
402.729	421.33
403.107	399.18
403.486	410.26
403.864	438.28
404.242	431.73
404.62	451.61
404.999	408
405.377	431.27
405.755	449.35
406.133	440.77
406.511	441.9
406.889	453.87
407.267	466.08
407.645	464.72
408.023	465.4
408.401	474.21
408.779	478.28
409.156	504.04
409.534	476.02
409.912	503.14
410.29	504.27
410.667	487.32
411.045	497.49
411.422	549.01
411.8	508.56
412.178	539.52
412.555	543.81
412.933	534.55
413.31	582.68
413.687	548.79
414.065	550.59
414.442	558.5
414.819	577.48
415.197	593.98
415.574	592.63
415.951	639.4
416.328	629.91
416.705	629.69
417.082	628.78
417.46	637.6
417.837	619.74
418.214	634.21
418.591	667.88
418.967	664.49
419.344	653.42
419.721	681.21
420.098	679.4
420.475	681.21
420.852	700.42
421.228	726.18
421.605	734.77
421.982	703.36
422.358	730.7
422.735	757.82
423.111	750.59
423.488	785.16
423.864	789.91
424.241	813.18
424.617	821.09
424.994	827.2
425.37	842.34
425.746	863.8
426.123	852.96
426.499	850.7
426.875	869.68
427.251	908.55
427.627	916.46
428.003	911.49
428.379	950.13
428.756	952.16
429.132	953.07
429.507	970.69
429.883	962.56
430.259	1003.69
430.635	987.19
431.011	1005.72
431.387	1022.67
431.763	1037.59
432.138	1041.88
432.514	1092.73
432.89	1089.11
433.265	1100.41
433.641	1125.27
434.016	1106.28
434.392	1163.01
434.767	1170.01
435.143	1187.86
435.518	1208.65
435.894	1238.71
436.269	1261.76
436.644	1284.13
437.02	1292.72
437.395	1328.43
437.77	1350.8
438.145	1327.07
438.52	1350.12
438.895	1366.62
439.271	1401.87
439.646	1424.24
440.021	1413.17
440.395	1455.43
440.77	1468.53
441.145	1490.23
441.52	1513.05
441.895	1525.48
442.27	1524.13
442.645	1535.2
443.019	1594.18
443.394	1564.13
443.769	1566.61
444.143	1624.46
444.518	1635.54
444.892	1650.22
445.267	1645.48
445.641	1651.35
446.016	1679.83
446.39	1694.52
446.764	1703.1
447.139	1714.86
447.513	1723.67
447.887	1731.13
448.262	1745.59
448.636	1781.97
449.01	1797.11
449.384	1804.57
449.758	1799.15
450.132	1821.07
450.506	1847.28
450.88	1828.75
451.254	1856.77
451.628	1863.78
452.002	1897.22
452.376	1894.29
452.75	1937.22
453.123	1946.71
453.497	1960.05
453.871	1975.19
454.244	2000.72
454.618	2060.38
454.992	2077.11
455.365	2040.95
455.739	2093.83
456.112	2118.46
456.486	2103.55
456.859	2133.83
457.232	2195.3
457.606	2165.69
457.979	2235.97
458.352	2278.01
458.725	2271.9
459.099	2286.82
459.472	2321.85
459.845	2351.9
460.218	2385.8
460.591	2404.56
460.964	2378.57
461.337	2436.42
461.71	2471.67
462.083	2488.17
462.456	2499.69
462.829	2504.89
463.201	2561.61
463.574	2550.54
463.947	2613.36
464.32	2656.98
464.692	2665.11
465.065	2668.73
465.438	2694.27
465.81	2732.91
466.183	2772.46
466.555	2833.02
466.928	2836.63
467.3	2845.9
467.672	2859.23
468.045	2928.84
468.417	2954.15
468.789	2964.09
469.161	2996.18
469.534	3078.89
469.906	3097.64
470.278	3160.47
470.65	3135.38
471.022	3169.51
471.394	3286.11
471.766	3289.28
472.138	3324.31
472.51	3346
472.882	3424.42
473.253	3417.18
473.625	3489.5
473.997	3548.48
474.369	3556.84
474.74	3588.25
475.112	3647.69
475.484	3676.16
475.855	3747.8
476.227	3768.14
476.598	3891.3
476.97	3891.07
477.341	3966.55
477.713	4027.11
478.084	4005.19
478.455	4133.1
478.827	4136.49
479.198	4244.51
479.569	4282.02
479.94	4367.67
480.311	4385.29
480.682	4460.32
481.053	4554.56
481.424	4628.9
481.795	4598.62
482.166	4692.63
482.537	4744.38
482.908	4851.72
483.279	4903.7
483.65	4894.89
484.021	5009.68
484.391	5064.15
484.762	5122.68
485.133	5129
485.503	5190.02
485.874	5253.52
486.244	5292.39
486.615	5388.21
486.985	5480.18
487.356	5507.07
487.726	5581.65
488.097	5630.91
488.467	5620.06
488.837	5773.28
489.207	5775.54
489.578	5831.36
489.948	5905.48
490.318	5979.38
490.688	6026.38
491.058	6089.43
491.428	6171.24
491.798	6180.73
492.168	6282.65
492.538	6352.47
492.908	6385.92
493.278	6412.59
493.648	6410.55
494.017	6474.73
494.387	6543.88
494.757	6581.85
495.126	6616.65
495.496	6661.62
495.866	6643.54
496.235	6685.35
496.605	6728.06
496.974	6761.5
497.344	6908.84
497.713	6892.35
498.082	6867.04
498.452	6903.42
498.821	6957.88
499.19	6976.64
499.559	6991.78
499.928	7063.19
500.298	7065.45
500.667	7121.27
501.036	7144.77
501.405	7183.86
501.774	7142.74
502.143	7224.54
502.512	7262.05
502.88	7272.22
503.249	7264.99
503.618	7255.73
503.987	7280.59
504.356	7353.13
504.724	7356.74
505.093	7407.36
505.462	7375.95
505.83	7393.12
506.199	7439.68
506.567	7488.72
506.936	7438.55
507.304	7499.79
507.672	7538.66
508.041	7554.7
508.409	7519.68
508.777	7634.47
509.145	7615.49
509.514	7630.18
509.882	7663.85
510.25	7641.25
510.618	7699.78
510.986	7655.26
511.354	7734.81
511.722	7769.39
512.09	7816.16
512.458	7773.91
512.826	7865.43
513.193	7822.49
513.561	7799.44
513.929	7797.18
514.297	7867.69
514.664	7829.27
515.032	7869.5
515.4	7902.26
515.767	7856.84
516.135	7921.7
516.502	7866.11
516.869	7971.87
517.237	7939.1
517.604	7882.15
517.972	7942.94
518.339	7974.13
518.706	7920.34
519.073	7958.76
519.44	7975.03
519.808	8011.19
520.175	7914.02
520.542	8064.75
520.909	8005.99
521.276	8015.71
521.643	8043.5
522.009	8046.44
522.376	8076.72
522.743	8083.05
523.11	8050.96
523.477	8071.53
523.843	8119.21
524.21	8153.78
524.577	8143.16
524.943	8186.78
525.31	8216.15
525.676	8181.8
526.043	8189.71
526.409	8211.18
526.776	8258.19
527.142	8172.54
527.508	8204.18
527.874	8261.58
528.241	8264.29
528.607	8213.89
528.973	8274.46
529.339	8184.74
529.705	8255.25
530.071	8254.12
530.437	8224.06
530.803	8302.93
531.169	8232.2
531.535	8231.97
531.901	8193.33
532.267	8223.84
532.632	8188.58
532.998	8214.8
533.364	8257.51
533.73	8147.91
534.095	8198.98
534.461	8176.61
534.826	8172.54
535.192	8164.4
535.557	8186.78
535.923	8155.14
536.288	8110.17
536.653	8087.34
537.019	8044.86
537.384	8102.48
537.749	8068.36
538.114	8066.33
538.479	8086.67
538.845	8037.18
539.21	7991.98
539.575	8002.37
539.94	8029.04
540.305	7936.84
540.67	7892.32
541.034	7967.57
541.399	7907.91
541.764	7911.3
542.129	7881.02
542.494	7843.06
542.858	7833.79
543.223	7835.15
543.587	7842.83
543.952	7797.63
544.316	7843.96
544.681	7773.45
545.045	7776.17
545.41	7708.82
545.774	7707.47
546.138	7654.81
546.503	7696.62
546.867	7638.32
547.231	7737.07
547.595	7550.41
547.959	7613.01
548.324	7641.48
548.688	7568.94
549.052	7514.03
549.416	7523.06
549.779	7555.15
550.143	7462.73
550.507	7524.19
550.871	7466.34
551.235	7419.79
551.599	7546.34
551.962	7483.74
552.326	7386.8
552.689	7455.5
553.053	7355.16
553.417	7316.97
553.78	7404.65
554.143	7390.41
554.507	7340.02
554.87	7371.66
555.234	7397.87
555.597	7325.33
555.96	7329.17
556.323	7294.14
556.686	7286.69
557.05	7364.88
557.413	7291.21
557.776	7280.13
558.139	7266.57
558.502	7295.05
558.865	7256.63
559.228	7301.6
559.59	7263.64
559.953	7273.35
560.316	7343.18
560.679	7294.82
561.041	7301.38
561.404	7309.51
561.767	7305.44
562.129	7299.79
562.492	7309.29
562.854	7277.2
563.217	7262.51
563.579	7337.08
563.941	7316.97
564.304	7325.78
564.666	7325.78
565.028	7381.6
565.39	7359.23
565.753	7383.63
566.115	7384.54
566.477	7412.11
566.839	7372.11
567.201	7439.68
567.563	7405.33
567.925	7424.99
568.287	7461.6
568.648	7427.25
569.01	7490.52
569.372	7535.49
569.734	7442.39
570.095	7520.13
570.457	7570.75
570.819	7506.57
571.18	7535.49
571.542	7652.1
571.903	7579.11
572.265	7547.92
572.626	7630.63
572.987	7601.25
573.349	7660.91
573.71	7667.24
574.071	7640.35
574.432	7679.44
574.794	7700.01
575.155	7728.26
575.516	7680.8
575.877	7699.78
576.238	7780.91
576.599	7775.94
576.96	7736.84
577.32	7771.42
577.681	7925.09
578.042	7880.8
578.403	7890.06
578.763	7892.77
579.124	7858.88
579.485	7880.57
579.845	7882.15
580.206	7957.63
580.566	7904.3
580.927	7891.87
581.287	7983.17
581.648	7965.09
582.008	7996.5
582.368	8042.37
582.728	8044.41
583.089	8026.78
583.449	7995.82
583.809	8052.99
584.169	8081.92
584.529	8076.5
584.889	8158.53
585.249	8021.13
585.609	8003.96
585.969	8152.88
586.329	8117.63
586.688	8155.14
587.048	8144.74
587.408	8141.81
587.768	8146.1
588.127	8210.73
588.487	8220.67
588.846	8210.28
589.206	8178.64
589.565	8203.5
589.925	8286.66
590.284	8248.02
590.643	8279.88
591.003	8287.79
591.362	8341.12
591.721	8301.8
592.08	8296.83
592.44	8344.96
592.799	8356.26
593.158	8359.88
593.517	8354
593.876	8395.58
594.235	8350.39
594.593	8395.58
594.952	8385.87
595.311	8384.29
595.67	8367.34
596.029	8491.63
596.387	8462.93
596.746	8492.98
597.104	8462.25
597.463	8426.09
597.822	8483.04
598.18	8444.85
598.538	8443.27
598.897	8484.62
599.255	8479.42
599.613	8535.69
599.972	8508.35
600.33	8486.88
600.688	8496.82
601.046	8490.95
601.404	8519.2
601.762	8619.99
602.12	8632.19
602.478	8544.96
602.836	8599.42
603.194	8529.14
603.552	8568.24
603.91	8542.25
604.268	8600.1
604.625	8547.67
604.983	8595.58
605.341	8554.22
605.698	8585.64
606.056	8501.34
606.413	8619.99
606.771	8677.61
607.128	8607.56
607.485	8589.48
607.843	8634.22
608.2	8628.35
608.557	8689.14
608.914	8679.87
609.272	8709.7
609.629	8714.22
609.986	8708.34
610.343	8675.58
610.7	8754.9
611.057	8731.62
611.414	8714.22
611.771	8723.26
612.127	8714.9
612.484	8733.2
612.841	8777.27
613.198	8794.22
613.554	8815.23
613.911	8818.62
614.267	8809.13
614.624	8758.51
614.98	8814.33
615.337	8831.28
615.693	8811.62
616.05	8805.74
616.406	8840.77
616.762	8780.43
617.118	8816.59
617.475	8796.48
617.831	8853.2
618.187	8885.06
618.543	8915.12
618.899	8928
619.255	8879.64
619.611	8848.68
619.967	8933.65
620.323	8973.87
620.678	8883.71
621.034	8877.38
621.39	8927.55
621.746	8901.79
622.101	9002.8
622.457	8884.61
622.812	8868.34
623.168	8899.75
623.523	8917.6
623.879	8943.59
624.234	8875.35
624.589	8956.25
624.945	8887.55
625.3	8955.8
625.655	8885.74
626.01	8923.93
626.365	8919.41
626.72	8917.15
627.075	8922.35
627.43	8872.63
627.785	8846.65
628.14	8926.19
628.495	8898.62
628.85	8846.65
629.205	8870.15
629.559	8850.94
629.914	8882.35
630.269	8849.13
630.623	8812.07
630.978	8778.17
631.332	8916.47
631.687	8844.84
632.041	8801.68
632.396	8858.85
632.75	8805.74
633.104	8733.43
633.459	8778.17
633.813	8792.41
634.167	8731.85
634.521	8768
634.875	8701.56
635.229	8692.07
635.583	8634.45
635.937	8722.36
636.291	8711.96
636.645	8727.1
636.999	8694.11
637.352	8704.28
637.706	8645.75
638.06	8697.05
638.413	8665.63
638.767	8608.91
639.121	8650.72
639.474	8598.52
639.828	8592.87
640.181	8626.99
640.534	8544.73
640.888	8544.06
641.241	8602.58
641.594	8540.67
641.947	8572.75
642.301	8566.88
642.654	8531.4
643.007	8595.13
643.36	8532.08
643.713	8491.63
644.066	8477.16
644.419	8469.48
644.771	8420.89
645.124	8328.47
645.477	8376.38
645.83	8320.56
646.182	8340.44
646.535	8281.69
646.888	8310.61
647.24	8251.41
647.593	8283.5
647.945	8267.23
648.298	8254.8
648.65	8242.14
649.002	8194.23
649.355	8284.17
649.707	8211.18
650.059	8285.53
650.411	8385.64
650.763	8370.73
651.115	8409.37
651.467	8402.14
651.819	8409.82
652.171	8428.13
652.523	8439.42
652.875	8381.35
653.227	8410.27
653.578	8496.6
653.93	8410.95
654.282	8423.15
654.633	8388.58
654.985	8399.43
655.337	8396.71
655.688	8379.99
656.039	8411.4
656.391	8333.67
656.742	8421.35
657.094	8449.14
657.445	8411.4
657.796	8392.65
658.147	8422.25
658.498	8400.78
658.849	8428.8
659.2	8400.1
659.551	8452.08
659.902	8462.48
660.253	8360.33
660.604	8452.31
660.955	8449.37
661.306	8408.24
661.656	8482.36
662.007	8459.31
662.358	8446.88
662.708	8445.75
663.059	8406.43
663.409	8417.05
663.76	8415.92
664.11	8429.93
664.461	8423.61
664.811	8484.17
665.161	8368.24
665.511	8480.55
665.862	8474.68
666.212	8514.45
666.562	8499.31
666.912	8463.61
667.262	8393.32
667.612	8421.35
667.962	8515.58
668.312	8470.61
668.662	8470.38
669.011	8452.76
669.361	8454.79
669.711	8422.48
670.06	8458.86
670.41	8429.26
670.76	8404.85
671.109	8419.76
671.459	8427.9
671.808	8395.36
672.157	8438.07
672.507	8408.92
672.856	8431.74
673.205	8380.9
673.554	8385.87
673.904	8374.79
674.253	8396.49
674.602	8384.74
674.951	8196.49
675.3	8171.86
675.649	8317.17
675.998	8313.55
676.346	8307
676.695	8336.6
677.044	8284.17
677.393	8272.88
677.741	8276.27
678.09	8271.29
678.438	8259.32
678.787	8307
679.135	8244.4
679.484	8205.53
679.832	8228.81
680.181	8165.31
680.529	8191.75
680.877	8205.76
681.225	8209.6
681.573	8252.54
681.922	8176.38
682.27	8166.89
682.618	8111.75
682.966	8141.81
683.314	8128.92
683.661	8116.95
684.009	8015.71
684.357	8047.8
684.705	8019.32
685.053	7993.34
685.4	8017.29
685.748	7927.8
686.095	7946.56
686.443	7860.68
686.79	7917.86
687.138	7890.51
687.485	7923.96
687.832	7893.22
688.18	7876.73
688.527	7815.03
688.874	7787.01
689.221	7793.57
689.568	7780.23
689.915	7787.69
690.262	7728.48
690.609	7713.57
690.956	7711.53
691.303	7620.92
691.65	7616.62
691.997	7631.31
692.344	7584.98
692.69	7541.37
693.037	7541.37
693.383	7501.14
693.73	7464.54
694.077	7484.87
694.423	7434.93
694.769	7425.44
695.116	7360.81
695.462	7354.26
695.808	7314.03
696.155	7364.43
696.501	7314.26
696.847	7315.61
697.193	7225.22
697.539	7227.71
697.885	7243.75
698.231	7213.69
698.577	7147.71
698.923	7150.19
699.269	7055.96
699.614	7049.63
699.96	6997.2
700.306	6995.4
700.651	7016.41
700.997	6939.8
701.342	6943.65
701.688	6944.1
702.033	6907.26
702.379	6862.52
702.724	6853.03
703.069	6882.4
703.415	6751.79
703.76	6760.15
704.105	6759.02
704.45	6721.5
704.795	6690.54
705.14	6651.9
705.485	6704.1
705.83	6671.34
706.175	6638.12
706.52	6646.7
706.865	6621.85
707.209	6597.89
707.554	6581.39
707.899	6590.66
708.243	6505.46
708.588	6556.76
708.932	6464.34
709.277	6564.9
709.621	6456.88
709.966	6462.53
710.31	6426.37
710.654	6440.61
710.998	6352.93
711.342	6425.92
711.687	6363.32
712.031	6282.42
712.375	6335.75
712.719	6311.8
713.063	6304.79
713.407	6301.18
713.75	6303.44
714.094	6299.59
714.438	6240.16
714.782	6262.53
715.125	6257.79
715.469	6241.74
715.812	6242.87
716.156	6216.21
716.499	6201.74
716.843	6169.2
717.186	6138.24
717.53	6183.89
717.873	6169.65
718.216	6161.29
718.559	6137.56
718.902	6101.63
719.246	6123.78
719.589	6154.97
719.932	6095.53
720.275	6112.93
720.617	6062.99
720.96	6103.67
721.303	6058.47
721.646	6062.54
721.989	6061.86
722.331	6067.51
722.674	6048.08
723.016	6071.13
723.359	6086.49
723.701	6093.05
724.044	6060.28
724.386	6053.27
724.729	6054.4
725.071	6009.66
725.413	5999.04
725.755	6008.53
726.097	6015.99
726.439	5956.78
726.782	6000.85
727.124	6006.04
727.465	5960.39
727.807	5956.1
728.149	5952.26
728.491	5955.65
728.833	5969.43
729.175	5952.94
729.516	5933.28
729.858	5981.86
730.199	5996.33
730.541	5947.74
730.882	5931.69
731.224	5967.63
731.565	5924.46
731.906	5912.03
732.248	5950.9
732.589	5892.37
732.93	5937.57
733.271	5939.6
733.612	5971.02
733.953	5970.79
734.294	5951.13
734.635	5921.75
734.976	5960.62
735.317	5976.89
735.658	5919.49
735.999	5966.72
736.339	5941.41
736.68	5965.37
737.021	5995.2
737.361	5967.63
737.702	5979.6
738.042	6043.33
738.383	5984.57
738.723	6010.56
739.063	5979.38
739.404	6024.57
739.744	5977.79
740.084	6004.46
740.424	6030.45
740.764	6002.65
741.104	6061.86
741.444	6042.2
741.784	6036.32
742.124	6133.27
742.464	6104.12
742.804	6128.3
743.143	6143.67
743.483	6148.41
743.823	6173.27
744.162	6170.56
744.502	6235.87
744.841	6198.81
745.181	6209.88
745.52	6291.23
745.86	6296.66
746.199	6331.01
746.538	6349.99
746.877	6367.62
747.216	6477.89
747.556	6446.71
747.895	6497.56
748.234	6535.97
748.573	6568.51
748.911	6662.52
749.25	6665.01
749.589	6742.97
749.928	6756.98
750.267	6881.05
750.605	6873.59
750.944	6959.46
751.283	7017.99
751.621	7140.48
751.96	7121.04
752.298	7249.85
752.636	7327.36
752.975	7429.28
753.313	7445.55
753.651	7611.65
753.989	7723.74
754.327	7800.57
754.666	7875.15
755.004	7996.72
755.342	8151.52
755.679	8246.44
756.017	8333.21
756.355	8495.69
756.693	8581.79
757.031	8770.49
757.368	8859.07
757.706	8975.68
758.044	9085.51
758.381	9311.94
758.719	9434.88
759.056	9586.06
759.394	9719.84
759.731	9779.28
760.068	9994.64
760.405	10116.9
760.743	10214.07
761.08	10445.47
761.417	10553.27
761.754	10785.58
762.091	10933.6
762.428	11083.65
762.765	11173.36
763.102	11443.64
763.438	11533.58
763.775	11714.82
764.112	11970.41
764.449	12167.24
764.785	12285.43
765.122	12333.11
765.458	12517.28
765.795	12687.22
766.131	12847.22
766.467	13024.62
766.804	13130.83
767.14	13293.76
767.476	13333.53
767.812	13539.86
768.148	13756.12
768.485	13827.76
768.821	13910.02
769.157	14103
