Data from hue_230_FLMS001491_00074.txt Node
Date: Tue Feb 07 16:37:43 GMT 2017
User: dcchb
Spectrometer: FLMS00149
Trigger mode: 0
Integration Time (sec): 2.000000E-2
Scans to average: 10
Electric dark correction enabled: true
Nonlinearity correction enabled: false
Boxcar width: 0
XAxis mode: Wavelengths
Number of Pixels in Spectrum: 2048
>>>>>Begin Spectral Data<<<<<
341.393	-32.2
341.776	-32.2
342.16	-32.2
342.543	-63.84
342.927	-73.78
343.31	-70.85
343.693	-54.8
344.077	-60.22
344.46	-64.74
344.843	-36.27
345.226	-45.99
345.61	-16.61
345.993	-23.62
346.376	0.34
346.759	1.92
347.142	17.74
347.525	46.89
347.908	70.39
348.291	54.12
348.674	71.98
349.057	109.71
349.44	137.06
349.823	163.27
350.206	154.01
350.588	187.68
350.971	187.9
351.354	212.31
351.737	243.95
352.119	225.42
352.502	259.32
352.884	259.54
353.267	277.39
353.65	256.38
354.032	280.78
354.414	301.8
354.797	299.77
355.179	314.46
355.562	316.04
355.944	323.95
356.326	322.36
356.709	336.83
357.091	319.2
357.473	324.4
357.855	339.99
358.238	314.91
358.62	339.77
359.002	325.3
359.384	339.99
359.766	353.78
360.148	330.5
360.53	338.86
360.912	323.49
361.294	342.25
361.676	345.19
362.057	324.17
362.439	319.43
362.821	304.51
363.203	318.97
363.584	320.1
363.966	311.97
364.348	320.56
364.729	281.24
365.111	318.97
365.493	312.42
365.874	316.04
366.256	307.22
366.637	307
367.019	307.68
367.4	305.64
367.781	311.97
368.163	295.47
368.544	302.03
368.925	302.48
369.306	316.71
369.688	303.16
370.069	300.44
370.45	306.09
370.831	309.71
371.212	312.65
371.593	306.55
371.974	295.7
372.355	296.6
372.736	302.03
373.117	318.52
373.498	308.81
373.879	299.09
374.26	299.09
374.641	304.06
375.021	317.62
375.402	309.26
375.783	300.22
376.163	328.01
376.544	322.59
376.925	318.97
377.305	320.78
377.686	303.61
378.066	340.89
378.447	321.91
378.827	323.27
379.208	335.92
379.588	313.1
379.968	327.11
380.349	339.77
380.729	315.58
381.109	331.63
381.489	325.53
381.87	317.17
382.25	316.49
382.63	313.55
383.01	359.88
383.39	344.74
383.77	333.66
384.15	341.8
384.53	352.87
384.91	329.14
385.29	333.66
385.67	351.97
386.049	350.16
386.429	350.39
386.809	344.06
387.189	340.89
387.568	323.04
387.948	335.02
388.328	344.51
388.707	355.81
389.087	345.41
389.466	336.6
389.846	349.48
390.225	371.63
390.605	344.51
390.984	340.89
391.363	359.88
391.743	360.33
392.122	365.3
392.501	353.32
392.881	361.46
393.26	379.54
393.639	366.43
394.018	351.97
394.397	374.79
394.776	382.25
395.155	366.66
395.534	384.74
395.913	373.89
396.292	386.77
396.671	379.54
397.05	382.48
397.429	368.69
397.808	398.29
398.186	371.85
398.565	399.42
398.944	382.93
399.323	385.41
399.701	414.34
400.08	382.7
400.458	392.19
400.837	410.5
401.215	398.75
401.594	401.46
401.972	422.02
402.351	426.54
402.729	410.5
403.107	397.62
403.486	431.29
403.864	451.4
404.242	432.64
404.62	434.9
404.999	443.49
405.377	432.42
405.755	429.25
406.133	454.79
406.511	467.45
406.889	420.67
407.267	442.81
407.645	458.63
408.023	450.04
408.401	446.2
408.779	495.24
409.156	475.58
409.534	464.28
409.912	497.28
410.29	493.66
410.667	506.31
411.045	499.76
411.422	502.47
411.8	513.09
412.178	537.95
412.555	546.99
412.933	554.45
413.31	539.76
413.687	533.43
414.065	544.28
414.442	548.12
414.819	575.47
415.197	558.97
415.574	562.81
415.951	572.3
416.328	588.35
416.705	597.16
417.082	592.87
417.46	590.83
417.837	614.56
418.214	642.81
418.591	624.96
418.967	587.89
419.344	659.08
419.721	641.45
420.098	650.27
420.475	649.14
420.852	660.43
421.228	674.45
421.605	673.32
421.982	693.2
422.358	709.25
422.735	701.56
423.111	723.48
423.488	713.31
423.864	743.6
424.241	752.41
424.617	755.12
424.994	773.2
425.37	771.17
425.746	786.98
426.123	794.22
426.499	791.96
426.875	829.02
427.251	826.98
427.627	822.46
428.003	836.25
428.379	859.98
428.756	847.32
429.132	889.81
429.507	872.86
429.883	907.21
430.259	909.02
430.635	906.08
431.011	929.81
431.387	923.25
431.763	962.12
432.138	953.99
432.514	966.19
432.89	990.37
433.265	1007.54
433.641	1036.47
434.016	1034.21
434.392	1029.69
434.767	1071.05
435.143	1059.29
435.518	1071.27
435.894	1108.33
436.269	1144.26
436.644	1155.11
437.02	1160.99
437.395	1137.26
437.77	1188.33
438.145	1186.07
438.52	1232.62
438.895	1237.14
439.271	1255.9
439.646	1278.72
440.021	1285.73
440.395	1320.76
440.77	1313.3
441.145	1304.03
441.52	1361.89
441.895	1352.39
442.27	1361.66
442.645	1386.97
443.019	1388.1
443.394	1383.13
443.769	1403.69
444.143	1417.93
444.518	1422.67
444.892	1443.69
445.267	1465.39
445.641	1486.18
446.016	1511.49
446.39	1506.06
446.764	1479.62
447.139	1508.55
447.513	1508.77
447.887	1509.9
448.262	1533.18
448.636	1567.53
449.01	1564.37
449.384	1560.75
449.758	1617.92
450.132	1624.93
450.506	1584.7
450.88	1608.66
451.254	1614.76
451.628	1643.46
452.002	1670.8
452.376	1640.97
452.75	1701.76
453.123	1704.02
453.497	1730.01
453.871	1743.8
454.244	1783.34
454.618	1783.34
454.992	1782.66
455.365	1780.41
455.739	1838.93
456.112	1843.91
456.486	1874.87
456.859	1858.37
457.232	1920.97
457.606	1927.07
457.979	1909.22
458.352	1978.14
458.725	1980.85
459.099	1964.81
459.472	2037.57
459.845	2044.13
460.218	2052.49
460.591	2096.56
460.964	2075.76
461.337	2106.72
461.71	2182.88
462.083	2177.91
462.456	2156.89
462.829	2221.3
463.201	2222.2
463.574	2255.42
463.947	2285.48
464.32	2325.02
464.692	2330.22
465.065	2341.97
465.438	2386.94
465.81	2408.64
466.183	2431.24
466.555	2504.45
466.928	2514.62
467.3	2482.53
467.672	2549.65
468.045	2578.8
468.417	2619.48
468.789	2606.15
469.161	2627.61
469.534	2656.09
469.906	2723.88
470.278	2741.96
470.65	2765.01
471.022	2863.99
471.394	2843.2
471.766	2890.21
472.138	2917.78
472.51	2979.92
472.882	3010.66
473.253	2998.68
473.625	3073.25
473.997	3085.68
474.369	3134.04
474.74	3145.12
475.112	3218.56
475.484	3250.65
475.855	3297.43
476.227	3367.03
476.598	3411.32
476.97	3419.01
477.341	3506.24
477.713	3544.65
478.084	3576.52
478.455	3632.33
478.827	3705.1
479.198	3804.98
479.569	3777.41
479.94	3901.71
480.311	3885.43
480.682	3974.7
481.053	4020.35
481.424	4075.26
481.795	4159.1
482.166	4155.71
482.537	4198.42
482.908	4304.86
483.279	4332.43
483.65	4431.41
484.021	4451.75
484.391	4505.31
484.762	4542.82
485.133	4620.78
485.503	4677.28
485.874	4722.02
486.244	4798.18
486.615	4844.96
486.985	4883.37
487.356	5005.63
487.726	5032.98
488.097	5112.52
488.467	5084.05
488.837	5162.01
489.207	5247.43
489.578	5349.8
489.948	5363.81
490.318	5409.24
490.688	5383.02
491.058	5502.79
491.428	5527.43
491.798	5571.94
492.168	5691.49
492.538	5703.47
492.908	5773.97
493.278	5840.19
493.648	5830.47
494.017	5902.33
494.387	5946.62
494.757	5991.14
495.126	5989.79
495.496	6051.71
495.866	6072.5
496.235	6120.4
496.605	6209.22
496.974	6166.73
497.344	6306.84
497.713	6227.07
498.082	6305.94
498.452	6349.1
498.821	6370.57
499.19	6351.58
499.559	6419.38
499.928	6422.32
500.298	6495.31
500.667	6547.74
501.036	6564.69
501.405	6547.06
501.774	6544.8
502.143	6687.62
502.512	6702.31
502.88	6692.82
503.249	6705.47
503.618	6705.93
503.987	6761.74
504.356	6819.59
504.724	6794.96
505.093	6807.17
505.462	6872.25
505.83	6876.32
506.199	6915.86
506.567	6981.17
506.936	6893.94
507.304	6964.22
507.672	7014.62
508.041	7058.46
508.409	7047.84
508.777	7100.72
509.145	7094.39
509.514	7117.21
509.882	7183.2
510.25	7151.34
510.618	7189.98
510.986	7167.38
511.354	7252.8
511.722	7262.07
512.09	7313.37
512.458	7355.4
512.826	7293.71
513.193	7384.78
513.561	7330.99
513.929	7414.83
514.297	7408.28
514.664	7474.04
515.032	7453.25
515.4	7460.03
515.767	7426.13
516.135	7535.06
516.502	7487.15
516.869	7591.33
517.237	7533.47
517.604	7485.57
517.972	7583.19
518.339	7608.73
518.706	7629.52
519.073	7622.29
519.44	7615.28
519.808	7682.62
520.175	7658.44
520.542	7761.49
520.909	7732.57
521.276	7716.75
521.643	7675.17
522.009	7750.64
522.376	7823.41
522.743	7799.68
523.11	7896.18
523.477	7889.17
523.843	7919.68
524.21	7926.01
524.577	7970.3
524.943	7965.1
525.31	8002.16
525.676	7948.83
526.043	8008.72
526.409	8044.65
526.776	8050.97
527.142	8025.66
527.508	8060.47
527.874	8139.56
528.241	8118.09
528.607	8065.44
528.973	8135.94
529.339	8138.43
529.705	8156.51
530.071	8157.41
530.437	8155.15
530.803	8196.06
531.169	8176.4
531.535	8177.98
531.901	8187.92
532.267	8177.3
532.632	8247.58
532.998	8125.55
533.364	8153.57
533.73	8247.13
534.095	8223.17
534.461	8184.98
534.826	8367.58
535.192	8274.7
535.557	8276.73
535.923	8159.22
536.288	8262.49
536.653	8181.82
537.019	8166.9
537.384	8160.58
537.749	8192.89
538.114	8218.65
538.479	8181.82
538.845	8155.38
539.21	8142.5
539.575	8075.38
539.94	8062.95
540.305	8189.5
540.67	8161.93
541.034	8156.96
541.399	8133.23
541.764	8106.34
542.129	8103.63
542.494	8135.04
542.858	8103.4
543.223	8067.02
543.587	8082.39
543.952	8061.14
544.316	8056.17
544.681	8033.12
545.045	8021.82
545.41	8059.56
545.774	8104.76
546.138	7950.19
546.503	8007.81
546.867	7949.51
547.231	8002.16
547.595	7981.82
547.959	7970.52
548.324	7940.47
548.688	7950.64
549.052	7952.22
549.416	7906.35
549.779	7925.55
550.143	7906.57
550.507	7934.14
550.871	7878.78
551.235	7829.74
551.599	7946.57
551.962	7930.75
552.326	7893.92
552.689	7914.71
553.053	7789.96
553.417	7852.56
553.78	7868.83
554.143	7904.54
554.507	7836.29
554.87	7865.67
555.234	7886.69
555.597	7844.43
555.96	7863.41
556.323	7840.36
556.686	7810.76
557.05	7890.98
557.413	7847.59
557.776	7871.54
558.139	7864.54
558.502	7917.64
558.865	7862.96
559.228	7916.52
559.59	7891.43
559.953	7905.22
560.316	7953.12
560.679	7935.27
561.041	7969.62
561.404	7935.27
561.767	8012.11
562.129	7973.69
562.492	7985.21
562.854	8002.84
563.217	8000.35
563.579	7986.12
563.941	8028.6
564.304	8028.38
564.666	8074.93
565.028	8078.32
565.39	8105.44
565.753	8081.26
566.115	8101.14
566.477	8161.93
566.839	8142.05
567.201	8180.01
567.563	8155.6
567.925	8295.04
568.287	8214.81
568.648	8192.67
569.01	8228.6
569.372	8335.71
569.734	8277.64
570.095	8342.72
570.457	8343.4
570.819	8331.65
571.18	8376.16
571.542	8436.28
571.903	8422.26
572.265	8391.08
572.626	8389.04
572.987	8429.5
573.349	8461.81
573.71	8457.97
574.071	8526.89
574.432	8557.85
574.794	8563.5
575.155	8501.58
575.516	8504.52
575.877	8589.72
576.238	8630.17
576.599	8615.71
576.96	8634.69
577.32	8662.03
577.681	8674.91
578.042	8705.42
578.403	8639.66
578.763	8722.14
579.124	8721.47
579.485	8730.73
579.845	8742.48
580.206	8815.47
580.566	8803.5
580.927	8834.91
581.287	8863.61
581.648	8780.9
582.008	8836.04
582.368	8835.59
582.728	8881.24
583.089	8865.64
583.449	8825.87
583.809	8923.95
584.169	8945.87
584.529	8898.18
584.889	8928.24
585.249	8864.06
585.609	8903.61
585.969	8930.95
586.329	8951.29
586.688	8933.66
587.048	8952.19
587.408	8988.8
587.768	8953.32
588.127	8969.14
588.487	9034.23
588.846	9052.98
589.206	9032.19
589.565	9095.24
589.925	9056.6
590.284	9032.42
590.643	9085.75
591.003	9132.98
591.362	9090.95
591.721	9128.91
592.08	9069.25
592.44	9144.96
592.799	9181.34
593.158	9111.06
593.517	9131.85
593.876	9169.36
594.235	9135.47
594.593	9179.98
594.952	9193.77
595.311	9106.54
595.67	9179.53
596.029	9221.11
596.387	9231.51
596.746	9208.46
597.104	9179.08
597.463	9234.45
597.822	9202.36
598.18	9263.6
598.538	9241.68
598.897	9291.85
599.255	9165.52
599.613	9337.72
599.972	9196.93
600.33	9228.34
600.688	9328
601.046	9288
601.404	9346.99
601.762	9315.57
602.12	9418.4
602.478	9355.35
602.836	9421.56
603.194	9327.1
603.552	9305.86
603.91	9302.47
604.268	9363.93
604.625	9290.49
604.983	9337.95
605.341	9315.12
605.698	9379.75
606.056	9363.71
606.413	9390.37
606.771	9420.2
607.128	9389.02
607.485	9328.23
607.843	9465.4
608.2	9404.39
608.557	9470.15
608.914	9458.4
609.272	9507.66
609.629	9481.45
609.986	9523.03
610.343	9480.99
610.7	9590.37
611.057	9486.64
611.414	9462.01
611.771	9546.98
612.127	9488.68
612.484	9527.32
612.841	9574.1
613.198	9568.45
613.554	9465.17
613.911	9590.6
614.267	9565.96
614.624	9487.32
614.98	9596.92
615.337	9602.57
615.693	9541.78
616.05	9591.95
616.406	9611.39
616.762	9599.41
617.118	9667.66
617.475	9605.96
617.831	9709.46
618.187	9582.01
618.543	9688.22
618.899	9742.23
619.255	9700.42
619.611	9581.56
619.967	9764.83
620.323	9725.06
620.678	9721.21
621.034	9657.26
621.39	9774.32
621.746	9674.89
622.101	9759.86
622.457	9735.22
622.812	9771.38
623.168	9745.17
623.523	9738.61
623.879	9770.93
624.234	9777.03
624.589	9656.81
624.945	9674.89
625.3	9713.08
625.655	9659.52
626.01	9773.42
626.365	9711.72
626.72	9692.97
627.075	9690.93
627.43	9694.1
627.785	9666.07
628.14	9686.64
628.495	9709.46
628.85	9704.94
629.205	9653.87
629.559	9706.07
629.914	9628.11
630.269	9731.83
630.623	9669.46
630.978	9621.55
631.332	9633.76
631.687	9680.99
632.041	9665.85
632.396	9618.17
632.75	9580.43
633.104	9566.42
633.459	9580.2
633.813	9570.26
634.167	9524.61
634.521	9520.54
634.875	9492.74
635.229	9464.04
635.583	9447.1
635.937	9435.35
636.291	9418.4
636.645	9502.91
636.999	9373.43
637.352	9462.46
637.706	9358.74
638.06	9466.98
638.413	9384.5
638.767	9360.77
639.121	9424.72
639.474	9339.08
639.828	9343.37
640.181	9339.08
640.534	9410.04
640.888	9337.95
641.241	9323.03
641.594	9311.51
641.947	9302.47
642.301	9310.83
642.654	9319.19
643.007	9290.94
643.36	9306.53
643.713	9329.81
644.066	9343.82
644.419	9246.88
644.771	9243.94
645.124	9123.04
645.477	9055.02
645.83	9063.6
646.182	9001.01
646.535	8940.89
646.888	8975.24
647.24	8916.04
647.593	8934.57
647.945	8967.56
648.298	8875.59
648.65	8898.64
649.002	8888.92
649.355	8928.01
649.707	8931.4
650.059	8984.06
650.411	9031.51
650.763	9097.73
651.115	9143.83
651.467	9144.28
651.819	9130.04
652.171	9125.97
652.523	9127.78
652.875	9109.48
653.227	9068.35
653.578	9141.79
653.93	9153.09
654.282	9110.38
654.633	9137.95
654.985	9093.43
655.337	9113.32
655.688	9067.22
656.039	9122.13
656.391	9006.88
656.742	9058.63
657.094	9069.93
657.445	9091.4
657.796	9116.26
658.147	9014.34
658.498	9089.37
658.849	9126.65
659.2	9101.34
659.551	9057.5
659.902	9137.05
660.253	9100.44
660.604	9123.94
660.955	9121.23
661.306	9136.82
661.656	9095.02
662.007	9111.06
662.358	9096.82
662.708	9094.79
663.059	9115.81
663.409	9054.79
663.76	9102.25
664.11	9106.77
664.461	9176.14
664.811	9100.44
665.161	9106.99
665.511	9084.17
665.862	9070.83
666.212	9175.46
666.562	9157.61
666.912	9081
667.262	9098.18
667.612	9093.89
667.962	9143.15
668.312	9064.06
668.662	9112.42
669.011	9120.33
669.361	9019.76
669.711	9076.48
670.06	9033.55
670.41	9046.65
670.76	9106.77
671.109	9139.53
671.459	9101.34
671.808	9076.71
672.157	9051.63
672.507	8997.16
672.856	9012.31
673.205	9042.59
673.554	9035.36
673.904	8962.14
674.253	9026.77
674.602	9047.11
674.951	8857.96
675.3	8855.25
675.649	8999.65
675.998	8892.08
676.346	8952.87
676.695	8955.36
677.044	8883.27
677.393	8954.45
677.741	8994
678.09	8913.78
678.438	8974.57
678.787	8912.87
679.135	8923.95
679.484	8851.41
679.832	8895.7
680.181	8776.83
680.529	8812.54
680.877	8822.25
681.225	8860.44
681.573	8870.61
681.922	8753.56
682.27	8772.09
682.618	8746.1
682.966	8692.31
683.314	8751.75
683.661	8812.99
684.009	8641.92
684.357	8634.69
684.705	8613.22
685.053	8657.96
685.4	8594.24
685.748	8622.26
686.095	8587.91
686.443	8537.29
686.79	8519.21
687.138	8547.68
687.485	8567.35
687.832	8589.72
688.18	8501.36
688.527	8457.74
688.874	8468.36
689.221	8479.44
689.568	8409.61
689.915	8449.61
690.262	8351.08
690.609	8284.19
690.956	8276.28
691.303	8312.44
691.65	8235.83
691.997	8258.65
692.344	8147.92
692.69	8155.38
693.037	8141.37
693.383	8135.27
693.73	8114.93
694.077	8061.6
694.423	8113.12
694.769	7982.5
695.116	7994.03
695.462	8012.78
695.808	7970.52
696.155	8012.56
696.501	7887.36
696.847	7883.75
697.193	7847.59
697.539	7905.44
697.885	7815.27
698.231	7787.93
698.577	7784.77
698.923	7737.31
699.269	7664.77
699.614	7690.08
699.96	7676.07
700.306	7613.25
700.651	7592.68
700.997	7571.67
701.342	7549.29
701.688	7539.35
702.033	7522.4
702.379	7460.93
702.724	7481.95
703.069	7463.19
703.415	7333.71
703.76	7388.62
704.105	7361.28
704.45	7347.94
704.795	7270.66
705.14	7237.21
705.485	7252.8
705.83	7215.06
706.175	7299.58
706.52	7172.81
706.865	7191.34
707.209	7204.9
707.554	7092.36
707.899	7164.44
708.243	7112.24
708.588	7087.16
708.932	7063.88
709.277	7064.56
709.621	7097.1
709.966	6956.77
710.31	7003.54
710.654	6968.74
710.998	7007.84
711.342	6957.22
711.687	6906.6
712.031	6929.65
712.375	6874.28
712.719	6893.49
713.063	6859.14
713.407	6858.46
713.75	6819.14
714.094	6847.16
714.438	6742.53
714.782	6854.17
715.125	6801.97
715.469	6776.88
715.812	6783.44
716.156	6732.59
716.499	6727.17
716.843	6751.12
717.186	6706.6
717.53	6728.75
717.873	6701.18
718.216	6707.96
718.559	6646.49
718.902	6693.72
719.246	6635.42
719.589	6658.69
719.932	6578.47
720.275	6643.78
720.617	6574.63
720.96	6557.45
721.303	6595.65
721.646	6575.31
721.989	6581.63
722.331	6524.69
722.674	6514.07
723.016	6546.16
723.359	6540.51
723.701	6554.97
724.044	6506.38
724.386	6464.12
724.729	6534.18
725.071	6536.44
725.413	6491.69
725.755	6492.82
726.097	6459.83
726.439	6413.05
726.782	6505.7
727.124	6520.39
727.465	6450.34
727.807	6442.88
728.149	6439.04
728.491	6433.39
728.833	6437.46
729.175	6415.76
729.516	6401.75
729.858	6425.03
730.199	6419.38
730.541	6463.22
730.882	6413.73
731.224	6399.49
731.565	6398.36
731.906	6370.34
732.248	6430.45
732.589	6370.57
732.93	6345.03
733.271	6411.24
733.612	6415.31
733.953	6355.43
734.294	6382.32
734.635	6401.53
734.976	6374.18
735.317	6369.44
735.658	6409.66
735.999	6379.61
736.339	6435.42
736.68	6428.87
737.021	6391.58
737.361	6417.12
737.702	6391.13
738.042	6378.93
738.383	6402.88
738.723	6445.37
739.063	6410.79
739.404	6424.12
739.744	6413.5
740.084	6426.61
740.424	6440.85
740.764	6471.81
741.104	6424.58
741.444	6413.28
741.784	6444.46
742.124	6467.29
742.464	6477.68
742.804	6498.02
743.143	6533.05
743.483	6472.94
743.823	6491.02
744.162	6532.37
744.502	6521.98
744.841	6573.5
745.181	6637.23
745.52	6606.72
745.86	6640.39
746.199	6680.39
746.538	6722.65
746.877	6728.75
747.216	6769.65
747.556	6783.44
747.895	6822.31
748.234	6789.76
748.573	6864.11
748.911	6879.25
749.25	6920.61
749.589	6929.65
749.928	7035.86
750.267	7109.08
750.605	7048.52
750.944	7171.45
751.283	7189.98
751.621	7184.56
751.96	7312.92
752.298	7355.85
752.636	7483.98
752.975	7453.02
753.313	7547.71
753.651	7726.46
753.989	7735.5
754.327	7733.24
754.666	7798.78
755.004	7933.46
755.342	8019.11
755.679	8138.2
756.017	8271.08
756.355	8314.24
756.693	8361.48
757.031	8461.13
757.368	8536.39
757.706	8677.17
758.044	8741.8
758.381	8900.9
758.719	8998.52
759.056	9108.8
759.394	9219.08
759.731	9252.53
760.068	9416.81
760.405	9502.46
760.743	9532.97
761.08	9723.7
761.417	9797.14
761.754	9897.25
762.091	10065.16
762.428	10136.57
762.765	10226.74
763.102	10410.91
763.438	10470.12
763.775	10552.83
764.112	10711.02
764.449	10865.36
764.785	10904.23
765.122	10958.02
765.458	11032.82
765.795	11196.2
766.131	11304.45
766.467	11369.98
766.804	11426.93
767.14	11470.32
767.476	11569.98
767.812	11659.69
768.148	11782.4
768.485	11863.98
768.821	11838.22
