Data from hue_270_FLMS001491_00071.txt Node
Date: Tue Feb 07 15:57:40 GMT 2017
User: dcchb
Spectrometer: FLMS00149
Trigger mode: 0
Integration Time (sec): 2.000000E-2
Scans to average: 10
Electric dark correction enabled: true
Nonlinearity correction enabled: false
Boxcar width: 0
XAxis mode: Wavelengths
Number of Pixels in Spectrum: 2048
>>>>>Begin Spectral Data<<<<<
341.393	-23.71
341.776	-23.71
342.16	-23.71
342.543	-53.32
342.927	-59.19
343.31	-70.49
343.693	-58.74
344.077	-70.04
344.46	-67.78
344.843	-78.85
345.226	-37.72
345.61	-30.72
345.993	-15.35
346.376	-6.09
346.759	18.54
347.142	38.21
347.525	43.85
347.908	66
348.291	66.68
348.674	101.25
349.057	101.25
349.44	119.56
349.823	119.11
350.206	150.74
350.588	183.74
350.971	211.76
351.354	225.54
351.737	243.85
352.119	234.13
352.502	244.08
352.884	253.57
353.267	293.11
353.65	281.81
354.032	300.57
354.414	296.73
354.797	311.42
355.179	292.89
355.562	309.38
355.944	302.61
356.326	320.46
356.709	324.98
357.091	340.8
357.473	350.29
357.855	330.4
358.238	320.23
358.62	352.32
359.002	335.82
359.384	325.88
359.766	347.35
360.148	324.53
360.53	331.98
360.912	332.66
361.294	342.38
361.676	329.27
362.057	331.08
362.439	324.98
362.821	317.29
363.203	327.46
363.584	321.36
363.966	298.31
364.348	328.37
364.729	314.58
365.111	297.63
365.493	312.55
365.874	326.33
366.256	301.93
366.637	313
367.019	309.84
367.4	321.81
367.781	315.26
368.163	310.97
368.544	300.57
368.925	297.18
369.306	317.07
369.688	307.58
370.069	309.16
370.45	306.67
370.831	303.51
371.212	311.19
371.593	316.84
371.974	298.31
372.355	309.61
372.736	304.64
373.117	315.49
373.498	291.76
373.879	315.94
374.26	307.8
374.641	333.79
375.021	314.13
375.402	325.2
375.783	291.08
376.163	315.03
376.544	322.94
376.925	327.69
377.305	311.42
377.686	335.15
378.066	320.68
378.447	316.16
378.827	325.43
379.208	320.46
379.588	325.2
379.968	303.51
380.349	321.14
380.729	341.93
381.109	348.03
381.489	332.21
381.87	318.88
382.25	333.56
382.63	351.64
383.01	356.61
383.39	333.11
383.77	355.94
384.15	335.6
384.53	331.3
384.91	351.19
385.29	362.94
385.67	355.26
386.049	336.28
386.429	353.68
386.809	365.88
387.189	357.29
387.568	342.38
387.948	367.91
388.328	355.49
388.707	365.43
389.087	373.79
389.466	373.11
389.846	355.94
390.225	359.78
390.605	353.9
390.984	353
391.363	345.99
391.743	361.59
392.122	376.73
392.501	376.73
392.881	374.24
393.26	364.98
393.639	392.55
394.018	378.76
394.397	391.42
394.776	364.52
395.155	382.15
395.534	391.19
395.913	381.02
396.292	394.81
396.671	383.28
397.05	410.85
397.429	409.04
397.808	400.91
398.186	408.59
398.565	409.04
398.944	399.78
399.323	428.25
399.701	414.24
400.08	408.59
400.458	391.64
400.837	418.99
401.215	406.33
401.594	461.92
401.972	424.41
402.351	412.21
402.729	423.73
403.107	449.72
403.486	419.21
403.864	425.99
404.242	431.42
404.62	426.22
404.999	446.78
405.377	451.98
405.755	447.69
406.133	463.28
406.511	456.05
406.889	468.7
407.267	461.7
407.645	486.1
408.023	482.04
408.401	492.88
408.779	490.4
409.156	496.05
409.534	518.42
409.912	487.01
410.29	530.62
410.667	521.13
411.045	510.06
411.422	526.55
411.8	528.59
412.178	528.81
412.555	551.64
412.933	554.8
413.31	574.01
413.687	563.39
414.065	573.33
414.442	566.55
414.819	585.76
415.197	593.22
415.574	612.2
415.951	619.43
416.328	606.33
416.705	616.5
417.082	632.09
417.46	628.25
417.837	658.3
418.214	638.42
418.591	665.99
418.967	676.61
419.344	672.09
419.721	669.38
420.098	651.52
420.475	673.67
420.852	679.54
421.228	728.13
421.605	732.2
421.982	709.6
422.358	719.09
422.735	756.83
423.111	741.92
423.488	780.11
423.864	773.78
424.241	777.17
424.617	802.7
424.994	794.34
425.37	843.83
425.746	816.49
426.123	831.86
426.499	829.82
426.875	864.4
427.251	852.65
427.627	885.19
428.003	878.86
428.379	907.79
428.756	917.28
429.132	943.04
429.507	909.59
429.883	935.36
430.259	953.44
430.635	942.81
431.011	996.37
431.387	996.82
431.763	1004.28
432.138	1010.84
432.514	1004.73
432.89	1037.73
433.265	1067.78
433.641	1045.18
434.016	1068.23
434.392	1086.09
434.767	1121.79
435.143	1127.22
435.518	1154.79
435.894	1155.46
436.269	1162.92
436.644	1174.67
437.02	1205.41
437.395	1193.2
437.77	1244.73
438.145	1258.29
438.52	1274.56
438.895	1303.71
439.271	1300.32
439.646	1324.27
440.021	1353.65
440.395	1350.49
440.77	1350.26
441.145	1363.59
441.52	1380.77
441.895	1415.8
442.27	1418.06
442.645	1402.69
443.019	1432.97
443.394	1436.59
443.769	1441.33
444.143	1435.23
444.518	1484.27
444.892	1468
445.267	1473.65
445.641	1489.69
446.016	1506.87
446.39	1525.85
446.764	1507.77
447.139	1526.98
447.513	1538.5
447.887	1564.27
448.262	1569.01
448.636	1575.11
449.01	1564.49
449.384	1585.06
449.758	1618.5
450.132	1609.46
450.506	1632.29
450.88	1644.49
451.254	1665.51
451.628	1660.99
452.002	1678.39
452.376	1688.56
452.75	1702.79
453.123	1731.04
453.497	1760.87
453.871	1734.66
454.244	1769.01
454.618	1764.71
454.992	1775.79
455.365	1822.57
455.739	1834.99
456.112	1875.67
456.486	1888.78
456.859	1905.5
457.232	1925.61
457.606	1925.16
457.979	1938.49
458.352	1948.66
458.725	1976.69
459.099	2010.58
459.472	2033.86
459.845	2048.55
460.218	2059.62
460.591	2063.24
460.964	2073.86
461.337	2121.77
461.71	2158.15
462.083	2149.79
462.456	2152.27
462.829	2181.88
463.201	2184.82
463.574	2190.92
463.947	2219.39
464.32	2278.82
464.692	2301.65
465.065	2282.89
465.438	2351.82
465.81	2363.12
466.183	2372.38
466.555	2394.08
466.928	2441.53
467.3	2397.92
467.672	2451.25
468.045	2528.76
468.417	2536.67
468.789	2512.49
469.161	2562.21
469.534	2626.16
469.906	2626.39
470.278	2633.17
470.65	2648.76
471.022	2722.43
471.394	2772.14
471.766	2788.87
472.138	2802.2
472.51	2855.53
472.882	2845.14
473.253	2908.64
473.625	2929.43
473.997	2991.57
474.369	3026.83
474.74	3028.41
475.112	3062.31
475.484	3115.64
475.855	3149.54
476.227	3163.77
476.598	3236.54
476.97	3259.36
477.341	3345.01
477.713	3327.84
478.084	3333.71
478.455	3464.33
478.827	3474.73
479.198	3535.06
479.569	3536.42
479.94	3627.04
480.311	3656.19
480.682	3722.18
481.053	3786.81
481.424	3832
481.795	3818.44
482.166	3905
482.537	3946.8
482.908	4036.52
483.279	4019.57
483.65	4075.61
484.021	4139.57
484.391	4200.81
484.762	4213.01
485.133	4242.61
485.503	4264.76
485.874	4380.46
486.244	4381.14
486.615	4457.3
486.985	4498.88
487.356	4536.62
487.726	4568.71
488.097	4646.22
488.467	4666.56
488.837	4756.5
489.207	4815.93
489.578	4851.41
489.948	4823.84
490.318	4904.52
490.688	4918.75
491.058	4963.73
491.428	5069.94
491.798	5099.54
492.168	5188.58
492.538	5173.21
492.908	5241.46
493.278	5285.3
493.648	5256.15
494.017	5318.07
494.387	5343.38
494.757	5443.03
495.126	5454.33
495.496	5442.58
495.866	5469.02
496.235	5476.93
496.605	5568
496.974	5595.57
497.344	5637.61
497.713	5636.93
498.082	5633.31
498.452	5746.3
498.821	5706.08
499.19	5722.12
499.559	5742.24
499.928	5777.94
500.298	5875.34
500.667	5905.17
501.036	5824.49
501.405	5852.97
501.774	5923.25
502.143	5930.48
502.512	5945.39
502.88	6021.78
503.249	5964.38
503.618	6029.91
503.987	6015.9
504.356	6105.16
504.724	6056.58
505.093	6086.18
505.462	6085.05
505.83	6118.5
506.199	6162.34
506.567	6254.09
506.936	6185.16
507.304	6253.18
507.672	6304.93
508.041	6315.78
508.409	6316.68
508.777	6415.89
509.145	6379.96
509.514	6364.37
509.882	6383.12
510.25	6344.03
510.618	6407.3
510.986	6423.8
511.354	6467.64
511.722	6453.63
512.09	6494.31
512.458	6509.9
512.826	6493.85
513.193	6496.79
513.561	6561.88
513.929	6614.53
514.297	6635.55
514.664	6645.72
515.032	6645.04
515.4	6734.75
515.767	6682.1
516.135	6684.58
516.502	6628.77
516.869	6712.38
517.237	6708.99
517.604	6651.82
517.972	6783.34
518.339	6767.52
518.706	6799.84
519.073	6731.14
519.44	6856.11
519.808	6872.38
520.175	6850.91
520.542	6894.97
520.909	6897.91
521.276	6886.84
521.643	6927.74
522.009	6907.86
522.376	6933.17
522.743	6946.05
523.11	6992.15
523.477	7057.68
523.843	6997.57
524.21	7096.1
524.577	7079.38
524.943	7162.76
525.31	7148.3
525.676	7164.57
526.043	7207.96
526.409	7270.56
526.776	7294.51
527.142	7263.33
527.508	7286.15
527.874	7293.16
528.241	7333.15
528.607	7423.1
528.973	7396.2
529.339	7402.98
529.705	7426.03
530.071	7419.93
530.437	7477.11
530.803	7496.54
531.169	7534.05
531.535	7459.93
531.901	7443.43
532.267	7509.87
532.632	7530.21
532.998	7556.2
533.364	7675.97
533.73	7567.5
534.095	7643.2
534.461	7615.86
534.826	7627.61
535.192	7596.88
535.557	7693.6
535.923	7722.75
536.288	7587.39
536.653	7667.61
537.019	7612.47
537.384	7586.48
537.749	7672.35
538.114	7672.81
538.479	7663.54
538.845	7749.87
539.21	7718
539.575	7744.44
539.94	7757.32
540.305	7756.87
540.67	7722.52
541.034	7774.05
541.399	7719.36
541.764	7753.71
542.129	7813.82
542.494	7793.71
542.858	7772.92
543.223	7802.07
543.587	7840.26
543.952	7822.86
544.316	7753.48
544.681	7813.37
545.045	7841.16
545.41	7889.98
545.774	7873.93
546.138	7848.62
546.503	7866.7
546.867	7846.81
547.231	7936.53
547.595	7915.29
547.959	7855.85
548.324	7900.37
548.688	7896.53
549.052	7860.15
549.416	7933.36
549.779	7914.83
550.143	7927.94
550.507	8021.72
550.871	7941.73
551.235	7957.32
551.599	7978.56
551.962	8018.11
552.326	8028.96
552.689	7962.52
553.053	7967.94
553.417	8028.28
553.78	8082.97
554.143	8009.52
554.507	8052.46
554.87	8097.88
555.234	8127.48
555.597	8056.53
555.96	8097.43
556.323	8130.87
556.686	8108.95
557.05	8166.35
557.413	8179.69
557.776	8076.86
558.139	8136.3
558.502	8203.87
558.865	8168.61
559.228	8173.36
559.59	8212.91
559.953	8237.99
560.316	8248.16
560.679	8278.44
561.041	8317.99
561.404	8353.01
561.767	8323.19
562.129	8339.68
562.492	8510.75
562.854	8438.21
563.217	8475.72
563.579	8503.29
563.941	8505.55
564.304	8528.83
564.666	8562.05
565.028	8536.51
565.39	8636.17
565.753	8645.66
566.115	8673.46
566.477	8700.58
566.839	8657.87
567.201	8778.54
567.563	8757.3
567.925	8802.27
568.287	8785.09
568.648	8794.36
569.01	8920.01
569.372	8995.48
569.734	8917.75
570.095	8966.56
570.457	9034.35
570.819	9028.7
571.18	9029.83
571.542	9079.32
571.903	9101.7
572.265	9121.81
572.626	9153.22
572.987	9113.67
573.349	9229.38
573.71	9192.09
574.071	9277.06
574.432	9264.63
574.794	9316.38
575.155	9260.56
575.516	9264.18
575.877	9426.43
576.238	9420.56
576.599	9455.13
576.96	9463.04
577.32	9547.56
577.681	9508.01
578.042	9594.34
578.403	9502.14
578.763	9542.59
579.124	9576.71
579.485	9629.37
579.845	9668.23
580.206	9658.29
580.566	9786.65
580.927	9783.49
581.287	9808.57
581.648	9756.59
582.008	9896.93
582.368	9878.17
582.728	9888.12
583.089	9957.04
583.449	9973.09
583.809	10003.14
584.169	9965.85
584.529	10104.38
584.889	10065.29
585.249	10052.63
585.609	10026.42
585.969	10138.28
586.329	10093.08
586.688	10101.67
587.048	10199.97
587.408	10188.9
587.768	10223.47
588.127	10194.77
588.487	10277.26
588.846	10383.02
589.206	10228.67
589.565	10378.72
589.925	10447.65
590.284	10372.17
590.643	10424.6
591.003	10472.96
591.362	10513.18
591.721	10529.68
592.08	10529.23
592.44	10538.72
592.799	10555.89
593.158	10635.21
593.517	10592.96
593.876	10691.48
594.235	10717.7
594.593	10653.52
594.952	10733.07
595.311	10674.08
595.67	10704.14
596.029	10785.49
596.387	10830.24
596.746	10881.08
597.104	10844.93
597.463	10834.76
597.822	10847.64
598.18	10854.19
598.538	10898.48
598.897	10915.43
599.255	10808.32
599.613	11044.47
599.972	10952.27
600.33	10895.77
600.688	10907.3
601.046	11020.52
601.404	11060.97
601.762	10982.32
602.12	11052.15
602.478	11034.75
602.836	11054.64
603.194	10974.87
603.552	11013.06
603.91	10960.18
604.268	11148.87
604.625	11049.89
604.983	11099.61
605.341	11017.13
605.698	11115.65
606.056	11117.69
606.413	11118.37
606.771	11181.64
607.128	11147.52
607.485	11123.79
607.843	11132.15
608.2	11260.51
608.557	11240.17
608.914	11228.19
609.272	11226.16
609.629	11263.9
609.986	11313.16
610.343	11266.16
610.7	11320.85
611.057	11336.21
611.414	11269.32
611.771	11359.26
612.127	11382.77
612.484	11343.22
612.841	11474.29
613.198	11392.48
613.554	11358.13
613.911	11409.43
614.267	11421.63
614.624	11357.91
614.98	11451.92
615.337	11410.34
615.693	11444.01
616.05	11490.79
616.406	11477.45
616.762	11495.98
617.118	11445.14
617.475	11515.87
617.831	11497.56
618.187	11591.35
618.543	11606.04
618.899	11621.4
619.255	11589.31
619.611	11630.89
619.967	11589.77
620.323	11571.01
620.678	11597.68
621.034	11566.94
621.39	11599.26
621.746	11584.57
622.101	11670.44
622.457	11615.3
622.812	11563.55
623.168	11648.97
623.523	11687.16
623.879	11647.62
624.234	11618.47
624.589	11639.03
624.945	11636.32
625.3	11631.8
625.655	11703.89
626.01	11617.11
626.365	11585.47
626.72	11632.7
627.075	11651.46
627.43	11657.56
627.785	11640.84
628.14	11617.56
628.495	11651.91
628.85	11561.07
629.205	11524.91
629.559	11614.62
629.914	11513.84
630.269	11582.76
630.623	11552.03
630.978	11478.81
631.332	11583.44
631.687	11526.04
632.041	11549.77
632.396	11602.19
632.75	11512.48
633.104	11514.97
633.459	11447.62
633.813	11450.33
634.167	11422.76
634.521	11421.41
634.875	11404.46
635.229	11368.98
635.583	11409.43
635.937	11382.77
636.291	11345.93
636.645	11351.81
636.999	11319.49
637.352	11315.2
637.706	11262.32
638.06	11295.54
638.413	11276.33
638.767	11307.06
639.121	11283.56
639.474	11244.24
639.828	11256.22
640.181	11228.42
640.534	11218.7
640.888	11192.94
641.241	11075.88
641.594	11168.76
641.947	11224.58
642.301	11113.39
642.654	11157.91
643.007	11126.95
643.36	11167.86
643.713	11197.01
644.066	11140.51
644.419	11084.24
644.771	11079.04
645.124	10996.79
645.477	10901.42
645.83	10915.43
646.182	10850.8
646.535	10827.3
646.888	10852.38
647.24	10712.95
647.593	10747.53
647.945	10757.25
648.298	10722.67
648.65	10705.72
649.002	10722.67
649.355	10765.61
649.707	10759.05
650.059	10803.8
650.411	10891.03
650.763	10912.27
651.115	11001.98
651.467	11033.62
651.819	11025.71
652.171	11025.71
652.523	10989.1
652.875	10991.36
653.227	10999.72
653.578	11054.64
653.93	11002.66
654.282	10955.66
654.633	10969.44
654.985	11021.65
655.337	10901.2
655.688	10994.75
656.039	11023.68
656.391	10890.8
656.742	10972.16
657.094	10964.25
657.445	11001.76
657.796	10976.22
658.147	10903
658.498	10950.23
658.849	10928.31
659.2	10950.46
659.551	10941.65
659.902	11006.05
660.253	10926.96
660.604	10980.52
660.955	10867.3
661.306	11079.95
661.656	10880.18
662.007	10958.14
662.358	11011.48
662.708	10982.32
663.059	11015.54
663.409	10958.82
663.76	10970.35
664.11	10958.37
664.461	10940.29
664.811	10985.71
665.161	10972.16
665.511	10941.2
665.862	10985.71
666.212	11053.73
666.562	11037.46
666.912	10966.96
667.262	10967.86
667.612	10943
667.962	10938.48
668.312	10943
668.662	10959.27
669.011	11023.23
669.361	10952.04
669.711	10973.28
670.06	10962.21
670.41	10928.09
670.76	10947.52
671.109	10995.66
671.459	10973.06
671.808	10928.77
672.157	10953.85
672.507	10903.68
672.856	10901.2
673.205	10873.85
673.554	10833.63
673.904	10813.06
674.253	10943.91
674.602	10876.34
674.951	10689
675.3	10658.26
675.649	10835.89
675.998	10806.51
676.346	10819.16
676.695	10883.57
677.044	10718.38
677.393	10733.74
677.741	10800.63
678.09	10782.56
678.438	10767.19
678.787	10738.26
679.135	10775.55
679.484	10624.59
679.832	10748.43
680.181	10568.1
680.529	10651.94
680.877	10646.06
681.225	10658.26
681.573	10597.25
681.922	10587.76
682.27	10589.34
682.618	10457.82
682.966	10516.8
683.314	10577.59
683.661	10567.87
684.009	10463.92
684.357	10426.18
684.705	10383.47
685.053	10488.78
685.4	10513.41
685.748	10313.42
686.095	10371.27
686.443	10325.62
686.79	10297.82
687.138	10239.07
687.485	10287.43
687.832	10216.69
688.18	10197.94
688.527	10192.97
688.874	10174.44
689.221	10102.35
689.568	10138.96
689.915	10111.16
690.262	10027.55
690.609	10044.5
690.956	9956.81
691.303	9918.17
691.65	9915.23
691.997	9968.57
692.344	9852.86
692.69	9832.07
693.037	9799.98
693.383	9736.26
693.73	9724.96
694.077	9710.72
694.423	9697.61
694.769	9642.02
695.116	9653.32
695.462	9569.25
695.808	9632.3
696.155	9573.55
696.501	9455.81
696.847	9484.74
697.193	9400.22
697.539	9385.98
697.885	9400.67
698.231	9307.34
698.577	9308.02
698.923	9254.46
699.269	9246.32
699.614	9202.94
699.96	9197.74
700.306	9199.32
700.651	9137.85
700.997	9098.53
701.342	9063.28
701.688	9008.82
702.033	9027.35
702.379	9021.47
702.724	8982.38
703.069	8944.41
703.415	8870.06
703.76	8838.88
704.105	8884.75
704.45	8769.73
704.795	8830.29
705.14	8713.23
705.485	8699.45
705.83	8623.29
706.175	8678.43
706.52	8619.67
706.865	8544.87
707.209	8619.67
707.554	8590.3
707.899	8623.52
708.243	8546.68
708.588	8529.73
708.932	8458.1
709.277	8419.45
709.621	8447.93
709.966	8390.98
710.31	8378.32
710.654	8328.16
710.998	8350.98
711.342	8345.78
711.687	8302.62
712.031	8239.8
712.375	8228.5
712.719	8291.55
713.063	8174.04
713.407	8240.25
713.75	8204.54
714.094	8179.91
714.438	8188.95
714.782	8164.77
715.125	8124.09
715.469	8133.13
715.812	8131.55
716.156	8059.01
716.499	8073.47
716.843	8115.73
717.186	8034.61
717.53	8152.79
717.873	8025.11
718.216	8077.54
718.559	8058.33
718.902	7930.2
719.246	7963.87
719.589	7980.82
719.932	7968.84
720.275	7920.03
720.617	7863.08
720.96	7947.83
721.303	7945.79
721.646	7934.72
721.989	7889.75
722.331	7896.3
722.674	7904.67
723.016	7863.99
723.359	7808.85
723.701	7872.35
724.044	7785.12
724.386	7803.2
724.729	7771.11
725.071	7765.91
725.413	7793.48
725.755	7781.5
726.097	7707.83
726.439	7687.04
726.782	7713.03
727.124	7783.09
727.465	7727.04
727.807	7754.39
728.149	7707.16
728.491	7697.21
728.833	7703.31
729.175	7672.81
729.516	7682.3
729.858	7704.44
730.199	7713.03
730.541	7693.82
730.882	7664.22
731.224	7736.99
731.565	7627.16
731.906	7621.73
732.248	7659.47
732.589	7669.19
732.93	7620.83
733.271	7626.48
733.612	7661.96
733.953	7656.08
734.294	7663.77
734.635	7647.95
734.976	7638.46
735.317	7564.34
735.658	7589.42
735.999	7678.46
736.339	7663.99
736.68	7688.4
737.021	7660.83
737.361	7626.71
737.702	7679.36
738.042	7650.66
738.383	7672.58
738.723	7648.63
739.063	7661.51
739.404	7689.3
739.744	7631.23
740.084	7692.92
740.424	7707.38
740.764	7689.3
741.104	7700.15
741.444	7681.62
741.784	7724.78
742.124	7693.82
742.464	7773.37
742.804	7762.97
743.143	7764.1
743.483	7757.32
743.823	7823.31
744.162	7814.5
744.502	7870.54
744.841	7845.46
745.181	7900.37
745.52	7926.81
745.86	7984.21
746.199	7979.92
746.538	8031.89
746.877	8062.18
747.216	8043.87
747.556	8143.75
747.895	8206.35
748.234	8114.38
748.573	8238.89
748.911	8289.06
749.25	8313.24
749.589	8374.48
749.928	8460.36
750.267	8503.52
750.605	8540.13
750.944	8710.07
751.283	8665.32
751.621	8815.38
751.96	8779.22
752.298	8896.05
752.636	8992.32
752.975	9080.23
753.313	9143.73
753.651	9283.39
753.989	9357.73
754.327	9445.42
754.666	9503.27
755.004	9622.13
755.342	9754.79
755.679	9881.79
756.017	9964.27
756.355	10123.14
756.693	10208.56
757.031	10359.06
757.368	10488.33
757.706	10632.05
758.044	10746.17
758.381	10923.34
758.719	10998.14
759.056	11164.01
759.394	11252.15
759.731	11358.59
760.068	11493.72
760.405	11653.49
760.743	11813.04
761.08	11991.11
761.417	12164.21
761.754	12273.82
762.091	12450.53
762.428	12556.97
762.765	12747.02
