Data from hue_00_FLMS001491_13.txt Node
Date: Mon Feb 06 15:29:19 GMT 2017
User: dcchb
Spectrometer: FLMS00149
Trigger mode: 0
Integration Time (sec): 2.000000E-2
Scans to average: 10
Electric dark correction enabled: true
Nonlinearity correction enabled: false
Boxcar width: 0
XAxis mode: Wavelengths
Number of Pixels in Spectrum: 2048
>>>>>Begin Spectral Data<<<<<
341.393	-11.1
341.776	-11.1
342.16	-11.1
342.543	-71.21
342.927	-68.28
343.31	-72.57
343.693	-59.91
344.077	-79.12
344.46	-60.14
344.843	-35.51
345.226	-44.32
345.61	-38.67
345.993	-9.07
346.376	-1.38
346.759	25.73
347.142	16.02
347.525	45.85
347.908	53.98
348.291	66.86
348.674	101.66
349.057	90.59
349.44	121.1
349.823	148.89
350.206	156.35
350.588	190.93
350.971	202.45
351.354	223.69
351.737	260.98
352.119	258.95
352.502	277.93
352.884	273.64
353.267	285.16
353.65	305.5
354.032	293.07
354.414	316.57
354.797	307.31
355.179	322.9
355.562	324.71
355.944	345.05
356.326	352.73
356.709	339.62
357.091	330.58
357.473	340.75
357.855	334.43
358.238	353.18
358.62	360.87
359.002	340.98
359.384	328.32
359.766	334.43
360.148	334.88
360.53	343.01
360.912	347.08
361.294	336.69
361.676	319.06
362.057	321.32
362.439	361.54
362.821	332.39
363.203	347.99
363.584	319.96
363.966	331.71
364.348	321.09
364.729	313.18
365.111	322.68
365.493	301.43
365.874	314.77
366.256	321.09
366.637	324.48
367.019	312.51
367.4	302.11
367.781	313.18
368.163	317.93
368.544	296.69
368.925	319.74
369.306	314.09
369.688	308.66
370.069	308.66
370.45	309.57
370.831	323.13
371.212	311.15
371.593	317.25
371.974	331.26
372.355	322.45
372.736	320.64
373.117	307.76
373.498	312.28
373.879	319.29
374.26	333.3
374.641	323.35
375.021	321.77
375.402	327.19
375.783	329
376.163	322.22
376.544	306.86
376.925	348.89
377.305	336.01
377.686	317.93
378.066	310.25
378.447	329.68
378.827	343.01
379.208	312.73
379.588	341.88
379.968	343.47
380.349	324.93
380.729	332.62
381.109	321.55
381.489	315.44
381.87	338.27
382.25	341.21
382.63	354.54
383.01	341.88
383.39	358.15
383.77	362.22
384.15	336.01
384.53	328.1
384.91	348.44
385.29	338.04
385.67	329.23
386.049	354.09
386.429	347.76
386.809	346.18
387.189	346.86
387.568	339.62
387.948	362.9
388.328	337.14
388.707	347.99
389.087	353.63
389.466	344.14
389.846	362.9
390.225	350.47
390.605	345.05
390.984	351.83
391.363	360.64
391.743	364.03
392.122	361.54
392.501	377.36
392.881	359.96
393.26	341.43
393.639	378.94
394.018	387.53
394.397	372.62
394.776	378.94
395.155	371.26
395.534	375.1
395.913	371.49
396.292	383.24
396.671	358.61
397.05	378.94
397.429	379.85
397.808	382.11
398.186	373.3
398.565	389.57
398.944	394.54
399.323	368.1
399.701	378.04
400.08	380.98
400.458	401.54
400.837	393.18
401.215	408.55
401.594	395.22
401.972	421.88
402.351	404.48
402.729	392.28
403.107	398.15
403.486	389.57
403.864	387.08
404.242	399.28
404.62	404.25
404.999	421.88
405.377	402.45
405.755	421.43
406.133	413.07
406.511	425.95
406.889	412.84
407.267	416.01
407.645	431.82
408.023	439.51
408.401	428.89
408.779	427.08
409.156	434.08
409.534	415.33
409.912	435.67
410.29	435.44
410.667	460.52
411.045	448.55
411.422	444.48
411.8	450.58
412.178	449.9
412.555	470.69
412.933	473.86
413.31	466.4
413.687	452.39
414.065	479.96
414.442	480.64
414.819	476.8
415.197	464.14
415.574	478.38
415.951	483.57
416.328	467.3
416.705	500.98
417.082	491.03
417.46	483.12
417.837	467.3
418.214	491.26
418.591	491.26
418.967	504.37
419.344	513.63
419.721	524.7
420.098	517.47
420.475	538.71
420.852	527.42
421.228	527.19
421.605	525.83
421.982	531.26
422.358	521.77
422.735	521.31
423.111	538.26
423.488	526.06
423.864	559.05
424.241	535.1
424.617	541.88
424.994	550.01
425.37	529.9
425.746	571.26
426.123	565.61
426.499	563.35
426.875	550.47
427.251	573.52
427.627	571.48
428.003	584.36
428.379	563.57
428.756	602.22
429.132	596.57
429.507	607.64
429.883	596.34
430.259	623.46
430.635	628.2
431.011	606.96
431.387	611.26
431.763	625.27
432.138	626.17
432.514	650.35
432.89	644.93
433.265	665.72
433.641	658.71
434.016	674.76
434.392	665.94
434.767	674.3
435.143	667.52
435.518	659.62
435.894	667.52
436.269	704.13
436.644	702.33
437.02	713.17
437.395	675.21
437.77	701.65
438.145	733.96
438.52	709.33
438.895	721.99
439.271	736.45
439.646	746.17
440.021	703.91
440.395	754.53
440.77	708.43
441.145	754.98
441.52	740.97
441.895	750.91
442.27	773.28
442.645	752.72
443.019	783.91
443.394	758.82
443.769	759.73
444.143	777.8
444.518	787.3
444.892	767.18
445.267	807.18
445.641	769.22
446.016	798.82
446.39	780.06
446.764	798.82
447.139	795.88
447.513	831.81
447.887	830.01
448.262	804.47
448.636	806.28
449.01	829.55
449.384	830.68
449.758	822.55
450.132	846.5
450.506	842.21
450.88	838.82
451.254	817.58
451.628	854.19
452.002	854.86
452.376	871.59
452.75	877.24
453.123	869.78
453.497	894.86
453.871	897.12
454.244	915.2
454.618	918.82
454.992	914.07
455.365	933.96
455.739	938.48
456.112	942.77
456.486	953.17
456.859	946.16
457.232	956.78
457.606	985.26
457.979	983.9
458.352	987.74
458.725	971.92
459.099	1002.88
459.472	996.56
459.845	1041.53
460.218	1015.76
460.591	1041.07
460.964	1014.63
461.337	1072.03
461.71	1088.53
462.083	1097.8
462.456	1084.46
462.829	1111.81
463.201	1123.78
463.574	1112.03
463.947	1129.66
464.32	1156.78
464.692	1148.19
465.065	1166.49
465.438	1177.79
465.81	1207.17
466.183	1192.93
466.555	1228.64
466.928	1217.79
467.3	1214.86
467.672	1246.27
468.045	1269.99
468.417	1276.55
468.789	1281.97
469.161	1316.77
469.534	1332.59
469.906	1361.29
470.278	1352.25
470.65	1387.28
471.022	1377.34
471.394	1413.49
471.766	1431.35
472.138	1458.24
472.51	1461.63
472.882	1502.76
473.253	1507.5
473.625	1508.41
473.997	1565.81
474.369	1571.68
474.74	1573.04
475.112	1627.73
475.484	1648.06
475.855	1674.5
476.227	1680.61
476.598	1726.25
476.97	1741.85
477.341	1811.22
477.713	1827.72
478.084	1811.68
478.455	1869.53
478.827	1897.32
479.198	1957.66
479.569	1974.38
479.94	1990.65
480.311	2027.49
480.682	2041.27
481.053	2117.88
481.424	2141.38
481.795	2137.09
482.166	2166.47
482.537	2215.51
482.908	2251.21
483.279	2292.34
483.65	2317.65
484.021	2365.79
484.391	2419.34
484.762	2437.42
485.133	2463.64
485.503	2514.71
485.874	2583.63
486.244	2588.6
486.615	2652.11
486.985	2681.03
487.356	2725.32
487.726	2743.4
488.097	2809.62
488.467	2835.83
488.837	2858.65
489.207	2933.91
489.578	2970.29
489.948	2956.28
490.318	3013
490.688	3026.78
491.058	3102.94
491.428	3123.28
491.798	3142.49
492.168	3266.1
492.538	3259.55
492.908	3266.78
493.278	3312.2
493.648	3348.58
494.017	3388.58
494.387	3392.65
494.757	3430.84
495.126	3503.83
495.496	3532.31
495.866	3543.83
496.235	3572.08
496.605	3579.76
496.974	3627.45
497.344	3624.28
497.713	3657.95
498.082	3693.89
498.452	3773.43
498.821	3769.36
499.19	3748.35
499.559	3788.8
499.928	3799.19
500.298	3823.15
500.667	3886.65
501.036	3906.76
501.405	3954.22
501.774	3939.76
502.143	3999.19
502.512	3991.73
502.88	3993.54
503.249	4045.97
503.618	4041.9
503.987	4065.85
504.356	4121.45
504.724	4121.45
505.093	4176.13
505.462	4169.13
505.83	4200.99
506.199	4215.91
506.567	4272.4
506.936	4239.63
507.304	4290.71
507.672	4320.31
508.041	4353.3
508.409	4333.64
508.777	4380.65
509.145	4368.22
509.514	4428.33
509.882	4421.78
510.25	4418.16
510.618	4445.05
510.986	4486.18
511.354	4491.38
511.722	4520.08
512.09	4542.23
512.458	4558.04
512.826	4602.34
513.193	4599.17
513.561	4598.04
513.929	4654.31
514.297	4693.63
514.664	4708.77
515.032	4744.03
515.4	4740.41
515.767	4745.61
516.135	4784.7
516.502	4782.67
516.869	4829
517.237	4809.79
517.604	4783.35
517.972	4833.29
518.339	4885.94
518.706	4874.42
519.073	4919.39
519.44	4857.25
519.808	4934.53
520.175	4939.05
520.542	4994.87
520.909	4967.52
521.276	5005.94
521.643	5057.69
522.009	5060.18
522.376	5082.78
522.743	5099.05
523.11	5163.9
523.477	5196.45
523.843	5191.93
524.21	5282.54
524.577	5263.79
524.943	5259.27
525.31	5328.87
525.676	5370.45
526.043	5409.77
526.409	5401.64
526.776	5474.86
527.142	5474.4
527.508	5501.97
527.874	5569.99
528.241	5567.96
528.607	5598.24
528.973	5585.36
529.339	5615.64
529.705	5593.5
530.071	5725.02
530.437	5699.71
530.803	5798.01
531.169	5768.63
531.535	5718.47
531.901	5755.07
532.267	5812.47
532.632	5856.09
532.998	5861.06
533.364	5930.44
533.73	5899.93
534.095	5958.69
534.461	5958.69
534.826	5984.9
535.192	6007.5
535.557	6123.2
535.923	6072.81
536.288	6041.39
536.653	6147.61
537.019	6088.4
537.384	6118.45
537.749	6198
538.114	6161.62
538.479	6252.46
538.845	6262.18
539.21	6271.22
539.575	6310.99
539.94	6289.98
540.305	6391.67
540.67	6320.03
541.034	6390.99
541.399	6431.44
541.764	6441.38
542.129	6437.32
542.494	6496.3
542.858	6545.34
543.223	6525
543.587	6578.78
543.952	6578.1
544.316	6601.83
544.681	6637.09
545.045	6656.29
545.41	6668.5
545.774	6699.23
546.138	6724.77
546.503	6756.18
546.867	6801.15
547.231	6824.43
547.595	6891.32
547.959	6870.98
548.324	6863.29
548.688	6911.88
549.052	6898.55
549.416	6971.99
549.779	6946
550.143	7025.1
550.507	7050.41
550.871	7117.98
551.235	7037.98
551.599	7072.1
551.962	7126.34
552.326	7169.95
552.689	7158.65
553.053	7103.06
553.417	7118.2
553.78	7280.91
554.143	7239.78
554.507	7310.51
554.87	7307.12
555.234	7337.86
555.597	7328.59
555.96	7320.23
556.323	7393.22
556.686	7396.16
557.05	7468.25
557.413	7469.38
557.776	7471.19
558.139	7530.17
558.502	7518.64
558.865	7597.29
559.228	7599.09
559.59	7619.21
559.953	7653.33
560.316	7736.27
560.679	7717.06
561.041	7792.08
561.404	7817.39
561.767	7775.36
562.129	7844.96
562.492	7858.97
562.854	7857.84
563.217	7885.87
563.579	7925.19
563.941	7976.26
564.304	7995.47
564.666	8076.82
565.028	7959.76
565.39	8065.97
565.753	8106.88
566.115	8152.07
566.477	8190.94
566.839	8291.28
567.201	8241.79
567.563	8269.36
567.925	8309.36
568.287	8273.88
568.648	8371.5
569.01	8454.89
569.372	8484.95
569.734	8403.37
570.095	8556.13
570.457	8525.4
570.819	8541.89
571.18	8554.55
571.542	8631.84
571.903	8627.09
572.265	8729.01
572.626	8763.81
572.987	8752.06
573.349	8752.28
573.71	8853.75
574.071	8894.43
574.432	8958.61
574.794	9037.02
575.155	9131.26
575.516	9089.22
575.877	9112.05
576.238	9286.06
576.599	9350.69
576.96	9348.43
577.32	9427.07
577.681	9500.06
578.042	9620.96
578.403	9707.06
578.763	9738.7
579.124	9803.33
579.485	10013.04
579.845	9983.66
580.206	10092.36
580.566	10188.18
580.927	10244
581.287	10426.59
581.648	10506.36
582.008	10719.24
582.368	10772.34
582.728	10865
583.089	11050.53
583.449	11189.73
583.809	11318.54
584.169	11484.19
584.529	11535.26
584.889	11789.04
585.249	11994.23
585.609	12030.62
585.969	12274.45
586.329	12420.66
586.688	12656.36
587.048	12930.48
587.408	13017.48
587.768	13298.15
588.127	13409.11
588.487	13653.17
588.846	13895.65
589.206	14011.58
589.565	14217.45
589.925	14494.73
590.284	14711.9
590.643	14926.81
591.003	15231.21
591.362	15451.54
591.721	15642.72
592.08	15909.38
592.44	16318.41
592.799	16495.81
593.158	16696.26
593.517	16984.38
593.876	17120.88
594.235	17525.16
594.593	17645.38
594.952	18066.16
595.311	18213.96
595.67	18466.38
596.029	18940.94
596.387	19147.26
596.746	19466.13
597.104	19664.09
597.463	19930.07
597.822	20122.15
598.18	20392.43
598.538	20662.25
598.897	21116.03
599.255	21137.72
599.613	21596.24
599.972	21763.24
600.33	22073.52
600.688	22254.98
601.046	22623.11
601.404	22939.71
601.762	23071
602.12	23399.13
602.478	23583.31
602.836	23895.61
603.194	23984.88
603.552	24287.02
603.91	24489.05
604.268	24802.48
604.625	25030.73
604.983	25284.73
605.341	25304.17
605.698	25741.89
606.056	26069.57
606.413	26157.93
606.771	26499.61
607.128	26584.13
607.485	26750.68
607.843	27008.98
608.2	27381.17
608.557	27484.67
608.914	27679.92
609.272	28009.86
609.629	28092.57
609.986	28467.92
610.343	28482.39
610.7	28829.27
611.057	29045.99
611.414	29144.97
611.771	29349.26
612.127	29597.39
612.484	29702.92
612.841	29987.21
613.198	29952.18
613.554	30123.25
613.911	30488.89
614.267	30592.61
614.624	30700.86
614.98	30905.15
615.337	31133.39
615.693	31223.11
616.05	31401.86
616.406	31583.32
616.762	31640.5
617.118	31833.26
617.475	31880.72
617.831	32053.14
618.187	32208.62
618.543	32290.2
618.899	32533.35
619.255	32667.59
619.611	32788.49
619.967	32954.13
620.323	33023.51
620.678	33059.67
621.034	33072.1
621.39	33288.14
621.746	33318.87
622.101	33695.81
622.457	33531.75
622.812	33707.56
623.168	33881.79
623.523	33988.91
623.879	34029.81
624.234	33913.43
624.589	34156.59
624.945	34237.04
625.3	34307.77
625.655	34383.25
626.01	34430.93
626.365	34625.05
626.72	34632.51
627.075	34678.61
627.43	34725.61
627.785	34658.04
628.14	34761.32
628.495	34951.82
628.85	34854.65
629.205	34778.04
629.559	35061.42
629.914	35071.59
630.269	34992.5
630.623	34972.61
630.978	34943.91
631.332	34980.07
631.687	35230.23
632.041	35113.62
632.396	35357.69
632.75	35031.14
633.104	35183.45
633.459	34955.21
633.813	35072.5
634.167	35132.16
634.521	35173.51
634.875	35206.73
635.229	35277.46
635.583	35132.83
635.937	35125.83
636.291	35172.15
636.645	35196.33
636.999	35068.43
637.352	35329.89
637.706	35138.93
638.06	35221.42
638.413	35255.32
638.767	35150.01
639.121	35241.31
639.474	35003.35
639.828	35169.44
640.181	35209.22
640.534	35098.03
640.888	35055.1
641.241	34994.53
641.594	35041.08
641.947	35137.35
642.301	35104.13
642.654	35045.83
643.007	35119.27
643.36	35089.67
643.713	34982.55
644.066	35073.4
644.419	34980.52
644.771	34787.76
645.124	34392.29
645.477	34415.34
645.83	34252.4
646.182	34160.43
646.535	34112.75
646.888	34048.79
647.24	33795.47
647.593	34070.94
647.945	34093.09
648.298	33950.04
648.65	33805.18
649.002	33800.66
649.355	33910.49
649.707	33974.67
650.059	34028.23
650.411	34472.96
650.763	34446.98
651.115	34809.9
651.467	34762
651.819	34686.74
652.171	34578.72
652.523	34533.3
652.875	34530.14
653.227	34586.86
653.578	34704.37
653.93	34696.91
654.282	34518.61
654.633	34374.89
654.985	34503.7
655.337	34395.68
655.688	34416.69
656.039	34672.96
656.391	34197.49
656.742	34380.99
657.094	34396.13
657.445	34606.07
657.796	34465.28
658.147	34313.87
658.498	34443.36
658.849	34451.72
659.2	34388.9
659.551	34373.98
659.902	34483.81
660.253	34444.72
660.604	34507.31
660.955	34358.84
661.306	34464.83
661.656	34311.39
662.007	34379.63
662.358	34363.81
662.708	34246.98
663.059	34262.12
663.409	34177.38
663.76	34422.34
664.11	34345.96
664.461	34444.72
664.811	34294.44
665.161	34373.31
665.511	34276.81
665.862	34354.32
666.212	34481.78
666.562	34295.57
666.912	34418.5
667.262	34265.96
667.612	34214.67
667.962	34353.64
668.312	34248.56
668.662	34531.72
669.011	34322.01
669.361	34276.36
669.711	34150.49
670.06	34116.36
670.41	33894.45
670.76	34027.55
671.109	34219.86
671.459	34167.21
671.808	34058.06
672.157	34142.58
672.507	33892.41
672.856	33991.62
673.205	34048.12
673.554	34098.28
673.904	34075.46
674.253	34059.87
674.602	33892.41
674.951	33678.86
675.3	33357.29
675.649	33881.34
675.998	33832.08
676.346	33858.29
676.695	33890.15
677.044	33797.73
677.393	33782.36
677.741	33906.88
678.09	33703.04
678.438	33711.18
678.787	33944.84
679.135	33801.34
679.484	33649.48
679.832	33669.14
680.181	33525.87
680.529	33636.15
680.877	33538.07
681.225	33442.48
681.573	33663.49
681.922	33534.46
682.27	33340.79
682.618	33402.26
682.966	33257.63
683.314	33393.67
683.661	33217.63
684.009	33103.96
684.357	32904.64
684.705	33064.41
685.053	33040.46
685.4	32924.3
685.748	32767.25
686.095	32796.17
686.443	32717.76
686.79	32746.91
687.138	32682.28
687.485	32734.93
687.832	32529.96
688.18	32760.01
688.527	32474.15
688.874	32565.22
689.221	32407.93
689.568	32290.65
689.915	32173.59
690.262	32218.33
690.609	32065.8
690.956	31983.31
691.303	31972.24
691.65	31945.8
691.997	31783.99
692.344	31691.34
692.69	31701.96
693.037	31748.97
693.383	31534.28
693.73	31548.29
694.077	31418.81
694.423	31247.06
694.769	31231.24
695.116	31211.81
695.462	31038.25
695.808	31031.47
696.155	31017.91
696.501	30895.88
696.847	30915.32
697.193	30675.32
697.539	30788.99
697.885	30497.47
698.231	30456.8
698.577	30439.85
698.923	30473.97
699.269	30196.92
699.614	30039.41
699.96	30106.07
700.306	30047.32
700.651	29934.33
700.997	29740.43
701.342	29817.94
701.688	29839.87
702.033	29711.51
702.379	29659.98
702.724	29568.46
703.069	29575.69
703.415	29302.7
703.76	29287.79
704.105	29387.22
704.45	29323.49
704.795	29121.92
705.14	29123.5
705.485	29076.5
705.83	28848.7
706.175	28869.5
706.52	28767.12
706.865	28710.18
707.209	28585.43
707.554	28482.84
707.899	28531.65
708.243	28424.76
708.588	28410.98
708.932	28169.4
709.277	28236.52
709.621	28206.24
709.966	28000.37
710.31	28116.52
710.654	27910.42
710.998	27970.99
711.342	28009.18
711.687	27839.24
712.031	27773.7
712.375	27618.68
712.719	27656.42
713.063	27660.04
713.407	27649.19
713.75	27495.75
714.094	27575.52
714.438	27445.35
714.782	27407.84
715.125	27246.71
715.469	27305.02
715.812	27258.69
716.156	27121.07
716.499	27172.82
716.843	27209.43
717.186	26821.87
717.53	26980.05
717.873	27108.64
718.216	26963.56
718.559	26813.28
718.902	26647.18
719.246	26870
719.589	26619.16
719.932	26548.43
720.275	26524.7
720.617	26481.76
720.96	26495.32
721.303	26474.08
721.646	26322.9
721.989	26354.08
722.331	26417.13
722.674	26300.98
723.016	26281.09
723.359	26166.97
723.701	26200.86
724.044	26022.56
724.386	25811.27
724.729	25975.33
725.071	25962
725.413	25862.79
725.755	25851.27
726.097	25721.78
726.439	25642.69
726.782	25728.56
727.124	25729.24
727.465	25513.65
727.807	25572.18
728.149	25539.19
728.491	25421.45
728.833	25510.26
729.175	25416.48
729.516	25343.26
729.858	25345.75
730.199	25391.17
730.541	25373.54
730.882	25235.69
731.224	25355.01
731.565	25214.22
731.906	25254.45
732.248	25309.59
732.589	25008.58
732.93	24956.6
733.271	24907.11
733.612	25006.09
733.953	25112.53
734.294	24849.71
734.635	24837.06
734.976	24903.95
735.317	24781.69
735.658	24823.05
735.999	24738.3
736.339	24658.76
736.68	24902.59
737.021	24748.7
737.361	24616.73
737.702	24712.99
738.042	24557.97
738.383	24574.47
738.723	24583.73
739.063	24536.95
739.404	24467.35
739.744	24364.75
740.084	24327.92
740.424	24439.56
740.764	24487.24
741.104	24441.14
741.444	24236.62
741.784	24072.56
742.124	24164.31
742.464	24166.79
742.804	24070.98
743.143	24154.36
743.483	24141.48
743.823	23998.44
744.162	23937.42
744.502	24066.68
744.841	23920.7
745.181	24010.41
745.52	23761.61
745.86	23906.46
746.199	23941.04
746.538	23805.67
746.877	23767.03
747.216	23905.11
747.556	23787.59
747.895	23746.47
748.234	23659.91
748.573	23575.62
748.911	23472.8
749.25	23527.71
749.589	23478.45
749.928	23594.15
750.267	23393.48
750.605	23368.85
750.944	23399.58
751.283	23238
751.621	23364.78
751.96	23182.41
752.298	23141.51
752.636	23064
752.975	23137.89
753.313	23050.89
753.651	23075.75
753.989	22955.53
754.327	22864.68
754.666	22881.4
755.004	22842.76
755.342	22888.18
755.679	22891.8
756.017	22691.8
756.355	22750.33
756.693	22540.62
757.031	22591.47
757.368	22468.76
757.706	22548.53
758.044	22390.12
758.381	22373.85
758.719	22309.44
759.056	22389.44
759.394	22265.38
759.731	22150.58
760.068	22187.18
760.405	22075.1
760.743	21983.8
