Data from hue_210_FLMS001491_00003.txt Node
Date: Tue Feb 07 16:40:40 GMT 2017
User: dcchb
Spectrometer: FLMS00149
Trigger mode: 0
Integration Time (sec): 2.000000E-2
Scans to average: 10
Electric dark correction enabled: true
Nonlinearity correction enabled: false
Boxcar width: 0
XAxis mode: Wavelengths
Number of Pixels in Spectrum: 2048
>>>>>Begin Spectral Data<<<<<
341.393	-15.54
341.776	-15.54
342.16	-15.54
342.543	-35.87
342.927	-67.96
343.31	-52.15
343.693	-82.88
344.077	-76.33
344.46	-78.36
344.843	-47.63
345.226	-37.46
345.61	-24.58
345.993	-25.03
346.376	-6.27
346.759	14.97
347.142	12.94
347.525	48.64
347.908	49.77
348.291	76.21
348.674	98.36
349.057	129.77
349.44	105.36
349.823	147.17
350.206	159.15
350.588	215.19
350.971	209.77
351.354	221.97
351.737	230.56
352.119	245.02
352.502	268.3
352.884	277.56
353.267	257.68
353.65	289.77
354.032	299.26
354.414	295.64
354.797	290.67
355.179	329.77
355.562	306.49
355.944	316.66
356.326	303.33
356.709	334.06
357.091	326.83
357.473	322.31
357.855	320.73
358.238	344.91
358.62	345.81
359.002	336.32
359.384	316.21
359.766	327.73
360.148	324.12
360.53	337.67
360.912	340.61
361.294	339.48
361.676	346.26
362.057	335.19
362.439	318.24
362.821	319.14
363.203	315.53
363.584	332.93
363.966	336.77
364.348	326.15
364.729	314.4
365.111	293.83
365.493	305.81
365.874	328.18
366.256	322.08
366.637	317.34
367.019	316.88
367.4	332.03
367.781	309.43
368.163	315.08
368.544	304.68
368.925	306.26
369.306	316.66
369.688	311.01
370.069	325.47
370.45	317.34
370.831	300.61
371.212	298.35
371.593	321.63
371.974	301.74
372.355	329.99
372.736	301.29
373.117	326.83
373.498	312.36
373.879	323.66
374.26	300.84
374.641	328.86
375.021	314.85
375.402	329.54
375.783	339.48
376.163	322.99
376.544	312.36
376.925	309.88
377.305	307.39
377.686	323.44
378.066	327.73
378.447	330.22
378.827	337.45
379.208	316.43
379.588	323.21
379.968	330.22
380.349	333.83
380.729	334.51
381.109	331.35
381.489	333.38
381.87	308.75
382.25	322.53
382.63	343.32
383.01	355.53
383.39	336.54
383.77	344.23
384.15	346.04
384.53	355.3
384.91	332.25
385.29	346.49
385.67	348.3
386.049	347.84
386.429	364.11
386.809	376.77
387.189	350.33
387.568	322.31
387.948	333.38
388.328	327.73
388.707	345.13
389.087	354.85
389.466	379.03
389.846	362.08
390.225	362.08
390.605	360.05
390.984	362.53
391.363	367.28
391.743	378.8
392.122	362.98
392.501	357.11
392.881	386.26
393.26	384.91
393.639	380.61
394.018	365.92
394.397	379.93
394.776	362.98
395.155	381.06
395.534	383.55
395.913	385.81
396.292	402.31
396.671	392.81
397.05	393.04
397.429	420.16
397.808	399.37
398.186	395.75
398.565	395.53
398.944	416.32
399.323	385.13
399.701	402.98
400.08	401.63
400.458	420.38
400.837	427.39
401.215	432.36
401.594	414.73
401.972	422.64
402.351	421.29
402.729	425.81
403.107	425.36
403.486	430.1
403.864	434.85
404.242	447.28
404.62	437.11
404.999	457.22
405.377	463.77
405.755	454.06
406.133	470.78
406.511	470.1
406.889	490.67
407.267	475.75
407.645	477.56
408.023	496.54
408.401	504.68
408.779	496.31
409.156	509.42
409.534	525.24
409.912	518.69
410.29	540.83
410.667	557.56
411.045	558.01
411.422	555.52
411.8	549.42
412.178	572.24
412.555	583.32
412.933	577.44
413.31	569.31
413.687	619.48
414.065	629.42
414.442	612.02
414.819	603.43
415.197	663.54
415.574	640.94
415.951	659.25
416.328	632.36
416.705	697.44
417.082	691.79
417.46	695.41
417.837	695.41
418.214	736.53
418.591	706.25
418.967	732.92
419.344	739.92
419.721	754.16
420.098	740.83
420.475	767.72
420.852	795.74
421.228	771.11
421.605	816.53
421.982	822.18
422.358	813.59
422.735	857.21
423.111	842.29
423.488	892.01
423.864	899.47
424.241	922.74
424.617	935.17
424.994	960.94
425.37	951.9
425.746	948.51
426.123	990.54
426.499	973.59
426.875	1008.39
427.251	1037.32
427.627	1047.94
428.003	1039.13
428.379	1057.88
428.756	1064.66
429.132	1106.02
429.507	1142.63
429.883	1105.56
430.259	1129.29
430.635	1133.59
431.011	1165.22
431.387	1180.82
431.763	1206.58
432.138	1204.77
432.514	1206.35
432.89	1236.41
433.265	1275.96
433.641	1269.4
434.016	1296.07
434.392	1346.69
434.767	1388.49
435.143	1356.63
435.518	1377.87
435.894	1405.44
436.269	1440.92
436.644	1482.28
437.02	1466.68
437.395	1487.48
437.77	1523.41
438.145	1569.96
438.52	1576.74
438.895	1618.09
439.271	1617.19
439.646	1677.3
440.021	1707.81
440.395	1739.45
440.77	1743.06
441.145	1708.49
441.52	1757.98
441.895	1797.75
442.27	1813.34
442.645	1847.47
443.019	1865.54
443.394	1868.93
443.769	1889.72
444.143	1875.94
444.518	1910.74
444.892	1953.9
445.267	1936.05
445.641	1967.46
446.016	1987.35
446.39	1993
446.764	2063.96
447.139	1995.71
447.513	2012.43
447.887	2069.83
448.262	2087.91
448.636	2082.49
449.01	2103.73
449.384	2120.45
449.758	2158.64
450.132	2162.71
450.506	2181.24
450.88	2188.02
451.254	2188.47
451.628	2249.04
452.002	2256.95
452.376	2276.15
452.75	2336.04
453.123	2291.52
453.497	2357.51
453.871	2370.39
454.244	2414.91
454.618	2418.07
454.992	2430.5
455.365	2445.87
455.739	2503.95
456.112	2519.76
456.486	2541.46
456.859	2599.31
457.232	2647.22
457.606	2601.57
457.979	2660.1
458.352	2714.79
458.725	2746.88
459.099	2759.31
459.472	2800.89
459.845	2818.06
460.218	2863.94
460.591	2868.23
460.964	2886.99
461.337	2962.46
461.71	2988
462.083	3030.49
462.456	3030.03
462.829	3001.11
463.201	3116.36
463.574	3089.92
463.947	3155.23
464.32	3232.74
464.692	3265.73
465.065	3270.48
465.438	3315.22
465.81	3374.88
466.183	3420.31
466.555	3471.38
466.928	3461.43
467.3	3463.24
467.672	3515.22
468.045	3616.46
468.417	3611.49
468.789	3635.67
469.161	3678.83
469.534	3745.95
469.906	3814.65
470.278	3797.24
470.65	3887.19
471.022	3961.53
471.394	4008.99
471.766	4071.59
472.138	4044.7
472.51	4130.34
472.882	4180.74
473.253	4218.7
473.625	4291.24
473.997	4378.92
474.369	4381.64
474.74	4390.22
475.112	4554.74
475.484	4638.58
475.855	4673.38
476.227	4677
476.598	4804.45
476.97	4798.35
477.341	4934.16
477.713	4978.23
478.084	4972.58
478.455	5074.27
478.827	5154.05
479.198	5302.97
479.569	5332.12
479.94	5425.9
480.311	5462.06
480.682	5555.39
481.053	5677.87
481.424	5727.82
481.795	5763.07
482.166	5886.68
482.537	5926
482.908	6064.98
483.279	6094.36
483.65	6128.03
484.021	6305.2
484.391	6420.9
484.762	6370.06
485.133	6433.11
485.503	6542.71
485.874	6629.71
486.244	6680.78
486.615	6801.69
486.985	6851.85
487.356	6939.54
487.726	7006.2
488.097	7084.84
488.467	7137.04
488.837	7288
489.207	7368.22
489.578	7450.26
489.948	7514.66
490.318	7612.06
490.688	7576.58
491.058	7678.05
491.428	7784.94
491.798	7872.39
492.168	8003.24
492.538	8012.28
492.908	8083.23
493.278	8198.71
493.648	8148.32
494.017	8287.07
494.387	8356.45
494.757	8390.8
495.126	8379.72
495.496	8461.98
495.866	8530.68
496.235	8566.38
496.605	8578.36
496.974	8698.36
497.344	8760.5
497.713	8760.96
498.082	8764.35
498.452	8892.25
498.821	8869.2
499.19	8903.55
499.559	8946.49
499.928	9046.82
500.298	9046.37
500.667	9088.63
501.036	9085.24
501.405	9196.42
501.774	9127.05
502.143	9177.22
502.512	9189.87
502.88	9311.22
503.249	9367.04
503.618	9307.61
503.987	9350.09
504.356	9416.31
504.724	9428.74
505.093	9395.97
505.462	9441.39
505.83	9546.92
506.199	9588.5
506.567	9566.13
506.936	9593.25
507.304	9674.38
507.672	9636.41
508.041	9679.8
508.409	9733.13
508.777	9760.03
509.145	9827.59
509.514	9747.6
509.882	9808.61
510.25	9797.54
510.618	9825.11
510.986	9854.49
511.354	9956.86
511.722	9945.33
512.09	9985.33
512.458	10013.8
512.826	10005.22
513.193	10034.82
513.561	10031.66
513.929	10093.12
514.297	10122.73
514.664	10076.63
515.032	10146.46
515.4	10114.14
515.767	10153.69
516.135	10186.68
516.502	10014.26
516.869	10227.81
517.237	10234.36
517.604	10136.29
517.972	10217.41
518.339	10317.75
518.706	10247.7
519.073	10195.72
519.44	10216.06
519.808	10317.53
520.175	10228.26
520.542	10381.25
520.909	10357.98
521.276	10298.77
521.643	10331.31
522.009	10404.53
522.376	10323.63
522.743	10336.28
523.11	10422.38
523.477	10462.61
523.843	10471.42
524.21	10537.18
524.577	10529.05
524.943	10513.23
525.31	10490.85
525.676	10567.91
526.043	10565.2
526.409	10616.05
526.776	10596.16
527.142	10580.12
527.508	10559.78
527.874	10553.68
528.241	10581.02
528.607	10550.51
528.973	10562.72
529.339	10543.06
529.705	10649.49
530.071	10612.21
530.437	10594.58
530.803	10601.36
531.169	10647.69
531.535	10551.87
531.901	10542.6
532.267	10540.34
532.632	10556.16
532.998	10515.71
533.364	10565.43
533.73	10471.19
534.095	10509.61
534.461	10513.68
534.826	10542.83
535.192	10470.29
535.557	10465.54
535.923	10412.44
536.288	10439.1
536.653	10424.87
537.019	10325.21
537.384	10369.95
537.749	10400.24
538.114	10285.66
538.479	10219.45
538.845	10265.78
539.21	10224.19
539.575	10225.55
539.94	10230.75
540.305	10164.08
540.67	10115.27
541.034	10125.67
541.399	10055.16
541.764	10111.88
542.129	10017.19
542.494	9962.96
542.858	10025.78
543.223	9933.35
543.587	9943.98
543.952	9878.89
544.316	9903.52
544.681	9799.57
545.045	9778.78
545.41	9818.56
545.774	9822.4
546.138	9790.31
546.503	9714.15
546.867	9689.07
547.231	9724.55
547.595	9703.08
547.959	9637.09
548.324	9569.07
548.688	9535.62
549.052	9591.44
549.416	9509.41
549.779	9539.01
550.143	9467.83
550.507	9518.9
550.871	9420.15
551.235	9338.79
551.599	9377.89
551.962	9376.99
552.326	9335.86
552.689	9333.37
553.053	9302.18
553.417	9252.69
553.78	9264.22
554.143	9261.51
554.507	9276.65
554.87	9208.85
555.234	9246.59
555.597	9198.23
555.96	9174.96
556.323	9181.28
556.686	9192.81
557.05	9171.79
557.413	9120.27
557.776	9096.99
558.139	9098.35
558.502	9064.68
558.865	9096.77
559.228	9070.33
559.59	9075.52
559.953	9063.55
560.316	9140.38
560.679	9053.15
561.041	9101.51
561.404	9047.95
561.767	9104.9
562.129	9089.08
562.492	9088.63
562.854	9112.36
563.217	9055.64
563.579	9057.22
563.941	9032.14
564.304	9125.92
564.666	9069.2
565.028	9107.16
565.39	9099.03
565.753	9192.13
566.115	9162.08
566.477	9179.93
566.839	9101.96
567.201	9164.11
567.563	9138.35
567.925	9194.17
568.287	9230.1
568.648	9146.71
569.01	9174.96
569.372	9216.31
569.734	9196.42
570.095	9275.52
570.457	9190.32
570.819	9317.1
571.18	9246.37
571.542	9255.18
571.903	9242.98
572.265	9290.89
572.626	9325.24
572.987	9308.74
573.349	9324.33
573.71	9357.55
574.071	9328.4
574.432	9402.75
574.794	9363.2
575.155	9365.46
575.516	9375.63
575.877	9272.13
576.238	9437.1
576.599	9435.51
576.96	9363.2
577.32	9377.21
577.681	9483.65
578.042	9538.56
578.403	9421.5
578.763	9421.28
579.124	9548.05
579.485	9580.6
579.845	9547.83
580.206	9478
580.566	9570.43
580.927	9567.49
581.287	9578.56
581.648	9528.62
582.008	9592.8
582.368	9562.06
582.728	9623.08
583.089	9608.39
583.449	9634.61
583.809	9557.55
584.169	9613.59
584.529	9705.34
584.889	9672.34
585.249	9623.98
585.609	9562.52
585.969	9716.41
586.329	9673.93
586.688	9699.69
587.048	9634.15
587.408	9663.08
587.768	9645
588.127	9659.01
588.487	9685.9
588.846	9772.68
589.206	9694.94
589.565	9685
589.925	9779.23
590.284	9712.57
590.643	9729.97
591.003	9752.34
591.362	9778.56
591.721	9729.97
592.08	9695.85
592.44	9785.34
592.799	9753.02
593.158	9776.07
593.517	9729.07
593.876	9824.2
594.235	9747.82
594.593	9785.79
594.952	9793.7
595.311	9728.16
595.67	9737.65
596.029	9825.79
596.387	9795.73
596.746	9863.07
597.104	9732.91
597.463	9736.3
597.822	9850.87
598.18	9786.92
598.538	9774.49
598.897	9853.13
599.255	9818.1
599.613	9897.2
599.972	9856.07
600.33	9855.16
600.688	9883.19
601.046	9837.76
601.404	9917.31
601.762	9896.97
602.12	9928.16
602.478	9966.57
602.836	9853.58
603.194	9901.94
603.552	9890.64
603.91	9852.9
604.268	9882.51
604.625	9908.72
604.983	9828.27
605.341	9855.84
605.698	9826.69
606.056	9966.12
606.413	9904.65
606.771	9897.2
607.128	9941.94
607.485	9919.12
607.843	9848.16
608.2	9911.66
608.557	9985.78
608.914	9942.62
609.272	9960.7
609.629	9988.27
609.986	9994.82
610.343	9939.23
610.7	10083.86
611.057	10013.35
611.414	9925.22
611.771	9974.71
612.127	10063.97
612.484	10027.82
612.841	10051.54
613.198	10014.71
613.554	10087.25
613.911	10056.74
614.267	10113.69
614.624	10046.35
614.98	9935.84
615.337	10129.06
615.693	10128.83
616.05	10127.7
616.406	10164.99
616.762	10073.01
617.118	10104.88
617.475	10140.58
617.831	10131.09
618.187	10155.95
618.543	10134.71
618.899	10137.19
619.255	10125.44
619.611	10143.74
619.967	10210.41
620.323	10225.32
620.678	10218.54
621.034	10137.64
621.39	10092.22
621.746	10161.37
622.101	10284.08
622.457	10179
622.812	10193.01
623.168	10194.59
623.523	10242.73
623.879	10250.86
624.234	10130.64
624.589	10226.45
624.945	10234.59
625.3	10232.1
625.655	10192.1
626.01	10272.78
626.365	10134.03
626.72	10198.88
627.075	10220.58
627.43	10147.59
627.785	10148.04
628.14	10184.2
628.495	10159.56
628.85	10161.15
629.205	10074.59
629.559	10193.46
629.914	10143.52
630.269	10131.77
630.623	10128.6
630.978	10107.81
631.332	10134.93
631.687	10103.29
632.041	10076.85
632.396	10029.62
632.75	10016.52
633.104	10007.25
633.459	10010.19
633.813	10044.76
634.167	10017.87
634.521	10008.38
634.875	10020.36
635.229	9954.15
635.583	9933.58
635.937	9947.14
636.291	9901.04
636.645	9908.5
636.999	9905.56
637.352	9899.01
637.706	9867.37
638.06	9856.75
638.413	9865.79
638.767	9813.58
639.121	9801.83
639.474	9771.55
639.828	9803.41
640.181	9832.57
640.534	9739.01
640.888	9722.29
641.241	9673.02
641.594	9743.76
641.947	9770.87
642.301	9752.12
642.654	9767.48
643.007	9752.12
643.36	9723.42
643.713	9660.37
644.066	9774.49
644.419	9650.65
644.771	9648.16
645.124	9572.46
645.477	9531.56
645.83	9473.71
646.182	9424.67
646.535	9397.78
646.888	9450.43
647.24	9417.44
647.593	9379.02
647.945	9349.42
648.298	9341.28
648.65	9362.3
649.002	9272.58
649.355	9359.13
649.707	9336.08
650.059	9466.47
650.411	9557.55
650.763	9535.85
651.115	9623.98
651.467	9542.86
651.819	9555.29
652.171	9591.67
652.523	9540.6
652.875	9577.21
653.227	9517.77
653.578	9607.04
653.93	9564.55
654.282	9558.68
654.633	9529.98
654.985	9607.49
655.337	9608.17
655.688	9573.82
656.039	9558.9
656.391	9516.64
656.742	9577.66
657.094	9562.97
657.445	9554.61
657.796	9520.71
658.147	9492.69
658.498	9535.17
658.849	9582.86
659.2	9598.67
659.551	9544.66
659.902	9583.31
660.253	9572.69
660.604	9628.96
660.955	9577.43
661.306	9685.68
661.656	9488.62
662.007	9633.48
662.358	9623.98
662.708	9699.24
663.059	9547.15
663.409	9528.39
663.76	9604.55
664.11	9628.96
664.461	9648.39
664.811	9557.32
665.161	9599.8
665.511	9610.2
665.862	9603.19
666.212	9667.15
666.562	9631.67
666.912	9670.99
667.262	9635.96
667.612	9656.75
667.962	9634.38
668.312	9623.53
668.662	9675.28
669.011	9619.69
669.361	9603.19
669.711	9619.69
670.06	9570.65
670.41	9577.66
670.76	9574.04
671.109	9606.81
671.459	9605.91
671.808	9554.61
672.157	9520.48
672.507	9496.08
672.856	9513.25
673.205	9474.38
673.554	9496.08
673.904	9505.34
674.253	9526.36
674.602	9541.05
674.951	9343.54
675.3	9346.93
675.649	9503.08
675.998	9496.98
676.346	9486.36
676.695	9523.2
677.044	9401.39
677.393	9462.86
677.741	9455.85
678.09	9364.56
678.438	9379.7
678.787	9413.59
679.135	9412.92
679.484	9315.52
679.832	9336.76
680.181	9319.13
680.529	9340.15
680.877	9278
681.225	9286.14
681.573	9370.88
681.922	9237.33
682.27	9202.3
682.618	9209.31
682.966	9091.34
683.314	9277.1
683.661	9247.95
684.009	9178.8
684.357	9082.53
684.705	9102.87
685.053	9065.58
685.4	9085.47
685.748	9050.89
686.095	9039.37
686.443	8996.66
686.79	8972.93
687.138	8968.41
687.485	8948.52
687.832	8950.1
688.18	8895.42
688.527	8895.64
688.874	8826.04
689.221	8854.96
689.568	8797.57
689.915	8826.72
690.262	8772.48
690.609	8670.11
690.956	8741.3
691.303	8734.06
691.65	8619.26
691.997	8602.54
692.344	8560.74
692.69	8576.78
693.037	8524.35
693.383	8466.73
693.73	8491.13
694.077	8471.02
694.423	8456.56
694.769	8382.21
695.116	8365.71
695.462	8339.05
695.808	8295.21
696.155	8414.75
696.501	8274.42
696.847	8235.55
697.193	8195.55
697.539	8246.39
697.885	8176.34
698.231	8170.24
698.577	8185.6
698.923	8113.74
699.269	8129.79
699.614	8010.69
699.96	7967.98
700.306	7989
700.651	7991.71
700.997	7932.96
701.342	7888.44
701.688	7965.5
702.033	7798.95
702.379	7850.25
702.724	7773.86
703.069	7804.15
703.415	7714.88
703.76	7699.06
704.105	7689.8
704.45	7645.05
704.795	7631.04
705.14	7559.18
705.485	7584.04
705.83	7557.82
706.175	7506.98
706.52	7530.93
706.865	7509.69
707.209	7492.29
707.554	7423.36
707.899	7436.47
708.243	7397.38
708.588	7467.2
708.932	7320.77
709.277	7320.99
709.621	7312.18
709.966	7299.07
710.31	7326.42
710.654	7236.25
710.998	7215.46
711.342	7250.26
711.687	7166.87
712.031	7137.72
712.375	7151.73
712.719	7167.33
713.063	7132.52
713.407	7187.21
713.75	7088.46
714.094	7068.57
714.438	7064.96
714.782	7071.73
715.125	7089.59
715.469	7070.15
715.812	7055.69
716.156	6965.75
716.499	6960.33
716.843	7014.11
717.186	6977.5
717.53	6958.07
717.873	7006.88
718.216	6937.28
718.559	6972.53
718.902	6883.72
719.246	6924.85
719.589	6906.54
719.932	6837.39
720.275	6889.82
720.617	6824.06
720.96	6857.05
721.303	6844.4
721.646	6857.5
721.989	6836.26
722.331	6821.57
722.674	6822.25
723.016	6873.77
723.359	6781.57
723.701	6746.09
724.044	6795.81
724.386	6770.05
724.729	6760.56
725.071	6796.71
725.413	6772.31
725.755	6780.44
726.097	6702.71
726.439	6728.69
726.782	6691.18
727.124	6704.51
727.465	6710.16
727.807	6696.6
728.149	6696.6
728.491	6713.33
728.833	6630.16
729.175	6662.93
729.516	6682.82
729.858	6673.1
730.199	6697.73
730.541	6636.72
730.882	6707.45
731.224	6666.32
731.565	6647.34
731.906	6659.54
732.248	6643.05
732.589	6571.18
732.93	6583.39
733.271	6665.19
733.612	6641.69
733.953	6605.31
734.294	6650.5
734.635	6632.65
734.976	6667
735.317	6654.34
735.658	6668.13
735.999	6663.38
736.339	6676.04
736.68	6676.27
737.021	6645.53
737.361	6715.36
737.702	6709.94
738.042	6695.47
738.383	6652.54
738.723	6707.45
739.063	6656.38
739.404	6743.83
739.744	6723.27
740.084	6708.35
740.424	6740.44
740.764	6744.29
741.104	6780.44
741.444	6778.41
741.784	6828.13
742.124	6824.28
742.464	6832.65
742.804	6826.32
743.143	6804.62
743.483	6867.67
743.823	6851.85
744.162	6887.11
744.502	6903.15
744.841	6910.61
745.181	7038.74
745.52	6997.16
745.86	7074.67
746.199	6991.74
746.538	7142.24
746.877	7177.72
747.216	7182.69
747.556	7156.03
747.895	7267.44
748.234	7297.27
748.573	7317.15
748.911	7368
749.25	7475.79
749.589	7482.8
749.928	7508.11
750.267	7650.48
750.605	7730.25
750.944	7789
751.283	7816.12
751.621	7878.49
751.96	7921.43
752.298	8006.63
752.636	8238.26
752.975	8205.94
753.313	8305.83
753.651	8477.12
753.989	8568.87
754.327	8660.62
754.666	8738.58
755.004	8911.69
755.342	9030.55
755.679	9149.42
756.017	9217.67
756.355	9408.85
756.693	9494.04
757.031	9709.41
757.368	9746.69
757.706	9959.79
758.044	10088.15
758.381	10269.39
758.719	10403.62
759.056	10589.61
759.394	10844.07
759.731	10859.66
760.068	11047.45
760.405	11176.94
760.743	11399.08
761.08	11602.69
761.417	11797.26
761.754	11983.02
762.091	12158.61
762.428	12278.83
762.765	12390.47
763.102	12626.62
763.438	12784.35
763.775	12907.29
764.112	13106.83
764.449	13409.87
764.785	13471.11
765.122	13549.3
765.458	13779.58
