Data from hue_80_FLMS001491_21.txt Node
Date: Mon Feb 06 15:22:43 GMT 2017
User: dcchb
Spectrometer: FLMS00149
Trigger mode: 0
Integration Time (sec): 2.000000E-2
Scans to average: 10
Electric dark correction enabled: true
Nonlinearity correction enabled: false
Boxcar width: 0
XAxis mode: Wavelengths
Number of Pixels in Spectrum: 2048
>>>>>Begin Spectral Data<<<<<
341.393	-9.9
341.776	-9.9
342.16	-9.9
342.543	-49.9
342.927	-67.07
343.31	-52.84
343.693	-93.51
344.077	-48.32
344.46	-70.92
344.843	-55.78
345.226	-34.53
345.61	-33.86
345.993	-25.04
346.376	-7.42
346.759	3.43
347.142	32.58
347.525	33.49
347.908	67.39
348.291	70.77
348.674	98.12
349.057	116.42
349.44	129.53
349.823	140.6
350.206	187.61
350.588	195.97
350.971	213.82
351.354	221.28
351.737	238.91
352.119	271.22
352.502	274.39
352.884	280.49
353.267	285.68
353.65	278
354.032	281.84
354.414	324.78
354.797	332.01
355.179	330.88
355.562	321.84
355.944	342.63
356.326	315.06
356.709	331.33
357.091	337.89
357.473	344.44
357.855	327.49
358.238	337.43
358.62	338.11
359.002	343.76
359.384	333.82
359.766	331.79
360.148	336.98
360.53	341.05
360.912	308.73
361.294	322.07
361.676	352.8
362.057	336.08
362.439	319.81
362.821	345.8
363.203	332.24
363.584	324.55
363.966	328.62
364.348	340.37
364.729	321.16
365.111	306.25
365.493	315.51
365.874	339.24
366.256	312.8
366.637	320.71
367.019	305.8
367.4	324.78
367.781	321.62
368.163	322.97
368.544	309.86
368.925	307.6
369.306	314.38
369.688	320.71
370.069	298.11
370.45	309.64
370.831	309.41
371.212	323.2
371.593	313.71
371.974	325.01
372.355	296.31
372.736	305.8
373.117	314.16
373.498	302.41
373.879	327.04
374.26	318
374.641	317.77
375.021	315.97
375.402	332.91
375.783	330.43
376.163	317.1
376.544	327.94
376.925	334.72
377.305	320.26
377.686	339.24
378.066	322.07
378.447	318.45
378.827	328.62
379.208	320.71
379.588	341.28
379.968	321.62
380.349	321.39
380.729	306.02
381.109	325.91
381.489	327.04
381.87	321.84
382.25	335.17
382.63	325.46
383.01	341.5
383.39	348.96
383.77	332.01
384.15	327.94
384.53	343.08
384.91	343.31
385.29	343.08
385.67	347.83
386.049	374.95
386.429	348.73
386.809	339.24
387.189	335.85
387.568	344.21
387.948	350.32
388.328	348.51
388.707	346.7
389.087	332.01
389.466	342.18
389.846	354.84
390.225	345.57
390.605	353.93
390.984	361.16
391.363	349.86
391.743	370.2
392.122	371.56
392.501	380.82
392.881	383.54
393.26	365
393.639	359.81
394.018	368.85
394.397	365.46
394.776	381.5
395.155	367.72
395.534	369.75
395.913	382.63
396.292	378.79
396.671	359.13
397.05	373.37
397.429	372.91
397.808	385.34
398.186	364.1
398.565	373.59
398.944	390.31
399.323	395.29
399.701	383.76
400.08	376.76
400.458	387.6
400.837	427.6
401.215	388.73
401.594	392.8
401.972	410.43
402.351	381.5
402.729	401.61
403.107	415.17
403.486	394.61
403.864	394.16
404.242	403.65
404.62	400.03
404.999	390.54
405.377	401.84
405.755	404.78
406.133	402.07
406.511	428.51
406.889	418.11
407.267	415.17
407.645	431.9
408.023	423.08
408.401	415.17
408.779	426.92
409.156	438.22
409.534	423.99
409.912	428.51
410.29	435.51
410.667	430.99
411.045	433.03
411.422	460.14
411.8	450.43
412.178	435.29
412.555	432.57
412.933	440.48
413.31	447.26
413.687	457.21
414.065	479.58
414.442	431.22
414.819	449.97
415.197	452.46
415.574	470.31
415.951	443.87
416.328	485.68
416.705	469.86
417.082	485.68
417.46	469.63
417.837	489.52
418.214	485.45
418.591	493.81
418.967	500.37
419.344	476.19
419.721	481.84
420.098	497.88
420.475	519.58
420.852	492.01
421.228	517.77
421.605	507.6
421.982	512.57
422.358	520.25
422.735	531.55
423.111	521.38
423.488	529.97
423.864	504.89
424.241	523.87
424.617	532.01
424.994	529.07
425.37	561.38
425.746	547.82
426.123	542.85
426.499	557.77
426.875	557.77
427.251	549.86
427.627	550.08
428.003	574.04
428.379	566.81
428.756	579.24
429.132	588.95
429.507	579.69
429.883	593.47
430.259	591.67
430.635	560.93
431.011	594.6
431.387	612
431.763	605.22
432.138	601.83
432.514	598.44
432.89	591.21
433.265	618.33
433.641	651.1
434.016	649.29
434.392	652.23
434.767	646.13
435.143	642.06
435.518	648.61
435.894	651.55
436.269	661.95
436.644	661.72
437.02	659.01
437.395	648.84
437.77	674.83
438.145	677.99
438.52	689.06
438.895	712.34
439.271	690.65
439.646	714.37
440.021	712.11
440.395	720.7
440.77	716.18
441.145	713.92
441.52	702.4
441.895	721.83
442.27	699.23
442.645	749.63
443.019	762.28
443.394	759.12
443.769	738.78
444.143	740.59
444.518	751.44
444.892	735.16
445.267	771.1
445.641	758.21
446.016	763.64
446.39	782.62
446.764	755.05
447.139	783.98
447.513	770.87
447.887	794.37
448.262	804.54
448.636	789.17
449.01	806.57
449.384	809.29
449.758	849.29
450.132	815.84
450.506	843.41
450.88	837.99
451.254	826.69
451.628	860.58
452.002	874.37
452.376	867.59
452.75	875.27
453.123	848.61
453.497	881.38
453.871	897.42
454.244	905.56
454.618	875.5
454.992	924.54
455.365	880.25
455.739	925.89
456.112	932.67
456.486	951.43
456.859	946.46
457.232	979.23
457.606	960.92
457.979	986.46
458.352	1010.19
458.725	1018.32
459.099	1046.12
459.472	1022.16
459.845	1036.17
460.218	1039.11
460.591	1051.31
460.964	1096.51
461.337	1109.39
461.71	1085.66
462.083	1082.27
462.456	1113.46
462.829	1141.03
463.201	1161.37
463.574	1134.25
463.947	1131.76
464.32	1198.43
464.692	1207.69
465.065	1232.1
465.438	1230.07
465.81	1227.35
466.183	1236.62
466.555	1302.16
466.928	1271.2
467.3	1302.38
467.672	1339.67
468.045	1353.68
468.417	1373.57
468.789	1400.68
469.161	1399.78
469.534	1421.47
469.906	1431.64
470.278	1465.31
470.65	1514.35
471.022	1511.87
471.394	1569.94
471.766	1549.61
472.138	1604.07
472.51	1640
472.882	1676.38
473.253	1733.56
473.625	1724.97
473.997	1771.75
474.369	1810.84
474.74	1833.21
475.112	1890.39
475.484	1952.53
475.855	1969.93
476.227	2055.13
476.598	2072.76
476.97	2105.98
477.341	2149.36
477.713	2258.74
478.084	2286.99
478.455	2338.29
478.827	2415.35
479.198	2458.73
479.569	2477.27
479.94	2628
480.311	2653.76
480.682	2730.59
481.053	2828.89
481.424	2890.36
481.795	2972.39
482.166	3035.22
482.537	3138.72
482.908	3261.43
483.279	3315.66
483.65	3368.54
484.021	3507.29
484.391	3565.6
484.762	3689.66
485.133	3794.07
485.503	3871.13
485.874	4025.7
486.244	4124.68
486.615	4245.13
486.985	4308.63
487.356	4388.85
487.726	4565.8
488.097	4706.81
488.467	4791.33
488.837	4881.72
489.207	5033.58
489.578	5185.89
489.948	5308.15
490.318	5396.51
490.688	5492.78
491.058	5636.05
491.428	5807.35
491.798	5888.25
492.168	6102.71
492.538	6143.84
492.908	6314
493.278	6468.57
493.648	6538.4
494.017	6689.58
494.387	6818.39
494.757	6992.85
495.126	7114.21
495.496	7193.53
495.866	7302.9
496.235	7416.57
496.605	7602.55
496.974	7724.81
497.344	7907.41
497.713	7990.57
498.082	8082.54
498.452	8325.02
498.821	8329.99
499.19	8444.57
499.559	8654.5
499.928	8643.66
500.298	8813.37
500.667	9022.18
501.036	8985.34
501.405	9116.19
501.774	9216.3
502.143	9424.65
502.512	9534.03
502.88	9626
503.249	9649.51
503.618	9813.8
503.987	9938.09
504.356	9924.98
504.724	10107.57
505.093	10193.22
505.462	10189.83
505.83	10413.33
506.199	10446.77
506.567	10641.34
506.936	10641.8
507.304	10877.72
507.672	10888.57
508.041	10981.67
508.409	11035.91
508.777	11179.41
509.145	11330.59
509.514	11341.44
509.882	11453.3
510.25	11468.89
510.618	11598.83
510.986	11662.56
511.354	11738.49
511.722	11862.1
512.09	11989.78
512.458	11934.64
512.826	12080.85
513.193	12153.85
513.561	12193.39
513.929	12327.4
514.297	12379.6
514.664	12533.27
515.032	12501.86
515.4	12654.17
515.767	12708.63
516.135	12780.95
516.502	12696.43
516.869	12986.37
517.237	12981.62
517.604	12954.5
517.972	13088.29
518.339	13119.02
518.706	13213.25
519.073	13237.43
519.44	13347.04
519.808	13429.29
520.175	13389.29
520.542	13544.77
520.909	13653.69
521.276	13725.56
521.643	13753.35
522.009	13807.14
522.376	13859.11
522.743	13862.5
523.11	14088.94
523.477	14173.68
523.843	14062.72
524.21	14308.37
524.577	14329.61
524.943	14443.05
525.31	14405.31
525.676	14630.84
526.043	14669.04
526.409	14647.57
526.776	14792.87
527.142	14679.2
527.508	14825.87
527.874	14838.3
528.241	14893.44
528.607	14942.47
528.973	15059.08
529.339	15000.55
529.705	15090.27
530.071	15142.7
530.437	15201
530.803	15245.74
531.169	15279.64
531.535	15246.87
531.901	15239.64
532.267	15271.96
532.632	15402.8
532.998	15370.49
533.364	15366.42
533.73	15349.24
534.095	15548.33
534.461	15514.44
534.826	15502.91
535.192	15577.94
535.557	15572.06
535.923	15511.05
536.288	15669.91
536.653	15657.71
537.019	15492.52
537.384	15559.18
537.749	15597.15
538.114	15585.85
538.479	15554.89
538.845	15599.86
539.21	15579.52
539.575	15616.35
539.94	15630.82
540.305	15598.5
540.67	15566.86
541.034	15691.38
541.399	15593.53
541.764	15634.89
542.129	15585.17
542.494	15635.79
542.858	15639.63
543.223	15615
543.587	15691.38
543.952	15661.33
544.316	15587.88
544.681	15629.01
545.045	15681.21
545.41	15680.76
545.774	15573.64
546.138	15599.18
546.503	15578.84
546.867	15554.66
547.231	15654.55
547.595	15619.74
547.959	15634.43
548.324	15581.78
548.688	15624.04
549.052	15574.1
549.416	15591.72
549.779	15593.3
550.143	15564.6
550.507	15621.33
550.871	15666.07
551.235	15583.59
551.599	15712.4
551.962	15647.77
552.326	15556.47
552.689	15572.74
553.053	15561.89
553.417	15579.75
553.78	15740.65
554.143	15554.89
554.507	15630.37
554.87	15603.47
555.234	15672.85
555.597	15616.35
555.96	15662.46
556.323	15605.73
556.686	15649.8
557.05	15736.58
557.413	15715.56
557.776	15759.4
558.139	15766.63
558.502	15737.93
558.865	15807.31
559.228	15825.39
559.59	15787.65
559.953	15879.4
560.316	15985.38
560.679	15872.39
561.041	15956.91
561.404	15993.75
561.767	16037.59
562.129	15982
562.492	16091.14
562.854	16064.25
563.217	16050.92
563.579	16085.72
563.941	16043.46
564.304	16248.2
564.666	16243.91
565.028	16289.56
565.39	16184.7
565.753	16356.22
566.115	16386.5
566.477	16355.77
566.839	16365.94
567.201	16441.42
567.563	16483.9
567.925	16500.85
568.287	16499.72
568.648	16555.09
569.01	16555.99
569.372	16726.83
569.734	16541.98
570.095	16672.6
570.457	16781.97
570.819	16795.31
571.18	16791.47
571.542	16957.11
571.903	16891.12
572.265	16915.76
572.626	16901.52
572.987	16848.86
573.349	16903.55
573.71	17022.87
574.071	16982.19
574.432	17023.78
574.794	17087.95
575.155	17030.1
575.516	16972.25
575.877	17023.78
576.238	17024
576.599	17178.8
576.96	17118.01
577.32	17160.27
577.681	17150.55
578.042	17258.57
578.403	17255.41
578.763	17245.69
579.124	17278.01
579.485	17253.83
579.845	17409.08
580.206	17330.89
580.566	17320.04
580.927	17306.25
581.287	17244.11
581.648	17249.76
582.008	17320.04
582.368	17349.87
582.728	17290.66
583.089	17275.29
583.449	17288.4
583.809	17249.53
584.169	17299.02
584.529	17289.31
584.889	17344.67
585.249	17235.3
585.609	17361.39
585.969	17316.42
586.329	17252.47
586.688	17279.14
587.048	17305.58
587.408	17258.35
587.768	17271
588.127	17201.17
588.487	17191.45
588.846	17211.79
589.206	17180.38
589.565	17233.04
589.925	17285.01
590.284	17116.2
590.643	17190.1
591.003	17259.48
591.362	17238.69
591.721	17158.69
592.08	17052.25
592.44	17249.53
592.799	17246.59
593.158	17188.97
593.517	17109.65
593.876	17212.25
594.235	17114.85
594.593	17159.59
594.952	17222.41
595.311	17106.26
595.67	17146.03
596.029	17209.76
596.387	17198.91
596.746	17241.85
597.104	17154.62
597.463	17163.66
597.822	17238.69
598.18	17220.61
598.538	17129.31
598.897	17286.37
599.255	17120.72
599.613	17360.94
599.972	17183.77
600.33	17252.24
600.688	17156.65
601.046	17252.02
601.404	17271.9
601.762	17260.83
602.12	17297.44
602.478	17257.44
602.836	17303.99
603.194	17166.37
603.552	17305.58
603.91	17110.33
604.268	17252.7
604.625	17227.39
604.983	17284.33
605.341	17097.22
605.698	17375.63
606.056	17317.78
606.413	17302.41
606.771	17322.07
607.128	17350.32
607.485	17278.68
607.843	17255.86
608.2	17351.68
608.557	17578.11
608.914	17400.94
609.272	17481.62
609.629	17452.24
609.986	17580.6
610.343	17394.61
610.7	17590.09
611.057	17517.1
611.414	17480.26
611.771	17518.23
612.127	17511.22
612.484	17547.38
612.841	17689.29
613.198	17562.74
613.554	17507.15
613.911	17647.71
614.267	17626.92
614.624	17627.15
614.98	17723.64
615.337	17686.81
615.693	17688.16
616.05	17716.86
616.406	17812.91
616.762	17722.74
617.118	17802.96
617.475	17778.56
617.831	17737.43
618.187	17822.85
618.543	17826.69
618.899	17873.02
619.255	17896.52
619.611	17809.52
619.967	17827.6
620.323	17938.55
620.678	17779.46
621.034	17783.3
621.39	17816.3
621.746	17837.54
622.101	18044.99
622.457	17823.75
622.812	17848.39
623.168	17897.88
623.523	17939.23
623.879	18042.28
624.234	17854.26
624.589	18031.21
624.945	18139.68
625.3	18049.96
625.655	17988.72
626.01	17996.63
626.365	18009.51
626.72	17932.9
627.075	17963.19
627.43	17856.97
627.785	17917.76
628.14	17940.14
628.495	17969.74
628.85	17976.74
629.205	17849.06
629.559	17993.69
629.914	17834.83
630.269	17986.01
630.623	17964.54
630.978	17891.55
631.332	17878.44
631.687	17948.27
632.041	17826.92
632.396	17962.51
632.75	17887.48
633.104	17862.85
633.459	17764.32
633.813	17699.01
634.167	17691.78
634.521	17779.01
634.875	17831.21
635.229	17739.69
635.583	17634.38
635.937	17658.56
636.291	17634.83
636.645	17614.95
636.999	17559.81
637.352	17632.8
637.706	17526.14
638.06	17595.74
638.413	17458.11
638.767	17463.99
639.121	17518.45
639.474	17473.26
639.828	17412.69
640.181	17507.15
640.534	17520.94
640.888	17383.09
641.241	17349.64
641.594	17306.03
641.947	17400.71
642.301	17356.87
642.654	17320.26
643.007	17208.86
643.36	17403.2
643.713	17329.08
644.066	17352.13
644.419	17148.74
644.771	17158.91
645.124	17092.02
645.477	17016.54
645.83	16855.64
646.182	16833.95
646.535	16790.11
646.888	16803.89
647.24	16703.33
647.593	16786.49
647.945	16800.73
648.298	16628.76
648.65	16772.03
649.002	16582.66
649.355	16682.54
649.707	16670.11
650.059	16784.91
650.411	16922.54
650.763	16988.07
651.115	17015.19
651.467	17114.62
651.819	17114.85
652.171	17056.09
652.523	17158.46
652.875	17026.94
653.227	17023.32
653.578	17071.91
653.93	17113.49
654.282	17008.18
654.633	16946.94
654.985	16969.31
655.337	17134.73
655.688	17084.11
656.039	17046.6
656.391	16868.07
656.742	17014.28
657.094	17068.75
657.445	17136.31
657.796	16960.95
658.147	16912.82
658.498	17019.26
658.849	17074.85
659.2	16966.15
659.551	16994.4
659.902	17118.24
660.253	16967.05
660.604	17101.97
660.955	16922.54
661.306	17041.85
661.656	16951.91
662.007	16927.51
662.358	17030.1
662.708	17116.2
663.059	17033.94
663.409	16941.07
663.76	17001.86
664.11	16940.39
664.461	17033.27
664.811	17070.55
665.161	17059.03
665.511	16979.26
665.862	17022.19
666.212	17130.21
666.562	17085.47
666.912	17087.28
667.262	17037.56
667.612	17141.06
667.962	17064.23
668.312	17068.29
668.662	17141.06
669.011	17092.93
669.361	16961.18
669.711	17070.1
670.06	17073.72
670.41	16924.8
670.76	16889.99
671.109	17018.58
671.459	16964.79
671.808	16957.56
672.157	16966.15
672.507	16887.51
672.856	16760.28
673.205	16915.3
673.554	17064.68
673.904	16873.27
674.253	16990.56
674.602	16890.22
674.951	16692.26
675.3	16437.35
675.649	16800.28
675.998	16864.46
676.346	16873.95
676.695	16908.98
677.044	16713.05
677.393	16789.88
677.741	16747.62
678.09	16785.14
678.438	16746.72
678.787	16693.16
679.135	16686.16
679.484	16612.49
679.832	16688.19
680.181	16535.88
680.529	16625.14
680.877	16643.67
681.225	16544.92
681.573	16671.47
681.922	16543.79
682.27	16425.6
682.618	16499.04
682.966	16381.31
683.314	16467.63
683.661	16423.79
684.009	16401.19
684.357	16301.08
684.705	16232.16
685.053	16280.07
685.4	16210.46
685.748	16071.48
686.095	16156.91
686.443	16044.37
686.79	16045.5
687.138	16027.42
687.485	16078.49
687.832	15894.77
688.18	15991.71
688.527	15862.22
688.874	15898.61
689.221	15852.73
689.568	15820.42
689.915	15760.76
690.262	15734.77
690.609	15676.47
690.956	15523.48
691.303	15594.66
691.65	15498.62
691.997	15493.42
692.344	15339.53
692.69	15391.05
693.037	15320.77
693.383	15210.04
693.73	15299.53
694.077	15190.15
694.423	15172.07
694.769	15088.46
695.116	15108.8
695.462	15061.34
695.808	14986.09
696.155	14935.24
696.501	14819.99
696.847	14880.1
697.193	14630.17
697.539	14780.44
697.885	14647.11
698.231	14634.23
698.577	14627.23
698.923	14548.59
699.269	14544.74
699.614	14390.17
699.96	14377.52
700.306	14375.94
700.651	14229.5
700.997	14328.25
701.342	14219.33
701.688	14242.15
702.033	14153.12
702.379	14150.86
702.724	14045.1
703.069	14052.33
703.415	13958.55
703.76	13921.71
704.105	13884.65
704.45	13907.93
704.795	13744.99
705.14	13723.07
705.485	13711.32
705.83	13583.64
706.175	13616.18
706.52	13649.63
706.865	13556.97
707.209	13478.56
707.554	13427.03
707.899	13565.79
708.243	13386.81
708.588	13330.54
708.932	13211.9
709.277	13266.36
709.621	13284.66
709.966	13172.13
710.31	13213.03
710.654	13047.61
710.998	13086.25
711.342	13044.9
711.687	13095.07
712.031	12984.79
712.375	12960.83
712.719	12938.91
713.063	12836.09
713.407	12865.47
713.75	12835.86
714.094	12919.02
714.438	12758.35
714.782	12774.4
715.125	12702.53
715.469	12723.32
715.812	12662.08
716.156	12611.24
716.499	12674.29
716.843	12673.61
717.186	12544.35
717.53	12623.21
717.873	12557.68
718.216	12584.12
718.559	12515.65
718.902	12433.84
719.246	12469.09
719.589	12378.93
719.932	12413.95
720.275	12430.45
720.617	12401.3
720.96	12422.54
721.303	12339.38
721.646	12429.09
721.989	12299.61
722.331	12286.5
722.674	12357.01
723.016	12311.58
723.359	12304.35
723.701	12273.84
724.044	12213.05
724.386	12203.56
724.729	12214.18
725.071	12212.83
725.413	12202.21
725.755	12204.69
726.097	12137.8
726.439	12031.59
726.782	12033.17
727.124	12180.97
727.465	12051.48
727.807	12084.7
728.149	12093.74
728.491	12031.14
728.833	12161.08
729.175	12026.84
729.516	12078.14
729.858	12003.57
730.199	12027.3
730.541	11972.16
730.882	11998.82
731.224	12062.78
731.565	11904.14
731.906	12038.82
732.248	11958.82
732.589	11974.42
732.93	11915.44
733.271	11887.41
733.612	11917.24
733.953	11945.94
734.294	11868.66
734.635	11904.81
734.976	11988.65
735.317	11913.18
735.658	11876.11
735.999	11944.81
736.339	11931.25
736.68	11870.24
737.021	11919.5
737.361	11872.72
737.702	11925.83
738.042	11959.95
738.383	11933.29
738.723	11902.55
739.063	11855.1
739.404	11901.65
739.744	11865.72
740.084	11893.51
740.424	11926.28
740.764	11943.46
741.104	12005.6
741.444	11947.75
741.784	11995.66
742.124	12008.31
742.464	12030.91
742.804	12004.7
743.143	12023.68
743.483	12032.04
743.823	11984.59
744.162	12123.34
744.502	12175.32
744.841	12063
745.181	12169.44
745.52	12140.29
745.86	12251.7
746.199	12198.14
746.538	12331.7
746.877	12320.4
747.216	12359.04
747.556	12413.05
747.895	12488.75
748.234	12423.44
748.573	12473.61
748.911	12585.47
749.25	12637.45
749.589	12625.47
749.928	12665.25
750.267	12768.29
750.605	12837.44
750.944	12856.2
751.283	12905.92
751.621	13072.24
751.96	13075.18
752.298	13139.13
752.636	13160.15
752.975	13191.11
753.313	13305.46
753.651	13447.82
753.989	13465.45
754.327	13638.33
754.666	13570.98
755.004	13734.14
755.342	13892.56
755.679	13973.01
756.017	14029.73
756.355	14107.47
756.693	14201.7
757.031	14436.05
757.368	14281.7
