Data from hue_110_FLMS001491_00043.txt Node
Date: Tue Feb 07 17:01:22 GMT 2017
User: dcchb
Spectrometer: FLMS00149
Trigger mode: 0
Integration Time (sec): 2.000000E-2
Scans to average: 10
Electric dark correction enabled: true
Nonlinearity correction enabled: false
Boxcar width: 0
XAxis mode: Wavelengths
Number of Pixels in Spectrum: 2048
>>>>>Begin Spectral Data<<<<<
341.393	-11.6
341.776	-11.6
342.16	-11.6
342.543	-77.58
342.927	-85.49
343.31	-59.96
343.693	-68.77
344.077	-51.59
344.46	-68.32
344.843	-56.57
345.226	-30.13
345.61	-28.54
345.993	-12.95
346.376	-9.79
346.759	-8.21
347.142	16.2
347.525	48.06
347.908	58.01
348.291	67.72
348.674	99.81
349.057	105.01
349.44	114.28
349.823	128.97
350.206	166.03
350.588	203.31
350.971	210.55
351.354	236.99
351.737	215.06
352.119	259.13
352.502	269.75
352.884	295.29
353.267	276.53
353.65	290.32
354.032	303.65
354.414	316.53
354.797	331.67
355.179	325.34
355.562	312.92
355.944	327.6
356.326	352.24
356.709	327.6
357.091	338.68
357.473	347.94
357.855	339.36
358.238	357.66
358.62	344.33
359.002	343.42
359.384	340.49
359.766	345.68
360.148	342.97
360.53	345.91
360.912	358.56
361.294	345.01
361.676	329.64
362.057	330.09
362.439	343.2
362.821	349.98
363.203	335.51
363.584	347.49
363.966	326.25
364.348	325.8
364.729	312.92
365.111	323.76
365.493	328.73
365.874	326.47
366.256	339.81
366.637	306.36
367.019	323.54
367.4	340.26
367.781	304.1
368.163	314.05
368.544	321.28
368.925	316.31
369.306	312.46
369.688	308.85
370.069	310.43
370.45	331.67
370.831	330.32
371.212	321.28
371.593	307.27
371.974	340.94
372.355	306.14
372.736	312.46
373.117	310.2
373.498	330.09
373.879	308.85
374.26	329.41
374.641	287.61
375.021	331.9
375.402	345.01
375.783	320.82
376.163	323.54
376.544	320.37
376.925	336.19
377.305	320.37
377.686	338.68
378.066	331.45
378.447	335.29
378.827	335.97
379.208	328.73
379.588	326.25
379.968	336.19
380.349	346.81
380.729	343.2
381.109	335.51
381.489	338
381.87	356.98
382.25	358.34
382.63	340.49
383.01	343.88
383.39	346.59
383.77	351.33
384.15	351.78
384.53	354.95
384.91	354.5
385.29	365.12
385.67	355.17
386.049	357.66
386.429	359.92
386.809	373.7
387.189	376.87
387.568	376.87
387.948	363.76
388.328	363.99
388.707	373.25
389.087	378
389.466	370.77
389.846	378.45
390.225	381.61
390.605	390.2
390.984	388.85
391.363	393.14
391.743	381.84
392.122	405.79
392.501	394.27
392.881	384.78
393.26	401.73
393.639	397.43
394.018	377.09
394.397	392.24
394.776	373.93
395.155	383.2
395.534	392.46
395.913	425
396.292	394.04
396.671	394.72
397.05	415.29
397.429	424.1
397.808	399.01
398.186	406.02
398.565	399.47
398.944	422.07
399.323	406.25
399.701	415.96
400.08	425.45
400.458	413.7
400.837	401.05
401.215	414.61
401.594	414.83
401.972	422.52
402.351	417.55
402.729	410.77
403.107	440.6
403.486	447.6
403.864	439.01
404.242	455.51
404.62	449.64
404.999	446.02
405.377	437.21
405.755	433.59
406.133	444.44
406.511	435.4
406.889	452.57
407.267	448.28
407.645	445.79
408.023	479.69
408.401	461.16
408.779	478.79
409.156	478.56
409.534	469.07
409.912	485.11
410.29	498.22
410.667	484.21
411.045	506.58
411.422	488.5
411.8	505
412.178	500.48
412.555	494.83
412.933	509.97
413.31	520.82
413.687	538.45
414.065	519.46
414.442	521.27
414.819	512.01
415.197	510.65
415.574	535.73
415.951	549.07
416.328	566.69
416.705	568.28
417.082	547.71
417.46	538.9
417.837	551.55
418.214	549.97
418.591	556.07
418.967	567.82
419.344	589.52
419.721	578.22
420.098	551.78
420.475	567.37
420.852	587.03
421.228	616.41
421.605	607.82
421.982	609.4
422.358	607.82
422.735	613.25
423.111	598.56
423.488	599.91
423.864	620.93
424.241	632.68
424.617	616.41
424.994	626.35
425.37	639.01
425.746	635.62
426.123	633.59
426.499	663.41
426.875	648.95
427.251	662.96
427.627	678.56
428.003	689.18
428.379	679.01
428.756	671.1
429.132	662.74
429.507	677.43
429.883	697.99
430.259	707.48
430.635	692.79
431.011	700.02
431.387	726.69
431.763	740.47
432.138	752.45
432.514	751.77
432.89	761.27
433.265	757.88
433.641	780.02
434.016	809.63
434.392	772.79
434.767	796.74
435.143	791.1
435.518	815.28
435.894	802.39
436.269	810.76
436.644	818.21
437.02	840.36
437.395	848.49
437.77	829.51
438.145	858.44
438.52	850.08
438.895	869.51
439.271	861.6
439.646	879.68
440.021	876.52
440.395	892.11
440.77	914.03
441.145	912.45
441.52	921.04
441.895	892.79
442.27	897.08
442.645	917.42
443.019	931.88
443.394	956.29
443.769	935.05
444.143	929.4
444.518	979.11
444.892	980.02
445.267	972.11
445.641	984.08
446.016	958.1
446.39	973.01
446.764	999.45
447.139	1004.42
447.513	1015.04
447.887	1024.31
448.262	1021.6
448.636	1042.84
449.01	1025.44
449.384	1069.05
449.758	1067.92
450.132	1045.78
450.506	1053.01
450.88	1072.44
451.254	1098.43
451.628	1079.22
452.002	1100.92
452.376	1133.68
452.75	1111.09
453.123	1115.15
453.497	1155.83
453.871	1177.75
454.244	1184.31
454.618	1201.71
454.992	1192.67
455.365	1215.94
455.739	1228.82
456.112	1225.21
456.486	1233.8
456.859	1258.43
457.232	1272.44
457.606	1274.92
457.979	1306.79
458.352	1325.54
458.725	1333
459.099	1348.59
459.472	1374.13
459.845	1392.89
460.218	1396.05
460.591	1424.07
460.964	1435.6
461.337	1453.22
461.71	1476.5
462.083	1491.64
462.456	1509.04
462.829	1524.18
463.201	1561.02
463.574	1533.45
463.947	1567.8
464.32	1642.82
464.692	1646.67
465.065	1635.82
465.438	1703.16
465.81	1695.25
466.183	1746.32
466.555	1760.56
466.928	1784.52
467.3	1799.88
467.672	1788.58
468.045	1882.59
468.417	1845.76
468.789	1905.19
469.161	1941.35
469.534	1987
469.906	2044.17
470.278	2049.14
470.65	2090.95
471.022	2131.17
471.394	2198.06
471.766	2211.4
472.138	2267.21
472.51	2353.77
472.882	2381.11
473.253	2399.19
473.625	2433.99
473.997	2540.2
474.369	2587.66
474.74	2607.32
475.112	2651.39
475.484	2744.04
475.855	2850.48
476.227	2861.78
476.598	2958.72
476.97	3048.89
477.341	3123.46
477.713	3163.46
478.084	3254.31
478.455	3377.24
478.827	3411.82
479.198	3532.27
479.569	3602.32
479.94	3774.97
480.311	3828.98
480.682	3946.72
481.053	4066.04
481.424	4156.2
481.795	4256.77
482.166	4383.54
482.537	4450.89
482.908	4583.99
483.279	4756.41
483.65	4851.33
484.021	5071.89
484.391	5134.03
484.762	5230.07
485.133	5366.57
485.503	5494.93
485.874	5698.31
486.244	5727.01
486.615	5985.53
486.985	6113.44
487.356	6280.44
487.726	6395.69
488.097	6590.26
488.467	6700.54
488.837	6924.95
489.207	7022.57
489.578	7226.86
489.948	7351.15
490.318	7533.97
490.688	7656.23
491.058	7864.13
491.428	8090.56
491.798	8228.87
492.168	8414.85
492.538	8525.58
492.908	8818.23
493.278	8916.76
493.648	9023.65
494.017	9209.63
494.387	9358.55
494.757	9509.96
495.126	9693.46
495.496	9777.07
495.866	9947.92
496.235	10199.44
496.605	10302.71
496.974	10446.21
497.344	10546.77
497.713	10765.07
498.082	10847.55
498.452	11064.72
498.821	11202.35
499.19	11213.19
499.559	11402.79
499.928	11521.43
500.298	11609.34
500.667	11853.85
501.036	11855.89
501.405	12028.77
501.774	12093.17
502.143	12267.63
502.512	12343.79
502.88	12514.4
503.249	12578.81
503.618	12660.39
503.987	12788.29
504.356	12936.76
504.724	12965.92
505.093	13102.18
505.462	13200.26
505.83	13347.38
506.199	13382.63
506.567	13528.61
506.936	13499.01
507.304	13694.03
507.672	13837.76
508.041	13913.69
508.409	14012.44
508.777	14032.1
509.145	14232.32
509.514	14215.15
509.882	14261.93
510.25	14412.21
510.618	14487.68
510.986	14508.93
511.354	14703.05
511.722	14735.14
512.09	14922.93
512.458	14828.01
512.826	15027.33
513.193	15037.5
513.561	15023.72
513.929	15151.62
514.297	15277.04
514.664	15288.34
515.032	15372.86
515.4	15549.35
515.767	15523.59
516.135	15564.49
516.502	15458.28
516.869	15722
517.237	15653.76
517.604	15677.03
517.972	15724.49
518.339	15874.31
518.706	15885.16
519.073	15883.58
519.44	16186.85
519.808	16119.51
520.175	16009.9
520.542	16258.71
520.909	16346.39
521.276	16237.47
521.643	16326.28
522.009	16456.45
522.376	16394.53
522.743	16506.39
523.11	16626.16
523.477	16710.68
523.843	16732.37
524.21	16844.23
524.577	16872.93
524.943	16840.16
525.31	16976.88
525.676	17060.72
526.043	17083.1
526.409	17088.29
526.776	17304.56
527.142	17247.39
527.508	17306.37
527.874	17266.59
528.241	17286.93
528.607	17348.63
528.973	17397.44
529.339	17355.18
529.705	17428.85
530.071	17478.11
530.437	17512.01
530.803	17526.02
531.169	17433.37
531.535	17431.56
531.901	17439.02
532.267	17423.43
532.632	17489.64
532.998	17503.88
533.364	17553.59
533.73	17464.1
534.095	17571.67
534.461	17515.18
534.826	17593.37
535.192	17522.41
535.557	17598.34
535.923	17412.8
536.288	17479.02
536.653	17492.12
537.019	17395.86
537.384	17477.44
537.749	17453.71
538.114	17357.89
538.479	17379.81
538.845	17307.95
539.21	17222.98
539.575	17297.1
539.94	17286.03
540.305	17206.71
540.67	17235.86
541.034	17168.97
541.399	17202.19
541.764	17118.8
542.129	17061.63
542.494	17056.66
542.858	17139.37
543.223	17025.02
543.587	17068.41
543.952	17040.61
544.316	16991.12
544.681	16958.58
545.045	16933.5
545.41	16920.39
545.774	16945.92
546.138	16837.45
546.503	16745.25
546.867	16748.19
547.231	16831.8
547.595	16779.15
547.959	16735.53
548.324	16507.97
548.688	16656.89
549.052	16538.7
549.416	16502.55
549.779	16453.73
550.143	16500.51
550.507	16516.11
550.871	16384.81
551.235	16301.87
551.599	16409.89
551.962	16353.17
552.326	16316.34
552.689	16369.22
553.053	16237.69
553.417	16294.42
553.78	16410.35
554.143	16223.91
554.507	16303
554.87	16210.8
555.234	16353.62
555.597	16149.56
555.96	16154.98
556.323	16162.44
556.686	16087.87
557.05	16221.2
557.413	16144.59
557.776	16119.96
558.139	16102.78
558.502	16153.18
558.865	16131.26
559.228	16105.49
559.59	16035.21
559.953	16077.7
560.316	16267.07
560.679	16167.19
561.041	16252.38
561.404	16245.15
561.767	16310.91
562.129	16185.94
562.492	16230.01
562.854	16199.05
563.217	16126.51
563.579	16069.34
563.941	16302.55
564.304	16266.62
564.666	16208.54
565.028	16192.27
565.39	16226.62
565.753	16414.87
566.115	16370.12
566.477	16371.93
566.839	16350.23
567.201	16479.95
567.563	16399.5
567.925	16488.31
568.287	16382.1
568.648	16342.55
569.01	16442.66
569.372	16649.66
569.734	16416.67
570.095	16446.95
570.457	16597.23
570.819	16444.92
571.18	16568.76
571.542	16620.28
571.903	16634.97
572.265	16615.09
572.626	16636.33
572.987	16644.01
573.349	16766.27
573.71	16716.55
574.071	16748.64
574.432	16702.54
574.794	16771.47
575.155	16735.76
575.516	16657.57
575.877	16789.32
576.238	16704.8
576.599	16911.58
576.96	16781.41
577.32	16766.49
577.681	16817.57
578.042	16883.33
578.403	16833.39
578.763	16809.2
579.124	16807.85
579.485	16794.97
579.845	16934.85
580.206	16778.02
580.566	16848.07
580.927	16832.48
581.287	16952.03
581.648	16840.84
582.008	16871.12
582.368	16827.51
582.728	16795.19
583.089	16841.29
583.449	16683.56
583.809	16775.76
584.169	16835.42
584.529	16651.24
584.889	16875.19
585.249	16764.01
585.609	16667.06
585.969	16750
586.329	16727.63
586.688	16747.29
587.048	16702.77
587.408	16644.46
587.768	16655.76
588.127	16672.94
588.487	16573.73
588.846	16688.08
589.206	16606.5
589.565	16611.02
589.925	16709.32
590.284	16510.46
590.643	16586.16
591.003	16485.82
591.362	16598.14
591.721	16559.04
592.08	16526.05
592.44	16535.77
592.799	16503.45
593.158	16536.9
593.517	16527.4
593.876	16553.17
594.235	16459.84
594.593	16483.34
594.952	16493.28
595.311	16373.28
595.67	16501.87
596.029	16561.3
596.387	16557.91
596.746	16611.7
597.104	16460.06
597.463	16478.82
597.822	16520.17
598.18	16463.9
598.538	16397.24
598.897	16532.15
599.255	16369.22
599.613	16569.89
599.972	16460.51
600.33	16477.69
600.688	16426.16
601.046	16507.07
601.404	16443.56
601.762	16475.43
602.12	16539.38
602.478	16372.61
602.836	16486.5
603.194	16354.53
603.552	16380.97
603.91	16383
604.268	16366.28
604.625	16311.36
604.983	16394.53
605.341	16485.37
605.698	16457.12
606.056	16520.4
606.413	16455.32
606.771	16609.44
607.128	16449.89
607.485	16400.4
607.843	16400.18
608.2	16542.77
608.557	16531.47
608.914	16491.7
609.272	16548.42
609.629	16514.75
609.986	16637.01
610.343	16527.4
610.7	16626.61
611.057	16560.85
611.414	16539.38
611.771	16600.62
612.127	16705.93
612.484	16635.88
612.841	16685.37
613.198	16654.18
613.554	16606.72
613.911	16763.1
614.267	16740.05
614.624	16775.53
614.98	16648.98
615.337	16804.69
615.693	16767.85
616.05	16773.95
616.406	16876.77
616.762	16789.77
617.118	16825.02
617.475	16745.7
617.831	16792.93
618.187	16839.94
618.543	16756.32
618.899	16960.61
619.255	16805.59
619.611	16876.55
619.967	16841.07
620.323	16950.67
620.678	16855.31
621.034	16798.81
621.39	16748.64
621.746	16824.8
622.101	16957.22
622.457	16904.12
622.812	16945.25
623.168	16906.15
623.523	16973.95
623.879	16966.04
624.234	16911.8
624.589	16984.12
624.945	16967.17
625.3	16869.54
625.655	16931.01
626.01	16856.89
626.365	16941.63
626.72	16864.12
627.075	16916.55
627.43	16802.2
627.785	16845.36
628.14	16842.42
628.495	16942.76
628.85	16841.29
629.205	16813.5
629.559	16913.61
629.914	16777.57
630.269	16820.73
630.623	16780.73
630.978	16781.86
631.332	16844.46
631.687	16865.02
632.041	16775.31
632.396	16746.38
632.75	16721.52
633.104	16726.5
633.459	16573.73
633.813	16581.64
634.167	16655.99
634.521	16661.19
634.875	16560.85
635.229	16648.31
635.583	16605.82
635.937	16507.07
636.291	16482.21
636.645	16551.81
636.999	16456.9
637.352	16481.08
637.706	16393.62
638.06	16452.83
638.413	16379.61
638.767	16336.9
639.121	16398.82
639.474	16273.17
639.828	16301.2
640.181	16312.72
640.534	16290.8
640.888	16325.83
641.241	16149.56
641.594	16278.6
641.947	16287.41
642.301	16228.88
642.654	16254.42
643.007	16323.57
643.36	16254.64
643.713	16190.69
644.066	16208.99
644.419	16091.48
644.771	16032.95
645.124	15866.4
645.477	15893.75
645.83	15795.67
646.182	15662.12
646.535	15740.31
646.888	15682.91
647.24	15606.52
647.593	15705.28
647.945	15595.23
648.298	15549.8
648.65	15578.5
649.002	15608.56
649.355	15577.37
649.707	15653.76
650.059	15691.04
650.411	15875.9
650.763	15913.64
651.115	16033.86
651.467	15977.36
651.819	16012.39
652.171	15969.23
652.523	15906.4
652.875	16018.49
653.227	15845.61
653.578	16038.83
653.93	15973.75
654.282	15901.21
654.633	15851.49
654.985	15957.93
655.337	15934.65
655.688	15969.23
656.039	16032.73
656.391	15962.22
656.742	15923.35
657.094	16058.72
657.445	16055.78
657.796	15981.66
658.147	15958.15
658.498	15980.53
658.849	16036.8
659.2	15929.23
659.551	15823.92
659.902	16046.97
660.253	15959.74
660.604	16027.3
660.955	15930.58
661.306	16006.29
661.656	15994.99
662.007	16078.15
662.358	16001.09
662.708	15990.02
663.059	16047.87
663.409	15898.04
663.76	16091.03
664.11	16042.45
664.461	16089.68
664.811	16047.19
665.161	15977.36
665.511	16079.51
665.862	16113.18
666.212	16160.63
666.562	16073.18
666.912	16067.76
667.262	16036.8
667.612	16044.93
667.962	16106.4
668.312	16041.09
668.662	16021.43
669.011	16059.62
669.361	16081.09
669.711	16060.75
670.06	16019.17
670.41	15988.66
670.76	15905.95
671.109	16043.8
671.459	15961.32
671.808	15957.93
672.157	15960.19
672.507	15878.38
672.856	15935.33
673.205	15930.13
673.554	15877.93
673.904	15871.83
674.253	15956.12
674.602	15871.38
674.951	15712.51
675.3	15587.99
675.649	15794.99
675.998	15829.8
676.346	15780.31
676.695	15879.51
677.044	15725.39
677.393	15789.34
677.741	15816.69
678.09	15711.83
678.438	15645.85
678.787	15709.57
679.135	15707.76
679.484	15653.3
679.832	15585.96
680.181	15474.1
680.529	15501.44
680.877	15397.72
681.225	15531.72
681.573	15564.04
681.922	15477.26
682.27	15413.54
682.618	15446.53
682.966	15408.56
683.314	15425.96
683.661	15285.18
684.009	15253.09
684.357	15312.52
684.705	15213.09
685.053	15195.91
685.4	15274.56
685.748	15179.19
686.095	15108.91
686.443	15075.24
686.79	15021.46
687.138	14976.48
687.485	15014.45
687.832	15021
688.18	15013.32
688.527	14847.67
688.874	14822.36
689.221	14837.73
689.568	14783.72
689.915	14792.99
690.262	14717.28
690.609	14662.59
690.956	14667.34
691.303	14501.69
691.65	14460.11
691.997	14468.25
692.344	14421.02
692.69	14362.72
693.037	14349.38
693.383	14175.38
693.73	14298.54
694.077	14177.64
694.423	14113
694.769	14083.63
695.116	14072.55
695.462	14066
695.808	13969.96
696.155	14017.19
696.501	13986.23
696.847	13831.66
697.193	13652.68
697.539	13759.57
697.885	13701.49
698.231	13576.97
698.577	13635.73
698.923	13577.43
699.269	13407.49
699.614	13376.07
699.96	13332.69
700.306	13419.92
700.651	13209.98
700.997	13227.38
701.342	13214.5
701.688	13231.67
702.033	13081.17
702.379	13059.25
702.724	13015.41
703.069	13049.98
703.415	12905.58
703.76	12806.15
704.105	12848.63
704.45	12801.4
704.795	12708.07
705.14	12659.26
705.485	12692.93
705.83	12590.56
706.175	12699.26
706.52	12574.29
706.865	12490.9
707.209	12594.17
707.554	12554.85
707.899	12548.53
708.243	12387.17
708.588	12316.44
708.932	12307.18
709.277	12258.14
709.621	12275.09
709.966	12130.91
710.31	12197.35
710.654	12125.71
710.998	12106.73
711.342	12180.4
711.687	12083.91
712.031	12031.93
712.375	11963.91
712.719	12043
713.063	12004.13
713.407	11975.21
713.75	11909.9
714.094	11848.43
714.438	11858.83
714.782	11893.18
715.125	11832.39
715.469	11829.45
715.812	11696.35
716.156	11679.85
716.499	11701.77
716.843	11727.76
717.186	11662.67
717.53	11673.75
717.873	11699.28
718.216	11577.7
718.559	11547.42
718.902	11449.35
719.246	11531.6
719.589	11444.37
719.932	11464.03
720.275	11504.49
720.617	11517.59
720.96	11433.3
721.303	11403.25
721.646	11472.4
721.989	11359.86
722.331	11400.31
722.674	11389.69
723.016	11414.32
723.359	11302.46
723.701	11348.56
724.044	11295.23
724.386	11267.2
724.729	11292.74
725.071	11305.85
725.413	11268.79
725.755	11310.82
726.097	11249.13
726.439	11185.17
726.782	11216.36
727.124	11292.29
727.465	11151.95
727.807	11176.58
728.149	11173.42
728.491	11153.53
728.833	11253.42
729.175	11203.7
729.516	11086.42
729.858	11161.9
730.199	11192.86
730.541	11102.69
730.882	11128.9
731.224	11195.57
731.565	11068.34
731.906	11053.65
732.248	11112.18
732.589	11089.13
732.93	11051.16
733.271	11086.64
733.612	11085.51
733.953	11090.71
734.294	11076.7
734.635	11116.25
734.976	11167.77
735.317	11102.01
735.658	11052.29
735.999	11087.77
736.339	11141.33
736.68	11135.46
737.021	11118.51
737.361	11062.01
737.702	11119.19
738.042	11192.86
738.383	11098.85
738.723	11107.89
739.063	11100.2
739.404	11211.61
739.744	11149.69
740.084	11177.04
740.424	11242.35
740.764	11120.31
741.104	11287.32
741.444	11244.61
741.784	11228.11
742.124	11297.26
742.464	11281.67
742.804	11319.41
743.143	11339.07
743.483	11304.94
743.823	11379.52
744.162	11398.95
744.502	11439.18
744.841	11453.87
745.181	11521.89
745.52	11485.96
745.86	11611.6
746.199	11648.44
746.538	11688.66
746.877	11763.01
747.216	11866.51
747.556	11856.34
747.895	11933.63
748.234	11909.22
748.573	11977.02
748.911	12112.61
749.25	12199.61
749.589	12198.03
749.928	12284.8
750.267	12462.43
750.605	12458.58
750.944	12603.21
751.283	12526.15
751.621	12742.87
751.96	12868.29
752.298	12916.43
752.636	13168.85
752.975	13113.93
753.313	13205.46
753.651	13471.21
753.989	13444.32
754.327	13650.19
754.666	13662.17
755.004	13901.94
755.342	14124.98
755.679	14166.56
756.017	14345.31
