Data from hue_340_FLMS001491_64.txt Node
Date: Mon Feb 06 15:43:26 GMT 2017
User: dcchb
Spectrometer: FLMS00149
Trigger mode: 0
Integration Time (sec): 2.000000E-2
Scans to average: 10
Electric dark correction enabled: true
Nonlinearity correction enabled: false
Boxcar width: 0
XAxis mode: Wavelengths
Number of Pixels in Spectrum: 2048
>>>>>Begin Spectral Data<<<<<
341.393	0.86
341.776	0.86
342.16	0.86
342.543	-52.7
342.927	-63.54
343.31	-66.48
343.693	-95.18
344.077	-81.62
344.46	-46.14
344.843	-47.5
345.226	-35.52
345.61	-22.19
345.993	-25.58
346.376	15.78
346.759	-0.27
347.142	26.17
347.525	40.63
347.908	54.19
348.291	56.68
348.674	112.27
349.057	114.76
349.44	134.19
349.823	132.84
350.206	164.7
350.588	171.7
350.971	223.68
351.354	224.58
351.737	223.68
352.119	239.27
352.502	241.53
352.884	268.65
353.267	273.85
353.65	292.15
354.032	271.81
354.414	289.67
354.797	303.23
355.179	328.99
355.562	334.86
355.944	331.93
356.326	319.5
356.709	318.14
357.091	347.07
357.473	335.54
357.855	311.36
358.238	339.84
358.62	328.54
359.002	351.36
359.384	343.68
359.766	342.55
360.148	317.01
360.53	337.12
360.912	310.01
361.294	327.63
361.676	327.63
362.057	325.6
362.439	335.54
362.821	314.3
363.203	324.02
363.584	343.9
363.966	309.78
364.348	325.82
364.729	329.67
365.111	304.81
365.493	315.88
365.874	300.97
366.256	330.57
366.637	339.61
367.019	311.81
367.4	316.33
367.781	324.02
368.163	317.01
368.544	313.4
368.925	299.61
369.306	315.2
369.688	291.02
370.069	325.15
370.45	311.81
370.831	319.05
371.212	296
371.593	304.58
371.974	323.56
372.355	317.46
372.736	309.78
373.117	291.02
373.498	298.93
373.879	310.23
374.26	325.37
374.641	310.68
375.021	314.98
375.402	321.53
375.783	322.66
376.163	324.47
376.544	328.54
376.925	321.76
377.305	315.2
377.686	339.61
378.066	332.15
378.447	323.11
378.827	301.87
379.208	317.46
379.588	338.03
379.968	338.71
380.349	309.78
380.729	315.43
381.109	325.82
381.489	349.1
381.87	325.15
382.25	316.56
382.63	325.6
383.01	341.42
383.39	337.58
383.77	313.17
384.15	326.28
384.53	337.8
384.91	343.45
385.29	326.05
385.67	340.29
386.049	319.95
386.429	341.87
386.809	348.42
387.189	357.46
387.568	351.59
387.948	360.4
388.328	352.49
388.707	359.04
389.087	358.14
389.466	349.33
389.846	338.25
390.225	357.46
390.605	362.89
390.984	340.51
391.363	345.03
391.743	338.48
392.122	350.68
392.501	354.3
392.881	357.46
393.26	383
393.639	369.21
394.018	351.59
394.397	368.54
394.776	362.21
395.155	363.56
395.534	373.96
395.913	375.09
396.292	379.16
396.671	373.51
397.05	371.93
397.429	371.7
397.808	378.03
398.186	366.28
398.565	371.47
398.944	365.82
399.323	365.37
399.701	382.32
400.08	401.53
400.458	377.35
400.837	395.43
401.215	389.33
401.594	387.74
401.972	370.8
402.351	389.78
402.729	383
403.107	406.27
403.486	386.39
403.864	411.92
404.242	394.98
404.62	413.96
404.999	414.18
405.377	413.28
405.755	397.69
406.133	412.38
406.511	414.86
406.889	413.51
407.267	439.49
407.645	409.66
408.023	424.58
408.401	425.03
408.779	414.41
409.156	437.69
409.534	438.59
409.912	437.23
410.29	430.23
410.667	444.01
411.045	425.71
411.422	452.83
411.8	466.39
412.178	464.8
412.555	480.62
412.933	469.78
413.31	468.42
413.687	469.1
414.065	478.36
414.442	462.54
414.819	496.67
415.197	473.39
415.574	505.93
415.951	512.94
416.328	522.88
416.705	527.18
417.082	517.91
417.46	522.2
417.837	495.99
418.214	505.71
418.591	505.26
418.967	541.64
419.344	546.84
419.721	537.12
420.098	542.77
420.475	554.97
420.852	537.8
421.228	552.26
421.605	553.39
421.982	573.05
422.358	560.62
422.735	582.32
423.111	575.54
423.488	566.95
423.864	594.97
424.241	594.52
424.617	597.46
424.994	598.59
425.37	606.72
425.746	599.26
426.123	610.79
426.499	603.56
426.875	619.6
427.251	644.23
427.627	621.18
428.003	646.27
428.379	633.61
428.756	629.32
429.132	665.25
429.507	660.05
429.883	652.6
430.259	667.74
430.635	667.96
431.011	658.7
431.387	689.21
431.763	690.79
432.138	706.15
432.514	684.91
432.89	703.67
433.265	691.69
433.641	703.44
434.016	724.23
434.392	745.02
434.767	741.41
435.143	749.54
435.518	735.53
435.894	763.55
436.269	774.85
436.644	743.44
437.02	790.67
437.395	769.43
437.77	765.59
438.145	766.04
438.52	808.52
438.895	806.72
439.271	779.6
439.646	811.69
440.021	809.88
440.395	822.76
440.77	826.15
441.145	806.26
441.52	858.01
441.895	826.83
442.27	842.87
442.645	845.81
443.019	830.9
443.394	832.25
443.769	828.18
444.143	860.27
444.518	846.72
444.892	872.25
445.267	844.91
445.641	848.97
446.016	879.71
446.39	878.13
446.764	897.56
447.139	901.85
447.513	909.99
447.887	895.53
448.262	902.76
448.636	901.63
449.01	904.57
449.384	922.19
449.758	906.83
450.132	913.83
450.506	919.48
450.88	918.13
451.254	938.01
451.628	930.55
452.002	946.6
452.376	985.92
452.75	931.68
453.123	992.93
453.497	983.21
453.871	961.51
454.244	995.19
454.618	979.82
454.992	992.93
455.365	980.04
455.739	1019.14
456.112	1051.68
456.486	999.93
456.859	1020.95
457.232	1033.38
457.606	1057.78
457.979	1051.23
458.352	1051.23
458.725	1058.69
459.099	1074.96
459.472	1109.08
459.845	1083.32
460.218	1115.63
460.591	1125.13
460.964	1129.42
461.337	1105.01
461.71	1151.34
462.083	1182.07
462.456	1147.72
462.829	1183.2
463.201	1154.28
463.574	1191.34
463.947	1216.87
464.32	1254.39
464.692	1245.8
465.065	1238.57
465.438	1227.5
465.81	1287.38
466.183	1300.94
466.555	1307.04
466.928	1294.61
467.3	1282.18
467.672	1315.86
468.045	1353.59
468.417	1349.75
468.789	1360.83
469.161	1364.22
469.534	1379.36
469.906	1412.58
470.278	1418.68
470.65	1401.95
471.022	1434.04
471.394	1465.23
471.766	1462.97
472.138	1503.19
472.51	1495.96
472.882	1515.85
473.253	1534.61
473.625	1581.84
473.997	1582.51
474.369	1605.57
474.74	1613.7
475.112	1653.02
475.484	1630.65
475.855	1695.28
476.227	1720.59
476.598	1716.52
476.97	1748.61
477.341	1794.71
477.713	1793.81
478.084	1794.71
478.455	1824.09
478.827	1877.2
479.198	1920.36
479.569	1905.67
479.94	1959.45
480.311	1962.62
480.682	2008.72
481.053	2018.66
481.424	2089.39
481.795	2088.26
482.166	2121.03
482.537	2142.05
482.908	2178.43
483.279	2195.38
483.65	2246.23
484.021	2273.8
484.391	2295.94
484.762	2340.46
485.133	2303.85
485.503	2384.75
485.874	2393.79
486.244	2414.58
486.615	2484.19
486.985	2478.08
487.356	2517.63
487.726	2535.94
488.097	2607.57
488.467	2614.58
488.837	2636.05
489.207	2692.09
489.578	2713.11
489.948	2722.82
490.318	2781.35
490.688	2804.86
491.058	2831.97
491.428	2856.83
491.798	2917.85
492.168	2934.8
492.538	2930.05
492.908	2952.65
493.278	2978.86
493.648	2998.3
494.017	3041.46
494.387	3039.2
494.757	3112.42
495.126	3074.23
495.496	3139.08
495.866	3129.82
496.235	3172.76
496.605	3225.64
496.974	3219.76
497.344	3244.39
497.713	3291.4
498.082	3269.25
498.452	3329.59
498.821	3342.92
499.19	3347.21
499.559	3351.06
499.928	3413.43
500.298	3422.69
500.667	3458.17
501.036	3417.95
501.405	3440.77
501.774	3496.59
502.143	3532.52
502.512	3504.95
502.88	3562.8
503.249	3527.1
503.618	3560.77
503.987	3540.2
504.356	3591.05
504.724	3638.28
505.093	3579.75
505.462	3611.61
505.83	3636.02
506.199	3634.21
506.567	3740.88
506.936	3706.3
507.304	3703.82
507.672	3702.91
508.041	3718.5
508.409	3733.87
508.777	3758.28
509.145	3781.78
509.514	3790.82
509.882	3805.73
510.25	3831.27
510.618	3802.12
510.986	3834.89
511.354	3827.43
511.722	3904.49
512.09	3928.22
512.458	3914.88
512.826	3906.3
513.193	3954.2
513.561	3959.18
513.929	3957.14
514.297	3973.19
514.664	3963.02
515.032	4037.37
515.4	4047.53
515.767	4032.62
516.135	4033.98
516.502	4072.62
516.869	4080.75
517.237	4099.51
517.604	4069.68
517.972	4097.7
518.339	4115.56
518.706	4168.21
519.073	4125.95
519.44	4169.79
519.808	4185.16
520.175	4178.83
520.542	4218.6
520.909	4277.13
521.276	4257.47
521.643	4299.28
522.009	4277.81
522.376	4299.28
522.743	4265.16
523.11	4319.84
523.477	4383.57
523.843	4352.16
524.21	4376.79
524.577	4412.95
524.943	4432.38
525.31	4441.65
525.676	4467.64
526.043	4534.53
526.409	4540.4
526.776	4584.02
527.142	4568.88
527.508	4592.15
527.874	4587.41
528.241	4614.3
528.607	4647.75
528.973	4760.96
529.339	4660.4
529.705	4738.36
530.071	4767.74
530.437	4760.96
530.803	4759.61
531.169	4822.66
531.535	4804.35
531.901	4826.95
532.267	4846.61
532.632	4875.99
532.998	4903.78
533.364	4892.48
533.73	4915.31
534.095	4951.92
534.461	5019.49
534.826	5053.38
535.192	5021.97
535.557	5056.55
535.923	5071.46
536.288	5079.6
536.653	5108.75
537.019	5116.89
537.384	5064.01
537.749	5131.12
538.114	5166.6
538.479	5176.32
538.845	5224.9
539.21	5194.4
539.575	5263.77
539.94	5323.89
540.305	5214.96
540.67	5353.49
541.034	5308.52
541.399	5329.99
541.764	5360.95
542.129	5437.55
542.494	5396.65
542.858	5448.4
543.223	5465.8
543.587	5512.36
543.952	5487.04
544.316	5556.87
544.681	5555.07
545.045	5599.81
545.41	5569.08
545.774	5596.19
546.138	5619.92
546.503	5642.3
546.867	5689.3
547.231	5714.61
547.595	5707.83
547.959	5755.51
548.324	5748.06
548.688	5714.61
549.052	5786.7
549.416	5834.83
549.779	5819.92
550.143	5790.99
550.507	5848.39
550.871	5866.02
551.235	5877.32
551.599	5930.42
551.962	5963.19
552.326	5924.77
552.689	6010.2
553.053	5995.28
553.417	5976.52
553.78	6127.03
554.143	6050.42
554.507	6086.8
554.87	6078.22
555.234	6117.76
555.597	6066.46
555.96	6143.07
556.323	6178.1
556.686	6219.23
557.05	6244.54
557.413	6227.82
557.776	6243.18
558.139	6291.77
558.502	6263.52
558.865	6254.03
559.228	6299.23
559.59	6320.24
559.953	6326.8
560.316	6401.82
560.679	6404.31
561.041	6445.21
561.404	6505.55
561.767	6503.74
562.129	6493.57
562.492	6548.26
562.854	6503.06
563.217	6524.31
563.579	6539.67
563.941	6628.03
564.304	6652.44
564.666	6652.66
565.028	6686.79
565.39	6688.82
565.753	6742.61
566.115	6797.07
566.477	6736.73
566.839	6816.28
567.201	6804.75
567.563	6828.7
567.925	6860.57
568.287	6899.89
568.648	6880.91
569.01	6910.28
569.372	7037.06
569.734	6997.06
570.095	7083.39
570.457	7016.27
570.819	7061.92
571.18	7080.68
571.542	7156.61
571.903	7207.9
572.265	7208.36
572.626	7259.65
572.987	7285.87
573.349	7358.41
573.71	7367.67
574.071	7466.2
574.432	7429.59
574.794	7526.77
575.155	7609.48
575.516	7543.71
575.877	7660.55
576.238	7748.45
576.599	7843.37
576.96	7867.55
577.32	7959.52
577.681	7923.59
578.042	8092.63
578.403	8052.85
578.763	8190.48
579.124	8279.29
579.485	8368.1
579.845	8451.94
580.206	8447.65
580.566	8611.03
580.927	8758.6
581.287	8794.53
581.648	8911.14
582.008	9034.07
582.368	9203.33
582.728	9293.5
583.089	9443.55
583.449	9598.35
583.809	9702.08
584.169	9880.83
584.529	9980.94
584.889	10201.95
585.249	10318.1
585.609	10544.77
585.969	10699.11
586.329	10846.68
586.688	11038.31
587.048	11194.01
587.408	11482.59
587.768	11620.44
588.127	11892.07
588.487	12071.5
588.846	12394.66
589.206	12511.27
589.565	12753.29
589.925	13003.91
590.284	13215.88
590.643	13507.63
591.003	13691.12
591.362	14031.45
591.721	14285.46
592.08	14497.2
592.44	14784.2
592.799	15141.03
593.158	15284.98
593.517	15592.77
593.876	15855.59
594.235	16128.8
594.593	16299.87
594.952	16653.76
595.311	16868.89
595.67	17181.2
596.029	17620.74
596.387	17869.54
596.746	18151.57
597.104	18313.37
597.463	18538.23
597.822	18950.19
598.18	19182.5
598.538	19382.72
598.897	19855.25
599.255	20027
599.613	20481
599.972	20706.31
600.33	21000.54
600.688	21278.27
601.046	21523.69
601.404	21987.85
601.762	22052.49
602.12	22437.11
602.478	22681.4
602.836	23067.6
603.194	23114.38
603.552	23366.35
603.91	23568.6
604.268	23932.66
604.625	24022.15
604.983	24353.22
605.341	24507.34
605.698	25009.24
606.056	25159.3
606.413	25357.03
606.771	25731.26
607.128	25936
607.485	25990.91
607.843	26343.9
608.2	26592.48
608.557	26794.51
608.914	27049.64
609.272	27290.99
609.629	27579.12
609.986	27950.18
610.343	27999.22
610.7	28442.37
611.057	28457.06
611.414	28627
611.771	28886.88
612.127	29056.82
612.484	29253.65
612.841	29511.72
613.198	29473.53
613.554	29755.79
613.911	30086.85
614.267	30143.12
614.624	30316
614.98	30472.83
615.337	30887.28
615.693	30928.86
616.05	31073.49
616.406	31303.77
616.762	31334.27
617.118	31494.72
617.475	31612.01
617.831	31818.33
618.187	31969.96
618.543	32030.08
618.899	32442.49
619.255	32509.61
619.611	32579.89
619.967	32760
620.323	32867.34
620.678	32921.13
621.034	32842.26
621.39	33028.02
621.746	33082.48
622.101	33542.58
622.457	33388.01
622.812	33549.13
623.168	33760.88
623.523	33834.77
623.879	33973.53
624.234	33748.67
624.589	34011.94
624.945	34096.46
625.3	34184.14
625.655	34342.78
626.01	34453.29
626.365	34487.41
626.72	34599.05
627.075	34576.9
627.43	34574.87
627.785	34626.39
628.14	34738.03
628.495	34768.53
628.85	34801.53
629.205	34922.88
629.559	35114.29
629.914	34913.84
630.269	35048.53
630.623	35157.9
630.978	35013.5
631.332	35188.64
631.687	35305.02
632.041	35056.89
632.396	35247.62
632.75	35079.04
633.104	35133.5
633.459	35129.66
633.813	35205.36
634.167	35255.75
634.521	35173.95
634.875	35398.8
635.229	35254.62
635.583	35199.03
635.937	35206.26
636.291	35182.76
636.645	35341.85
636.999	35325.36
637.352	35459.59
637.706	35094.63
638.06	35284.23
638.413	35260.95
638.767	35239.71
639.121	35425.24
639.474	35124.01
639.828	35122.42
640.181	35363.55
640.534	35383.66
640.888	35316.09
641.241	35040.62
641.594	35183.67
641.947	35300.27
642.301	35187.06
642.654	35361.06
643.007	35208.07
643.36	35329.65
643.713	35241.29
644.066	35265.25
644.419	35076.32
644.771	34977.12
645.124	34587.07
645.477	34563.34
645.83	34394.31
646.182	34301.43
646.535	34249.23
646.888	34220.3
647.24	34032.28
647.593	34373.74
647.945	34249.45
648.298	34212.39
648.65	34032.96
649.002	34031.61
649.355	34216.91
649.707	34034.99
650.059	34287.64
650.411	34571.7
650.763	34781.64
651.115	35019.6
651.467	34880.17
651.819	34902.54
652.171	34828.87
652.523	34768.76
652.875	34785.03
653.227	34713.4
653.578	34896.22
653.93	34862.09
654.282	34588.2
654.633	34643.34
654.985	34719.95
655.337	34630.91
655.688	34689.22
656.039	34859.15
656.391	34355.44
656.742	34595.43
657.094	34571.03
657.445	34700.06
657.796	34537.81
658.147	34480.63
658.498	34473.4
658.849	34583.46
659.2	34440.18
659.551	34584.36
659.902	34683.57
660.253	34493.51
660.604	34518.6
660.955	34406.74
661.306	34536.68
661.656	34404.02
662.007	34492.84
662.358	34575.32
662.708	34586.17
663.059	34511.14
663.409	34321.32
663.76	34519.05
664.11	34421.2
664.461	34517.47
664.811	34505.27
665.161	34405.38
665.511	34406.74
665.862	34419.17
666.212	34495.77
666.562	34509.56
666.912	34344.37
667.262	34377.81
667.612	34370.13
667.962	34484.25
668.312	34359.28
668.662	34550.91
669.011	34409.9
669.361	34312.73
669.711	34455.55
670.06	34329
670.41	34242.9
670.76	34198.83
671.109	34458.03
671.459	34338.04
671.808	34293.07
672.157	34375.32
672.507	34165.39
672.856	34137.59
673.205	34289
673.554	34338.04
673.904	34226.18
674.253	34322.22
674.602	34138.72
674.951	33680.65
675.3	33508.68
675.649	34159.51
675.998	34118.16
676.346	34019.63
676.695	34148.21
677.044	33995.22
677.393	33947.31
677.741	34019.63
678.09	34036.12
678.438	33849.24
678.787	33954.77
679.135	33998.61
679.484	33765.85
679.832	33876.81
680.181	33594.33
680.529	33787.77
680.877	33748
681.225	33669.81
681.573	33866.41
681.922	33494.22
682.27	33467.33
682.618	33583.48
682.966	33537.83
683.314	33477.27
683.661	33447.89
684.009	33387.1
684.357	33131.06
684.705	33240.44
685.053	33273.43
685.4	33206.77
685.748	33019.65
686.095	33066.43
686.443	32922.03
686.79	32853.11
687.138	32920.67
687.485	32827.12
687.832	32691.53
688.18	32777.85
688.527	32546.67
688.874	32601.36
689.221	32551.64
689.568	32477.75
689.915	32393
690.262	32401.14
690.609	32259
690.956	32222.61
691.303	32214.03
691.65	31975.16
691.997	32017.87
692.344	31915.28
692.69	31854.49
693.037	31732
693.383	31605.45
693.73	31697.43
694.077	31513.93
694.423	31572.91
694.769	31405.69
695.116	31318.23
695.462	31372.24
695.808	31236.42
696.155	31272.81
696.501	31044.57
696.847	31025.13
697.193	30840.28
697.539	30961.18
697.885	30723.9
698.231	30550.79
698.577	30716.66
698.923	30553.96
699.269	30510.57
699.614	30225.38
699.96	30301.31
700.306	30364.13
700.651	30202.55
700.997	29914.65
701.342	29957.59
701.688	29972.05
702.033	29887.76
702.379	29749.23
702.724	29883.69
703.069	29787.42
703.415	29426.53
703.76	29502.91
704.105	29480.09
704.45	29426.98
704.795	29149.7
705.14	29146.76
705.485	29172.98
705.83	29052.3
706.175	29005.52
706.52	28919.2
706.865	28878.07
707.209	28877.16
707.554	28676.49
707.899	28783.61
708.243	28769.37
708.588	28605.76
708.932	28333.68
709.277	28417.06
709.621	28432.2
709.966	28316.28
710.31	28233.34
710.654	28102.95
710.998	28191.08
711.342	28048.49
711.687	28048.26
712.031	28006.23
712.375	27902.95
712.719	27874.03
713.063	27963.29
713.407	27900.69
713.75	27776.85
714.094	27701.83
714.438	27510.19
714.782	27697.99
715.125	27465.22
715.469	27566.46
715.812	27353.81
716.156	27225.91
716.499	27326.7
716.843	27331.22
717.186	27134.84
717.53	27193.37
717.873	27252.57
718.216	27115.18
718.559	27077.44
718.902	26799.03
719.246	26980.27
719.589	26777.78
719.932	26653.04
720.275	26706.6
720.617	26685.58
720.96	26654.85
721.303	26501.63
721.646	26575.98
721.989	26387.29
722.331	26545.7
722.674	26478.81
723.016	26492.82
723.359	26364.91
723.701	26288.98
724.044	26180.96
724.386	26063.23
724.729	26183.22
725.071	26018.48
725.413	26180.74
725.755	26053.06
726.097	25932.84
726.439	25893.51
726.782	25879.5
727.124	26056
727.465	25757.25
727.807	25781.43
728.149	25820.52
728.491	25694.42
728.833	25759.73
729.175	25657.59
729.516	25569.68
729.858	25477.71
730.199	25474.32
730.541	25522.9
730.882	25486.97
731.224	25491.94
731.565	25322.46
731.906	25436.58
732.248	25398.84
732.589	25235
732.93	25176.02
733.271	25275
733.612	25272.06
733.953	25261.67
734.294	25079.3
734.635	25037.49
734.976	25009.47
735.317	24982.58
735.658	24927.44
735.999	24864.61
736.339	24865.07
736.68	24925.86
737.021	24746.2
737.361	24714.11
737.702	24839.98
738.042	24630.72
738.383	24717.05
738.723	24775.58
739.063	24627.56
739.404	24714.79
739.744	24420.78
740.084	24483.38
740.424	24529.03
740.764	24436.6
741.104	24479.54
741.444	24360.45
741.784	24301.01
742.124	24344.85
742.464	24239.09
742.804	24170.85
743.143	24105.09
743.483	24227.12
743.823	24040.23
744.162	24090.17
744.502	24150.51
744.841	23949.38
745.181	24108.02
745.52	23903.06
745.86	23953.23
746.199	23881.36
746.538	23900.57
746.877	23942.15
747.216	23930.85
747.556	23781.71
747.895	23777.19
748.234	23620.81
748.573	23582.61
748.911	23656.51
749.25	23576.06
749.589	23555.72
749.928	23524.31
750.267	23503.75
750.605	23513.46
750.944	23293.36
751.283	23363.19
751.621	23387.14
751.96	23312.34
752.298	23192.79
752.636	23163.64
752.975	23166.35
753.313	23046.13
753.651	23077.32
753.989	22970.2
754.327	23019.92
754.666	22872.58
755.004	22778.79
755.342	22785.12
755.679	22737.21
756.017	22709.42
756.355	22759.36
756.693	22598.91
757.031	22616.31
757.368	22547.16
757.706	22545.13
758.044	22356.43
758.381	22464.68
758.719	22340.39
759.056	22278.24
759.394	22280.73
759.731	22079.6
760.068	22112.37
760.405	21926.39
760.743	21945.6
761.08	21897.91
761.417	21761.42
