Data from hue_70_FLMS001491_25.txt Node
Date: Mon Feb 06 15:20:20 GMT 2017
User: dcchb
Spectrometer: FLMS00149
Trigger mode: 0
Integration Time (sec): 2.000000E-2
Scans to average: 10
Electric dark correction enabled: true
Nonlinearity correction enabled: false
Boxcar width: 0
XAxis mode: Wavelengths
Number of Pixels in Spectrum: 2048
>>>>>Begin Spectral Data<<<<<
341.393	-12.71
341.776	-12.71
342.16	-12.71
342.543	-88.64
342.927	-74.63
343.31	-46.61
343.693	-69.43
344.077	-56.78
344.46	-59.94
344.843	-62.43
345.226	-30.11
345.61	-25.37
345.993	-26.72
346.376	-6.84
346.759	22.32
347.142	21.19
347.525	19.38
347.908	53.05
348.291	75.87
348.674	91.69
349.057	100.73
349.44	108.64
349.823	133.5
350.206	160.39
350.588	197.45
350.971	208.07
351.354	242.42
351.737	230.67
352.119	258.92
352.502	258.02
352.884	273.83
353.267	265.25
353.65	298.92
354.032	281.07
354.414	286.72
354.797	304.57
355.179	314.96
355.562	312.48
355.944	325.13
356.326	333.72
356.709	311.12
357.091	315.19
357.473	324
357.855	344.34
358.238	343.89
358.62	347.28
359.002	337.56
359.384	330.56
359.766	316.77
360.148	344.79
360.53	334.4
360.912	334.4
361.294	313.61
361.676	326.04
362.057	317.22
362.439	340.05
362.821	329.43
363.203	331.23
363.584	325.13
363.966	326.04
364.348	312.7
364.729	291.46
365.111	297.56
365.493	298.47
365.874	322.65
366.256	319.48
366.637	296.88
367.019	320.84
367.4	313.38
367.781	302.31
368.163	295.98
368.544	313.38
368.925	289.65
369.306	337.34
369.688	310.22
370.069	285.59
370.45	323.78
370.831	307.28
371.212	321.29
371.593	299.37
371.974	311.12
372.355	330.78
372.736	312.03
373.117	311.35
373.498	333.27
373.879	299.6
374.26	304.34
374.641	320.39
375.021	317.68
375.402	303.44
375.783	320.84
376.163	321.52
376.544	328.75
376.925	340.5
377.305	313.38
377.686	319.48
378.066	320.61
378.447	333.72
378.827	304.34
379.208	329.43
379.588	308.86
379.968	327.84
380.349	324
380.729	317.45
381.109	343.21
381.489	324.91
381.87	344.79
382.25	332.14
382.63	329.88
383.01	341.63
383.39	322.42
383.77	343.21
384.15	333.27
384.53	329.43
384.91	336.43
385.29	345.7
385.67	344.57
386.049	334.85
386.429	341.86
386.809	334.17
387.189	330.33
387.568	334.85
387.948	342.31
388.328	361.74
388.707	359.93
389.087	342.76
389.466	360.84
389.846	349.54
390.225	361.52
390.605	345.25
390.984	351.8
391.363	351.8
391.743	368.3
392.122	354.74
392.501	349.31
392.881	366.04
393.26	370.33
393.639	369.65
394.018	374.62
394.397	394.96
394.776	371.01
395.155	360.39
395.534	358.58
395.913	385.47
396.292	367.17
396.671	384.11
397.05	371.46
397.429	385.24
397.808	359.48
398.186	375.75
398.565	378.69
398.944	389.99
399.323	379.82
399.701	392.25
400.08	389.31
400.458	365.13
400.837	382.76
401.215	382.08
401.594	390.89
401.972	364
402.351	400.16
402.729	376.88
403.107	404.23
403.486	391.35
403.864	380.5
404.242	396.54
404.62	398.8
404.999	373.72
405.377	410.1
405.755	400.16
406.133	420.27
406.511	399.93
406.889	411.68
407.267	424.79
407.645	415.98
408.023	415.53
408.401	414.4
408.779	436.54
409.156	433.15
409.534	413.27
409.912	433.6
410.29	439.71
410.667	435.86
411.045	446.71
411.422	431.8
411.8	436.99
412.178	425.02
412.555	446.26
412.933	465.47
413.31	448.97
413.687	461.17
414.065	444.9
414.442	440.84
414.819	482.64
415.197	450.55
415.574	478.8
415.951	467.28
416.328	462.76
416.705	472.02
417.082	448.75
417.46	478.8
417.837	467.73
418.214	474.96
418.591	499.82
418.967	470.67
419.344	491.46
419.721	499.82
420.098	504.34
420.475	492.81
420.852	508.18
421.228	496.43
421.605	508.18
421.982	516.31
422.358	495.75
422.735	533.49
423.111	519.7
423.488	530.55
423.864	535.75
424.241	510.89
424.617	523.55
424.994	519.48
425.37	538.01
425.746	518.35
426.123	517.44
426.499	532.13
426.875	553.6
427.251	558.57
427.627	526.03
428.003	553.83
428.379	558.57
428.756	556.09
429.132	559.48
429.507	573.49
429.883	572.36
430.259	565.58
430.635	579.36
431.011	575.07
431.387	568.52
431.763	590.44
432.138	608.52
432.514	612.81
432.89	620.94
433.265	617.1
433.641	586.82
434.016	627.27
434.392	625.01
434.767	640.15
435.143	630.66
435.518	635.18
435.894	649.42
436.269	656.2
436.644	649.64
437.02	686.03
437.395	654.39
437.77	688.51
438.145	664.11
438.52	666.59
438.895	687.61
439.271	671.34
439.646	686.03
440.021	680.6
440.395	712.92
440.77	706.59
441.145	705.01
441.52	723.77
441.895	718.12
442.27	732.81
442.645	724.44
443.019	721.51
443.394	699.13
443.769	741.17
444.143	734.39
444.518	729.87
444.892	745.46
445.267	745.91
445.641	755.4
446.016	768.06
446.39	754.73
446.764	762.18
447.139	745.01
447.513	775.29
447.887	769.87
448.262	773.71
448.636	791.11
449.01	764.67
449.384	812.8
449.758	789.3
450.132	817.55
450.506	807.15
450.88	791.79
451.254	821.16
451.628	826.59
452.002	832.24
452.376	853.25
452.75	849.41
453.123	856.42
453.497	861.39
453.871	848.28
454.244	895.97
454.618	863.2
454.992	908.17
455.365	913.59
455.739	921.05
456.112	949.3
456.486	921.95
456.859	920.82
457.232	925.57
457.606	940.48
457.979	975.96
458.352	998.11
458.725	995.62
459.099	998.34
459.472	1012.57
459.845	1046.92
460.218	1011.89
460.591	1028.84
460.964	1034.94
461.337	1039.46
461.71	1055.96
462.083	1061.16
462.456	1069.75
462.829	1101.16
463.201	1160.14
463.574	1139.12
463.947	1143.19
464.32	1153.13
464.692	1173.25
465.065	1157.88
465.438	1213.02
465.81	1229.06
466.183	1237.65
466.555	1241.49
466.928	1257.09
467.3	1259.57
467.672	1283.75
468.045	1347.7
468.417	1351.55
468.789	1367.37
469.161	1414.14
469.534	1417.99
469.906	1437.87
470.278	1433.35
470.65	1471.77
471.022	1525.1
471.394	1525.55
471.766	1551.54
472.138	1580.69
472.51	1618.43
472.882	1663.63
473.253	1695.27
473.625	1726
473.997	1725.55
474.369	1772.55
474.74	1825.66
475.112	1829.27
475.484	1919.89
475.855	1978.65
476.227	1984.52
476.598	2056.84
476.97	2073.34
477.341	2141.58
477.713	2217.51
478.084	2250.51
478.455	2309.94
478.827	2335.48
479.198	2453.44
479.569	2495.02
479.94	2567.56
480.311	2667.67
480.682	2733.88
481.053	2805.07
481.424	2863.15
481.795	2986.31
482.166	3028.79
482.537	3121.44
482.908	3214.77
483.279	3316.47
483.65	3413.41
484.021	3502.68
484.391	3607.53
484.762	3664.25
485.133	3748.09
485.503	3853.4
485.874	4013.4
486.244	4113.06
486.615	4203.22
486.985	4302.43
487.356	4496.32
487.726	4506.04
488.097	4694.06
488.467	4788.29
488.837	4934.5
489.207	5069.64
489.578	5193.03
489.948	5299.24
490.318	5413.36
490.688	5560.48
491.058	5732.67
491.428	5847.47
491.798	6019.45
492.168	6147.8
492.538	6318.65
492.908	6424.86
493.278	6541.47
493.648	6618.75
494.017	6807
494.387	6960.21
494.757	7094.22
495.126	7207.44
495.496	7381.22
495.866	7461.22
496.235	7616.92
496.605	7745.95
496.974	7933.97
497.344	8022.56
497.713	8151.59
498.082	8323.57
498.452	8529.44
498.821	8559.94
499.19	8678.81
499.559	8867.96
499.928	8944.34
500.298	9088.07
500.667	9246.71
501.036	9331
501.405	9414.61
501.774	9617.54
502.143	9770.53
502.512	9821.61
502.88	9902.73
503.249	10042.39
503.618	10202.61
503.987	10298.66
504.356	10368.26
504.724	10458.65
505.093	10547.24
505.462	10727.8
505.83	10862.03
506.199	10881.69
506.567	11111.97
506.936	11162.14
507.304	11404.62
507.672	11407.78
508.041	11557.61
508.409	11647.55
508.777	11740.43
509.145	11960.31
509.514	11963.02
509.882	12065.16
510.25	12245.05
510.618	12284.82
510.986	12328.88
511.354	12528.43
511.722	12573.4
512.09	12749.21
512.458	12817.91
512.826	12914.41
513.193	13019.49
513.561	13052.26
513.929	13196.88
514.297	13282.53
514.664	13400.5
515.032	13489.98
515.4	13628.74
515.767	13683.65
516.135	13782.41
516.502	13835.96
516.869	14041.38
517.237	14068.5
517.604	14153.47
517.972	14288.38
518.339	14315.73
518.706	14336.97
519.073	14438.89
519.44	14534.02
519.808	14602.5
520.175	14703.96
520.542	14874.13
520.909	14871.87
521.276	14940.79
521.643	15090.62
522.009	15234.12
522.376	15326.32
522.743	15369.03
523.11	15485.64
523.477	15625.52
523.843	15628.46
524.21	15848.79
524.577	15984.16
524.943	16027.09
525.31	16045.4
525.676	16157.26
526.043	16310.48
526.409	16332.4
526.776	16501.43
527.142	16553.86
527.508	16651.94
527.874	16736.23
528.241	16770.12
528.607	16874.98
528.973	16954.75
529.339	16863.45
529.705	17088.53
530.071	17235.65
530.437	17288.3
530.803	17342.09
531.169	17389.32
531.535	17386.83
531.901	17389.54
532.267	17507.73
532.632	17607.16
532.998	17600.16
533.364	17677.44
533.73	17666.6
534.095	17868.17
534.461	17852.81
534.826	17874.73
535.192	17969.64
535.557	17987.95
535.923	18000.37
536.288	18048.28
536.653	17972.35
537.019	18009.41
537.384	18078.56
537.749	18184.78
538.114	18148.62
538.479	18181.84
538.845	18251.44
539.21	18219.8
539.575	18227.49
539.94	18310.2
540.305	18399.23
540.67	18312.68
541.034	18330.08
541.399	18399.46
541.764	18450.53
542.129	18489.17
542.494	18501.83
542.858	18521.04
543.223	18380.48
543.587	18526.24
543.952	18586.8
544.316	18596.74
544.681	18592
545.045	18657.76
545.41	18755.38
545.774	18724.65
546.138	18676.29
546.503	18738.89
546.867	18693.24
547.231	18831.99
547.595	18729.17
547.959	18894.14
548.324	18811.43
548.688	18831.99
549.052	18962.38
549.416	18848.26
549.779	18920.8
550.143	18882.38
550.507	19042.61
550.871	18980.01
551.235	18947.69
551.599	19146.78
551.962	19148.37
552.326	19062.49
552.689	19132.55
553.053	19030.63
553.417	19010.29
553.78	19282.6
554.143	19233.11
554.507	19156.5
554.87	19312.43
555.234	19406.89
555.597	19255.03
555.96	19291.64
556.323	19322.83
556.686	19291.19
557.05	19451.86
557.413	19554.68
557.776	19515.36
558.139	19555.81
558.502	19647.56
558.865	19670.16
559.228	19723.72
559.59	19813.66
559.953	19817.28
560.316	19942.24
560.679	20009.36
561.041	20108.79
561.404	20022.92
561.767	20154.67
562.129	20165.06
562.492	20319.86
562.854	20242.35
563.217	20260.2
563.579	20266.3
563.941	20407.77
564.304	20484.15
564.666	20606.18
565.028	20530.48
565.39	20579.52
565.753	20743.13
566.115	20743.13
566.477	20804.37
566.839	20863.12
567.201	20877.59
567.563	20926.85
567.925	21029
568.287	21013.18
568.648	21164.36
569.01	21176.56
569.372	21333.62
569.734	21222.44
570.095	21397.35
570.457	21374.52
570.819	21450.9
571.18	21439.38
571.542	21425.37
571.903	21502.43
572.265	21684.35
572.626	21661.52
572.987	21524.8
573.349	21744.68
573.71	21813.83
574.071	21911.68
574.432	21858.35
574.794	22010.66
575.155	21942.87
575.516	21845.47
575.877	21983.77
576.238	22036.65
576.599	22073.04
576.96	22145.35
577.32	22068.29
577.681	22189.64
578.042	22119.14
578.403	22300.37
578.763	22173.37
579.124	22279.81
579.485	22296.76
579.845	22394.61
580.206	22320.49
580.566	22338.34
580.927	22390.32
581.287	22404.33
581.648	22246.36
582.008	22579.01
582.368	22386.7
582.728	22489.75
583.089	22348.96
583.449	22337.44
583.809	22530.88
584.169	22435.06
584.529	22332.46
584.889	22627.6
585.249	22387.38
585.609	22308.28
585.969	22424.44
586.329	22390.77
586.688	22460.6
587.048	22363.2
587.408	22354.38
587.768	22372.24
588.127	22410.43
588.487	22358.45
588.846	22488.39
589.206	22398.9
589.565	22403.42
589.925	22485.68
590.284	22498.56
590.643	22420.14
591.003	22517.09
591.362	22464.21
591.721	22444.33
592.08	22427.83
592.44	22544.66
592.799	22560.03
593.158	22453.14
593.517	22370.88
593.876	22506.47
594.235	22418.34
594.593	22425.79
594.952	22516.87
595.311	22426.92
595.67	22478.45
596.029	22553.02
596.387	22517.09
596.746	22620.14
597.104	22522.29
597.463	22456.75
597.822	22576.3
598.18	22504.21
598.538	22567.26
598.897	22652.46
599.255	22424.89
599.613	22768.61
599.972	22542.18
600.33	22615.17
600.688	22530.65
601.046	22782.4
601.404	22802.06
601.762	22739.23
602.12	22887.7
602.478	22837.31
602.836	22762.51
603.194	22668.95
603.552	22708.95
603.91	22678.9
604.268	22752.34
604.625	22677.77
604.983	22786.46
605.341	22741.94
605.698	22713.24
606.056	22861.49
606.413	22724.32
606.771	22798.89
607.128	22759.57
607.485	22784.88
607.843	22837.54
608.2	23000.69
608.557	23062.84
608.914	22986.91
609.272	23066.46
609.629	23109.84
609.986	23170.18
610.343	23049.05
610.7	23179.9
611.057	23317.07
611.414	23139.45
611.771	23247.92
612.127	23327.69
612.484	23266
612.841	23352.32
613.198	23338.76
613.554	23340.35
613.911	23532.21
614.267	23430.97
614.624	23380.12
614.98	23468.7
615.337	23613.11
615.693	23566.33
616.05	23550.96
616.406	23743.73
616.762	23613.79
617.118	23729.49
617.475	23583.73
617.831	23676.16
618.187	23688.36
618.543	23751.41
618.899	23903.72
619.255	23854.91
619.611	23913.44
619.967	23798.64
620.323	23834.57
620.678	23787.57
621.034	23705.08
621.39	23819.43
621.746	23753.67
622.101	23938.98
622.457	23818.3
622.812	23916.15
623.168	23866.66
623.523	23951.18
623.879	24060.1
624.234	23834.57
624.589	23995.02
624.945	24007.67
625.3	24094.45
625.655	23999.09
626.01	24067.33
626.365	24095.81
626.72	24088.8
627.075	23960.44
627.43	24002.48
627.785	23961.8
628.14	23956.15
628.495	24057.16
628.85	24032.98
629.205	23925.64
629.559	24146.43
629.914	23958.64
630.269	23969.93
630.623	23978.97
630.978	23942.14
631.332	23985.98
631.687	23976.26
632.041	23935.36
632.396	24104.85
632.75	23729.26
633.104	24014
633.459	23718.42
633.813	23837.73
634.167	23772.2
634.521	23908.02
634.875	23920.22
635.229	23722.71
635.583	23720.22
635.937	23705.99
636.291	23666.44
636.645	23692.43
636.999	23776.04
637.352	23659.43
637.706	23620.57
638.06	23576.95
638.413	23549.15
638.767	23530.17
639.121	23576.72
639.474	23520
639.828	23481.59
640.181	23413.79
640.534	23504.86
640.888	23434.13
641.241	23368.59
641.594	23317.07
641.947	23452.66
642.301	23339.89
642.654	23400.01
643.007	23382.83
643.36	23370.63
643.713	23257.41
644.066	23366.11
644.419	23288.82
644.771	23072.56
645.124	22849.51
645.477	22837.08
645.83	22765.9
646.182	22621.95
646.535	22610.65
646.888	22557.99
647.24	22496.08
647.593	22608.61
647.945	22570.65
648.298	22494.27
648.65	22423.08
649.002	22313.71
649.355	22451.33
649.707	22350.32
650.059	22503.31
650.411	22746.01
650.763	22783.07
651.115	23125.89
651.467	22977.87
651.819	22981.26
652.171	22994.37
652.523	22786.01
652.875	22944.2
653.227	22850.87
653.578	22980.13
653.93	22812.45
654.282	22871.43
654.633	22729.52
654.985	22793.92
655.337	22884.31
655.688	22896.29
656.039	22927.48
656.391	22736.07
656.742	22781.27
657.094	22793.24
657.445	22920.7
657.796	22790.3
658.147	22838.89
658.498	22820.59
658.849	22816.07
659.2	22863.3
659.551	22858.1
659.902	22953.24
660.253	22795.73
660.604	22882.28
660.955	22868.95
661.306	22811.55
661.656	22847.7
662.007	22811.1
662.358	22814.71
662.708	22824.43
663.059	22708.05
663.409	22698.33
663.76	22846.35
664.11	22982.62
664.461	22939.91
664.811	22923.86
665.161	22854.48
665.511	22792.34
665.862	22796.41
666.212	22902.39
666.562	22988.94
666.912	22731.32
667.262	22797.76
667.612	22811.55
667.962	22830.98
668.312	22773.58
668.662	22907.36
669.011	22831.66
669.361	22754.15
669.711	22735.84
670.06	22739.91
670.41	22730.19
670.76	22633.25
671.109	22718.89
671.459	22664.21
671.808	22721.61
672.157	22819.23
672.507	22580.14
672.856	22581.5
673.205	22648.84
673.554	22696.52
673.904	22624.66
674.253	22765.22
674.602	22675.73
674.951	22288.17
675.3	22259.25
675.649	22468.05
675.998	22587.82
676.346	22553.7
676.695	22734.26
677.044	22348.51
677.393	22533.59
677.741	22499.46
678.09	22367.49
678.438	22351.22
678.787	22476.64
679.135	22405
679.484	22200.49
679.832	22335.4
680.181	22193.03
680.529	22226.48
680.877	22205.69
681.225	22166.14
681.573	22315.29
681.922	22105.12
682.27	22064.67
682.618	21928.41
682.966	21995.3
683.314	21977.22
683.661	21955.75
684.009	21857.9
684.357	21840.05
684.705	21756.21
685.053	21837.56
685.4	21621.97
685.748	21539.04
686.095	21668.98
686.443	21516.67
686.79	21501.07
687.138	21407.74
687.485	21470.11
687.832	21511.92
688.18	21469.21
688.527	21349.21
688.874	21342.21
689.221	21327.74
689.568	21235.54
689.915	21181.31
690.262	21022.44
690.609	21106.06
690.956	20983.35
691.303	20878.49
691.65	20937.92
691.997	20728.44
692.344	20627.2
692.69	20648.21
693.037	20688.67
693.383	20506.52
693.73	20629.23
694.077	20471.5
694.423	20340.88
694.769	20414.1
695.116	20220.65
695.462	20374.78
695.808	20159.19
696.155	20233.08
696.501	20008.91
696.847	20077.38
697.193	19886.43
697.539	20028.12
697.885	19895.92
698.231	19721.46
698.577	19673.78
698.923	19627.9
699.269	19590.16
699.614	19481.24
699.96	19420.22
700.306	19390.39
700.651	19353.78
700.997	19271.53
701.342	19209.16
701.688	19218.87
702.033	19171.42
702.379	18998.09
702.724	19022.95
703.069	19013
703.415	18818.21
703.76	18853.23
704.105	18907.02
704.45	18778.43
704.795	18600.36
705.14	18702.28
705.485	18577.99
705.83	18530.76
706.175	18429.06
706.52	18535.28
706.865	18379.57
707.209	18402.85
707.554	18405.34
707.899	18385.67
708.243	18183.65
708.588	18189.97
708.932	18009.64
709.277	17999.47
709.621	18032.92
709.966	17843.32
710.31	17999.92
710.654	17761.74
710.998	17819.36
711.342	17848.06
711.687	17732.36
712.031	17696.43
712.375	17634.73
712.719	17572.59
713.063	17616.66
713.407	17604.23
713.75	17461.18
714.094	17519.93
714.438	17408.3
714.782	17426.15
715.125	17307.51
715.469	17305.7
715.812	17258.47
716.156	17258.25
716.499	17188.87
716.843	17105.03
717.186	17143.45
717.53	17175.31
717.873	17072.26
718.216	17111.13
718.559	17005.82
718.902	16829.11
719.246	16994.07
719.589	16952.04
719.932	16892.83
720.275	16903.45
720.617	16914.75
720.96	16901.19
721.303	16809.45
721.646	16891.93
721.989	16731.71
722.331	16808.09
722.674	16703.46
723.016	16731.03
723.359	16757.24
723.701	16713.4
724.044	16643.12
724.386	16597.02
724.729	16674.53
725.071	16608.55
725.413	16558.15
725.755	16566.29
726.097	16479.28
726.439	16398.83
726.782	16471.6
727.124	16459.4
727.465	16435.9
727.807	16353.86
728.149	16406.74
728.491	16320.42
728.833	16376.69
729.175	16314.54
729.516	16273.64
729.858	16355.45
730.199	16237.03
730.541	16229.12
730.882	16241.32
731.224	16280.42
731.565	16182.57
731.906	16183.92
732.248	16253.75
732.589	16111.16
732.93	16069.8
733.271	16183.02
733.612	16055.34
733.953	16147.77
734.294	16074.55
734.635	16085.17
734.976	16141.21
735.317	16049.24
735.658	16053.31
735.999	16042.91
736.339	16029.35
736.68	16048.56
737.021	16026.64
737.361	16025.06
737.702	16064.61
738.042	16026.19
738.383	15972.86
738.723	15972.18
739.063	15981.22
739.404	16054.89
739.744	15926.53
740.084	16016.47
740.424	15968.34
740.764	16021.22
741.104	16052.85
741.444	15987.77
741.784	15890.37
742.124	15987.09
742.464	15945.74
742.804	15999.75
743.143	15987.77
743.483	16017.15
743.823	15879.07
744.162	15968.34
744.502	16030.93
744.841	15921.78
745.181	16139.18
745.52	16084.72
745.86	16023.48
746.199	16123.81
746.538	16109.35
746.877	16152.29
747.216	16212.17
747.556	16147.54
747.895	16196.13
748.234	16175.34
748.573	16248.1
748.911	16275.9
749.25	16346.63
749.589	16259.4
749.928	16341.43
750.267	16429.12
750.605	16489
750.944	16531.71
751.283	16538.49
751.621	16658.26
751.96	16684.7
752.298	16598.38
752.636	16677.25
752.975	16733.29
753.313	16825.94
753.651	16877.47
753.989	16952.27
754.327	16919.95
754.666	17097.8
755.004	17156.1
755.342	17292.82
755.679	17333.27
756.017	17216.67
756.355	17394.74
756.693	17453.72
757.031	17569.43
