Data from hue_34_FLMS001491_00021.txt Node
Date: Tue Feb 07 17:25:23 GMT 2017
User: dcchb
Spectrometer: FLMS00149
Trigger mode: 0
Integration Time (sec): 2.000000E-2
Scans to average: 10
Electric dark correction enabled: true
Nonlinearity correction enabled: false
Boxcar width: 0
XAxis mode: Wavelengths
Number of Pixels in Spectrum: 2048
>>>>>Begin Spectral Data<<<<<
341.393	-23.33
341.776	-23.33
342.16	-23.33
342.543	-56.1
342.927	-70.34
343.31	-78.7
343.693	-76.21
344.077	-57.23
344.46	-54.07
344.843	-57
345.226	-42.32
345.61	-15.65
345.993	-17.23
346.376	-1.64
346.759	-4.8
347.142	25.25
347.525	50.79
347.908	53.73
348.291	61.18
348.674	104.35
349.057	109.55
349.44	140.28
349.823	148.19
350.206	145.7
350.588	196.1
350.971	235.19
351.354	245.13
351.737	255.53
352.119	237
352.502	267.96
352.884	274.96
353.267	274.51
353.65	276.09
354.032	293.72
354.414	307.73
354.797	314.51
355.179	340.27
355.562	328.97
355.944	342.08
356.326	354.96
356.709	324.23
357.091	329.2
357.473	351.35
357.855	344.79
358.238	341.63
358.62	333.04
359.002	341.86
359.384	328.75
359.766	352.02
360.148	335.98
360.53	352.48
360.912	348.63
361.294	327.17
361.676	325.36
362.057	347.05
362.439	338.69
362.821	337.79
363.203	342.53
363.584	350.22
363.966	305.92
364.348	305.92
364.729	335.53
365.111	341.4
365.493	326.49
365.874	332.59
366.256	318.35
366.637	330.56
367.019	328.3
367.4	310.67
367.781	308.41
368.163	317.22
368.544	319.94
368.925	320.61
369.306	339.14
369.688	326.49
370.069	308.18
370.45	329.2
370.831	306.6
371.212	314.74
371.593	306.83
371.974	307.96
372.355	334.17
372.736	324.91
373.117	306.6
373.498	331.01
373.879	333.27
374.26	318.81
374.641	293.72
375.021	333.95
375.402	316.55
375.783	318.58
376.163	324.91
376.544	329.2
376.925	326.49
377.305	325.81
377.686	334.17
378.066	325.13
378.447	336.88
378.827	323.55
379.208	322.65
379.588	328.75
379.968	328.3
380.349	338.92
380.729	356.09
381.109	319.94
381.489	343.44
381.87	342.99
382.25	339.14
382.63	362.87
383.01	352.7
383.39	342.76
383.77	352.02
384.15	354.28
384.53	352.48
384.91	368.75
385.29	357.22
385.67	364.68
386.049	349.31
386.429	346.6
386.809	358.13
387.189	367.62
387.568	365.81
387.948	366.94
388.328	372.59
388.707	353.38
389.087	351.35
389.466	369.88
389.846	364.68
390.225	366.04
390.605	373.94
390.984	362.42
391.363	357.67
391.743	353.83
392.122	380.05
392.501	376.66
392.881	388.86
393.26	377.33
393.639	368.07
394.018	369.65
394.397	385.92
394.776	365.36
395.155	379.82
395.534	391.57
395.913	390.22
396.292	369.43
396.671	385.47
397.05	399.71
397.429	375.3
397.808	367.84
398.186	363.78
398.565	379.37
398.944	385.02
399.323	403.1
399.701	411.01
400.08	399.71
400.458	388.63
400.837	399.03
401.215	409.2
401.594	417.11
401.972	423.44
402.351	381.18
402.729	402.19
403.107	415.3
403.486	392.48
403.864	415.53
404.242	417.56
404.62	427.5
404.999	395.64
405.377	426.15
405.755	418.01
406.133	400.38
406.511	415.07
406.889	437.45
407.267	444.68
407.645	427.95
408.023	421.18
408.401	431.34
408.779	455.07
409.156	450.78
409.534	445.58
409.912	449.65
410.29	470.89
410.667	443.32
411.045	455.52
411.422	436.09
411.8	455.07
412.178	477.9
412.555	470.89
412.933	473.83
413.31	460.5
413.687	477.22
414.065	455.98
414.442	458.46
414.819	461.63
415.197	480.83
415.574	483.09
415.951	486.48
416.328	472.7
416.705	477.9
417.082	483.09
417.46	495.07
417.837	515.86
418.214	519.25
418.591	524.45
418.967	515.64
419.344	531.45
419.721	498.46
420.098	497.56
420.475	530.78
420.852	516.54
421.228	520.83
421.605	509.99
421.982	516.99
422.358	552.47
422.735	552.92
423.111	524.9
423.488	524.22
423.864	547.95
424.241	545.01
424.617	549.08
424.994	540.72
425.37	571.45
425.746	559.25
426.123	557.67
426.499	572.13
426.875	567.61
427.251	565.13
427.627	562.64
428.003	566.93
428.379	602.87
428.756	571
429.132	598.35
429.507	606.71
429.883	594.73
430.259	602.41
430.635	600.61
431.011	617.78
431.387	618.91
431.763	636.99
432.138	612.81
432.514	646.03
432.89	651.68
433.265	637.67
433.641	658.23
434.016	637.89
434.392	630.21
434.767	662.75
435.143	666.37
435.518	670.89
435.894	658.01
436.269	685.8
436.644	672.69
437.02	665.46
437.395	694.84
437.77	688.06
438.145	685.35
438.52	704.11
438.895	718.79
439.271	739.81
439.646	729.64
440.021	723.31
440.395	731.68
440.77	740.26
441.145	730.55
441.52	752.92
441.895	742.07
442.27	745.46
442.645	742.75
443.019	760.15
443.394	763.31
443.769	792.69
444.143	755.86
444.518	775.52
444.892	776.42
445.267	782.07
445.641	774.61
446.016	791.34
446.39	785.91
446.764	826.36
447.139	801.73
447.513	806.48
447.887	805.12
448.262	798.11
448.636	807.15
449.01	815.06
449.384	826.14
449.758	833.82
450.132	833.37
450.506	837.89
450.88	839.47
451.254	870.88
451.628	874.72
452.002	839.47
452.376	862.97
452.75	885.8
453.123	876.3
453.497	885.34
453.871	898
454.244	901.16
454.618	923.08
454.992	941.16
455.365	902.97
455.739	940.26
456.112	933.25
456.486	954.04
456.859	968.28
457.232	956.3
457.606	997.43
457.979	982.97
458.352	1012.57
458.725	1006.92
459.099	1042.4
459.472	1034.04
459.845	1024.32
460.218	1052.12
460.591	1060.48
460.964	1069.52
461.337	1080.82
461.71	1126.92
462.083	1127.15
462.456	1119.46
462.829	1141.38
463.201	1146.35
463.574	1126.69
463.947	1160.59
464.32	1162.17
464.692	1216.63
465.065	1210.76
465.438	1226.58
465.81	1217.54
466.183	1253.47
466.555	1262.96
466.928	1275.84
467.3	1289.63
467.672	1323.98
468.045	1353.35
468.417	1351.55
468.789	1356.07
469.161	1390.64
469.534	1357.42
469.906	1447.59
470.278	1436.97
470.65	1443.75
471.022	1525.78
471.394	1515.16
471.766	1523.52
472.138	1559.45
472.51	1578.66
472.882	1627.47
473.253	1669.5
473.625	1669.73
473.997	1696.62
474.369	1714.93
474.74	1751.54
475.112	1768.03
475.484	1802.38
475.855	1884.19
476.227	1887.13
476.598	1928.48
476.97	1980.91
477.341	2038.53
477.713	2091.19
478.084	2124.86
478.455	2167.34
478.827	2202.82
479.198	2234.91
479.569	2311.3
479.94	2389.26
480.311	2438.98
480.682	2518.97
481.053	2582.93
481.424	2647.78
481.795	2669.48
482.166	2707.67
482.537	2778.4
482.908	2876.7
483.279	2903.37
483.65	3043.25
484.021	3097.94
484.391	3161.67
484.762	3240.54
485.133	3277.6
485.503	3367.54
485.874	3483.69
486.244	3516.01
486.615	3612.96
486.985	3712.39
487.356	3775.89
487.726	3835.55
488.097	3956.22
488.467	3979.27
488.837	4111.7
489.207	4196.67
489.578	4293.62
489.948	4389.43
490.318	4462.65
490.688	4506.94
491.058	4605.25
491.428	4755.52
491.798	4806.14
492.168	4904.9
492.538	5005.24
492.908	5094.72
493.278	5195.97
493.648	5277.77
494.017	5315.96
494.387	5442.29
494.757	5521.61
495.126	5571.77
495.496	5644.09
495.866	5750.98
496.235	5844.99
496.605	5871.88
496.974	5944.19
497.344	6099.22
497.713	6152.32
498.082	6180.35
498.452	6244.53
498.821	6355.48
499.19	6405.88
499.559	6465.76
499.928	6557.96
500.298	6587.34
500.667	6677.06
501.036	6738.07
501.405	6781.69
501.774	6853.55
502.143	6897.16
502.512	6973.77
502.88	7084.73
503.249	7149.59
503.618	7185.07
503.987	7246.98
504.356	7396.13
504.724	7358.85
505.093	7428.67
505.462	7488.33
505.83	7523.14
506.199	7613.98
506.567	7711.15
506.936	7763.58
507.304	7812.62
507.672	7926.74
508.041	7955.44
508.409	7989.11
508.777	7976.46
509.145	8160.86
509.514	8143.46
509.882	8203.34
510.25	8176
510.618	8296.22
510.986	8347.52
511.354	8321.76
511.722	8503.9
512.09	8552.94
512.458	8514.3
512.826	8621.41
513.193	8668.64
513.561	8679.49
513.929	8775.53
514.297	8901.4
514.664	8869.31
515.032	8976.88
515.4	8925.13
515.767	9000.84
516.135	9116.77
516.502	9049.88
516.869	9190.66
517.237	9234.28
517.604	9229.31
517.972	9325.8
518.339	9367.15
518.706	9377.32
519.073	9462.29
519.44	9442.18
519.808	9498.22
520.175	9525.79
520.542	9728.5
520.909	9710.87
521.276	9631.78
521.643	9797.43
522.009	9866.8
522.376	9920.59
522.743	9999.23
523.11	10035.16
523.477	10163.07
523.843	10213.01
524.21	10247.13
524.577	10373.91
524.943	10378.43
525.31	10419.1
525.676	10545.2
526.043	10581.81
526.409	10595.37
526.776	10693.67
527.142	10721.92
527.508	10824.97
527.874	10881.24
528.241	10892.09
528.607	10892.99
528.973	11059.77
529.339	11100.44
529.705	11162.36
530.071	11276.48
530.437	11289.59
530.803	11278.97
531.169	11408.68
531.535	11410.94
531.901	11527.78
532.267	11562.58
532.632	11559.64
532.998	11648.45
533.364	11681.67
533.73	11765.96
534.095	11843.25
534.461	11878.95
534.826	11893.19
535.192	11910.14
535.557	12026.75
535.923	12113.07
536.288	12078.5
536.653	12150.36
537.019	12151.49
537.384	12165.05
537.749	12287.98
538.114	12300.86
538.479	12371.37
538.845	12452.95
539.21	12465.38
539.575	12483.46
539.94	12491.14
540.305	12656.11
540.67	12588.09
541.034	12705.15
541.399	12777.23
541.764	12691.36
542.129	12798.25
542.494	12901.98
542.858	12895.65
543.223	12961.41
543.587	13073.05
543.952	13029.43
544.316	13182.65
544.681	13124.8
545.045	13245.7
545.41	13245.02
545.774	13268.07
546.138	13406.37
546.503	13343.55
546.867	13350.1
547.231	13478.01
547.595	13541.73
547.959	13613.37
548.324	13624.44
548.688	13678
549.052	13726.81
549.416	13779.02
549.779	13799.58
550.143	13814.27
550.507	13927.26
550.871	13920.48
551.235	13947.15
551.599	14109.18
551.962	14057.43
552.326	14132.23
552.689	14231.21
553.053	14190.53
553.417	14294.26
553.78	14357.08
554.143	14360.92
554.507	14562.27
554.87	14465.78
555.234	14686.79
555.597	14498.77
555.96	14608.15
556.323	14638.2
556.686	14696.73
557.05	14776.5
557.413	14821.25
557.776	14851.53
558.139	14915.94
558.502	14990.28
558.865	15043.39
559.228	15134.91
559.59	15162.26
559.953	15180.56
560.316	15301.01
560.679	15243.84
561.041	15378.3
561.404	15512.98
561.767	15564.05
562.129	15459.42
562.492	15637.5
562.854	15623.26
563.217	15646.09
563.579	15705.07
563.941	15785.74
564.304	15897.15
564.666	15925.4
565.028	15969.02
565.39	15969.24
565.753	16147.09
566.115	16111.84
566.477	16224.6
566.839	16201.78
567.201	16298.5
567.563	16396.57
567.925	16379.4
568.287	16505.05
568.648	16527.64
569.01	16676.79
569.372	16709.11
569.734	16714.76
570.095	16829.56
570.457	16867.52
570.819	16977.58
571.18	16936.9
571.542	17175.31
571.903	17120.62
572.265	17211.02
572.626	17355.65
572.987	17338.47
573.349	17404.46
573.71	17527.84
574.071	17661.4
574.432	17680.83
574.794	17926.25
575.155	17916.31
575.516	18018.23
575.877	18107.04
576.238	18155.4
576.599	18251.22
576.96	18337.09
577.32	18454.37
577.681	18582.51
578.042	18700.92
578.403	18819.11
578.763	18990.86
579.124	19031.53
579.485	19191.3
579.845	19331.64
580.206	19480.79
580.566	19549.71
580.927	19773.43
581.287	19998.97
581.648	20107.44
582.008	20292.97
582.368	20463.36
582.728	20579.06
583.089	20697.7
583.449	21003.91
583.809	21169.56
584.169	21382.43
584.529	21441.87
584.889	21839.37
585.249	21849.54
585.609	22094.28
585.969	22456.3
586.329	22618.11
586.688	22856.52
587.048	23101.03
587.408	23188.26
587.768	23505.31
588.127	23665.31
588.487	23881.8
588.846	24303.26
589.206	24358.4
589.565	24624.83
589.925	25047.65
590.284	25039.06
590.643	25373.97
591.003	25597.24
591.362	25884.01
591.721	26156.32
592.08	26323.32
592.44	26632.46
592.799	26957.43
593.158	27036.75
593.517	27328.72
593.876	27677.41
594.235	27768.93
594.593	28072.65
594.952	28419.31
595.311	28504.73
595.67	28809.81
596.029	29226.97
596.387	29492.28
596.746	29713.74
597.104	29770.69
597.463	30043.9
597.822	30295.64
598.18	30407.73
598.538	30613.6
598.897	31130.42
599.255	31019.47
599.613	31664.2
599.972	31826.68
600.33	31961.14
600.688	32054.92
601.046	32408.81
601.404	32698.52
601.762	32842.02
602.12	33111.84
602.478	33327.43
602.836	33380.08
603.194	33637.03
603.552	33717.93
603.91	33805.61
604.268	34147.29
604.625	34216.44
604.983	34646.72
605.341	34694.85
605.698	34914.05
606.056	35134.16
606.413	35173.93
606.771	35589.97
607.128	35781.38
607.485	35690.08
607.843	35977.08
608.2	36306.11
608.557	36349.04
608.914	36436.05
609.272	36701.13
609.629	36904.96
609.986	37139.08
610.343	37054.11
610.7	37512.86
611.057	37593.98
611.414	37568.67
611.771	37806.63
612.127	38097.02
612.484	38170.69
612.841	38365.94
613.198	38331.82
613.554	38508.08
613.911	38705.14
614.267	38855.87
614.624	38952.82
614.98	39042.98
615.337	39296.09
615.693	39318.46
616.05	39431.22
616.406	39656.3
616.762	39609.07
617.118	39622.86
617.475	39863.75
617.831	40031.66
618.187	40094.71
618.543	40119.57
618.899	40482.27
619.255	40343.06
619.611	40475.72
619.967	40602.72
620.323	40830.06
620.678	40739.89
621.034	40747.57
621.39	40930.17
621.746	40903.5
622.101	41391.62
622.457	41020.33
622.812	41267.78
623.168	41409.93
623.523	41391.85
623.879	41529.25
624.234	41377.39
624.589	41440.66
624.945	41569.47
625.3	41579.42
625.655	41571.28
626.01	41825.74
626.365	41775.12
626.72	41863.25
627.075	41837.71
627.43	41870.93
627.785	41882.91
628.14	41969.69
628.495	42005.39
628.85	42013.53
629.205	41901.89
629.559	42307.08
629.914	42107.76
630.269	42056.92
630.623	42058.95
630.978	41941.67
631.332	42194.09
631.687	42313.18
632.041	42183.24
632.396	42261.43
632.75	42154.77
633.104	42259.17
633.459	42049.01
633.813	42014.21
634.167	42104.15
634.521	42176.46
634.875	42039.74
635.229	42232.51
635.583	41942.57
635.937	42086.07
636.291	42002.23
636.645	42012.4
636.999	42053.98
637.352	42083.58
637.706	41925.85
638.06	41969.46
638.413	41993.42
638.767	41881.1
639.121	42009.91
639.474	41682.69
639.828	41772.63
640.181	41808.11
640.534	41845.4
640.888	41679.3
641.241	41597.95
641.594	41603.37
641.947	41791.84
642.301	41644.95
642.654	41815.12
643.007	41635.01
643.36	41738.73
643.713	41582.8
644.066	41773.53
644.419	41525.41
644.771	41390.04
645.124	40934.46
645.477	40969.94
645.83	40595.03
646.182	40697.4
646.535	40428.26
646.888	40589.84
647.24	40373.35
647.593	40539.44
647.945	40556.84
648.298	40441.82
648.65	40147.81
649.002	40158.89
649.355	40308.26
649.707	40397.98
650.059	40509.61
650.411	41007
650.763	40949.38
651.115	41394.34
651.467	41319.54
651.819	41156.6
652.171	41159.09
652.523	41040.9
652.875	41096.49
653.227	40989.6
653.578	41177.62
653.93	41055.81
654.282	40919.77
654.633	40821.24
654.985	41033.89
655.337	40899.66
655.688	40851.3
656.039	41015.14
656.391	40837.97
656.742	40935.59
657.094	40899.89
657.445	40962.71
657.796	41026.66
658.147	40819.21
658.498	40746.44
658.849	40891.75
659.2	40723.17
659.551	40668.48
659.902	40851.52
660.253	40806.33
660.604	40878.87
660.955	40598.65
661.306	40876.83
661.656	40662.38
662.007	40613.34
662.358	40654.02
662.708	40691.53
663.059	40728.14
663.409	40398.66
663.76	40730.85
664.11	40627.8
664.461	40830.73
664.811	40774.92
665.161	40671.42
665.511	40603.4
665.862	40590.29
666.212	40795.48
666.562	40744.41
666.912	40636.84
667.262	40441.14
667.612	40443.63
667.962	40581.93
668.312	40502.16
668.662	40702.38
669.011	40397.53
669.361	40339.22
669.711	40632.32
670.06	40430.07
670.41	40353.91
670.76	40369.96
671.109	40343.74
671.459	40482.95
671.808	40394.36
672.157	40467.58
672.507	40226.46
672.856	40133.8
673.205	40336.96
673.554	40400.46
673.904	40354.81
674.253	40447.69
674.602	40316.17
674.951	39757.54
675.3	39575.63
675.649	40172.22
675.998	40093.35
676.346	40213.8
676.695	40289.51
677.044	39928.16
677.393	40225.78
677.741	40192.78
678.09	39995.05
678.438	39956.18
678.787	40058.1
679.135	40050.64
679.484	39709.63
679.832	39904.43
680.181	39782.17
680.529	39778.11
680.877	39707.37
681.225	39725.45
681.573	39885
681.922	39567.26
682.27	39500.6
682.618	39542.63
682.966	39422.86
683.314	39473.03
683.661	39408.17
684.009	39201.62
684.357	39117.79
684.705	39273.26
685.053	39192.81
685.4	39052.48
685.748	38915.53
686.095	38915.3
686.443	38764.12
686.79	38671.02
687.138	38883.21
687.485	38855.42
687.832	38712.15
688.18	38664.01
688.527	38531.36
688.874	38491.81
689.221	38297.02
689.568	38219.96
689.915	38071.48
690.262	38175.89
690.609	38015.44
690.956	37956.91
691.303	37838.27
691.65	37737.48
691.997	37690.7
692.344	37423.82
692.69	37466.75
693.037	37506.08
693.383	37170.72
693.73	37449.35
694.077	37221.11
694.423	37125.75
694.769	37128.46
695.116	36951.29
695.462	36968.46
695.808	36834.68
696.155	37017.28
696.501	36570.96
696.847	36557.17
697.193	36438.31
697.539	36346.56
697.885	36285.54
698.231	36156.51
698.577	36208.93
698.923	36023.4
699.269	35923.52
699.614	35802.84
699.96	35754.94
700.306	35580.48
700.651	35492.12
700.997	35305.23
701.342	35362.86
701.688	35353.36
702.033	35250.32
702.379	35212.12
702.724	35119.92
703.069	35133.48
703.415	34662.99
703.76	34686.49
704.105	34875.64
704.45	34689.65
704.795	34456.44
705.14	34471.58
705.485	34348.87
705.83	34292.15
706.175	34360.85
706.52	34233.17
706.865	34026.39
707.209	34061.19
707.554	33883.8
707.899	34030.24
708.243	33638.61
708.588	33662.79
708.932	33431.15
709.277	33473.87
709.621	33503.47
709.966	33413.98
710.31	33490.81
710.654	33126.08
710.998	33216.25
711.342	33208.11
711.687	33088.11
712.031	32946.87
712.375	32741.68
712.719	32931.96
713.063	32781
713.407	32851.28
713.75	32706.43
714.094	32703.26
714.438	32549.6
714.782	32490.84
715.125	32441.12
715.469	32465.3
715.812	32321.35
716.156	32155.03
716.499	32109.61
716.843	32161.13
717.186	32000.68
717.53	32189.38
717.873	32078.42
718.216	31857.18
718.559	31835.26
718.902	31622.39
719.246	31778.99
719.589	31577.42
719.932	31523.63
720.275	31535.61
720.617	31417.87
720.96	31424.88
721.303	31382.17
721.646	31420.59
721.989	31132.01
722.331	31237.99
722.674	31119.13
723.016	31249.97
723.359	31077.54
723.701	31181.95
724.044	30965.91
724.386	30845.46
724.729	30959.36
725.071	30908.74
725.413	30886.81
725.755	30788.51
726.097	30698.57
726.439	30658.57
726.782	30673.49
727.124	30713.49
727.465	30655.18
727.807	30506.49
728.149	30452.48
728.491	30440.95
728.833	30421.52
729.175	30306.49
729.516	30215.19
729.858	30061.98
730.199	30176.33
730.541	30208.41
730.882	30061.07
731.224	30148.76
731.565	29916.22
731.906	29963.68
732.248	29982.21
732.589	29729.11
732.93	29577.24
733.271	29736.56
733.612	29796.67
733.953	29635.32
734.294	29700.18
734.635	29569.79
734.976	29681.65
735.317	29459.28
735.658	29343.58
735.999	29530.01
736.339	29317.14
736.68	29411.15
737.021	29293.41
737.361	29253.19
737.702	29407.53
738.042	29288.66
738.383	29235.78
738.723	29160.76
739.063	29246.86
739.404	29127.09
739.744	29138.84
740.084	28837.15
740.424	28969.58
740.764	28938.17
741.104	29062
741.444	28772.29
741.784	28789.92
742.124	28880.09
742.464	28659.3
742.804	28735.46
743.143	28618.63
743.483	28529.59
743.823	28384.96
744.162	28370.5
744.502	28512.41
744.841	28379.08
745.181	28365.3
745.52	28349.25
745.86	28320.33
746.199	28349.03
746.538	28090.28
746.877	28290.5
747.216	28153.55
747.556	28086.66
747.895	28043.73
748.234	27934.12
748.573	27965.54
748.911	27948.36
749.25	27882.6
749.589	27771.64
749.928	27822.49
750.267	27867.91
750.605	27735.03
750.944	27739.78
751.283	27624.75
751.621	27608.26
751.96	27446.45
752.298	27511.54
752.636	27456.17
752.975	27314.93
753.313	27266.57
753.651	27370.52
753.989	27174.82
754.327	27201.49
754.666	26955.39
755.004	27173.01
755.342	27156.74
755.679	27081.04
756.017	26930.76
756.355	26977.31
756.693	26809.63
757.031	26912.68
757.368	26708.17
