Data from hue_00_FLMS001491_90.txt Node
Date: Mon Feb 06 15:30:23 GMT 2017
User: dcchb
Spectrometer: FLMS00149
Trigger mode: 0
Integration Time (sec): 2.000000E-2
Scans to average: 10
Electric dark correction enabled: true
Nonlinearity correction enabled: false
Boxcar width: 0
XAxis mode: Wavelengths
Number of Pixels in Spectrum: 2048
>>>>>Begin Spectral Data<<<<<
341.393	-28.15
341.776	-28.15
342.16	-28.15
342.543	-43.29
342.927	-56.4
343.31	-48.04
343.693	-70.86
344.077	-65.66
344.46	-64.98
344.843	-47.81
345.226	-49.17
345.61	-50.07
345.993	-19.11
346.376	2.58
346.759	18.63
347.142	27.89
347.525	36.93
347.908	49.14
348.291	76.71
348.674	93.88
349.057	109.93
349.44	136.14
349.823	148.57
350.206	179.98
350.588	197.38
350.971	199.42
351.354	209.13
351.737	237.83
352.119	233.09
352.502	257.27
352.884	295.68
353.267	262.46
353.65	268.11
354.032	286.42
354.414	326.42
354.797	302.01
355.179	321.67
355.562	327.1
355.944	321.22
356.326	328.23
356.709	338.4
357.091	322.12
357.473	330.49
357.855	331.84
358.238	340.65
358.62	320.77
359.002	329.13
359.384	339.07
359.766	337.27
360.148	338.17
360.53	349.92
360.912	325.06
361.294	324.84
361.676	324.84
362.057	338.4
362.439	306.53
362.821	337.27
363.203	316.7
363.584	331.62
363.966	326.42
364.348	314.67
364.729	319.19
365.111	318.51
365.493	330.26
365.874	309.92
366.256	320.99
366.637	331.62
367.019	307.89
367.4	314.89
367.781	316.47
368.163	306.08
368.544	311.28
368.925	288.23
369.306	315.34
369.688	329.13
370.069	308.79
370.45	314.21
370.831	310.15
371.212	303.82
371.593	318.06
371.974	294.33
372.355	310.37
372.736	303.37
373.117	300.2
373.498	306.08
373.879	340.43
374.26	295.68
374.641	322.8
375.021	322.12
375.402	325.97
375.783	320.54
376.163	321.45
376.544	301.33
376.925	317.6
377.305	331.39
377.686	313.76
378.066	326.87
378.447	308.34
378.827	323.25
379.208	302.24
379.588	316.7
379.968	319.19
380.349	332.52
380.729	327.77
381.109	331.39
381.489	327.1
381.87	344.95
382.25	339.75
382.63	331.62
383.01	305.85
383.39	324.61
383.77	340.2
384.15	342.91
384.53	358.06
384.91	348.11
385.29	358.96
385.67	346.53
386.049	359.86
386.429	326.87
386.809	334.33
387.189	343.82
387.568	330.94
387.948	343.59
388.328	342.91
388.707	332.52
389.087	365.29
389.466	364.61
389.846	357.83
390.225	342.46
390.605	366.64
390.984	364.61
391.363	360.32
391.743	356.7
392.122	350.15
392.501	372.74
392.881	365.06
393.26	358.96
393.639	361.22
394.018	368.9
394.397	384.5
394.776	376.36
395.155	367.32
395.534	363.48
395.913	384.95
396.292	384.72
396.671	353.76
397.05	358.51
397.429	372.29
397.808	394.89
398.186	374.55
398.565	384.72
398.944	391.05
399.323	405.29
399.701	379.3
400.08	383.59
400.458	362.35
400.837	375.23
401.215	401.44
401.594	380.65
401.972	376.13
402.351	392.86
402.729	395.57
403.107	405.51
403.486	413.65
403.864	407.32
404.242	405.74
404.62	409.13
404.999	401.44
405.377	426.3
405.755	425.85
406.133	414.33
406.511	399.18
406.889	403.25
407.267	406.87
407.645	409.81
408.023	432.4
408.401	429.92
408.779	426.53
409.156	430.6
409.534	438.96
409.912	437.6
410.29	430.6
410.667	431.95
411.045	450.48
411.422	422.46
411.8	433.76
412.178	470.82
412.555	464.27
412.933	439.64
413.31	447.77
413.687	467.88
414.065	483.93
414.442	484.15
414.819	474.89
415.197	478.5
415.574	482.35
415.951	471.95
416.328	488.67
416.705	498.84
417.082	488
417.46	494.78
417.837	483.02
418.214	487.77
418.591	494.32
418.967	492.74
419.344	488.67
419.721	502.46
420.098	520.99
420.475	512.4
420.852	492.29
421.228	500.2
421.605	524.6
421.982	504.72
422.358	522.8
422.735	520.76
423.111	541.1
423.488	522.8
423.864	528.67
424.241	529.8
424.617	538.84
424.994	567.77
425.37	550.14
425.746	535.68
426.123	551.72
426.499	571.38
426.875	562.57
427.251	573.19
427.627	562.57
428.003	567.09
428.379	566.41
428.756	578.16
429.132	589.01
429.507	591.95
429.883	612.74
430.259	599.86
430.635	610.93
431.011	603.92
431.387	633.3
431.763	634.43
432.138	609.35
432.514	638.95
432.89	645.96
433.265	656.35
433.641	652.06
434.016	651.61
434.392	644.6
434.767	657.03
435.143	658.61
435.518	681.21
435.894	656.8
436.269	679.18
436.644	684.15
437.02	684.83
437.395	695.22
437.77	695.67
438.145	709.68
438.52	684.15
438.895	712.62
439.271	713.75
439.646	729.8
440.021	728.44
440.395	724.37
440.77	721.44
441.145	693.87
441.52	757.82
441.895	724.37
442.27	762.11
442.645	747.42
443.019	764.15
443.394	754.43
443.769	767.31
444.143	770.25
444.518	786.52
444.892	786.52
445.267	783.13
445.641	788.33
446.016	793.75
446.39	815.22
446.764	776.12
447.139	800.98
447.513	803.92
447.887	815.22
448.262	807.08
448.636	829.91
449.01	824.94
449.384	823.13
449.758	832.85
450.132	830.36
450.506	831.94
450.88	842.34
451.254	855.44
451.628	830.59
452.002	875.33
452.376	854.77
452.75	861.32
453.123	891.37
453.497	906.29
453.871	896.57
454.244	912.84
454.618	904.26
454.992	916.91
455.365	916.46
455.739	931.37
456.112	937.48
456.486	928.89
456.859	957.36
457.232	967.31
457.606	988.1
457.979	981.32
458.352	977.02
458.725	1003.91
459.099	1010.02
459.472	1021.99
459.845	1034.42
460.218	1043.01
460.591	1049.56
460.964	1057.47
461.337	1064.03
461.71	1081.43
462.083	1073.74
462.456	1101.09
462.829	1097.02
463.201	1116.68
463.574	1104.02
463.947	1129.33
464.32	1150.35
464.692	1155.32
465.065	1166.17
465.438	1191.25
465.81	1211.59
466.183	1213.85
466.555	1228.99
466.928	1225.15
467.3	1219.05
467.672	1252.95
468.045	1273.74
468.417	1284.36
468.789	1297.01
469.161	1311.02
469.534	1335.66
469.906	1360.97
470.278	1372.49
470.65	1391.47
471.022	1393.06
471.394	1428.54
471.766	1445.94
472.138	1475.77
472.51	1500.62
472.882	1512.38
473.253	1523.67
473.625	1542.66
473.997	1575.2
474.369	1592.37
474.74	1606.84
475.112	1631.02
475.484	1642.54
475.855	1688.42
476.227	1692.71
476.598	1749.21
476.97	1755.53
477.341	1784.01
477.713	1824.68
478.084	1844.12
478.455	1880.05
478.827	1920.95
479.198	1978.58
479.569	1965.02
479.94	2049.76
480.311	2031.46
480.682	2073.72
481.053	2149.42
481.424	2137.22
481.795	2208.18
482.166	2215.41
482.537	2272.81
482.908	2299.02
483.279	2309.64
483.65	2373.6
484.021	2399.13
484.391	2453.37
484.762	2485.23
485.133	2475.97
485.503	2572.46
485.874	2587.83
486.244	2607.26
486.615	2641.84
486.985	2684.55
487.356	2800.03
487.726	2794.38
488.097	2794.38
488.467	2882.96
488.837	2892.68
489.207	2950.08
489.578	2986.91
489.948	3023.75
490.318	3067.81
490.688	3044.76
491.058	3107.14
491.428	3162.05
491.798	3231.88
492.168	3282.27
492.538	3282.95
492.908	3313.68
493.278	3293.8
493.648	3393
494.017	3403.63
494.387	3451.76
494.757	3463.06
495.126	3531.08
495.496	3542.15
495.866	3546.67
496.235	3639.55
496.605	3668.25
496.974	3688.14
497.344	3731.53
497.713	3717.74
498.082	3745.31
498.452	3824.18
498.821	3814.46
499.19	3835.93
499.559	3888.36
499.928	3870.51
500.298	3906.44
500.667	3917.28
501.036	3939.2
501.405	3973.78
501.774	4026.66
502.143	4035.47
502.512	4028.47
502.88	4094.68
503.249	4107.34
503.618	4109.14
503.987	4161.57
504.356	4163.83
504.724	4180.55
505.093	4170.61
505.462	4241.8
505.83	4252.64
506.199	4251.74
506.567	4314.79
506.936	4308.01
507.304	4298.74
507.672	4359.98
508.041	4394.33
508.409	4414.22
508.777	4419.64
509.145	4470.26
509.514	4449.47
509.882	4476.59
510.25	4458.06
510.618	4549.81
510.986	4516.59
511.354	4574.67
511.722	4583.03
512.09	4662.8
512.458	4588.23
512.826	4642.46
513.193	4682.69
513.561	4683.37
513.929	4718.17
514.297	4769.24
514.664	4734.89
515.032	4743.03
515.4	4801.1
515.767	4852.63
516.135	4888.33
516.502	4832.06
516.869	4879.29
517.237	4908.67
517.604	4852.17
517.972	4943.47
518.339	4905.05
518.706	4950.7
519.073	4947.77
519.44	4946.64
519.808	4977.14
520.175	5030.02
520.542	5067.31
520.909	5064.82
521.276	5084.94
521.643	5110.92
522.009	5113.64
522.376	5176.91
522.743	5174.88
523.11	5169
523.477	5272.73
523.843	5262.33
524.21	5306.63
524.577	5426.4
524.943	5405.83
525.31	5417.13
525.676	5450.35
526.043	5465.94
526.409	5503.91
526.776	5573.51
527.142	5585.49
527.508	5580.74
527.874	5594.98
528.241	5647.18
528.607	5648.09
528.973	5673.85
529.339	5694.86
529.705	5779.38
530.071	5773.73
530.437	5829.1
530.803	5805.14
531.169	5896.44
531.535	5906.61
531.901	5888.31
532.267	5953.84
532.632	5972.6
532.998	5990.9
533.364	6017.12
533.73	6026.83
534.095	6054.4
534.461	6122.65
534.826	6115.19
535.192	6085.36
535.557	6188.18
535.923	6210.56
536.288	6194.29
536.653	6254.62
537.019	6245.81
537.384	6262.99
537.749	6302.76
538.114	6342.3
538.479	6364.45
538.845	6374.85
539.21	6332.59
539.575	6413.94
539.94	6445.35
540.305	6449.42
540.67	6482.41
541.034	6500.04
541.399	6554.73
541.764	6535.75
542.129	6597.89
542.494	6582.07
542.858	6634.95
543.223	6662.52
543.587	6741.39
543.952	6736.42
544.316	6786.59
544.681	6771.22
545.045	6815.51
545.41	6801.05
545.774	6824.78
546.138	6849.18
546.503	6895.74
546.867	6905.23
547.231	6941.84
547.595	6950.42
547.959	7015.73
548.324	7014.15
548.688	6996.07
549.052	7042.4
549.416	7087.14
549.779	7119.23
550.143	7172.79
550.507	7162.4
550.871	7166.46
551.235	7162.62
551.599	7200.36
551.962	7255.5
552.326	7318.32
552.689	7328.49
553.053	7282.39
553.417	7319
553.78	7416.85
554.143	7378.89
554.507	7418.66
554.87	7379.57
555.234	7546.79
555.597	7499.34
555.96	7448.49
556.323	7536.85
556.686	7551.31
557.05	7591.09
557.413	7617.53
557.776	7613.01
558.139	7706.56
558.502	7716.05
558.865	7711.53
559.228	7776.62
559.59	7813
559.953	7755.6
560.316	7913.11
560.679	7949.27
561.041	7894.13
561.404	7949.72
561.767	7948.36
562.129	7910.85
562.492	8062.71
562.854	8027.46
563.217	8039.21
563.579	8010.74
563.941	8164.86
564.304	8171.41
564.666	8207.11
565.028	8205.98
565.39	8209.15
565.753	8267
566.115	8282.82
566.477	8325.08
566.839	8290.73
567.201	8438.07
567.563	8382.25
567.925	8429.71
568.287	8508.58
568.648	8548.12
569.01	8539.08
569.372	8588.57
569.734	8575.47
570.095	8683.03
570.457	8632.41
570.819	8681.68
571.18	8643.71
571.542	8800.09
571.903	8820.43
572.265	8822.01
572.626	8811.62
572.987	8923.48
573.349	8958.51
573.71	9037.15
574.071	9143.14
574.432	9150.14
574.794	9208.9
575.155	9311.49
575.516	9268.56
575.877	9320.98
576.238	9368.21
576.599	9454.99
576.96	9487.08
577.32	9539.51
577.681	9680.3
578.042	9777.47
578.403	9732.05
578.763	9897.47
579.124	9967.97
579.485	10013.17
579.845	10121.19
580.206	10239.83
580.566	10256.55
580.927	10421.75
581.287	10590.78
581.648	10664.9
582.008	10753.94
582.368	10948.29
582.728	11018.79
583.089	11219.24
583.449	11324.77
583.809	11472.57
584.169	11663.07
584.529	11778.32
584.889	11995.72
585.249	12064.19
585.609	12264.64
585.969	12512.31
586.329	12541.46
586.688	12811.97
587.048	12958.85
587.408	13152.52
587.768	13335.12
588.127	13579.4
588.487	13663.47
588.846	14019.84
589.206	14106.85
589.565	14324.24
589.925	14641.75
590.284	14852.36
590.643	15098.68
591.003	15400.37
591.362	15580.93
591.721	15797.88
592.08	15972.79
592.44	16374.36
592.799	16569.15
593.158	16809.6
593.517	17099.99
593.876	17409.58
594.235	17548.34
594.593	17909.46
594.952	18147.64
595.311	18288.66
595.67	18690.23
596.029	19040.28
596.387	19228.97
596.746	19590.77
597.104	19659.02
597.463	19883.19
597.822	20381.26
598.18	20461.48
598.538	20738.54
598.897	21142.14
599.255	21174.01
599.613	21625.97
599.972	21750.49
600.33	22184.83
600.688	22257.59
601.046	22550.92
601.404	22937.35
601.762	23119.04
602.12	23428.18
602.478	23712.7
602.836	23914.27
603.194	23998.79
603.552	24313.58
603.91	24484.65
604.268	24863.63
604.625	25111.3
604.983	25333.44
605.341	25409.6
605.698	25724.39
606.056	26008.91
606.413	26162.12
606.771	26491.61
607.128	26672.39
607.485	26752.84
607.843	27009.78
608.2	27322.32
608.557	27620.62
608.914	27659.71
609.272	28021.28
609.629	28238.68
609.986	28513.02
610.343	28404.78
610.7	28875.27
611.057	29033.91
611.414	29146.9
611.771	29328.82
612.127	29539.66
612.484	29821.01
612.841	30050.16
613.198	30071.85
613.554	30152.98
613.911	30447.21
614.267	30552.29
614.624	30722
614.98	30889.91
615.337	31104.59
615.693	31244.93
616.05	31375.77
616.406	31706.61
616.762	31595.43
617.118	31835.65
617.475	31842.43
617.831	31989.54
618.187	32185.02
618.543	32495.52
618.899	32755.85
619.255	32659.35
619.611	32732.8
619.967	32980.25
620.323	33250.3
620.678	33023.19
621.034	33138.21
621.39	33173.92
621.746	33221.37
622.101	33705.2
622.457	33636.05
622.812	33717.18
623.168	33857.51
623.523	33867
623.879	34167.11
624.234	33970.51
624.589	34173.21
624.945	34395.58
625.3	34354.9
625.655	34363.72
626.01	34504.73
626.365	34588.79
626.72	34478.29
627.075	34538.4
627.43	34644.39
627.785	34662.24
628.14	34841.67
628.495	34850.26
628.85	34777.04
629.205	34732.07
629.559	35069.91
629.914	34945.62
630.269	35058.61
630.623	35009.57
630.978	34936.36
631.332	35213.41
631.687	35173.41
632.041	35167.76
632.396	35281.43
632.75	35138.61
633.104	35205.95
633.459	35174.77
633.813	35134.09
634.167	35100.19
634.521	35198.72
634.875	35183.81
635.229	35278.95
635.583	35096.8
635.937	35200.3
636.291	35144.94
636.645	35209.79
636.999	35221.77
637.352	35292.96
637.706	35003.25
638.06	35296.8
638.413	35117.82
638.767	35189.23
639.121	35224.03
639.474	34877.83
639.828	35055.67
640.181	35200.98
640.534	35062
640.888	35042.34
641.241	35053.87
641.594	35048.89
641.947	35178.61
642.301	35071.04
642.654	35076.46
643.007	35186.52
643.36	35255.22
643.713	35117.37
644.066	35220.87
644.419	34979.74
644.771	34753.54
645.124	34362.13
645.477	34316.26
645.83	34303.15
646.182	34165.98
646.535	34076.49
646.888	34144.96
647.24	33922.6
647.593	34162.36
647.945	34083.04
648.298	34006.44
648.65	33806.67
649.002	33846.44
649.355	33929.83
649.707	33952.2
650.059	34115.59
650.411	34385.41
650.763	34379.31
651.115	34775.68
651.467	34665.4
651.819	34635.8
652.171	34652.3
652.523	34562.13
652.875	34530.49
653.227	34482.13
653.578	34638.74
653.93	34589.7
654.282	34537.04
654.633	34509.25
654.985	34579.53
655.337	34429.25
655.688	34446.88
656.039	34724.61
656.391	34309.93
656.742	34470.6
657.094	34448.01
657.445	34535.46
657.796	34471.96
658.147	34381.34
658.498	34365.97
658.849	34355.81
659.2	34422.7
659.551	34265.41
659.902	34398.06
660.253	34323.26
660.604	34332.98
660.955	34335.92
661.306	34465.63
661.656	34364.62
662.007	34356.71
662.358	34379.76
662.708	34391.06
663.059	34349.03
663.409	34090.28
663.76	34340.21
664.11	34400.78
664.461	34315.58
664.811	34341.57
665.161	34201.91
665.511	34191.52
665.862	34293.43
666.212	34411.62
666.562	34351.51
666.912	34213.89
667.262	34331.85
667.612	34278.52
667.962	34348.35
668.312	34224.28
668.662	34368.91
669.011	34263.38
669.361	34264.28
669.711	34126.43
670.06	34267.9
670.41	34125.76
670.76	34108.81
671.109	34245.53
671.459	34130.27
671.808	34302.93
672.157	34201.23
672.507	33961.01
672.856	33849.83
673.205	33983.84
673.554	34036.27
673.904	33960.56
674.253	34126.43
674.602	34067.23
674.951	33442.38
675.3	33461.37
675.649	33955.36
675.998	33803.28
676.346	34046.89
676.695	34090.28
677.044	33773.67
677.393	33878.98
677.741	33900.9
678.09	33729.38
678.438	33778.87
678.787	33841.47
679.135	33828.14
679.484	33558.54
679.832	33687.12
680.181	33460.91
680.529	33655.26
680.877	33509.5
681.225	33555.83
681.573	33798.76
681.922	33516.05
682.27	33375.49
682.618	33530.97
682.966	33365.1
683.314	33449.61
683.661	33322.61
684.009	33126.01
684.357	33130.98
684.705	32988.16
685.053	33089.4
685.4	32989.29
685.748	32886.24
686.095	32870.2
686.443	32837.2
686.79	32726.02
687.138	32791.55
687.485	32793.81
687.832	32759.46
688.18	32614.16
688.527	32617.77
688.874	32547.72
689.221	32409.19
689.568	32256.88
689.915	32322.19
690.262	32243.77
690.609	32115.64
690.956	32040.16
691.303	32120.61
691.65	32011.23
691.997	31855.76
692.344	31795.2
692.69	31632.49
693.037	31761.07
693.383	31458.25
693.73	31583.68
694.077	31382.78
694.423	31459.61
694.769	31152.95
695.116	31175.55
695.462	31103.24
695.808	31153.63
696.155	31200.18
696.501	30885.16
696.847	30917.25
697.193	30757.71
697.539	30756.58
697.885	30596.58
698.231	30424.61
698.577	30509.81
698.923	30391.16
699.269	30190.72
699.614	30170.83
699.96	30090.83
700.306	30126.54
700.651	29971.74
700.997	29875.92
701.342	29880.67
701.688	29886.54
702.033	29794.34
702.379	29661.01
702.724	29693.78
703.069	29679.77
703.415	29338.54
703.76	29265.32
704.105	29373.34
704.45	29129.5
704.795	29134.93
705.14	29003.63
705.485	29036.17
705.83	28905.78
706.175	29023.29
706.52	28850.87
706.865	28656.52
707.209	28792.79
707.554	28667.37
707.899	28677.54
708.243	28510.08
708.588	28558.9
708.932	28403.19
709.277	28151.22
709.621	28257.89
709.966	28076.42
710.31	28084.78
710.654	27919.82
710.998	27946.03
711.342	28047.95
711.687	27932.25
712.031	27797.79
712.375	27709.65
712.719	27741.97
713.063	27715.08
713.407	27755.53
713.75	27557.79
714.094	27476.21
714.438	27372.94
714.782	27435.99
715.125	27276.9
715.469	27294.3
715.812	27137.92
716.156	27060.86
716.499	27127.75
716.843	27166.16
717.186	26975.89
717.53	27097.92
717.873	27194.19
718.216	26964.14
718.559	26874.87
718.902	26826.06
719.246	26758.27
719.589	26763.46
719.932	26663.8
720.275	26559.17
720.617	26597.59
720.96	26521.89
721.303	26407.54
721.646	26483.02
721.989	26247.09
722.331	26400.31
722.674	26396.92
723.016	26385.17
723.359	26237.15
723.701	26274.44
724.044	26144.04
724.386	26013.43
724.729	26060.66
725.071	25981.56
725.413	25888.46
725.755	25985.18
726.097	25764.39
726.439	25711.06
726.782	25676.71
727.124	25779.76
727.465	25692.3
727.807	25633.32
728.149	25621.35
728.491	25718.07
728.833	25606.21
729.175	25563.72
729.516	25492.99
729.858	25428.81
730.199	25542.93
730.541	25374.35
730.882	25416.61
731.224	25323.05
731.565	25238.31
731.906	25234.01
732.248	25253.45
732.589	25144.75
732.93	25084.64
733.271	25064.98
733.612	25051.19
733.953	24980.23
734.294	24989.72
734.635	25000.8
734.976	25026.33
735.317	24822.72
735.658	24798.99
735.999	24802.38
736.339	24725.55
736.68	24751.54
737.021	24660.47
737.361	24659.34
737.702	24716.51
738.042	24556.29
738.383	24523.52
738.723	24594.71
739.063	24511.32
739.404	24533.92
739.744	24406.91
740.084	24429.51
740.424	24378.21
740.764	24317.43
741.104	24452.11
741.444	24233.81
741.784	24178.45
742.124	24170.76
742.464	24221.16
742.804	24120.59
743.143	24056.42
743.483	24156.75
743.823	23938.68
744.162	23914.72
744.502	24071.1
744.841	23799.7
745.181	24066.36
745.52	23810.09
745.86	23802.41
746.199	23868.4
746.538	23782.07
746.877	23744.79
747.216	23828.17
747.556	23718.12
747.895	23674.5
748.234	23517.9
748.573	23593.38
748.911	23601.29
749.25	23445.81
749.589	23528.52
749.928	23455.98
750.267	23488.97
750.605	23342.99
750.944	23360.84
751.283	23320.62
751.621	23365.36
751.96	23172.82
752.298	23198.58
752.636	23162.88
752.975	22962.21
753.313	23026.61
753.651	23060.06
753.989	22923.56
754.327	22926.95
754.666	22845.37
755.004	22808.54
755.342	22821.65
755.679	22860.06
756.017	22668.2
756.355	22740.97
756.693	22597.92
757.031	22684.7
757.368	22560.41
757.706	22535.55
758.044	22424.82
758.381	22408.55
758.719	22292.39
759.056	22397.7
759.394	22320.19
759.731	22130.82
760.068	22093.3
760.405	21979.41
