Data from hue_240_FLMS001491_00024.txt Node
Date: Tue Feb 07 16:35:15 GMT 2017
User: dcchb
Spectrometer: FLMS00149
Trigger mode: 0
Integration Time (sec): 2.000000E-2
Scans to average: 10
Electric dark correction enabled: true
Nonlinearity correction enabled: false
Boxcar width: 0
XAxis mode: Wavelengths
Number of Pixels in Spectrum: 2048
>>>>>Begin Spectral Data<<<<<
341.393	-21.47
341.776	-21.47
342.16	-21.47
342.543	-83.16
342.927	-69.15
343.31	-66.21
343.693	-72.31
344.077	-64.41
344.46	-57.4
344.843	-54.69
345.226	-55.82
345.61	-27.34
345.993	-13.56
346.376	-11.98
346.759	7.68
347.142	33.9
347.525	31.41
347.908	53.11
348.291	99.21
348.674	99.88
349.057	98.53
349.44	123.39
349.823	150.28
350.206	163.16
350.588	172.42
350.971	192.09
351.354	221.46
351.737	227.34
352.119	239.77
352.502	257.17
352.884	259.88
353.267	278.18
353.65	276.38
354.032	312.76
354.414	308.92
354.797	293.1
355.179	304.17
355.562	320.22
355.944	343.27
356.326	323.61
356.709	331.74
357.091	339.88
357.473	331.74
357.855	320.44
358.238	331.74
358.62	329.26
359.002	335.81
359.384	344.4
359.766	336.49
360.148	332.65
360.53	341.23
360.912	327.9
361.294	336.49
361.676	359.54
362.057	319.99
362.439	335.58
362.821	332.42
363.203	311.18
363.584	313.89
363.966	327.9
364.348	317.96
364.729	305.75
365.111	319.54
365.493	300.56
365.874	346.88
366.256	296.26
366.637	335.13
367.019	305.98
367.4	284.96
367.781	291.29
368.163	318.86
368.544	303.95
368.925	311.63
369.306	322.93
369.688	315.47
370.069	317.28
370.45	332.19
370.831	310.27
371.212	296.72
371.593	298.3
371.974	306.66
372.355	311.18
372.736	303.49
373.117	331.97
373.498	314.12
373.879	316.38
374.26	309.82
374.641	322.25
375.021	313.21
375.402	335.81
375.783	309.37
376.163	322.48
376.544	331.74
376.925	315.7
377.305	301.69
377.686	320.22
378.066	313.66
378.447	319.99
378.827	318.64
379.208	328.13
379.588	319.54
379.968	338.75
380.349	310.27
380.729	322.03
381.109	303.72
381.489	311.63
381.87	316.38
382.25	335.36
382.63	347.34
383.01	335.13
383.39	336.49
383.77	348.47
384.15	337.17
384.53	315.02
384.91	332.87
385.29	337.84
385.67	356.83
386.049	338.97
386.429	348.47
386.809	354.34
387.189	365.64
387.568	351.4
387.948	357.73
388.328	363.38
388.707	374.68
389.087	343.95
389.466	362.02
389.846	361.8
390.225	343.49
390.605	386.66
390.984	374
391.363	338.07
391.743	356.15
392.122	363.38
392.501	374.23
392.881	364.28
393.26	378.3
393.639	385.07
394.018	376.04
394.397	389.59
394.776	388.24
395.155	389.14
395.534	390.72
395.913	382.36
396.292	397.73
396.671	394.79
397.05	376.04
397.429	385.07
397.808	409.71
398.186	392.76
398.565	394.34
398.944	374.68
399.323	400.67
399.701	392.53
400.08	399.99
400.458	418.97
400.837	393.89
401.215	398.41
401.594	411.97
401.972	420.1
402.351	402.02
402.729	416.94
403.107	406.99
403.486	439.08
403.864	435.24
404.242	435.02
404.62	424.62
404.999	428.24
405.377	448.58
405.755	445.86
406.133	463.04
406.511	450.84
406.889	464.17
407.267	469.14
407.645	477.73
408.023	460.78
408.401	493.77
408.779	464.62
409.156	496.48
409.534	490.83
409.912	499.87
410.29	492.87
410.667	496.94
411.045	508.24
411.422	514.11
411.8	526.77
412.178	542.36
412.555	524.51
412.933	545.3
413.31	535.58
413.687	560.66
414.065	564.73
414.442	540.78
414.819	590.94
415.197	577.16
415.574	573.54
415.951	602.92
416.328	596.14
416.705	587.1
417.082	587.78
417.46	623.03
417.837	626.88
418.214	634.33
418.591	644.73
418.967	638.63
419.344	639.53
419.721	674.56
420.098	660.55
420.475	666.2
420.852	660.55
421.228	674.56
421.605	681.34
421.982	697.16
422.358	683.6
422.735	713.65
423.111	740.09
423.488	748.45
423.864	748.91
424.241	736.25
424.617	760.88
424.994	762.69
425.37	762.47
425.746	781
426.123	771.73
426.499	783.93
426.875	796.14
427.251	843.14
427.627	851.5
428.003	825.97
428.379	844.27
428.756	858.51
429.132	854.89
429.507	857.15
429.883	885.85
430.259	880.2
430.635	892.41
431.011	902.58
431.387	921.78
431.763	907.09
432.138	936.25
432.514	972.63
432.89	963.14
433.265	988
433.641	1011.27
434.016	1032.74
434.392	1026.64
434.767	1053.53
435.143	1053.98
435.518	1084.94
435.894	1072.97
436.269	1108.45
436.644	1126.75
437.02	1125.85
437.395	1119.29
437.77	1146.64
438.145	1194.09
438.52	1192.06
438.895	1216.47
439.271	1202.91
439.646	1220.98
440.021	1220.76
440.395	1243.81
440.77	1213.98
441.145	1273.41
441.52	1292.62
441.895	1293.53
442.27	1313.64
442.645	1298.04
443.019	1361.32
443.394	1319.51
443.769	1362
444.143	1365.61
444.518	1377.14
444.892	1400.64
445.267	1383.24
445.641	1409.45
446.016	1427.99
446.39	1409
446.764	1436.57
447.139	1438.15
447.513	1435.89
447.887	1444.26
448.262	1450.81
448.636	1499.62
449.01	1523.58
449.384	1509.11
449.758	1514.31
450.132	1540.98
450.506	1511.6
450.88	1545.95
451.254	1528.32
451.628	1551.37
452.002	1592.73
452.376	1614.87
452.75	1606.29
453.123	1618.49
453.497	1648.54
453.871	1654.65
454.244	1704.81
454.618	1717.24
454.992	1731.71
455.365	1740.97
455.739	1759.5
456.112	1757.47
456.486	1803.57
456.859	1837.47
457.232	1830.46
457.606	1834.75
457.979	1864.81
458.352	1886.05
458.725	1926.73
459.099	1881.31
459.472	1959.04
459.845	1953.17
460.218	1987.74
460.591	1987.74
460.964	2006.27
461.337	2041.75
461.71	2053.28
462.083	2084.69
462.456	2075.65
462.829	2084.24
463.201	2153.16
463.574	2119.04
463.947	2185.71
464.32	2200.39
464.692	2248.08
465.065	2272.03
465.438	2279.26
465.81	2288.08
466.183	2328.07
466.555	2383.89
466.928	2397.23
467.3	2376.43
467.672	2442.87
468.045	2501.18
468.417	2474.96
468.789	2523.32
469.161	2498.01
469.534	2574.85
469.906	2611.23
470.278	2624.11
470.65	2668.63
471.022	2733.94
471.394	2760.61
471.766	2787.95
472.138	2824.33
472.51	2851
472.882	2897.1
473.253	2902.3
473.625	2959.47
473.997	3005.12
474.369	3008.51
474.74	3051.22
475.112	3120.82
475.484	3126.47
475.855	3186.36
476.227	3201.95
476.598	3285.11
476.97	3279.69
477.341	3408.5
477.713	3433.81
478.084	3429.97
478.455	3502.51
478.827	3493.69
479.198	3625.22
479.569	3680.58
479.94	3729.85
480.311	3757.42
480.682	3811.2
481.053	3914.93
481.424	3922.16
481.795	3949.5
482.166	4029.05
482.537	4077.41
482.908	4168.7
483.279	4210.28
483.65	4231.53
484.021	4280.79
484.391	4345.2
484.762	4358.53
485.133	4428.36
485.503	4477.85
485.874	4567.34
486.244	4571.18
486.615	4693.89
486.985	4666.54
487.356	4757.16
487.726	4827.67
488.097	4875.8
488.467	4935.01
488.837	5012.98
489.207	5094.56
489.578	5063.82
489.948	5152.18
490.318	5231.5
490.688	5187.21
491.058	5317.6
491.428	5359.18
491.798	5418.84
492.168	5476.24
492.538	5528.89
492.908	5524.6
493.278	5652.73
493.648	5626.52
494.017	5698.61
494.387	5716.69
494.757	5779.06
495.126	5832.61
495.496	5828.1
495.866	5834.2
496.235	5948.09
496.605	5946.51
496.974	5978.37
497.344	5989.22
497.713	6038.94
498.082	6100.86
498.452	6159.16
498.821	6155.09
499.19	6184.47
499.559	6198.26
499.928	6243.9
500.298	6265.82
500.667	6357.35
501.036	6317.35
501.405	6394.86
501.774	6386.5
502.143	6453.39
502.512	6411.58
502.88	6473.5
503.249	6451.81
503.618	6571.13
503.987	6528.42
504.356	6564.8
504.724	6652.25
505.093	6631.46
505.462	6602.99
505.83	6709.43
506.199	6750.78
506.567	6784.23
506.936	6755.3
507.304	6874.62
507.672	6838.69
508.041	6851.8
508.409	6861.97
508.777	6955.07
509.145	6984.68
509.514	6930.44
509.882	6981.96
510.25	6977.67
510.618	6995.3
510.986	7022.19
511.354	7076.42
511.722	7104.67
512.09	7184.9
512.458	7139.93
512.826	7218.79
513.193	7237.1
513.561	7184.44
513.929	7275.29
514.297	7267.83
514.664	7306.25
515.032	7311.9
515.4	7327.94
515.767	7407.71
516.135	7339.92
516.502	7332.46
516.869	7465.57
517.237	7461.27
517.604	7343.54
517.972	7443.87
518.339	7461.5
518.706	7465.11
519.073	7519.12
519.44	7470.54
519.808	7621.27
520.175	7581.95
520.542	7628.27
520.909	7637.77
521.276	7654.94
521.643	7689.74
522.009	7758.67
522.376	7776.74
522.743	7736.29
523.11	7764.09
523.477	7820.59
523.843	7850.64
524.21	7911.88
524.577	7946.23
524.943	7943.07
525.31	7899
525.676	8033.24
526.043	7992.33
526.409	7969.96
526.776	8104.87
527.142	8064.42
527.508	8066
527.874	8131.76
528.241	8131.09
528.607	8138.77
528.973	8150.29
529.339	8100.58
529.705	8190.29
530.071	8242.04
530.437	8343.74
530.803	8230.07
531.169	8264.87
531.535	8192.55
531.901	8225.09
532.267	8258.54
532.632	8232.78
532.998	8225.32
533.364	8226.22
533.73	8262.83
534.095	8280.23
534.461	8278.43
534.826	8312.55
535.192	8281.36
535.557	8357.75
535.923	8286.34
536.288	8332.89
536.653	8363.4
537.019	8318.65
537.384	8275.49
537.749	8292.89
538.114	8317.3
538.479	8302.38
538.845	8372.44
539.21	8347.35
539.575	8298.09
539.94	8268.48
540.305	8356.62
540.67	8296.51
541.034	8285.43
541.399	8308.48
541.764	8273.23
542.129	8327.46
542.494	8275.94
542.858	8334.47
543.223	8300.35
543.587	8283.17
543.952	8318.2
544.316	8278.43
544.681	8292.21
545.045	8278.2
545.41	8256.28
545.774	8358.42
546.138	8249.95
546.503	8258.31
546.867	8250.4
547.231	8290.86
547.595	8246.11
547.959	8286.11
548.324	8255.15
548.688	8286.34
549.052	8269.61
549.416	8286.34
549.779	8293.57
550.143	8176.73
550.507	8258.09
550.871	8348.26
551.235	8252.21
551.599	8290.63
551.962	8195.26
552.326	8219.9
552.689	8250.4
553.053	8248.37
553.417	8231.87
553.78	8313.91
554.143	8282.72
554.507	8186.45
554.87	8310.52
555.234	8339.22
555.597	8273
555.96	8303.74
556.323	8337.63
556.686	8300.57
557.05	8337.86
557.413	8348.03
557.776	8337.63
558.139	8374.02
558.502	8353.23
558.865	8389.61
559.228	8363.4
559.59	8431.64
559.953	8416.5
560.316	8493.34
560.679	8479.1
561.041	8514.58
561.404	8476.61
561.767	8519.55
562.129	8452.43
562.492	8572.88
562.854	8559.77
563.217	8492.21
563.579	8544.41
563.941	8611.07
564.304	8634.8
564.666	8616.5
565.028	8647.91
565.39	8694.69
565.753	8691.07
566.115	8739.88
566.477	8755.02
566.839	8780.11
567.201	8785.31
567.563	8807.9
567.925	8873.44
568.287	8903.72
568.648	8814.46
569.01	8933.78
569.372	8962.7
569.734	8957.96
570.095	9013.55
570.457	8968.13
570.819	9024.17
571.18	9058.97
571.542	9073.43
571.903	9092.64
572.265	9108.01
572.626	9152.75
572.987	9172.64
573.349	9160.89
573.71	9149.36
574.071	9169.48
574.432	9257.61
574.794	9270.94
575.155	9317.72
575.516	9249.25
575.877	9334.9
576.238	9332.41
576.599	9384.61
576.96	9281.11
577.32	9317.72
577.681	9442.46
578.042	9404.95
578.403	9475.68
578.763	9409.02
579.124	9445.18
579.485	9413.76
579.845	9555.45
580.206	9512.07
580.566	9518.85
580.927	9503.25
581.287	9527.21
581.648	9519.3
582.008	9625.28
582.368	9548.45
582.728	9597.71
583.089	9560.2
583.449	9606.53
583.809	9657.15
584.169	9716.35
584.529	9647.66
584.889	9739.18
585.249	9728.56
585.609	9726.98
585.969	9695.34
586.329	9712.29
586.688	9772.17
587.048	9756.81
587.408	9717.48
587.768	9724.26
588.127	9774.43
588.487	9702.8
588.846	9782.34
589.206	9729.91
589.565	9815.56
589.925	9806.52
590.284	9791.61
590.643	9822.57
591.003	9829.12
591.362	9854.2
591.721	9826.18
592.08	9809.46
592.44	9875.22
592.799	9854.66
593.158	9886.07
593.517	9830.7
593.876	9855.33
594.235	9847.65
594.593	9897.82
594.952	9910.47
595.311	9918.84
595.67	9882.9
596.029	9961.09
596.387	9949.12
596.746	9978.49
597.104	9879.97
597.463	9887.2
597.822	10028.21
598.18	9975.33
598.538	9987.53
598.897	9935.78
599.255	9876.8
599.613	10061.88
599.972	10047.19
600.33	10031.37
600.688	9994.09
601.046	10019.62
601.404	10030.47
601.762	10025.95
602.12	10050.13
602.478	10086.06
602.836	10054.2
603.194	9962.22
603.552	9981.43
603.91	10014.88
604.268	10078.15
604.625	10044.93
604.983	10071.6
605.341	9962.9
605.698	10056.01
606.056	10124.71
606.413	10085.38
606.771	10103.24
607.128	10140.07
607.485	10065.27
607.843	10126.74
608.2	10145.5
608.557	10159.51
608.914	10126.97
609.272	10179.39
609.629	10190.92
609.986	10236.12
610.343	10194.76
610.7	10232.05
611.057	10223.01
611.414	10180.52
611.771	10200.18
612.127	10239.73
612.484	10222.56
612.841	10282.22
613.198	10225.95
613.554	10222.56
613.911	10309.33
614.267	10228.21
614.624	10297.13
614.98	10316.34
615.337	10339.62
615.693	10361.99
616.05	10343.91
616.406	10346.39
616.762	10333.74
617.118	10388.65
617.475	10335.1
617.831	10451.7
618.187	10391.82
618.543	10418.48
618.899	10510.23
619.255	10364.93
619.611	10405.6
619.967	10463.23
620.323	10495.32
620.678	10441.31
621.034	10407.86
621.39	10501.19
621.746	10416.68
622.101	10541.42
622.457	10419.84
622.812	10425.49
623.168	10487.86
623.523	10425.04
623.879	10460.06
624.234	10371.93
624.589	10428.65
624.945	10464.58
625.3	10514.75
625.655	10386.39
626.01	10451.02
626.365	10472.04
626.72	10452.15
627.075	10419.61
627.43	10445.38
627.785	10360.63
628.14	10399.73
628.495	10439.73
628.85	10426.39
629.205	10329.45
629.559	10472.04
629.914	10308.43
630.269	10431.14
630.623	10426.84
630.978	10302.55
631.332	10411.03
631.687	10375.77
632.041	10275.44
632.396	10316.79
632.75	10249.45
633.104	10322.21
633.459	10228.88
633.813	10202.44
634.167	10319.28
634.521	10269.56
634.875	10268.2
635.229	10241.76
635.583	10191.37
635.937	10180.75
636.291	10190.47
636.645	10166.51
636.999	10120.86
637.352	10163.35
637.706	10078.61
638.06	10174.87
638.413	10077.7
638.767	10088.1
639.121	10071.6
639.474	10057.81
639.828	10080.86
640.181	10044.93
640.534	10069.79
640.888	10041.32
641.241	9971.72
641.594	9963.35
641.947	9971.26
642.301	10005.84
642.654	10009.23
643.007	9984.82
643.36	9900.53
643.713	9915.67
644.066	9922.9
644.419	9900.53
644.771	9815.34
645.124	9786.64
645.477	9752.96
645.83	9699.63
646.182	9624.15
646.535	9610.82
646.888	9612.4
647.24	9616.7
647.593	9611.27
647.945	9608.56
648.298	9538.73
648.65	9563.14
649.002	9458.96
649.355	9540.09
649.707	9594.1
650.059	9656.7
650.411	9736.24
650.763	9688.56
651.115	9798.39
651.467	9772.62
651.819	9816.92
652.171	9765.84
652.523	9727.43
652.875	9768.78
653.227	9784.15
653.578	9733.3
653.93	9703.7
654.282	9720.87
654.633	9653.31
654.985	9738.95
655.337	9708.45
655.688	9740.31
656.039	9708.22
656.391	9636.81
656.742	9723.36
657.094	9649.24
657.445	9740.76
657.796	9747.54
658.147	9685.4
658.498	9734.66
658.849	9719.52
659.2	9719.52
659.551	9707.99
659.902	9752.74
660.253	9759.52
660.604	9750.7
660.955	9701.44
661.306	9708.9
661.656	9628.45
662.007	9666.86
662.358	9699.86
662.708	9688.11
663.059	9677.49
663.409	9593.87
663.76	9681.33
664.11	9644.04
664.461	9682.91
664.811	9614.66
665.161	9660.08
665.511	9651.72
665.862	9665.06
666.212	9721.33
666.562	9731.5
666.912	9687.88
667.262	9728.78
667.612	9674.32
667.962	9744.83
668.312	9619.18
668.662	9700.99
669.011	9661.44
669.361	9614.66
669.711	9666.64
670.06	9686.3
670.41	9627.09
670.76	9595.23
671.109	9603.82
671.459	9625.74
671.808	9576.47
672.157	9581.44
672.507	9606.08
672.856	9583.93
673.205	9524.5
673.554	9582.12
673.904	9541.9
674.253	9634.55
674.602	9550.94
674.951	9451.95
675.3	9414.89
675.649	9530.37
675.998	9515.23
676.346	9514.55
676.695	9510.26
677.044	9475.68
677.393	9514.1
677.741	9482.01
678.09	9578.05
678.438	9463.03
678.787	9515.23
679.135	9524.04
679.484	9373.76
679.832	9436.14
680.181	9375.12
680.529	9368.79
680.877	9380.77
681.225	9309.81
681.573	9430.49
681.922	9369.7
682.27	9218.97
682.618	9295.35
682.966	9249.25
683.314	9235.46
683.661	9206.76
684.009	9264.84
684.357	9166.31
684.705	9201.11
685.053	9188.23
685.4	9122.02
685.748	9178.52
686.095	9138.97
686.443	9149.59
686.79	8995.47
687.138	9104.85
687.485	9120.89
687.832	9057.84
688.18	9026.88
688.527	9009.48
688.874	8971.97
689.221	8920.44
689.568	9009.03
689.915	8880.44
690.262	8842.48
690.609	8854
690.956	8800.22
691.303	8795.93
691.65	8772.2
691.997	8763.39
692.344	8717.51
692.69	8667.34
693.037	8721.35
693.383	8644.07
693.73	8591.19
694.077	8572.2
694.423	8516.61
694.769	8534.92
695.116	8466.22
695.462	8528.82
695.808	8479.33
696.155	8458.99
696.501	8410.4
696.847	8431.87
697.193	8330.85
697.539	8371.76
697.885	8299.44
698.231	8304.19
698.577	8306.22
698.923	8268.03
699.269	8203.85
699.614	8177.41
699.96	8172.44
700.306	8146.45
700.651	8135.61
700.997	8103.74
701.342	8045.89
701.688	8022.16
702.033	8067.81
702.379	7963.18
702.724	7984.42
703.069	7962.95
703.415	7852.67
703.76	7953.46
704.105	7932.22
704.45	7891.54
704.795	7833.47
705.14	7795.95
705.485	7768.16
705.83	7763.19
706.175	7731.55
706.52	7688.39
706.865	7646.58
707.209	7687.71
707.554	7659.01
707.899	7593.7
708.243	7604.32
708.588	7553.93
708.932	7549.63
709.277	7503.76
709.621	7477.32
709.966	7491.55
710.31	7491.78
710.654	7434.15
710.998	7421.73
711.342	7474.61
711.687	7448.17
712.031	7422.4
712.375	7360.26
712.719	7403.65
713.063	7309.41
713.407	7305.12
713.75	7301.5
714.094	7318.23
714.438	7248.85
714.782	7275.97
715.125	7288.62
715.469	7280.49
715.812	7189.87
716.156	7213.82
716.499	7201.62
716.843	7144.22
717.186	7162.3
717.53	7161.39
717.873	7164.11
718.216	7119.81
718.559	7099.02
718.902	7108.74
719.246	7141.73
719.589	7079.14
719.932	7032.81
720.275	7034.84
720.617	7061.28
720.96	7059.93
721.303	7032.36
721.646	7036.65
721.989	7045.69
722.331	7026.26
722.674	7012.25
723.016	6954.62
723.359	6962.08
723.701	6958.46
724.044	6939.93
724.386	6919.37
724.729	6986.71
725.071	7021.06
725.413	6927.05
725.755	6949.65
726.097	6910.78
726.439	6883.89
726.782	6869.42
727.124	6920.72
727.465	6894.96
727.807	6921.85
728.149	6812.02
728.491	6837.11
728.833	6856.77
729.175	6810.22
729.516	6821.97
729.858	6798.92
730.199	6835.75
730.541	6820.16
730.882	6767.05
731.224	6821.29
731.565	6778.58
731.906	6826.49
732.248	6778.58
732.589	6818.8
732.93	6759.37
733.271	6852.02
733.612	6752.14
733.953	6816.09
734.294	6746.04
734.635	6764.34
734.976	6793.95
735.317	6743.1
735.658	6814.28
735.999	6831.23
736.339	6772.03
736.68	6730.44
737.021	6786.71
737.361	6727.73
737.702	6770.44
738.042	6747.62
738.383	6780.39
738.723	6801.4
739.063	6795.08
739.404	6808.41
739.744	6752.82
740.084	6801.4
740.424	6810.67
740.764	6807.05
741.104	6813.83
741.444	6801.63
741.784	6770.44
742.124	6779.71
742.464	6773.38
742.804	6824.23
743.143	6868.97
743.483	6861.29
743.823	6795.98
744.162	6783.1
744.502	6878.01
744.841	6890.44
745.181	6941.74
745.52	6908.74
745.86	6912.81
746.199	6901.97
746.538	6959.59
746.877	6994.84
747.216	7019.02
747.556	7044.11
747.895	7055.86
748.234	7115.52
748.573	7055.63
748.911	7140.83
749.25	7173.82
749.589	7188.51
749.928	7251.33
750.267	7225.35
750.605	7258.57
750.944	7342.63
751.283	7389.18
751.621	7427.83
751.96	7442.29
752.298	7551.67
752.636	7590.99
752.975	7602.74
753.313	7647.26
753.651	7731.55
753.989	7796.41
754.327	7842.51
754.666	7915.05
755.004	7982.39
755.342	8096.74
755.679	8140.8
756.017	8211.76
756.355	8283.85
756.693	8330.85
757.031	8415.37
757.368	8416.95
757.706	8565.42
758.044	8588.02
758.381	8748.92
758.719	8800.67
759.056	8976.04
759.394	9066.88
759.731	9013.1
760.068	9151.17
760.405	9214
760.743	9329.02
761.08	9425.97
761.417	9518.85
761.754	9561.1
762.091	9715.68
762.428	9799.97
762.765	9825.28
763.102	9996.12
763.438	9940.98
763.775	10111.6
764.112	10141.65
764.449	10283.57
764.785	10320.63
765.122	10332.61
765.458	10479.5
765.795	10587.29
766.131	10645.14
766.467	10692.15
766.804	10712.94
767.14	10804.91
