Data from hue_280_FLMS001491_00092.txt Node
Date: Tue Feb 07 15:56:07 GMT 2017
User: dcchb
Spectrometer: FLMS00149
Trigger mode: 0
Integration Time (sec): 2.000000E-2
Scans to average: 10
Electric dark correction enabled: true
Nonlinearity correction enabled: false
Boxcar width: 0
XAxis mode: Wavelengths
Number of Pixels in Spectrum: 2048
>>>>>Begin Spectral Data<<<<<
341.393	-18.04
341.776	-18.04
342.16	-18.04
342.543	-67.53
342.927	-66.4
343.31	-56.68
343.693	-72.05
344.077	-74.98
344.46	-70.24
344.843	-45.61
345.226	-55.78
345.61	-39.05
345.993	-13.97
346.376	0.27
346.759	18.57
347.142	29.19
347.525	58.12
347.908	65.35
348.291	59.93
348.674	83.66
349.057	113.26
349.44	115.07
349.823	134.73
350.206	177.44
350.588	202.3
350.971	206.59
351.354	228.06
351.737	230.77
352.119	223.09
352.502	238.45
352.884	275.97
353.267	284.33
353.65	287.04
354.032	284.1
354.414	323.42
354.797	295.85
355.179	296.53
355.562	322.75
355.944	315.74
356.326	335.4
356.709	318
357.091	334.04
357.473	361.39
357.855	338.79
358.238	334.27
358.62	335.17
359.002	344.21
359.384	322.97
359.766	341.95
360.148	338.34
360.53	334.95
360.912	348.28
361.294	325.23
361.676	328.62
362.057	341.28
362.439	333.82
362.821	312.35
363.203	320.03
363.584	316.42
363.966	327.27
364.348	321.16
364.729	332.01
365.111	318.68
365.493	325.46
365.874	334.04
366.256	308.96
366.637	321.84
367.019	319.36
367.4	309.41
367.781	323.88
368.163	315.29
368.544	310.32
368.925	307.38
369.306	311.22
369.688	308.96
370.069	308.96
370.45	301.05
370.831	305.8
371.212	308.06
371.593	309.86
371.974	315.06
372.355	311.67
372.736	329.07
373.117	320.03
373.498	325.23
373.879	306.93
374.26	311.45
374.641	315.51
375.021	304.89
375.402	313.71
375.783	320.71
376.163	319.58
376.544	323.42
376.925	319.36
377.305	306.93
377.686	318.45
378.066	317.1
378.447	306.93
378.827	328.17
379.208	322.07
379.588	322.07
379.968	338.56
380.349	334.95
380.729	338.79
381.109	320.03
381.489	331.11
381.87	327.04
382.25	337.43
382.63	341.05
383.01	334.95
383.39	333.59
383.77	319.36
384.15	341.28
384.53	336.76
384.91	334.5
385.29	336.08
385.67	326.59
386.049	358.68
386.429	359.58
386.809	356.87
387.189	331.79
387.568	350.09
387.948	342.63
388.328	354.16
388.707	362.97
389.087	345.12
389.466	355.06
389.846	353.03
390.225	338.79
390.605	345.34
390.984	358.23
391.363	358.9
391.743	364.33
392.122	346.02
392.501	356.87
392.881	379.02
393.26	361.16
393.639	380.15
394.018	363.42
394.397	396.87
394.776	397.09
395.155	383.08
395.534	382.86
395.913	405.23
396.292	387.38
396.671	396.42
397.05	384.67
397.429	397.32
397.808	393.93
398.186	389.41
398.565	403.87
398.944	403.65
399.323	380.6
399.701	398.22
400.08	403.42
400.458	404.78
400.837	399.13
401.215	419.92
401.594	407.72
401.972	410.88
402.351	426.7
402.729	422.4
403.107	413.59
403.486	420.37
403.864	419.24
404.242	426.92
404.62	445.23
404.999	441.39
405.377	441.61
405.755	422.86
406.133	452.91
406.511	447.94
406.889	456.08
407.267	447.49
407.645	444.32
408.023	465.57
408.401	449.3
408.779	460.14
409.156	462.63
409.534	463.76
409.912	509.86
410.29	487.49
410.667	515.96
411.045	506.7
411.422	506.47
411.8	511.89
412.178	525.45
412.555	525.23
412.933	513.25
413.31	536.3
413.687	554.15
414.065	554.15
414.442	532.01
414.819	569.29
415.197	582.17
415.574	573.36
415.951	564.32
416.328	576.52
416.705	587.82
417.082	600.03
417.46	614.26
417.837	602.29
418.214	606.35
418.591	638.9
418.967	644.09
419.344	652.91
419.721	634.83
420.098	647.48
420.475	667.6
420.852	645.9
421.228	665.11
421.605	671.44
421.982	701.27
422.358	704.2
422.735	716.41
423.111	735.39
423.488	741.49
423.864	743.98
424.241	750.53
424.617	761.15
424.994	774.49
425.37	745.11
425.746	792.34
426.123	786.69
426.499	802.06
426.875	799.12
427.251	818.1
427.627	821.94
428.003	850.87
428.379	855.61
428.756	847.93
429.132	875.05
429.507	892.9
429.883	890.87
430.259	897.65
430.635	907.14
431.011	917.53
431.387	953.69
431.763	952.79
432.138	951.2
432.514	950.98
432.89	978.55
433.265	988.04
433.641	995.95
434.016	1019
434.392	1043.86
434.767	1048.38
435.143	1042.05
435.518	1041.37
435.894	1092.67
436.269	1101.03
436.644	1107.13
437.02	1134.48
437.395	1139
437.77	1134.48
438.145	1177.19
438.52	1174.02
438.895	1199.11
439.271	1200.24
439.646	1213.8
440.021	1255.83
440.395	1251.99
440.77	1258.09
441.145	1257.18
441.52	1267.35
441.895	1272.33
442.27	1274.59
442.645	1289.5
443.019	1296.96
443.394	1293.34
443.769	1317.97
444.143	1299.67
444.518	1311.19
444.892	1331.53
445.267	1333.34
445.641	1344.87
446.016	1329.72
446.39	1390.74
446.764	1393.45
447.139	1378.31
447.513	1374.24
447.887	1399.55
448.262	1406.11
448.636	1410.17
449.01	1431.19
449.384	1443.85
449.758	1410.4
450.132	1427.35
450.506	1441.81
450.88	1440.23
451.254	1444.52
451.628	1473.9
452.002	1526.56
452.376	1505.31
452.75	1499.66
453.123	1513.9
453.497	1527.69
453.871	1538.98
454.244	1596.16
454.618	1586.67
454.992	1567.01
455.365	1581.47
455.739	1617.17
456.112	1626.67
456.486	1652.43
456.859	1676.83
457.232	1688.81
457.606	1681.81
457.979	1705.76
458.352	1721.58
458.725	1720.22
459.099	1734.91
459.472	1756.61
459.845	1769.71
460.218	1809.49
460.591	1815.14
460.964	1796.83
461.337	1818.98
461.71	1871.18
462.083	1884.06
462.456	1879.09
462.829	1846.77
463.201	1917.96
463.574	1921.35
463.947	1937.62
464.32	1951.4
464.692	1934.23
465.065	2002.48
465.438	2002.7
465.81	2032.31
466.183	2050.84
466.555	2067.78
466.928	2103.72
467.3	2062.36
467.672	2134.68
468.045	2176.71
468.417	2179.65
468.789	2168.57
469.161	2172.41
469.534	2204.96
469.906	2243.83
470.278	2228.46
470.65	2264.62
471.022	2263.71
471.394	2358.62
471.766	2366.53
472.138	2351.39
472.51	2416.48
472.882	2461.45
473.253	2463.71
473.625	2488.11
473.997	2526.3
474.369	2523.59
474.74	2594.1
475.112	2576.02
475.484	2611.95
475.855	2646.07
476.227	2665.28
476.598	2741.67
476.97	2740.08
477.341	2789.12
477.713	2818.73
478.084	2830.25
478.455	2882
478.827	2913.64
479.198	2952.06
479.569	2962
479.94	3038.61
480.311	3052.39
480.682	3123.35
481.053	3143.69
481.424	3194.99
481.795	3207.64
482.166	3246.06
482.537	3274.53
482.908	3313.85
483.279	3347.98
483.65	3350.91
484.021	3404.92
484.391	3446.28
484.762	3438.37
485.133	3498.48
485.503	3609.66
485.874	3599.95
486.244	3631.59
486.615	3664.13
486.985	3729.44
487.356	3750
487.726	3750.23
488.097	3848.08
488.467	3874.52
488.837	3885.36
489.207	3898.24
489.578	4000.84
489.948	3990.45
490.318	4048.3
490.688	4043.55
491.058	4098.69
491.428	4126.04
491.798	4191.8
492.168	4234.51
492.538	4230.89
492.908	4262.08
493.278	4304.79
493.648	4356.09
494.017	4386.37
494.387	4402.64
494.757	4403.99
495.126	4432.02
495.496	4473.37
495.866	4486.25
496.235	4546.82
496.605	4557.21
496.974	4538
497.344	4576.87
497.713	4628.17
498.082	4610.09
498.452	4650.09
498.821	4698.22
499.19	4730.77
499.559	4703.87
499.928	4748.17
500.298	4766.02
500.667	4799.24
501.036	4802.63
501.405	4809.41
501.774	4846.69
502.143	4843.08
502.512	4869.07
502.88	4897.77
503.249	4904.55
503.618	4930.99
503.987	4923.53
504.356	4959.69
504.724	4981.15
505.093	4971.21
505.462	5026.8
505.83	4998.1
506.199	5027.71
506.567	5093.47
506.936	5035.16
507.304	5146.8
507.672	5139.12
508.041	5126.24
508.409	5159
508.777	5161.71
509.145	5255.5
509.514	5187.02
509.882	5230.87
510.25	5257.31
510.618	5250.3
510.986	5262.5
511.354	5309.51
511.722	5310.41
512.09	5324.42
512.458	5334.37
512.826	5378.21
513.193	5377.98
513.561	5315.16
513.929	5424.08
514.297	5434.25
514.664	5459.79
515.032	5457.3
515.4	5449.84
515.767	5491.65
516.135	5471.08
516.502	5414.36
516.869	5519.67
517.237	5544.98
517.604	5560.35
517.972	5589.73
518.339	5606.45
518.706	5620.01
519.073	5557.18
519.44	5656.39
519.808	5643.06
520.175	5647.58
520.542	5675.6
520.909	5693.23
521.276	5675.37
521.643	5693
522.009	5648.26
522.376	5700.68
522.743	5725.77
523.11	5824.97
523.477	5783.39
523.843	5838.98
524.21	5801.02
524.577	5862.94
524.943	5882.6
525.31	5891.86
525.676	5905.65
526.043	5979.32
526.409	6000.11
526.776	6024.06
527.142	6066.1
527.508	6048.24
527.874	6102.71
528.241	6056.15
528.607	6116.04
528.973	6180.44
529.339	6156.26
529.705	6123.72
530.071	6250.73
530.437	6261.8
530.803	6258.41
531.169	6245.08
531.535	6232.42
531.901	6265.64
532.267	6263.15
532.632	6342.7
532.998	6328.01
533.364	6329.14
533.73	6351.51
534.095	6405.07
534.461	6401.68
534.826	6405.52
535.192	6425.41
535.557	6451.4
535.923	6478.29
536.288	6419.99
536.653	6492.3
537.019	6429.93
537.384	6491.62
537.749	6522.58
538.114	6519.64
538.479	6509.7
538.845	6558.74
539.21	6539.53
539.575	6550.15
539.94	6540.21
540.305	6608.46
540.67	6523.03
541.034	6600.77
541.399	6584.05
541.764	6609.13
542.129	6592.41
542.494	6631.28
542.858	6638.51
543.223	6645.52
543.587	6677.61
543.952	6680.32
544.316	6754.89
544.681	6702.24
545.045	6664.5
545.41	6760.54
545.774	6777.49
546.138	6737.94
546.503	6764.84
546.867	6760.32
547.231	6843.03
547.595	6811.16
547.959	6863.82
548.324	6813.87
548.688	6794.67
549.052	6827.21
549.416	6894.1
549.779	6854.1
550.143	6896.58
550.507	6888
550.871	6892.29
551.235	6857.26
551.599	6941.33
551.962	7003.25
552.326	6961.44
552.689	6919.18
553.053	6936.58
553.417	6971.16
553.78	7020.42
554.143	6966.19
554.507	7027.2
554.87	7019.74
555.234	7064.72
555.597	6991.04
555.96	7017.94
556.323	7043.02
556.686	7098.16
557.05	7140.87
557.413	7127.54
557.776	7127.99
558.139	7239.17
558.502	7224.71
558.865	7152.4
559.228	7224.03
559.59	7191.04
559.953	7197.14
560.316	7358.94
560.679	7299.51
561.041	7292.05
561.404	7350.36
561.767	7344.26
562.129	7363.92
562.492	7426.97
562.854	7383.35
563.217	7368.66
563.579	7427.87
563.941	7529.56
564.304	7495.66
564.666	7605.94
565.028	7508.32
565.39	7589.22
565.753	7629.45
566.115	7603.01
566.477	7691.82
566.839	7663.8
567.201	7735.88
567.563	7764.81
567.925	7753.28
568.287	7702.89
568.648	7809.78
569.01	7892.49
569.372	7867.63
569.734	7864.47
570.095	7893.39
570.457	7953.28
570.819	7913.96
571.18	7945.6
571.542	8055.65
571.903	8038.25
572.265	8080.06
572.626	8106.27
572.987	8094.97
573.349	8124.8
573.71	8130.22
574.071	8174.74
574.432	8251.8
574.794	8255.42
575.155	8259.49
575.516	8284.57
575.877	8304.23
576.238	8341.29
576.599	8411.57
576.96	8444.79
577.32	8454.51
577.681	8434.85
578.042	8566.37
578.403	8579.7
578.763	8617.67
579.124	8608.63
579.485	8747.83
579.845	8751.22
580.206	8724.33
580.566	8851.56
580.927	8844.56
581.287	8921.62
581.648	8907.15
582.008	8956.19
582.368	9045
582.728	9059.01
583.089	9087.26
583.449	9208.84
583.809	9210.87
584.169	9254.71
584.529	9296.3
584.889	9460.36
585.249	9437.08
585.609	9485.89
585.969	9543.52
586.329	9574.25
586.688	9662.61
587.048	9714.59
587.408	9737.41
587.768	9814.93
588.127	9843.17
588.487	9946.45
588.846	10013.79
589.206	10129.04
589.565	10183.05
589.925	10246.33
590.284	10249.49
590.643	10385.08
591.003	10422.14
591.362	10503.27
591.721	10541.01
592.08	10607.67
592.44	10646.54
592.799	10781.91
593.158	10791.17
593.517	10778.97
593.876	10973.09
594.235	11010.37
594.593	10982.58
594.952	11129.24
595.311	11152.52
595.67	11242.91
596.029	11372.85
596.387	11323.13
596.746	11448.55
597.104	11513.86
597.463	11540.98
597.822	11594.77
598.18	11674.76
598.538	11687.19
598.897	11706.63
599.255	11757.93
599.613	11959.73
599.972	11832.95
600.33	12020.74
600.688	11980.97
601.046	12092.61
601.404	12202.89
601.762	12138.25
602.12	12305.93
602.478	12322.43
602.836	12329.21
603.194	12317.46
603.552	12413.5
603.91	12383.67
604.268	12505.93
604.625	12495.76
604.983	12549.09
605.341	12508.87
605.698	12538.47
606.056	12603.33
606.413	12734.17
606.771	12854.85
607.128	12838.8
607.485	12799.48
607.843	12866.14
608.2	12936.65
608.557	12967.61
608.914	12933.49
609.272	12978.46
609.629	13121.73
609.986	13106.36
610.343	13071.79
610.7	13219.58
611.057	13154.05
611.414	13295.96
611.771	13289.18
612.127	13391.55
612.484	13417.77
612.841	13364.44
613.198	13497.54
613.554	13412.57
613.911	13561.04
614.267	13531.89
614.624	13507.26
614.98	13598.55
615.337	13645.79
615.693	13622.96
616.05	13633.58
616.406	13738.21
616.762	13719.68
617.118	13642.62
617.475	13713.81
617.831	13744.31
618.187	13748.38
618.543	13811.2
618.899	13825.22
619.255	13853.92
619.611	13857.53
619.967	13900.69
620.323	13922.39
620.678	13951.31
621.034	13888.04
621.39	13892.11
621.746	13996.74
622.101	14054.14
622.457	13873.12
622.812	14024.76
623.168	14003.06
623.523	13986.79
623.879	14066.11
624.234	13994.25
624.589	14066.79
624.945	14153.12
625.3	14097.07
625.655	14207.13
626.01	14107.02
626.365	14159.22
626.72	14169.39
627.075	14180.91
627.43	14167.35
627.785	14107.47
628.14	14107.69
628.495	14186.79
628.85	14147.69
629.205	14124.19
629.559	14220.23
629.914	14147.02
630.269	14104.3
630.623	14136.85
630.978	14148.6
631.332	14106.34
631.687	14142.5
632.041	14100.91
632.396	14104.76
632.75	14071.08
633.104	14102.27
633.459	14048.94
633.813	13937.08
634.167	14037.19
634.521	14047.13
634.875	14083.29
635.229	14013.46
635.583	13996.74
635.937	13992.22
636.291	13921.71
636.645	13952.9
636.999	13916.06
637.352	13914.93
637.706	13912.44
638.06	13865.21
638.413	13956.74
638.767	13795.39
639.121	13885.33
639.474	13827.93
639.828	13835.16
640.181	13868.6
640.534	13830.41
640.888	13791.09
641.241	13799.45
641.594	13764.2
641.947	13844.88
642.301	13719.23
642.654	13804.88
643.007	13772.79
643.36	13724.43
643.713	13724.88
644.066	13806.46
644.419	13760.36
644.771	13586.13
645.124	13589.97
645.477	13517.88
645.83	13397.66
646.182	13381.84
646.535	13344.55
646.888	13290.99
647.24	13302.52
647.593	13318.79
647.945	13263.65
648.298	13334.83
648.65	13363.31
649.002	13231.56
649.355	13332.12
649.707	13305.23
650.059	13420.25
650.411	13541.61
650.763	13483.98
651.115	13742.96
651.467	13606.24
651.819	13634.94
652.171	13690.53
652.523	13621.61
652.875	13587.26
653.227	13592.45
653.578	13713.35
653.93	13634.49
654.282	13604.66
654.633	13538.9
654.985	13646.69
655.337	13657.31
655.688	13637.2
656.039	13699.57
656.391	13595.62
656.742	13681.26
657.094	13569.63
657.445	13677.42
657.796	13647.14
658.147	13606.01
658.498	13569.4
658.849	13627.48
659.2	13609.85
659.551	13561.49
659.902	13684.43
660.253	13652.34
660.604	13614.15
660.955	13618.44
661.306	13636.07
661.656	13721.26
662.007	13667.71
662.358	13688.95
662.708	13704.31
663.059	13667.03
663.409	13581.61
663.76	13742.28
664.11	13773.24
664.461	13765.56
664.811	13684.2
665.161	13719.23
665.511	13738.89
665.862	13736.18
666.212	13830.41
666.562	13705.44
666.912	13769.17
667.262	13736.18
667.612	13757.19
667.962	13778.44
668.312	13823.41
668.662	13777.08
669.011	13760.36
669.361	13795.16
669.711	13720.13
670.06	13724.65
670.41	13714.48
670.76	13734.37
671.109	13745.67
671.459	13692.11
671.808	13670.87
672.157	13684.43
672.507	13593.36
672.856	13639.91
673.205	13632.45
673.554	13712.45
673.904	13616.63
674.253	13721.49
674.602	13566.47
674.951	13394.04
675.3	13297.32
675.649	13519.23
675.998	13594.94
676.346	13512.68
676.695	13594.94
677.044	13438.33
677.393	13559.23
677.741	13504.55
678.09	13458.22
678.438	13398.56
678.787	13465.45
679.135	13469.52
679.484	13341.61
679.832	13407.15
680.181	13327.6
680.529	13405.34
680.877	13314.72
681.225	13269.3
681.573	13401.27
681.922	13297.55
682.27	13231.56
682.618	13263.42
682.966	13238.56
683.314	13200.15
683.661	13239.02
684.009	13072.24
684.357	13135.06
684.705	13089.42
685.053	13073.82
685.4	13052.58
685.748	13013.26
686.095	12989.53
686.443	12919.48
686.79	12928.74
687.138	12899.36
687.485	12893.04
687.832	12916.99
688.18	12885.35
688.527	12817.78
688.874	12779.14
689.221	12716.32
689.568	12760.16
689.915	12686.26
690.262	12637.22
690.609	12586.38
690.956	12547.96
691.303	12481.3
691.65	12468.19
691.997	12419.83
692.344	12312.26
692.69	12312.04
693.037	12303
693.383	12289.89
693.73	12291.24
694.077	12220.29
694.423	12167.63
694.769	12111.81
695.116	12145.71
695.462	12043.34
695.808	12038.37
696.155	12030.01
696.501	11861.2
696.847	11924.93
697.193	11904.81
697.539	11857.36
697.885	11800.18
698.231	11686.06
698.577	11707.53
698.923	11634.31
699.269	11608.32
699.614	11593.41
699.96	11554.77
700.306	11555.9
700.651	11443.81
700.997	11417.14
701.342	11439.52
701.688	11324.72
702.033	11299.63
702.379	11321.1
702.724	11223.02
703.069	11249.69
703.415	11106.19
703.76	11056.7
704.105	11075.23
704.45	11074.78
704.795	10971.73
705.14	10925.86
705.485	10996.59
705.83	10872.75
706.175	10971.51
706.52	10873.2
706.865	10782.81
707.209	10818.74
707.554	10771.51
707.899	10780.55
708.243	10688.35
708.588	10678.63
708.932	10597.73
709.277	10590.05
709.621	10610.16
709.966	10607.45
710.31	10587.11
710.654	10484.29
710.998	10535.36
711.342	10465.08
711.687	10459.65
712.031	10435.02
712.375	10337.62
712.719	10403.38
713.063	10346.21
713.407	10387.79
713.75	10339.43
714.094	10309.6
714.438	10253.56
714.782	10272.99
715.125	10268.47
715.469	10258.98
715.812	10159.32
716.156	10124.97
716.499	10118.65
716.843	10182.83
717.186	10101.47
717.53	10160.68
717.873	10160.23
718.216	10137.18
718.559	10034.13
718.902	10030.74
719.246	9989.38
719.589	9923.62
719.932	9969.72
720.275	9987.12
720.617	9945.09
720.96	9943.06
721.303	9928.37
721.646	9952.1
721.989	9843.17
722.331	9968.37
722.674	9918.2
723.016	9888.82
723.359	9909.39
723.701	9858.31
724.044	9839.33
724.386	9764.53
724.729	9798.88
725.071	9800.24
725.413	9801.14
725.755	9769.95
726.097	9732.44
726.439	9663.07
726.782	9680.01
727.124	9790.07
727.465	9717.08
727.807	9694.02
728.149	9680.24
728.491	9722.95
728.833	9771.76
729.175	9715.95
729.516	9722.05
729.858	9707.81
730.199	9703.06
730.541	9715.72
730.882	9716.85
731.224	9702.39
731.565	9689.28
731.906	9663.07
732.248	9570.41
732.589	9723.63
732.93	9623.07
733.271	9578.32
733.612	9675.95
733.953	9642.27
734.294	9696.28
734.635	9602.95
734.976	9638.66
735.317	9647.02
735.658	9662.84
735.999	9621.26
736.339	9618.55
736.68	9665.1
737.021	9606.34
737.361	9621.03
737.702	9655.83
738.042	9665.1
738.383	9651.99
738.723	9644.99
739.063	9648.6
739.404	9625.78
739.744	9646.57
740.084	9672.33
740.424	9706.91
740.764	9710.07
741.104	9734.93
741.444	9726.34
741.784	9698.09
742.124	9760.69
742.464	9785.77
742.804	9783.51
743.143	9793.23
743.483	9854.25
743.823	9797.07
744.162	9816.51
744.502	9863.96
744.841	9945.54
745.181	9932.44
745.52	9913.23
745.86	9977.63
746.199	10047.46
746.538	10030.06
746.877	10118.87
747.216	10188.7
747.556	10163.39
747.895	10317.06
748.234	10283.61
748.573	10299.43
748.911	10364.29
749.25	10464.4
749.589	10531.97
749.928	10611.29
750.267	10645.41
750.605	10690.16
750.944	10767.67
751.283	10801.79
751.621	10971.96
751.96	10934.44
752.298	11097.15
752.636	11175.79
752.975	11203.59
753.313	11260.09
753.651	11479.51
753.989	11521.55
754.327	11639.06
754.666	11686.06
755.004	11778.04
755.342	11971.25
755.679	12124.24
756.017	12157.69
756.355	12301.19
756.693	12363.33
757.031	12561.97
757.368	12648.75
757.706	12717
758.044	12961.28
758.381	13070.21
758.719	13156.98
759.056	13302.74
759.394	13447.15
759.731	13580.25
760.068	13728.27
760.405	13835.61
760.743	13940.92
761.08	14175.26
