Data from hue_38_FLMS001491_00039.txt Node
Date: Tue Feb 07 17:31:26 GMT 2017
User: dcchb
Spectrometer: FLMS00149
Trigger mode: 0
Integration Time (sec): 2.000000E-2
Scans to average: 10
Electric dark correction enabled: true
Nonlinearity correction enabled: false
Boxcar width: 0
XAxis mode: Wavelengths
Number of Pixels in Spectrum: 2048
>>>>>Begin Spectral Data<<<<<
341.393	1.89
341.776	1.89
342.16	1.89
342.543	-72.46
342.927	-87.6
343.31	-84.88
343.693	-88.73
344.077	-51.67
344.46	-69.74
344.843	-57.99
345.226	-22.51
345.61	-25
345.993	-25.9
346.376	1.67
346.759	17.94
347.142	31.5
347.525	45.73
347.908	67.2
348.291	68.78
348.674	97.48
349.057	96.13
349.44	123.7
349.823	149.46
350.206	173.87
350.588	217.03
350.971	221.77
351.354	244.15
351.737	233.07
352.119	260.87
352.502	263.35
352.884	269.68
353.267	283.92
353.65	299.06
354.032	311.94
354.414	342.22
354.797	317.14
355.179	330.92
355.562	335.9
355.944	318.49
356.326	328.21
356.709	332.96
357.091	327.53
357.473	327.76
357.855	350.13
358.238	342.22
358.62	342.67
359.002	341.09
359.384	359.4
359.766	332.51
360.148	379.51
360.53	337.48
360.912	317.59
361.294	334.99
361.676	328.66
362.057	346.29
362.439	338.83
362.821	347.19
363.203	335.44
363.584	330.92
363.966	320.98
364.348	338.15
364.729	310.13
365.111	330.7
365.493	322.34
365.874	308.33
366.256	323.24
366.637	318.04
367.019	313.75
367.4	319.62
367.781	315.56
368.163	337.93
368.544	322.79
368.925	335.67
369.306	338.61
369.688	321.66
370.069	331.15
370.45	313.07
370.831	317.14
371.212	315.56
371.593	340.87
371.974	314.43
372.355	330.92
372.736	312.84
373.117	336.35
373.498	326.63
373.879	324.6
374.26	314.65
374.641	298.16
375.021	305.84
375.402	331.38
375.783	317.82
376.163	335.67
376.544	336.12
376.925	353.52
377.305	348.78
377.686	343.35
378.066	330.25
378.447	320.08
378.827	333.41
379.208	346.74
379.588	356.01
379.968	320.3
380.349	327.76
380.729	350.36
381.109	347.65
381.489	354.65
381.87	353.3
382.25	355.78
382.63	346.74
383.01	346.29
383.39	355.1
383.77	359.85
384.15	357.36
384.53	341.77
384.91	360.08
385.29	373.86
385.67	353.97
386.049	358.95
386.429	354.65
386.809	374.09
387.189	341.77
387.568	342
387.948	349.23
388.328	362.56
388.707	355.33
389.087	353.3
389.466	353.75
389.846	335.22
390.225	370.47
390.605	374.76
390.984	369.57
391.363	375.44
391.743	362.79
392.122	357.59
392.501	383.58
392.881	388.55
393.26	398.94
393.639	388.55
394.018	374.76
394.397	386.74
394.776	357.36
395.155	383.13
395.534	401.43
395.913	374.31
396.292	380.19
396.671	392.39
397.05	394.42
397.429	402.79
397.808	371.37
398.186	403.01
398.565	403.24
398.944	398.49
399.323	396.01
399.701	387.42
400.08	383.58
400.458	404.37
400.837	408.66
401.215	403.69
401.594	411.6
401.972	392.84
402.351	422.45
402.729	409.57
403.107	421.77
403.486	406.18
403.864	396.68
404.242	426.06
404.62	413.41
404.999	405.95
405.377	410.7
405.755	407.31
406.133	398.49
406.511	420.86
406.889	437.14
407.267	428.55
407.645	423.8
408.023	421.77
408.401	429.9
408.779	445.95
409.156	444.37
409.534	445.95
409.912	460.19
410.29	471.94
410.667	468.55
411.045	444.59
411.422	455.67
411.8	476.46
412.178	473.97
412.555	473.52
412.933	476.91
413.31	474.87
413.687	477.81
414.065	489.79
414.442	485.27
414.819	488.43
415.197	498.6
415.574	505.61
415.951	487.53
416.328	491.37
416.705	500.86
417.082	508.55
417.46	485.5
417.837	514.2
418.214	501.09
418.591	503.12
418.967	527.53
419.344	499.73
419.721	547.41
420.098	527.3
420.475	545.61
420.852	514.2
421.228	531.14
421.605	533.86
421.982	558.04
422.358	553.06
422.735	546.51
423.111	534.99
423.488	540.86
423.864	518.94
424.241	570.47
424.617	541.09
424.994	561.2
425.37	565.72
425.746	561.43
426.123	584.25
426.499	570.69
426.875	565.04
427.251	606.85
427.627	600.29
428.003	585.83
428.379	591.93
428.756	624.02
429.132	617.24
429.507	612.27
429.883	612.5
430.259	628.32
430.635	612.27
431.011	624.25
431.387	622.89
431.763	628.32
432.138	638.71
432.514	651.59
432.89	666.51
433.265	652.95
433.641	647.98
434.016	661.76
434.392	655.43
434.767	692.5
435.143	687.52
435.518	712.83
435.894	702.67
436.269	681.2
436.644	716.9
437.02	712.16
437.395	712.16
437.77	722.78
438.145	731.59
438.52	749.22
438.895	734.98
439.271	721.42
439.646	740.4
440.021	732.04
440.395	763
440.77	770.46
441.145	759.61
441.52	759.61
441.895	774.75
442.27	780.86
442.645	791.25
443.019	780.86
443.394	757.58
443.769	802.32
444.143	789.89
444.518	787.41
444.892	810.46
445.267	796
445.641	801.19
446.016	803.68
446.39	834.87
446.764	820.85
447.139	833.96
447.513	819.72
447.887	805.71
448.262	821.53
448.636	835.77
449.01	860.85
449.384	836.67
449.758	854.98
450.132	884.81
450.506	863.79
450.88	891.81
451.254	876.22
451.628	864.47
452.002	910.57
452.376	902.66
452.75	905.82
453.123	935.65
453.497	924.58
453.871	918.7
454.244	942.43
454.618	939.72
454.992	958.03
455.365	977.23
455.739	981.53
456.112	997.8
456.486	986.05
456.859	1015.43
457.232	1039.61
457.606	1026.72
457.979	1025.82
458.352	1062.2
458.725	1045.03
459.099	1078.7
459.472	1092.49
459.845	1090.9
460.218	1095.42
460.591	1102.2
460.964	1099.94
461.337	1123.9
461.71	1149.66
462.083	1173.16
462.456	1180.62
462.829	1168.19
463.201	1177.91
463.574	1210
463.947	1239.15
464.32	1263.78
464.692	1239.6
465.065	1233.05
465.438	1296.55
465.81	1310.78
466.183	1321.63
466.555	1346.49
466.928	1355.76
467.3	1351.46
467.672	1405.25
468.045	1409.54
468.417	1416.09
468.789	1441.63
469.161	1449.09
469.534	1458.58
469.906	1543.1
470.278	1529.08
470.65	1547.84
471.022	1595.97
471.394	1621.96
471.766	1626.71
472.138	1656.54
472.51	1719.81
472.882	1739.93
473.253	1759.36
473.625	1788.74
473.997	1795.07
474.369	1819.7
474.74	1865.57
475.112	1925.68
475.484	1958
475.855	2009.98
476.227	2050.2
476.598	2109.86
476.97	2150.31
477.341	2198.22
477.713	2263.53
478.084	2277.76
478.455	2338.1
478.827	2407.93
479.198	2470.98
479.569	2511.88
479.94	2623.97
480.311	2640.92
480.682	2738.77
481.053	2803.85
481.424	2870.74
481.795	2910.06
482.166	3000.23
482.537	3066.9
482.908	3108.7
483.279	3198.19
483.65	3299.88
484.021	3378.75
484.391	3476.38
484.762	3526.77
485.133	3583.95
485.503	3691.97
485.874	3814.67
486.244	3857.61
486.615	3955.46
486.985	4030.49
487.356	4131.28
487.726	4279.07
488.097	4337.15
488.467	4453.3
488.837	4536.91
489.207	4623.69
489.578	4754.54
489.948	4822.1
490.318	4933.97
490.688	5028.65
491.058	5127.86
491.428	5217.12
491.798	5341.64
492.168	5456.44
492.538	5534.18
492.908	5631.12
493.278	5760.39
493.648	5831.34
494.017	5962.41
494.387	6067.04
494.757	6131.9
495.126	6259.13
495.496	6276.76
495.866	6440.59
496.235	6579.57
496.605	6599.91
496.974	6716.07
497.344	6829.74
497.713	6885.55
498.082	7015.04
498.452	7110.18
498.821	7204.64
499.19	7240.8
499.559	7333
499.928	7435.6
500.298	7487.35
500.667	7588.36
501.036	7682.82
501.405	7747.9
501.774	7779.54
502.143	7884.62
502.512	7954.45
502.88	8003.04
503.249	8121.68
503.618	8225.41
503.987	8330.71
504.356	8389.92
504.724	8455
505.093	8541.1
505.462	8560.99
505.83	8704.49
506.199	8768.44
506.567	8900.42
506.936	8958.95
507.304	9037.36
507.672	9141.99
508.041	9200.75
508.409	9190.58
508.777	9311.03
509.145	9447.07
509.514	9445.03
509.882	9532.94
510.25	9525.94
510.618	9645.93
510.986	9724.8
511.354	9775.42
511.722	9894.29
512.09	9974.51
512.458	9952.14
512.826	10131.8
513.193	10171.79
513.561	10183.09
513.929	10322.07
514.297	10336.08
514.664	10417.44
515.032	10527.27
515.4	10528.62
515.767	10579.47
516.135	10605.91
516.502	10589.18
516.869	10824.21
517.237	10827.82
517.604	10834.15
517.972	10954.82
518.339	11001.15
518.706	11003.86
519.073	11162.5
519.44	11183.97
519.808	11353.68
520.175	11293.12
520.542	11548.26
520.909	11500.12
521.276	11579.67
521.643	11727.23
522.009	11740.34
522.376	11743.73
522.743	11883.39
523.11	11984.4
523.477	12081.12
523.843	12149.14
524.21	12270.95
524.577	12308.46
524.943	12426.65
525.31	12426.88
525.676	12562.47
526.043	12599.08
526.409	12624.61
526.776	12871.38
527.142	12859.18
527.508	12940.08
527.874	13018.05
528.241	13030.25
528.607	13094.88
528.973	13234.99
529.339	13221.43
529.705	13390.47
530.071	13453.97
530.437	13505.27
530.803	13614.87
531.169	13744.81
531.535	13657.35
531.901	13711.36
532.267	13786.84
532.632	13898.02
532.998	13913.84
533.364	14074.29
533.73	14106.83
534.095	14202.42
534.461	14247.17
534.826	14263.44
535.192	14350.67
535.557	14507.27
535.923	14493.49
536.288	14584.33
536.653	14655.29
537.019	14552.92
537.384	14644.67
537.749	14711.11
538.114	14828.4
538.479	14845.8
538.845	14895.74
539.21	14893.93
539.575	14921.95
539.94	15000.14
540.305	15130.99
540.67	15090.54
541.034	15240.81
541.399	15276.52
541.764	15247.59
542.129	15366.23
542.494	15429.06
542.858	15542.5
543.223	15490.75
543.587	15617.08
543.952	15606.91
544.316	15733.91
544.681	15768.94
545.045	15805.09
545.41	15979.55
545.774	15967.35
546.138	16002.15
546.503	16132.99
546.867	16060
547.231	16256.38
547.595	16242.14
547.959	16233.33
548.324	16323.05
548.688	16335.47
549.052	16432.42
549.416	16460.67
549.779	16427.45
550.143	16519.2
550.507	16728.91
550.871	16742.92
551.235	16675.58
551.599	16871.51
551.962	16899.75
552.326	16939.3
552.689	17052.74
553.053	16961.67
553.417	17076.92
553.78	17275.56
554.143	17190.59
554.507	17341.78
554.87	17360.53
555.234	17534.31
555.597	17500.42
555.96	17525.27
556.323	17495.44
556.686	17742.22
557.05	17710.13
557.413	17716.91
557.776	17734.99
558.139	18046.16
558.502	17840.75
558.865	17944.92
559.228	18103.56
559.59	18168.87
559.953	18204.8
560.316	18421.97
560.679	18433.95
561.041	18533.38
561.404	18533.61
561.767	18692.93
562.129	18599.6
562.492	18794.17
562.854	18784.68
563.217	18788.52
563.579	18893.15
563.941	19051.56
564.304	19007.04
564.666	19147.15
565.028	19156.19
565.39	19289.07
565.753	19340.14
566.115	19423.08
566.477	19459.46
566.839	19501.72
567.201	19672.34
567.563	19691.77
567.925	19871.65
568.287	19873.23
568.648	19857.42
569.01	20030.74
569.372	20066.9
569.734	20015.83
570.095	20228.93
570.457	20317.97
570.819	20377.4
571.18	20355.26
571.542	20605.64
571.903	20540.34
572.265	20685.42
572.626	20686.09
572.987	20777.17
573.349	20861.01
573.71	20961.79
574.071	21079.53
574.432	21191.39
574.794	21386.87
575.155	21404.04
575.516	21364.04
575.877	21589.35
576.238	21768.78
576.599	21753.86
576.96	22025.72
577.32	22003.8
577.681	22249.67
578.042	22330.12
578.403	22410.57
578.763	22460.96
579.124	22682.2
579.485	22916.32
579.845	23082.64
580.206	23069.53
580.566	23253.26
580.927	23361.73
581.287	23626.36
581.648	23745
582.008	23946.12
582.368	23994.03
582.728	24168.26
583.089	24256.17
583.449	24359.67
583.809	24721.24
584.169	24924.63
584.529	24885.53
584.889	25336.59
585.249	25316.03
585.609	25380.21
585.969	25787.66
586.329	25868.78
586.688	26118.49
587.048	26279.17
587.408	26369.11
587.768	26664.47
588.127	26908.3
588.487	27015.19
588.846	27440.95
589.206	27290.21
589.565	27586.7
589.925	27975.85
590.284	27971.55
590.643	28292
591.003	28604.08
591.362	28874.81
591.721	28885.43
592.08	29123.84
592.44	29465.75
592.799	29558.86
593.158	29625.97
593.517	29988.67
593.876	30253.75
594.235	30296.69
594.593	30541.88
594.952	30754.3
595.311	30870.23
595.67	31166.72
596.029	31483.55
596.387	31677.22
596.746	31863.2
597.104	31827.95
597.463	31994.05
597.822	32276.07
598.18	32599.23
598.538	32562.17
598.897	33068.59
599.255	32814.36
599.613	33434.69
599.972	33419.77
600.33	33627.9
600.688	33660.22
601.046	33972.98
601.404	34299.3
601.762	34306.75
602.12	34526.63
602.478	34749.91
602.836	34837.36
603.194	34806.4
603.552	34998.71
603.91	35133.85
604.268	35477.8
604.625	35473.05
604.983	35779.48
605.341	35760.95
605.698	35983.09
606.056	36288.62
606.413	36349.41
606.771	36490.2
607.128	36511.22
607.485	36553.02
607.843	36695.17
608.2	37010.19
608.557	37203.17
608.914	37169.73
609.272	37416.73
609.629	37457.4
609.986	37788.92
610.343	37717.96
610.7	37958.41
611.057	38024.85
611.414	38143.94
611.771	38272.98
612.127	38541.22
612.484	38560.65
612.841	38810.59
613.198	38702.12
613.554	38898.72
613.911	39172.61
614.267	39044.48
614.624	39222.56
614.98	39380.07
615.337	39581.19
615.693	39526.96
616.05	39529.89
616.406	39892.14
616.762	39887.85
617.118	39839.72
617.475	39940.5
617.831	40095.75
618.187	40353.6
618.543	40327.39
618.899	40683.31
619.255	40575.97
619.611	40456.42
619.967	40758.56
620.323	40948.61
620.678	40924.88
621.034	40791.33
621.39	40907.03
621.746	40766.92
622.101	41341.14
622.457	41173.01
622.812	41217.08
623.168	41340.69
623.523	41299.11
623.879	41518.77
624.234	41364.87
624.589	41488.49
624.945	41513.34
625.3	41572.78
625.655	41419.11
626.01	41495.49
626.365	41649.61
626.72	41641.93
627.075	41674.02
627.43	41673.34
627.785	41700.01
628.14	41726.67
628.495	41860.9
628.85	41820.23
629.205	41795.14
629.559	41975.7
629.914	41869.94
630.269	41822.94
630.623	41740.91
630.978	41825.43
631.332	41911.3
631.687	42132.54
632.041	41988.36
632.396	41985.42
632.75	41775.71
633.104	41992.65
633.459	41720.34
633.813	41783.62
634.167	41765.31
634.521	41907.23
634.875	41937.97
635.229	42001.92
635.583	41746.56
635.937	41973.9
636.291	41840.34
636.645	41817.74
636.999	41853.67
637.352	41851.19
637.706	41542.5
638.06	41701.81
638.413	41733
638.767	41551.31
639.121	41815.26
639.474	41454.59
639.828	41453.23
640.181	41725.99
640.534	41672.89
640.888	41449.16
641.241	41337.98
641.594	41472.21
641.947	41549.73
642.301	41409.84
642.654	41503.4
643.007	41626.79
643.36	41481.71
643.713	41375.95
644.066	41490.29
644.419	41199.23
644.771	40991.55
645.124	40683.76
645.477	40677.43
645.83	40350.21
646.182	40350.89
646.535	40145.24
646.888	40291.45
647.24	40014.4
647.593	40356.54
647.945	40214.85
648.298	39973.72
648.65	39945.25
649.002	40010.56
649.355	40159.93
649.707	40058.01
650.059	40204.23
650.411	40682.86
650.763	40817.32
651.115	41152.9
651.467	40930.99
651.819	40927.37
652.171	40897.54
652.523	40828.62
652.875	40655.96
653.227	40683.99
653.578	40872.68
653.93	40848.95
654.282	40684.44
654.633	40639.02
654.985	40637.43
655.337	40587.72
655.688	40788.84
656.039	40733.03
656.391	40440.15
656.742	40554.05
657.094	40632.69
657.445	40764.89
657.796	40645.12
658.147	40481.73
658.498	40559.02
658.849	40579.81
659.2	40618.23
659.551	40484.67
659.902	40667.04
660.253	40528.96
660.604	40539.81
660.955	40340.04
661.306	40527.61
661.656	40551.79
662.007	40426.59
662.358	40464.56
662.708	40448.74
663.059	40441.06
663.409	40161.97
663.76	40477.44
664.11	40466.14
664.461	40475.63
664.811	40453.71
665.161	40460.72
665.511	40305.69
665.862	40436.08
666.212	40415.07
666.562	40357.22
666.912	40363.77
667.262	40372.13
667.612	40321.28
667.962	40390.21
668.312	40077.68
668.662	40479.25
669.011	40201.97
669.361	40209.42
669.711	40295.75
670.06	40127.17
670.41	40066.38
670.76	40153.61
671.109	40309.76
671.459	40153.83
671.808	40116.32
672.157	40215.98
672.507	39996.1
672.856	40100.73
673.205	40017.11
673.554	40210.55
673.904	39893.27
674.253	40283.32
674.602	39889.66
674.951	39501.42
675.3	39451.48
675.649	40017.79
675.998	39824.35
676.346	39931.92
676.695	40194.51
677.044	39755.65
677.393	40000.84
677.741	39898.47
678.09	39726.72
678.438	39736.67
678.787	39869.32
679.135	39839.26
679.484	39580.29
679.832	39708.65
680.181	39567.86
680.529	39595.65
680.877	39444.92
681.225	39512.04
681.573	39698.02
681.922	39355.89
682.27	39344.13
682.618	39285.38
682.966	39240.86
683.314	39151.82
683.661	39168.09
684.009	38931.94
684.357	38864.15
684.705	38784.15
685.053	38942.56
685.4	38799.52
685.748	38514.78
686.095	38559.75
686.443	38552.07
686.79	38435.23
687.138	38703.7
687.485	38472.07
687.832	38334.22
688.18	38373.77
688.527	38126.77
688.874	38236.59
689.221	38157.5
689.568	38003.61
689.915	38058.97
690.262	37989.59
690.609	37873.67
690.956	37816.72
691.303	37706.89
691.65	37597.97
691.997	37623.73
692.344	37253.12
692.69	37386.9
693.037	37336.96
693.383	37052.22
693.73	37168.37
694.077	36998.21
694.423	36868.27
694.769	36837.31
695.116	36781.49
695.462	36790.3
695.808	36623.75
696.155	36660.82
696.501	36296.08
696.847	36393.48
697.193	36074.39
697.539	36269.41
697.885	35972.7
698.231	35932.47
698.577	35929.54
698.923	36034.17
699.269	35709.43
699.614	35581.07
699.96	35400.74
700.306	35478.93
700.651	35410.91
700.997	35231.93
701.342	35195.77
701.688	35198.93
702.033	35028.32
702.379	35002.78
702.724	34916.91
703.069	34994.64
703.415	34668.78
703.76	34711.49
704.105	34651.6
704.45	34488.9
704.795	34367.77
705.14	34171.84
705.485	34309.69
705.83	34111.28
706.175	34088.68
706.52	33944.5
706.865	33918.97
707.209	33805.75
707.554	33700.22
707.899	34055.23
708.243	33688.01
708.588	33664.96
708.932	33440.79
709.277	33451.41
709.621	33534.34
709.966	33156.28
710.31	33363.73
710.654	33058.88
710.998	33046.45
711.342	33026.34
711.687	32881.93
712.031	32870.63
712.375	32617.31
712.719	32759.68
713.063	32726.23
713.407	32686.91
713.75	32490.53
714.094	32551.09
714.438	32474.94
714.782	32361.27
715.125	32208.28
715.469	32293.25
715.812	32187.49
716.156	31960.83
716.499	31953.82
716.843	32062.74
717.186	31815.75
717.53	31968.28
717.873	31884.9
718.216	31758.8
718.559	31719.93
718.902	31457.56
719.246	31603.55
719.589	31531.46
719.932	31447.39
720.275	31409.2
720.617	31312.48
720.96	31219.15
721.303	31239.26
721.646	31185.93
721.989	31159.49
722.331	31164.46
722.674	31036.78
723.016	31122.88
723.359	31078.36
723.701	31035.88
724.044	30873.4
724.386	30660.52
724.729	30884.24
725.071	30721.99
725.413	30798.6
725.755	30606.29
726.097	30521.99
726.439	30433.86
726.782	30450.58
727.124	30597.7
727.465	30333.52
727.807	30383.01
728.149	30254.88
728.491	30268.67
728.833	30216.24
729.175	30173.75
729.516	30125.39
729.858	29999.07
730.199	29988
730.541	30127.2
730.882	29925.4
731.224	29933.31
731.565	29792.75
731.906	29695.8
732.248	29849.47
732.589	29654.9
732.93	29619.42
733.271	29613.32
733.612	29537.16
733.953	29649.02
734.294	29478.41
734.635	29425.07
734.976	29456.03
735.317	29332.42
735.658	29370.39
735.999	29255.13
736.339	29257.17
736.68	29260.56
737.021	29271.18
737.361	29027.34
737.702	29226.89
738.042	29174.91
738.383	29045.65
738.723	29151.41
739.063	28985.99
739.404	29084.52
739.744	28747.13
740.084	28743.74
740.424	28727.46
740.764	28650.4
741.104	28909.38
741.444	28672.1
741.784	28479.11
742.124	28707.58
742.464	28530.41
742.804	28459
743.143	28438.21
743.483	28588.94
743.823	28200.25
744.162	28339.68
744.502	28333.58
744.841	28233.24
745.181	28370.64
745.52	28214.03
745.86	28159.57
746.199	28129.51
746.538	28142.62
746.877	28128.16
747.216	28210.19
747.556	27965.9
747.895	27978.11
748.234	27764.33
748.573	27748.28
748.911	27732.01
749.25	27790.09
749.589	27722.97
749.928	27679.58
750.267	27674.61
750.605	27639.13
750.944	27556.2
751.283	27440.04
751.621	27433.49
751.96	27308.75
752.298	27376.54
752.636	27325.24
752.975	27157.56
753.313	27079.15
753.651	27234.4
753.989	26986.95
754.327	27108.3
754.666	27010.67
755.004	27014.97
755.342	26911.47
755.679	26923.44
756.017	26748.53
756.355	26724.58
756.693	26677.8
757.031	26798.02
757.368	26478.94
757.706	26563.23
