Data from hue_24_FLMS001491_00030.txt Node
Date: Tue Feb 07 17:12:03 GMT 2017
User: dcchb
Spectrometer: FLMS00149
Trigger mode: 0
Integration Time (sec): 2.000000E-2
Scans to average: 10
Electric dark correction enabled: true
Nonlinearity correction enabled: false
Boxcar width: 0
XAxis mode: Wavelengths
Number of Pixels in Spectrum: 2048
>>>>>Begin Spectral Data<<<<<
341.393	-30.2
341.776	-30.2
342.16	-30.2
342.543	-87.82
342.927	-73.13
343.31	-70.2
343.693	-67.48
344.077	-56.64
344.46	-70.2
344.843	-57.09
345.226	-39.46
345.61	-23.64
345.993	-5.56
346.376	-24.32
346.759	24.94
347.142	13.19
347.525	39.41
347.908	61.78
348.291	74.89
348.674	102.23
349.057	98.16
349.44	129.8
349.823	142.45
350.206	148.33
350.588	185.62
350.971	208.89
351.354	216.58
351.737	210.93
352.119	231.27
352.502	283.02
352.884	284.6
353.267	274.65
353.65	277.37
354.032	294.54
354.414	318.49
354.797	302.9
355.179	307.87
355.562	334.54
355.944	322.56
356.326	347.19
356.709	328.21
357.091	365.95
357.473	334.54
357.855	346.74
358.238	351.04
358.62	356.46
359.002	326.86
359.384	339.28
359.766	344.71
360.148	341.09
360.53	342.67
360.912	355.1
361.294	343.35
361.676	327.99
362.057	322.79
362.439	347.42
362.821	338.38
363.203	339.06
363.584	345.84
363.966	338.61
364.348	320.08
364.729	327.53
365.111	350.13
365.493	319.85
365.874	326.63
366.256	327.53
366.637	321.21
367.019	305.16
367.4	329.79
367.781	316.69
368.163	314.43
368.544	292.05
368.925	306.97
369.306	322.11
369.688	311.71
370.069	313.75
370.45	324.14
370.831	305.39
371.212	306.29
371.593	320.75
371.974	302.45
372.355	323.24
372.736	303.58
373.117	314.65
373.498	324.14
373.879	306.52
374.26	299.51
374.641	315.33
375.021	320.75
375.402	330.02
375.783	324.82
376.163	316.23
376.544	323.24
376.925	325.05
377.305	330.92
377.686	336.57
378.066	344.48
378.447	328.89
378.827	327.31
379.208	333.41
379.588	332.28
379.968	349.45
380.349	344.48
380.729	322.34
381.109	348.32
381.489	346.06
381.87	345.16
382.25	350.36
382.63	348.55
383.01	332.28
383.39	348.55
383.77	332.73
384.15	351.49
384.53	341.54
384.91	341.09
385.29	338.61
385.67	350.36
386.049	348.55
386.429	353.75
386.809	359.4
387.189	348.1
387.568	343.58
387.948	357.14
388.328	356.91
388.707	365.72
389.087	368.21
389.466	361.66
389.846	353.52
390.225	380.19
390.605	347.65
390.984	376.57
391.363	363.47
391.743	396.68
392.122	379.06
392.501	364.82
392.881	381.09
393.26	372.05
393.639	377.02
394.018	378.83
394.397	368.89
394.776	397.36
395.155	374.99
395.534	395.33
395.913	392.39
396.292	391.71
396.671	377.02
397.05	369.11
397.429	372.96
397.808	399.17
398.186	402.56
398.565	399.17
398.944	391.26
399.323	423.35
399.701	403.92
400.08	388.78
400.458	414.99
400.837	396.68
401.215	408.21
401.594	407.31
401.972	396.23
402.351	400.3
402.729	401.2
403.107	416.57
403.486	407.76
403.864	419.96
404.242	412.05
404.62	413.41
404.999	430.81
405.377	428.1
405.755	436.68
406.133	412.96
406.511	423.35
406.889	427.87
407.267	454.31
407.645	443.24
408.023	452.05
408.401	452.95
408.779	447.08
409.156	464.93
409.534	454.99
409.912	448.21
410.29	460.86
410.667	460.19
411.045	453.86
411.422	469
411.8	472.84
412.178	468.32
412.555	478.49
412.933	480.07
413.31	485.27
413.687	479.17
414.065	481.43
414.442	485.04
414.819	491.37
415.197	494.08
415.574	499.51
415.951	509.22
416.328	520.3
416.705	481.65
417.082	499.05
417.46	538.38
417.837	508.09
418.214	510.81
418.591	541.31
418.967	525.27
419.344	514.42
419.721	550.8
420.098	544.93
420.475	525.49
420.852	525.49
421.228	532.27
421.605	528.88
421.982	541.09
422.358	552.61
422.735	541.99
423.111	558.04
423.488	554.87
423.864	553.97
424.241	551.93
424.617	584.7
424.994	571.82
425.37	579.96
425.746	561.65
426.123	563.69
426.499	571.6
426.875	591.71
427.251	620.86
427.627	601.42
428.003	623.57
428.379	614.76
428.756	616.11
429.132	623.12
429.507	640.75
429.883	626.96
430.259	651.82
430.635	647.07
431.011	646.17
431.387	633.29
431.763	653.4
432.138	672.61
432.514	669.45
432.89	689.11
433.265	679.84
433.641	683.68
434.016	690.46
434.392	683.68
434.767	715.55
435.143	684.36
435.518	710.12
435.894	697.24
436.269	708.77
436.644	725.04
437.02	715.09
437.395	745.6
437.77	754.42
438.145	746.05
438.52	754.42
438.895	761.87
439.271	767.07
439.646	765.94
440.021	788.09
440.395	782.44
440.77	764.13
441.145	779.95
441.52	800.74
441.895	774.75
442.27	813.4
442.645	813.17
443.019	807.75
443.394	806.84
443.769	810.46
444.143	802.32
444.518	824.7
444.892	811.14
445.267	815.88
445.641	839.84
446.016	849.1
446.39	827.63
446.764	838.93
447.139	824.02
447.513	863.79
447.887	848.42
448.262	881.64
448.636	855.88
449.01	874.41
449.384	887.97
449.758	864.69
450.132	879.16
450.506	891.13
450.88	881.42
451.254	907.86
451.628	890.46
452.002	938.59
452.376	925.48
452.75	956.9
453.123	958.7
453.497	947.18
453.871	955.54
454.244	977.46
454.618	993.73
454.992	985.14
455.365	1000.74
455.739	1033.05
456.112	1030.79
456.486	1000.74
456.859	1043.22
457.232	1029.21
457.606	1038.02
457.979	1053.62
458.352	1084.8
458.725	1090.45
459.099	1078.7
459.472	1131.81
459.845	1125.03
460.218	1123.22
460.591	1122.54
460.964	1137.46
461.337	1157.12
461.71	1169.55
462.083	1194.86
462.456	1222.2
462.829	1209.77
463.201	1244.8
463.574	1214.06
463.947	1236.89
464.32	1260.39
464.692	1264.01
465.065	1264.68
465.438	1319.37
465.81	1305.81
466.183	1330.9
466.555	1375.19
466.928	1381.97
467.3	1386.71
467.672	1414.06
468.045	1419.71
468.417	1435.08
468.789	1444.11
469.161	1442.31
469.534	1486.83
469.906	1522.53
470.278	1512.59
470.65	1552.81
471.022	1548.74
471.394	1605.47
471.766	1594.39
472.138	1635.97
472.51	1641.17
472.882	1672.81
473.253	1703.09
473.625	1719.81
473.997	1757.33
474.369	1750.55
474.74	1802.52
475.112	1805.69
475.484	1890.66
475.855	1891.79
476.227	1927.27
476.598	1978.56
476.97	1987.83
477.341	2034.61
477.713	2055.62
478.084	2065.57
478.455	2155.06
478.827	2176.98
479.198	2213.13
479.569	2228.27
479.94	2288.16
480.311	2324.32
480.682	2340.59
481.053	2432.11
481.424	2444.31
481.795	2516.85
482.166	2539
482.537	2574.71
482.908	2625.33
483.279	2692.67
483.65	2729.28
484.021	2780.12
484.391	2794.81
484.762	2868.71
485.133	2902.61
485.503	2944.64
485.874	2980.35
486.244	3090.4
486.615	3099.21
486.985	3134.47
487.356	3241.58
487.726	3249.04
488.097	3339.88
488.467	3352.99
488.837	3447.68
489.207	3527.22
489.578	3527.22
489.948	3569.48
490.318	3617.16
490.688	3642.02
491.058	3716.37
491.428	3764.73
491.798	3858.29
492.168	3865.75
492.538	3904.84
492.908	3959.3
493.278	4025.06
493.648	4058.28
494.017	4104.16
494.387	4185.29
494.757	4180.09
495.126	4244.27
495.496	4249.46
495.866	4329.01
496.235	4363.36
496.605	4374.21
496.974	4425.73
497.344	4507.08
497.713	4478.16
498.082	4563.13
498.452	4586.4
498.821	4604.94
499.19	4655.1
499.559	4698.72
499.928	4738.49
500.298	4772.84
500.667	4794.76
501.036	4773.29
501.405	4865.04
501.774	4868.66
502.143	4902.1
502.512	4908.88
502.88	4994.3
503.249	4981.42
503.618	5011.25
503.987	5029.56
504.356	5067.52
504.724	5107.97
505.093	5163.11
505.462	5178.93
505.83	5194.75
506.199	5253.51
506.567	5325.59
506.936	5270
507.304	5349.55
507.672	5386.16
508.041	5401.52
508.409	5438.59
508.777	5487.4
509.145	5507.96
509.514	5512.48
509.882	5504.57
510.25	5544.12
510.618	5593.38
510.986	5611.46
511.354	5655.08
511.722	5683.55
512.09	5708.18
512.458	5732.36
512.826	5770.1
513.193	5754.51
513.561	5798.35
513.929	5819.82
514.297	5873.15
514.664	5878.8
515.032	5917.22
515.4	5921.28
515.767	5983.43
516.135	5992.92
516.502	5965.8
516.869	6054.84
517.237	6091.68
517.604	6104.78
517.972	6114.05
518.339	6183.65
518.706	6182.3
519.073	6164.89
519.44	6204.67
519.808	6248.96
520.175	6231.56
520.542	6370.76
520.909	6364.21
521.276	6375.51
521.643	6380.26
522.009	6466.13
522.376	6509.29
522.743	6508.61
523.11	6561.27
523.477	6683.75
523.843	6617.76
524.21	6657.54
524.577	6695.05
524.943	6782.96
525.31	6760.13
525.676	6812.56
526.043	6859.34
526.409	6922.84
526.776	6963.07
527.142	6977.08
527.508	7030.41
527.874	7092.33
528.241	7041.71
528.607	7101.82
528.973	7230.4
529.339	7191.31
529.705	7265.2
530.071	7321.47
530.437	7300.91
530.803	7402.6
531.169	7458.42
531.535	7386.33
531.901	7504.97
532.267	7543.16
532.632	7517.4
532.998	7585.42
533.364	7556.72
533.73	7643.5
534.095	7693.22
534.461	7710.39
534.826	7767.34
535.192	7863.83
535.557	7916.94
535.923	7838.3
536.288	7890.27
536.653	7900.67
537.019	7861.57
537.384	7950.84
537.749	8006.2
538.114	7970.04
538.479	8029.7
538.845	8121.23
539.21	7986.09
539.575	8080.55
539.94	8111.96
540.305	8236.25
540.67	8251.85
541.034	8238.74
541.399	8274.44
541.764	8278.96
542.129	8275.57
542.494	8379.3
542.858	8487.77
543.223	8415.23
543.587	8499.07
543.952	8441.67
544.316	8570.25
544.681	8576.81
545.045	8595.56
545.41	8686.64
545.774	8626.75
546.138	8673.08
546.503	8740.65
546.867	8739.29
547.231	8804.37
547.595	8785.84
547.959	8863.58
548.324	8806.63
548.688	8871.04
549.052	8927.76
549.416	8986.97
549.779	8955.56
550.143	8997.81
550.507	9062.22
550.871	9020.64
551.235	9087.53
551.599	9146.28
551.962	9114.65
552.326	9173.4
552.689	9292.72
553.053	9203.91
553.417	9278.48
553.78	9321.87
554.143	9361.65
554.507	9414.98
554.87	9410.68
555.234	9513.96
555.597	9474.41
555.96	9494.75
556.323	9561.19
556.686	9516.22
557.05	9640.74
557.413	9615.43
557.776	9586.5
558.139	9790.79
558.502	9724.57
558.865	9756.44
559.228	9862.88
559.59	9836.89
559.953	9834.63
560.316	9924.57
560.679	9997.34
561.041	10041.85
561.404	10135.41
561.767	10078.01
562.129	10062.87
562.492	10225.13
562.854	10211.34
563.217	10158.69
563.579	10215.86
563.941	10223.32
564.304	10242.53
564.666	10371.34
565.028	10395.97
565.39	10371.56
565.753	10466.7
566.115	10497.66
566.477	10528.62
566.839	10518
567.201	10692.23
567.563	10570.65
567.925	10692.46
568.287	10786.24
568.648	10727.26
569.01	10848.61
569.372	10852.68
569.734	10872.57
570.095	10909.18
570.457	10990.53
570.819	11023.3
571.18	11021.94
571.542	11132
571.903	11133.8
572.265	11204.76
572.626	11279.56
572.987	11300.35
573.349	11389.16
573.71	11395.72
574.071	11476.62
574.432	11505.32
574.794	11640.46
575.155	11590.74
575.516	11657.86
575.877	11874.8
576.238	11833.22
576.599	11948.25
576.96	12007.9
577.32	12072.31
577.681	12107.34
578.042	12174.45
578.403	12329.93
578.763	12485.63
579.124	12539.42
579.485	12662.58
579.845	12747.77
580.206	12870.25
580.566	12938.95
580.927	13098.5
581.287	13277.25
581.648	13309.34
582.008	13508.66
582.368	13590.91
582.728	13763.34
583.089	13847.86
583.449	14033.61
583.809	14247.39
584.169	14351.35
584.529	14515.41
584.889	14773.03
585.249	14948.62
585.609	15080.14
585.969	15302.73
586.329	15482.39
586.688	15757.18
587.048	15969.83
587.408	16062.71
587.768	16292.76
588.127	16591.51
588.487	16806.42
588.846	17120.31
589.206	17242.57
589.565	17554.88
589.925	17865.83
590.284	18122.77
590.643	18383.33
591.003	18743.09
591.362	18953.26
591.721	19154.16
592.08	19556.86
592.44	19718.66
592.799	20033.23
593.158	20282.94
593.517	20619.2
593.876	20988.69
594.235	21207.89
594.593	21413.08
594.952	21870.92
595.311	22104.59
595.67	22455.31
596.029	22851.91
596.387	23245.58
596.746	23577.54
597.104	23662.74
597.463	24023.63
597.822	24476.28
598.18	24451.42
598.538	24876.49
598.897	25241.23
599.255	25453.43
599.613	26014.32
599.972	26175.67
600.33	26517.81
600.688	26755.77
601.046	27167.73
601.404	27633.26
601.762	27770.88
602.12	28240.25
602.478	28538.54
602.836	28710.52
603.194	28795.49
603.552	29209.03
603.91	29381.46
604.268	29779.19
604.625	29859.41
604.983	30314.99
605.341	30373.07
605.698	30898.71
606.056	31126.72
606.413	31492.36
606.771	31672.02
607.128	31990.88
607.485	32095.06
607.843	32441.72
608.2	32803.52
608.557	32991.76
608.914	33126.22
609.272	33623.83
609.629	33872.41
609.986	34106.53
610.343	34158.96
610.7	34651.6
611.057	34757.59
611.414	34930.69
611.771	35231.7
612.127	35649.32
612.484	35678.92
612.841	36115.75
613.198	35935.19
613.554	36251.79
613.911	36561.61
614.267	36698.78
614.624	36914.59
614.98	37047.02
615.337	37334.7
615.693	37521.58
616.05	37589.83
616.406	37952.31
616.762	37902.82
617.118	37991.18
617.475	38250.83
617.831	38407.44
618.187	38573.31
618.543	38770.82
618.899	39076.57
619.255	39039.06
619.611	39301.2
619.967	39503.9
620.323	39644.24
620.678	39657.57
621.034	39727.4
621.39	39793.84
621.746	39757.23
622.101	40333.04
622.457	40093.04
622.812	40221.63
623.168	40485.12
623.523	40690.77
623.879	40876.98
624.234	40634.04
624.589	40909.29
624.945	40970.98
625.3	41058.44
625.655	41065.22
626.01	41292.33
626.365	41339.11
626.72	41346.34
627.075	41486.45
627.43	41556.51
627.785	41422.27
628.14	41632.66
628.495	41705.65
628.85	41780.23
629.205	41630.4
629.559	42166.66
629.914	41756.95
630.269	41933.22
630.623	41873.79
630.978	41865.65
631.332	41994.46
631.687	42144.29
632.041	42045.53
632.396	42216.83
632.75	41940.9
633.104	42151.07
633.459	41961.69
633.813	41907.91
634.167	42143.38
634.521	42133.44
634.875	42210.05
635.229	42238.75
635.583	42179.54
635.937	41985.42
636.291	42055.25
636.645	42038.98
636.999	41944.52
637.352	42204.85
637.706	41987.68
638.06	42189.94
638.413	42106.77
638.767	42151.29
639.121	42104.29
639.474	41843.96
639.828	42006.44
640.181	42058.87
640.534	42107.68
640.888	42010.28
641.241	41676.28
641.594	42057.96
641.947	42081.92
642.301	41967.12
642.654	41994.91
643.007	41993.78
643.36	41931.86
643.713	41941.35
644.066	42112.65
644.419	41914.69
644.771	41636.96
645.124	41259.79
645.477	41268.15
645.83	41047.37
646.182	40984.54
646.535	40829.52
646.888	40944.54
647.24	40722.63
647.593	40904.32
647.945	40766.47
648.298	40637.21
648.65	40671.11
649.002	40542.3
649.355	40692.12
649.707	40719.01
650.059	40984.77
650.411	41312.9
650.763	41351.09
651.115	41822.49
651.467	41712.43
651.819	41638.09
652.171	41511.54
652.523	41398.32
652.875	41363.29
653.227	41351.31
653.578	41697.97
653.93	41563.06
654.282	41423.63
654.633	41395.15
654.985	41329.17
655.337	41521.25
655.688	41532.33
656.039	41534.59
656.391	41185.67
656.742	41306.34
657.094	41291.2
657.445	41552.21
657.796	41259.79
658.147	41311.54
658.498	41309.73
658.849	41295.72
659.2	41319.9
659.551	41220.92
659.902	41251.66
660.253	41132.34
660.604	41212.79
660.955	41155.61
661.306	41323.07
661.656	41294.59
662.007	41156.29
662.358	41167.59
662.708	41240.13
663.059	41222.28
663.409	40954.49
663.76	41224.31
664.11	41296.17
664.461	41304.54
664.811	41341.37
665.161	41212.33
665.511	41129.62
665.862	41261.6
666.212	41301.15
666.562	41251.43
666.912	41040.36
667.262	41145.67
667.612	41106.8
667.962	41229.96
668.312	41025.22
668.662	41284.87
669.011	41233.58
669.361	41072.23
669.711	40962.62
670.06	40960.59
670.41	40949.97
670.76	40980.93
671.109	41132.11
671.459	40908.16
671.808	40905.68
672.157	40944.09
672.507	40649.64
672.856	40733.93
673.205	40834.49
673.554	41072.9
673.904	40740.26
674.253	40981.15
674.602	40868.61
674.951	40330.1
675.3	40129.88
675.649	40817.54
675.998	40721.27
676.346	40673.14
676.695	40754.49
677.044	40426.82
677.393	40706.13
677.741	40707.94
678.09	40613.71
678.438	40638.11
678.787	40760.59
679.135	40662.97
679.484	40394.95
679.832	40498.68
680.181	40347.27
680.529	40432.69
680.877	40333.94
681.225	40270.66
681.573	40554.27
681.922	40188.41
682.27	40048.07
682.618	40153.61
682.966	40013.95
683.314	40060.73
683.661	39992.71
684.009	39726.72
684.357	39702.54
684.705	39624.35
685.053	39738.47
685.4	39626.84
685.748	39454.87
686.095	39534.41
686.443	39419.61
686.79	39215.1
687.138	39308.2
687.485	39453.96
687.832	39243.35
688.18	39414.64
688.527	38832.96
688.874	39029.57
689.221	38840.87
689.568	38934.88
689.915	38814.88
690.262	38848.78
690.609	38628
690.956	38585.96
691.303	38489.24
691.65	38411.28
691.997	38289.7
692.344	38156.6
692.69	38096.03
693.037	38018.97
693.383	37785.08
693.73	37903.72
694.077	37620.79
694.423	37724.29
694.769	37617.63
695.116	37515.71
695.462	37401.59
695.808	37460.79
696.155	37447.46
696.501	37166.79
696.847	37154.81
697.193	36903.07
697.539	37003.63
697.885	36795.5
698.231	36681.83
698.577	36733.58
698.923	36659.46
699.269	36549.63
699.614	36378.79
699.96	36245.69
700.306	36183.99
700.651	36149.42
700.997	36100.6
701.342	36000.49
701.688	35846.15
702.033	35712.14
702.379	35704.23
702.724	35607.28
703.069	35723.67
703.415	35334.07
703.76	35337.23
704.105	35386.27
704.45	35280.29
704.795	35186.05
705.14	34888.43
705.485	34920.07
705.83	34740.87
706.175	34915.78
706.52	34789.45
706.865	34698.38
707.209	34581.1
707.554	34521.66
707.899	34540.87
708.243	34329.58
708.588	34261.56
708.932	34053.65
709.277	34071.73
709.621	34115.35
709.966	33906.99
710.31	33756.03
710.654	33677.39
710.998	33797.39
711.342	33707.67
711.687	33606.88
712.031	33458.41
712.375	33357.4
712.719	33495.7
713.063	33328.25
713.407	33518.98
713.75	33248.48
714.094	33251.87
714.438	33128.93
714.782	33031.08
715.125	32918.54
715.469	33135.94
715.812	32886
716.156	32726.46
716.499	32720.35
716.843	32800.13
717.186	32501.83
717.53	32663.18
717.873	32595.39
718.216	32532.79
718.559	32466.12
718.902	32286.02
719.246	32357.43
719.589	32175.74
719.932	32052.35
720.275	32151.33
720.617	32022.97
720.96	32030.43
721.303	31923.99
721.646	31986.36
721.989	31846.25
722.331	31786.59
722.674	31710.44
723.016	31832.02
723.359	31730.55
723.701	31746.37
724.044	31495.75
724.386	31331.46
724.729	31572.81
725.071	31400.39
725.413	31208.98
725.755	31407.17
726.097	31297.57
726.439	30998.14
726.782	31015.99
727.124	31260.28
727.465	30980.74
727.807	30959.95
728.149	30897.58
728.491	30803.34
728.833	30874.08
729.175	30699.16
729.516	30682.22
729.858	30786.39
730.199	30727.41
730.541	30663.69
730.882	30618.71
731.224	30612.16
731.565	30368.78
731.906	30413.52
732.248	30453.3
732.589	30244.94
732.93	30333.98
733.271	30248.33
733.612	30171.04
733.953	30318.38
734.294	30119.52
734.635	30077.03
734.976	30032.74
735.317	29958.85
735.658	29896.7
735.999	30046.3
736.339	30020.76
736.68	30077.71
737.021	29891.5
737.361	29645.18
737.702	29937.83
738.042	29740.09
738.383	29638.4
738.723	29722.02
739.063	29701.45
739.404	29627.55
739.744	29522.47
740.084	29477.05
740.424	29523.6
740.764	29301.91
741.104	29632.75
741.444	29235.47
741.784	29279.09
742.124	29365.87
742.464	29243.38
742.804	29237.73
743.143	29080.22
743.483	29135.36
743.823	29112.77
744.162	29037.06
744.502	29153.67
744.841	28868.25
745.181	28970.17
745.52	28898.08
745.86	28912.09
746.199	28812.43
746.538	28700.8
746.877	28858.31
747.216	28813.79
747.556	28642.5
747.895	28791.87
748.234	28588.94
748.573	28576.96
748.911	28556.62
749.25	28494.25
749.589	28301.71
749.928	28406.12
750.267	28435.95
750.605	28367.93
750.944	28292
751.283	28183.3
751.621	28228.04
751.96	28146.24
752.298	28211.09
752.636	28148.27
752.975	27949.18
753.313	27944.43
753.651	27977.43
753.989	27828.51
754.327	27780.37
754.666	27646.59
755.004	27724.33
755.342	27748.28
755.679	27570.89
756.017	27452.7
756.355	27591.22
756.693	27521.17
757.031	27613.6
757.368	27251.12
757.706	27402.98
758.044	27253.61
758.381	27254.51
758.719	27058.13
759.056	27109.43
