Data from hue_240_FLMS001491_00085.txt Node
Date: Tue Feb 07 16:36:04 GMT 2017
User: dcchb
Spectrometer: FLMS00149
Trigger mode: 0
Integration Time (sec): 2.000000E-2
Scans to average: 10
Electric dark correction enabled: true
Nonlinearity correction enabled: false
Boxcar width: 0
XAxis mode: Wavelengths
Number of Pixels in Spectrum: 2048
>>>>>Begin Spectral Data<<<<<
341.393	7.03
341.776	7.03
342.16	7.03
342.543	-55.79
342.927	-72.96
343.31	-75.22
343.693	-56.02
344.077	-58.95
344.46	-49.24
344.843	-74.55
345.226	-40.2
345.61	-37.03
345.993	-27.54
346.376	6.13
346.759	14.72
347.142	25.11
347.525	35.73
347.908	40.03
348.291	84.32
348.674	100.59
349.057	112.12
349.44	128.84
349.823	141.27
350.206	154.83
350.588	200.47
350.971	197.99
351.354	216.29
351.737	230.3
352.119	228.04
352.502	262.62
352.884	270.08
353.267	277.54
353.65	263.3
354.032	277.99
354.414	304.2
354.797	305.78
355.179	307.59
355.562	316.63
355.944	331.54
356.326	342.17
356.709	324.09
357.091	323.86
357.473	322.96
357.855	327.03
358.238	336.74
358.62	350.53
359.002	335.16
359.384	327.48
359.766	341.26
360.148	318.21
360.53	341.04
360.912	329.29
361.294	332.67
361.676	312.11
362.057	336.06
362.439	328.83
362.821	325.44
363.203	316.4
363.584	323.41
363.966	321.6
364.348	308.72
364.729	311.21
365.111	324.77
365.493	320.02
365.874	306.69
366.256	315.73
366.637	321.6
367.019	297.42
367.4	310.08
367.781	298.1
368.163	289.96
368.544	303.07
368.925	296.52
369.306	310.3
369.688	309.17
370.069	305.1
370.45	312.34
370.831	313.92
371.212	310.75
371.593	327.93
371.974	309.17
372.355	313.92
372.736	319.57
373.117	300.59
373.498	322.73
373.879	306.91
374.26	323.18
374.641	314.6
375.021	309.85
375.402	318.89
375.783	324.31
376.163	314.14
376.544	330.64
376.925	315.27
377.305	303.98
377.686	327.7
378.066	327.93
378.447	303.3
378.827	314.37
379.208	311.66
379.588	337.87
379.968	325.67
380.349	328.38
380.729	335.39
381.109	343.75
381.489	328.61
381.87	337.42
382.25	341.26
382.63	333.58
383.01	332.22
383.39	349.62
383.77	347.82
384.15	346.91
384.53	340.13
384.91	343.97
385.29	340.36
385.67	323.86
386.049	317.08
386.429	366.57
386.809	340.13
387.189	325.22
387.568	328.16
387.948	367.25
388.328	350.75
388.707	353.92
389.087	327.48
389.466	355.73
389.846	341.94
390.225	364.09
390.605	357.31
390.984	364.31
391.363	354.14
391.743	354.6
392.122	344.65
392.501	367.25
392.881	362.5
393.26	360.02
393.639	380.81
394.018	374.26
394.397	351.88
394.776	383.3
395.155	375.16
395.534	373.35
395.913	348.49
396.292	392.79
396.671	379
397.05	389.62
397.429	401.37
397.808	383.3
398.186	387.14
398.565	395.05
398.944	403.41
399.323	395.27
399.701	385.55
400.08	411.77
400.458	416.97
400.837	416.29
401.215	410.19
401.594	395.5
401.972	412.67
402.351	412.67
402.729	423.07
403.107	432.33
403.486	404.99
403.864	420.13
404.242	437.53
404.62	433.46
404.999	430.53
405.377	436.17
405.755	445.67
406.133	459.45
406.511	441.82
406.889	441.15
407.267	459.45
407.645	445.21
408.023	458.77
408.401	464.87
408.779	469.62
409.156	465.55
409.534	451.32
409.912	470.75
410.29	484.54
410.667	496.96
411.045	493.57
411.422	489.28
411.8	485.44
412.178	506
412.555	500.58
412.933	527.47
413.31	532.9
413.687	516.62
414.065	536.51
414.442	542.39
414.819	564.31
415.197	561.82
415.574	586.23
415.951	568.83
416.328	573.12
416.705	595.72
417.082	579
417.46	582.61
417.837	604.31
418.214	607.7
418.591	607.47
418.967	622.84
419.344	633.01
419.721	619.45
420.098	638.43
420.475	623.51
420.852	636.4
421.228	653.57
421.605	661.93
421.982	648.82
422.358	640.92
422.735	687.92
423.111	690.86
423.488	701.03
423.864	709.16
424.241	734.02
424.617	742.61
424.994	726.79
425.37	735.6
425.746	769.73
426.123	737.18
426.499	756.39
426.875	768.82
427.251	796.39
427.627	801.36
428.003	789.84
428.379	817.41
428.756	806.79
429.132	828.71
429.507	842.27
429.883	833.45
430.259	852.66
430.635	892.66
431.011	871.19
431.387	882.72
431.763	887.24
432.138	909.83
432.514	922.26
432.89	932.43
433.265	945.09
433.641	956.61
434.016	959.1
434.392	1005.2
434.767	995.26
435.143	1004.3
435.518	1032.77
435.894	1035.26
436.269	1039.77
436.644	1071.86
437.02	1078.42
437.395	1083.84
437.77	1077.06
438.145	1126.78
438.52	1129.49
438.895	1143.28
439.271	1155.03
439.646	1196.61
440.021	1227.11
440.395	1220.56
440.77	1207.45
441.145	1220.34
441.52	1222.59
441.895	1243.84
442.27	1259.66
442.645	1275.47
443.019	1286.1
443.394	1275.93
443.769	1291.75
444.143	1295.14
444.518	1343.04
444.892	1306.43
445.267	1337.62
445.641	1346.66
446.016	1360.22
446.39	1352.31
446.764	1359.99
447.139	1371.07
447.513	1361.12
447.887	1385.98
448.262	1399.09
448.636	1390.73
449.01	1433.21
449.384	1433.66
449.758	1463.72
450.132	1465.07
450.506	1487.9
450.88	1474.79
451.254	1479.54
451.628	1485.19
452.002	1514.56
452.376	1505.98
452.75	1549.14
453.123	1569.03
453.497	1552.53
453.871	1581.91
454.244	1630.27
454.618	1604.73
454.992	1626.43
455.365	1637.95
455.739	1676.59
456.112	1669.81
456.486	1706.2
456.859	1730.38
457.232	1723.15
457.606	1746.65
457.979	1795.01
458.352	1766.99
458.725	1833.65
459.099	1817.61
459.472	1859.87
459.845	1872.07
460.218	1868.91
460.591	1866.42
460.964	1868.23
461.337	1931.95
461.71	1962.91
462.083	1982.57
462.456	2020.54
462.829	1981.67
463.201	2038.17
463.574	2018.51
463.947	2079.52
464.32	2083.59
464.692	2130.14
465.065	2162.68
465.438	2144.6
465.81	2176.92
466.183	2152.74
466.555	2222.34
466.928	2255.11
467.3	2251.27
467.672	2308.44
468.045	2347.54
468.417	2360.42
468.789	2399.29
469.161	2359.97
469.534	2407.87
469.906	2491.04
470.278	2480.87
470.65	2531.04
471.022	2533.97
471.394	2597.93
471.766	2603.12
472.138	2627.53
472.51	2689
472.882	2712.73
473.253	2719.5
473.625	2795.43
473.997	2847.19
474.369	2840.18
474.74	2870.91
475.112	2921.53
475.484	2959.05
475.855	3006.73
476.227	3025.26
476.598	3081.76
476.97	3088.31
477.341	3159.04
477.713	3194.97
478.084	3185.48
478.455	3301.41
478.827	3326.72
479.198	3402.42
479.569	3411.46
479.94	3490.78
480.311	3544.79
480.682	3552.7
481.053	3664.34
481.424	3656.66
481.795	3746.6
482.166	3798.12
482.537	3833.6
482.908	3870.21
483.279	3911.56
483.65	3946.14
484.021	3980.26
484.391	4034.95
484.762	4115.4
485.133	4131.22
485.503	4198.34
485.874	4243.31
486.244	4288.73
486.615	4355.17
486.985	4392.91
487.356	4520.59
487.726	4505.9
488.097	4608.72
488.467	4599.68
488.837	4637.87
489.207	4720.36
489.578	4758.55
489.948	4793.12
490.318	4879.9
490.688	4915.38
491.058	4909.96
491.428	4985.21
491.798	5018.2
492.168	5104.3
492.538	5139.33
492.908	5204.64
493.278	5208.03
493.648	5219.55
494.017	5276.27
494.387	5289.15
494.757	5387.46
495.126	5392.88
495.496	5416.38
495.866	5472.2
496.235	5515.59
496.605	5549.71
496.974	5573.22
497.344	5605.76
497.713	5608.24
498.082	5648.92
498.452	5718.3
498.821	5712.42
499.19	5750.16
499.559	5815.02
499.928	5789.48
500.298	5831.74
500.667	5896.82
501.036	5873.55
501.405	5930.49
501.774	5989.25
502.143	5993.32
502.512	6000.1
502.88	6013.66
503.249	5997.16
503.618	6022.69
503.987	6100.88
504.356	6051.62
504.724	6102.92
505.093	6181.33
505.462	6123.48
505.83	6147.89
506.199	6224.72
506.567	6262.91
506.936	6232.86
507.304	6324.38
507.672	6274.21
508.041	6346.75
508.409	6368.9
508.777	6385.4
509.145	6466.75
509.514	6410.93
509.882	6438.95
510.25	6437.83
510.618	6524.6
510.986	6478.95
511.354	6529.35
511.722	6586.52
512.09	6599.18
512.458	6554.66
512.826	6627.42
513.193	6666.52
513.561	6576.13
513.929	6675.33
514.297	6747.42
514.664	6776.12
515.032	6710.81
515.4	6799.62
515.767	6742.9
516.135	6803.01
516.502	6763.47
516.869	6836.01
517.237	6839.4
517.604	6838.27
517.972	6800.53
518.339	6880.3
518.706	6884.59
519.073	6860.64
519.44	6859.28
519.808	6904.71
520.175	6981.54
520.542	7031.71
520.909	7017.02
521.276	6992.84
521.643	7067.64
522.009	7127.52
522.376	7093.63
522.743	7133.63
523.11	7126.39
523.477	7201.42
523.843	7171.59
524.21	7200.74
524.577	7221.08
524.943	7183.57
525.31	7252.04
525.676	7271.02
526.043	7289.55
526.409	7306.28
526.776	7331.59
527.142	7315.54
527.508	7368.2
527.874	7393.96
528.241	7396.22
528.607	7385.82
528.973	7448.65
529.339	7382.43
529.705	7442.77
530.071	7508.76
530.437	7452.94
530.803	7513.95
531.169	7451.36
531.535	7497.01
531.901	7477.8
532.267	7485.71
532.632	7473.05
532.998	7500.62
533.364	7445.93
533.73	7561.64
534.095	7536.33
534.461	7485.48
534.826	7558.25
535.192	7559.83
535.557	7566.83
535.923	7484.58
536.288	7525.48
536.653	7547.4
537.019	7525.71
537.384	7446.39
537.749	7553.28
538.114	7491.81
538.479	7478.25
538.845	7490.68
539.21	7443
539.575	7502.88
539.94	7432.6
540.305	7458.82
540.67	7417.69
541.034	7449.1
541.399	7466.5
541.764	7490
542.129	7473.73
542.494	7445.03
542.858	7410.23
543.223	7455.65
543.587	7413.62
543.952	7350.8
544.316	7394.64
544.681	7401.87
545.045	7387.86
545.41	7451.58
545.774	7464.69
546.138	7394.64
546.503	7366.84
546.867	7396.67
547.231	7369.78
547.595	7395.77
547.959	7403
548.324	7344.92
548.688	7354.19
549.052	7341.53
549.416	7360.29
549.779	7361.64
550.143	7373.17
550.507	7386.27
550.871	7298.59
551.235	7318.71
551.599	7300.4
551.962	7295.43
552.326	7303.34
552.689	7370.23
553.053	7327.75
553.417	7297.46
553.78	7311.02
554.143	7277.58
554.507	7305.37
554.87	7313.51
555.234	7330.91
555.597	7292.04
555.96	7254.53
556.323	7289.78
556.686	7372.04
557.05	7355.32
557.413	7336.78
557.776	7404.81
558.139	7360.29
558.502	7347.86
558.865	7382.21
559.228	7361.42
559.59	7375.2
559.953	7404.13
560.316	7480.96
560.679	7439.61
561.041	7424.69
561.404	7478.25
561.767	7464.69
562.129	7403.68
562.492	7498.36
562.854	7468.53
563.217	7435.31
563.579	7475.31
563.941	7547.63
564.304	7509.44
564.666	7588.98
565.028	7541.07
565.39	7550.11
565.753	7634.86
566.115	7614.29
566.477	7656.1
566.839	7645.02
567.201	7749.65
567.563	7686.83
567.925	7732.48
568.287	7724.34
568.648	7747.4
569.01	7780.84
569.372	7792.37
569.734	7736.1
570.095	7865.81
570.457	7831.01
570.819	7879.82
571.18	7858.35
571.542	7934.73
571.903	7857
572.265	7908.52
572.626	7938.58
572.987	7952.59
573.349	8004.34
573.71	7928.63
574.071	7996.2
574.432	8010.44
574.794	8073.71
575.155	8094.5
575.516	8040.95
575.877	8113.49
576.238	8084.34
576.599	8102.87
576.96	8085.24
577.32	8108.06
577.681	8176.99
578.042	8219.02
578.403	8240.04
578.763	8207.27
579.124	8192.13
579.485	8201.17
579.845	8231
580.206	8228.51
580.566	8298.79
580.927	8293.82
581.287	8333.37
581.648	8332.46
582.008	8322.3
582.368	8322.3
582.728	8349.19
583.089	8354.84
583.449	8356.64
583.809	8344.22
584.169	8388.73
584.529	8351
584.889	8452.91
585.249	8416.3
585.609	8379.02
585.969	8398.9
586.329	8424.67
586.688	8453.14
587.048	8427.6
587.408	8448.62
587.768	8473.7
588.127	8389.64
588.487	8423.31
588.846	8483.42
589.206	8497.88
589.565	8511.67
589.925	8528.17
590.284	8506.25
590.643	8500.6
591.003	8536.3
591.362	8508.73
591.721	8558.45
592.08	8525.45
592.44	8561.84
592.799	8539.69
593.158	8501.05
593.517	8540.82
593.876	8583.53
594.235	8527.04
594.593	8567.03
594.952	8587.15
595.311	8540.37
595.67	8574.49
596.029	8616.3
596.387	8642.06
596.746	8626.02
597.104	8616.07
597.463	8608.84
597.822	8638.45
598.18	8674.38
598.538	8690.2
598.897	8631.21
599.255	8594.38
599.613	8677.77
599.972	8694.04
600.33	8710.99
600.688	8690.2
601.046	8668.73
601.404	8691.1
601.762	8715.28
602.12	8691.1
602.478	8738.33
602.836	8762.28
603.194	8733.13
603.552	8686.13
603.91	8707.37
604.268	8774.94
604.625	8740.59
604.983	8755.73
605.341	8689.74
605.698	8737.65
606.056	8788.5
606.413	8812
606.771	8759.12
607.128	8800.25
607.485	8773.36
607.843	8800.7
608.2	8853.58
608.557	8878.66
608.914	8793.47
609.272	8878.44
609.629	8867.37
609.986	8835.73
610.343	8816.75
610.7	8920.47
611.057	8903.3
611.414	8873.24
611.771	8874.15
612.127	8901.72
612.484	8893.58
612.841	8935.84
613.198	8899.91
613.554	8961.37
613.911	8947.36
614.267	8995.27
614.624	8942.84
614.98	8981.04
615.337	9012.9
615.693	8967.93
616.05	8993.69
616.406	9013.58
616.762	8993.69
617.118	9009.06
617.475	9000.92
617.831	8940.13
618.187	9065.78
618.543	8992.11
618.899	9055.38
619.255	9041.15
619.611	9069.39
619.967	9097.42
620.323	9136.96
620.678	9027.81
621.034	9054.71
621.39	9006.35
621.746	9101.03
622.101	9101.71
622.457	9045.21
622.812	9096.96
623.168	9061.94
623.523	9120.47
623.879	9115.72
624.234	9047.7
624.589	9064.2
624.945	9016.74
625.3	9030.3
625.655	9027.36
626.01	9072.56
626.365	9054.93
626.72	9089.96
627.075	9035.5
627.43	8983.75
627.785	9026.23
628.14	9061.94
628.495	9090.86
628.85	9112.78
629.205	8998.66
629.559	8938.1
629.914	9005.89
630.269	8919.57
630.623	8962.5
630.978	8977.87
631.332	9002.05
631.687	8967.25
632.041	9019.23
632.396	8992.11
632.75	8939
633.104	8961.37
633.459	8890.42
633.813	8882.28
634.167	8908.04
634.521	8894.03
634.875	8927.7
635.229	8987.59
635.583	8831.89
635.937	8815.39
636.291	8852.68
636.645	8925.22
636.999	8802.06
637.352	8888.38
637.706	8797.31
638.06	8802.06
638.413	8755.96
638.767	8756.41
639.121	8790.08
639.474	8729.97
639.828	8711.44
640.181	8741.49
640.534	8763.41
640.888	8717.09
641.241	8693.58
641.594	8759.35
641.947	8712.57
642.301	8645.68
642.654	8662.17
643.007	8703.08
643.36	8666.69
643.713	8676.64
644.066	8619.24
644.419	8673.47
644.771	8595.73
645.124	8506.02
645.477	8510.54
645.83	8422.41
646.182	8406.59
646.535	8342.63
646.888	8459.69
647.24	8342.63
647.593	8373.37
647.945	8379.69
648.298	8340.15
648.65	8285.69
649.002	8316.19
649.355	8315.29
649.707	8340.6
650.059	8393.03
650.411	8499.24
650.763	8438.22
651.115	8484.1
651.467	8579.24
651.819	8490.88
652.171	8510.99
652.523	8498.79
652.875	8501.73
653.227	8455.17
653.578	8540.59
653.93	8523.65
654.282	8411.78
654.633	8420.82
654.985	8435.29
655.337	8461.27
655.688	8498.79
656.039	8506.25
656.391	8459.47
656.742	8506.25
657.094	8479.81
657.445	8481.39
657.796	8493.36
658.147	8491.56
658.498	8435.51
658.849	8469.64
659.2	8449.07
659.551	8414.5
659.902	8429.41
660.253	8467.6
660.604	8439.58
660.955	8389.19
661.306	8499.92
661.656	8453.82
662.007	8435.51
662.358	8440.03
662.708	8423.99
663.059	8530.2
663.409	8379.69
663.76	8493.82
664.11	8482.07
664.461	8476.87
664.811	8463.76
665.161	8447.49
665.511	8418.11
665.862	8431.44
666.212	8517.09
666.562	8485
666.912	8487.49
667.262	8471.9
667.612	8460.82
667.962	8463.08
668.312	8410.88
668.662	8509.64
669.011	8465.12
669.361	8434.38
669.711	8405.91
670.06	8424.44
670.41	8421.5
670.76	8436.19
671.109	8416.76
671.459	8431.22
671.808	8354.84
672.157	8436.87
672.507	8391.9
672.856	8365.68
673.205	8337.89
673.554	8421.73
673.904	8312.58
674.253	8443.65
674.602	8392.58
674.951	8208.63
675.3	8286.14
675.649	8388.06
675.998	8287.27
676.346	8414.72
676.695	8415.85
677.044	8261.51
677.393	8301.05
677.741	8331.11
678.09	8254.95
678.438	8234.39
678.787	8251.11
679.135	8300.6
679.484	8229.42
679.832	8289.75
680.181	8219.02
680.529	8265.12
680.877	8178.34
681.225	8178.34
681.573	8231.9
681.922	8145.8
682.27	8125.24
682.618	8136.31
682.966	8055.18
683.314	8129.08
683.661	8061.74
684.009	8046.14
684.357	8002.76
684.705	8032.36
685.053	8079.14
685.4	7964.79
685.748	7948.52
686.095	7975.19
686.443	7925.7
686.79	7911.23
687.138	7930.22
687.485	7939.03
687.832	7858.13
688.18	7888.18
688.527	7837.79
688.874	7816.77
689.221	7769.09
689.568	7735.42
689.915	7818.35
690.262	7729.32
690.609	7688.64
690.956	7706.72
691.303	7710.11
691.65	7642.31
691.997	7636.21
692.344	7601.18
692.69	7591.69
693.037	7617.46
693.383	7572.03
693.73	7515.76
694.077	7473.05
694.423	7483.45
694.769	7482.54
695.116	7411.13
695.462	7389.89
695.808	7336.33
696.155	7392.83
696.501	7333.39
696.847	7294.07
697.193	7235.77
697.539	7304.92
697.885	7258.59
698.231	7214.53
698.577	7250.01
698.923	7194.19
699.269	7223.12
699.614	7129.78
699.96	7161.42
700.306	7076
700.651	7101.08
700.997	7015.21
701.342	7015.44
701.688	7025.61
702.033	7013.63
702.379	6951.94
702.724	6968.88
703.069	6974.31
703.415	6893.18
703.76	6891.37
704.105	6860.41
704.45	6805.5
704.795	6772.96
705.14	6812.96
705.485	6792.84
705.83	6790.81
706.175	6707.87
706.52	6771.15
706.865	6706.29
707.209	6716.24
707.554	6705.61
707.899	6707.87
708.243	6607.54
708.588	6619.74
708.932	6578.39
709.277	6583.36
709.621	6569.57
709.966	6551.49
710.31	6534.77
710.654	6507.43
710.998	6580.65
711.342	6459.75
711.687	6467.65
712.031	6455.9
712.375	6439.63
712.719	6412.06
713.063	6400.76
713.407	6368.45
713.75	6357.6
714.094	6414.32
714.438	6363.25
714.782	6365.74
715.125	6339.75
715.469	6370.26
715.812	6377.94
716.156	6275.12
716.499	6302.01
716.843	6369.8
717.186	6256.13
717.53	6322.8
717.873	6368.9
718.216	6259.07
718.559	6277.6
718.902	6236.7
719.246	6280.99
719.589	6214.1
719.932	6199.87
720.275	6187.89
720.617	6213.2
720.96	6193.09
721.303	6193.54
721.646	6201
721.989	6117.61
722.331	6175.69
722.674	6134.56
723.016	6146.99
723.359	6146.76
723.701	6138.17
724.044	6088
724.386	6097.5
724.729	6118.29
725.071	6096.14
725.413	6111.96
725.755	6068.8
726.097	6081.68
726.439	6060.21
726.782	6056.14
727.124	6046.65
727.465	6054.78
727.807	5985.86
728.149	5980.89
728.491	6001.68
728.833	5972.98
729.175	6026.54
729.516	6031.96
729.858	5988.35
730.199	6016.59
730.541	5967.78
730.882	5978.18
731.224	6009.81
731.565	5976.59
731.906	5987.22
732.248	6005.29
732.589	6036.93
732.93	5933.43
733.271	6035.8
733.612	5947.44
733.953	6033.54
734.294	5992.64
734.635	5977.05
734.976	5995.8
735.317	5931.85
735.658	5916.03
735.999	5940.44
736.339	5993.32
736.68	6011.62
737.021	6000.77
737.361	5965.52
737.702	6006.2
738.042	6003.03
738.383	5968.46
738.723	5977.72
739.063	5928.69
739.404	6050.49
739.744	5990.38
740.084	5974.79
740.424	5984.96
740.764	5930.49
741.104	6036.93
741.444	5993.77
741.784	5991.06
742.124	6010.94
742.464	6020.89
742.804	6025.86
743.143	6001.23
743.483	6028.12
743.823	6059.98
744.162	6009.14
744.502	6063.82
744.841	6062.02
745.181	6111.51
745.52	6131.39
745.86	6144.73
746.199	6154.89
746.538	6203.93
746.877	6208.45
747.216	6266.98
747.556	6259.75
747.895	6268.34
748.234	6234.67
748.573	6285.74
748.911	6312.86
749.25	6414.32
749.589	6377.94
749.928	6404.38
750.267	6469.46
750.605	6535.22
750.944	6545.39
751.283	6518.05
751.621	6678.04
751.96	6664.71
752.298	6744.94
752.636	6761.66
752.975	6839.4
753.313	6871.26
753.651	7020.86
753.989	6959.62
754.327	7025.83
754.666	7097.24
755.004	7147.18
755.342	7220.86
755.679	7342.43
756.017	7408.42
756.355	7441.87
756.693	7562.09
757.031	7601.64
757.368	7767.28
757.706	7782.87
758.044	7848.41
758.381	7954.17
758.719	8039.36
759.056	8170.66
759.394	8273.71
759.731	8298.57
760.068	8346.02
760.405	8440.26
760.743	8536.98
761.08	8675.73
761.417	8718.44
761.754	8836.86
762.091	8925.44
762.428	9026.23
762.765	9113.23
763.102	9183.74
763.438	9318.2
763.775	9361.14
764.112	9461.02
764.449	9583.73
764.785	9630.51
765.122	9654.24
765.458	9754.8
765.795	9794.35
766.131	9940.33
766.467	9962.7
766.804	10075.24
767.14	10089.03
767.476	10207.22
767.812	10265.3
768.148	10340.32
768.485	10346.65
768.821	10361.56
769.157	10443.37
769.492	10508.45
769.828	10687.66
770.164	10607.88
