Data from hue_26_FLMS001491_00099.txt Node
Date: Tue Feb 07 17:14:51 GMT 2017
User: dcchb
Spectrometer: FLMS00149
Trigger mode: 0
Integration Time (sec): 2.000000E-2
Scans to average: 10
Electric dark correction enabled: true
Nonlinearity correction enabled: false
Boxcar width: 0
XAxis mode: Wavelengths
Number of Pixels in Spectrum: 2048
>>>>>Begin Spectral Data<<<<<
341.393	-13.69
341.776	-13.69
342.16	-13.69
342.543	-65.66
342.927	-49.39
343.31	-74.25
343.693	-67.02
344.077	-57.75
344.46	-75.38
344.843	-51.88
345.226	-30.18
345.61	-46.45
345.993	-7.58
346.376	3.26
346.759	-0.35
347.142	30.38
347.525	31.28
347.908	59.31
348.291	86.2
348.674	86.42
349.057	113.99
349.44	155.58
349.823	142.24
350.206	187.66
350.588	191.05
350.971	226.08
351.354	238.06
351.737	233.99
352.119	268.57
352.502	280.09
352.884	285.97
353.267	308.11
353.65	319.64
354.032	316.47
354.414	314.67
354.797	325.97
355.179	325.06
355.562	330.94
355.944	334.55
356.326	343.14
356.709	337.04
357.091	344.5
357.473	343.14
357.855	367.77
358.238	365.96
358.62	362.12
359.002	370.03
359.384	349.69
359.766	376.81
360.148	353.99
360.53	346.76
360.912	341.78
361.294	364.84
361.676	336.59
362.057	366.87
362.439	334.33
362.821	343.37
363.203	358.06
363.584	363.48
363.966	360.77
364.348	355.34
364.729	342.69
365.111	349.24
365.493	344.5
365.874	336.36
366.256	354.89
366.637	354.21
367.019	327.77
367.4	325.06
367.781	343.14
368.163	342.91
368.544	340.2
368.925	322.58
369.306	317.6
369.688	315.12
370.069	333.42
370.45	330.71
370.831	332.97
371.212	348.56
371.593	332.97
371.974	316.25
372.355	352.86
372.736	320.54
373.117	344.04
373.498	347.43
373.879	342.69
374.26	344.04
374.641	337.49
375.021	347.89
375.402	345.85
375.783	366.64
376.163	332.97
376.544	360.99
376.925	387.21
377.305	367.77
377.686	358.96
378.066	357.38
378.447	339.07
378.827	342.24
379.208	358.73
379.588	379.07
379.968	365.74
380.349	329.58
380.729	337.04
381.109	383.59
381.489	366.87
381.87	361.67
382.25	367.09
382.63	396.47
383.01	361.22
383.39	380.88
383.77	384.27
384.15	394.44
384.53	353.08
384.91	375.91
385.29	367.77
385.67	377.04
386.049	382.24
386.429	373.42
386.809	398.96
387.189	401.44
387.568	416.81
387.948	394.89
388.328	420.88
388.707	388.11
389.087	414.55
389.466	431.05
389.846	397.6
390.225	397.6
390.605	407.09
390.984	391.73
391.363	406.42
391.743	419.75
392.122	431.27
392.501	427.88
392.881	444.61
393.26	423.82
393.639	423.59
394.018	423.59
394.397	412.29
394.776	438.28
395.155	438.73
395.534	437.38
395.913	423.59
396.292	434.89
396.671	468.34
397.05	428.34
397.429	441.44
397.808	457.26
398.186	455.23
398.565	451.39
398.944	424.95
399.323	472.85
399.701	454.1
400.08	472.85
400.458	477.15
400.837	457.26
401.215	492.74
401.594	481.22
401.972	471.27
402.351	484.38
402.729	481.22
403.107	475.79
403.486	490.71
403.864	498.39
404.242	483.02
404.62	488
404.999	486.19
405.377	506.07
405.755	507.88
406.133	509.24
406.511	503.81
406.889	523.93
407.267	536.36
407.645	521.67
408.023	529.35
408.401	537.03
408.779	542.68
409.156	564.6
409.534	536.13
409.912	562.34
410.29	547.43
410.667	550.37
411.045	570.03
411.422	554.21
411.8	565.96
412.178	552.85
412.555	605.73
412.933	583.13
413.31	606.18
413.687	584.94
414.065	589.46
414.442	590.37
414.819	602.57
415.197	610.03
415.574	629.69
415.951	592.4
416.328	607.99
416.705	623.13
417.082	624.49
417.46	635.56
417.837	626.07
418.214	625.85
418.591	643.7
418.967	630.36
419.344	652.29
419.721	675.34
420.098	671.95
420.475	669.01
420.852	675.34
421.228	693.87
421.605	692.96
421.982	700.19
422.358	701.1
422.735	678.05
423.111	694.77
423.488	707.2
423.864	722.34
424.241	728.44
424.617	712.17
424.994	747.42
425.37	722.79
425.746	761.21
426.123	741.1
426.499	758.5
426.875	732.28
427.251	772.73
427.627	761.89
428.003	777.03
428.379	783.36
428.756	800.53
429.132	819.06
429.507	831.94
429.883	825.84
430.259	824.94
430.635	833.52
431.011	814.99
431.387	826.74
431.763	854.54
432.138	870.58
432.514	869.91
432.89	863.8
433.265	876.23
433.641	890.7
434.016	897.93
434.392	909
434.767	920.3
435.143	919.85
435.518	932.96
435.894	936.35
436.269	951.49
436.644	964.37
437.02	986.06
437.395	965.5
437.77	963.92
438.145	981.77
438.52	1007.98
438.895	1001.43
439.271	1025.61
439.646	1030.58
440.021	1045.27
440.395	1054.08
440.77	1017.25
441.145	1062.44
441.52	1067.42
441.895	1080.3
442.27	1079.62
442.645	1078.71
443.019	1091.82
443.394	1078.71
443.769	1093.86
444.143	1092.27
444.518	1129.56
444.892	1114.42
445.267	1134.53
445.641	1160.29
446.016	1181.54
446.39	1154.64
446.764	1167.98
447.139	1142.67
447.513	1169.79
447.887	1176.57
448.262	1169.79
448.636	1191.93
449.01	1207.52
449.384	1217.69
449.758	1205.26
450.132	1241.42
450.506	1211.37
450.88	1260.18
451.254	1259.95
451.628	1262.89
452.002	1290.69
452.376	1293.17
452.75	1297.92
453.123	1310.57
453.497	1301.08
453.871	1359.61
454.244	1349.89
454.618	1383.34
454.992	1381.76
455.365	1372.27
455.739	1413.62
456.112	1438.25
456.486	1440.96
456.859	1455.88
457.232	1470.12
457.606	1463.11
457.979	1511.25
458.352	1505.6
458.725	1567.06
459.099	1536.56
459.472	1599.15
459.845	1615.88
460.218	1597.57
460.591	1629.21
460.964	1625.59
461.337	1670.11
461.71	1714.63
462.083	1706.95
462.456	1693.16
462.829	1719.38
463.201	1736.55
463.574	1738.13
463.947	1793.05
464.32	1799.83
464.692	1822.88
465.065	1825.81
465.438	1859.71
465.81	1927.73
466.183	1931.57
466.555	1946.49
466.928	1966.6
467.3	1964.34
467.672	2016.77
468.045	2056.09
468.417	2055.19
468.789	2033.72
469.161	2101.51
469.534	2118.69
469.906	2188.06
470.278	2193.49
470.65	2249.53
471.022	2266.03
471.394	2303.99
471.766	2355.97
472.138	2389.64
472.51	2407.27
472.882	2455.4
473.253	2449.07
473.625	2506.47
473.997	2579.92
474.369	2581.73
474.74	2647.26
475.112	2702.85
475.484	2756.86
475.855	2775.39
476.227	2800.93
476.598	2876.86
476.97	2930.42
477.341	2991.43
477.713	3005.44
478.084	3115.27
478.455	3149.17
478.827	3195.27
479.198	3310.52
479.569	3317.3
479.94	3440.23
480.311	3470.97
480.682	3485.88
481.053	3619.89
481.424	3673
481.795	3733.56
482.166	3776.04
482.537	3858.3
482.908	3887.68
483.279	4007.23
483.65	4118.18
484.021	4155.24
484.391	4224.62
484.762	4282.25
485.133	4326.76
485.503	4412.86
485.874	4505.97
486.244	4540.54
486.615	4665.29
486.985	4716.36
487.356	4805.4
487.726	4889.46
488.097	4967.2
488.467	5034.09
488.837	5152.05
489.207	5189.79
489.578	5276.34
489.948	5350.01
490.318	5470.46
490.688	5431.37
491.058	5554.76
491.428	5611.93
491.798	5669.1
492.168	5812.83
492.538	5853.05
492.908	5952.48
493.278	6003.33
493.648	6069.32
494.017	6154.06
494.387	6210.56
494.757	6269.99
495.126	6292.59
495.496	6389.99
495.866	6415.75
496.235	6515.18
496.605	6596.54
496.974	6666.14
497.344	6650.09
497.713	6724.44
498.082	6807.6
498.452	6921.95
498.821	6933.7
499.19	7006.92
499.559	6994.72
499.928	7082.85
500.298	7159.68
500.667	7209.17
501.036	7227.48
501.405	7262.96
501.774	7283.3
502.143	7305.67
502.512	7411.66
502.88	7486
503.249	7517.42
503.618	7532.1
503.987	7555.38
504.356	7654.81
504.724	7685.77
505.093	7740.46
505.462	7709.05
505.83	7803.28
506.199	7865.2
506.567	7947.23
506.936	7958.31
507.304	8085.76
507.672	8058.64
508.041	8106.1
508.409	8168.92
508.777	8203.05
509.145	8367.34
509.514	8314.23
509.882	8301.8
510.25	8370.95
510.618	8368.24
510.986	8423.61
511.354	8515.36
511.722	8581.79
512.09	8640.1
512.458	8631.74
512.826	8720.32
513.193	8802.81
513.561	8836.02
513.929	8868.11
514.297	8922.35
514.664	8991.05
515.032	8988.34
515.4	9043.48
515.767	9047.77
516.135	9086.87
516.502	9041.22
516.869	9219.07
517.237	9264.04
517.604	9289.57
517.972	9347.42
518.339	9391.49
518.706	9408.89
519.073	9387.2
519.44	9498.38
519.808	9529.57
520.175	9587.19
520.542	9673.29
520.909	9707.19
521.276	9676.23
521.643	9774.76
522.009	9826.73
522.376	9893.85
522.743	9865.6
523.11	10045.48
523.477	10141.75
523.843	10086.84
524.21	10178.36
524.577	10254.29
524.943	10313.5
525.31	10362.31
525.676	10424.91
526.043	10461.74
526.409	10650.21
526.776	10664.23
527.142	10700.38
527.508	10744.9
527.874	10778.12
528.241	10888.63
528.607	10902.86
528.973	10984.22
529.339	10986.48
529.705	11131.33
530.071	11176.98
530.437	11220.37
530.803	11316.86
531.169	11380.59
531.535	11339.24
531.901	11403.87
532.267	11433.47
532.632	11604.31
532.998	11603.18
533.364	11663.52
533.73	11691.32
534.095	11756.63
534.461	11816.29
534.826	11865.78
535.192	11880.46
535.557	12003.17
535.923	11995.26
536.288	12083.62
536.653	12161.81
537.019	12049.5
537.384	12136.5
537.749	12239.55
538.114	12323.16
538.479	12313.67
538.845	12449.72
539.21	12434.8
539.575	12477.96
539.94	12531.97
540.305	12641.12
540.67	12602.48
541.034	12649.26
541.399	12760.44
541.764	12781.46
542.129	12874.56
542.494	12826.43
542.858	12906.43
543.223	12963.83
543.587	13009.25
543.952	13030.04
544.316	13136.7
544.681	13097.61
545.045	13283.82
545.41	13236.36
545.774	13311.39
546.138	13317.49
546.503	13407.2
546.867	13479.07
547.231	13571.72
547.595	13550.7
547.959	13650.81
548.324	13741.88
548.688	13740.53
549.052	13758.16
549.416	13839.28
549.779	13852.84
550.143	13790.7
550.507	13987.08
550.871	14041.99
551.235	14011.71
551.599	14121.08
551.962	14139.61
552.326	14231.82
552.689	14305.49
553.053	14254.87
553.417	14336.22
553.78	14411.47
554.143	14344.81
554.507	14452.15
554.87	14517.23
555.234	14666.61
555.597	14573.95
555.96	14633.84
556.323	14666.61
556.686	14701.63
557.05	14780.05
557.413	14914.73
557.776	15019.14
558.139	14989.99
558.502	15073.15
558.865	15013.26
559.228	15247.16
559.59	15241.51
559.953	15237.21
560.316	15356.08
560.679	15386.81
561.041	15455.51
561.404	15505.23
561.767	15666.35
562.129	15558.56
562.492	15740.93
562.854	15730.31
563.217	15673.36
563.579	15796.52
563.941	15968.04
564.304	15985.67
564.666	16067.25
565.028	16057.76
565.39	16130.3
565.753	16127.36
566.115	16225.89
566.477	16295.94
566.839	16315.6
567.201	16532.09
567.563	16494.35
567.925	16569.38
568.287	16676.27
568.648	16713.56
569.01	16781.13
569.372	16723.73
569.734	16850.5
570.095	16970.05
570.457	17028.13
570.819	17131.63
571.18	17158.52
571.542	17256.59
571.903	17323.94
572.265	17422.01
572.626	17527.77
572.987	17568.68
573.349	17624.95
573.71	17692.29
574.071	17824.71
574.432	17969.12
574.794	17919.85
575.155	18033.75
575.516	18052.51
575.877	18254.31
576.238	18318.26
576.599	18448.43
576.96	18480.74
577.32	18597.12
577.681	18748.98
578.042	18852.48
578.403	19024.46
578.763	19041.86
579.124	19275.98
579.485	19376.54
579.845	19609.75
580.206	19659.24
580.566	19874.38
580.927	20016.07
581.287	20279.34
581.648	20416.74
582.008	20638.88
582.368	20803.85
582.728	20957.06
583.089	21200.67
583.449	21365.19
583.809	21533.09
584.169	21971.72
584.529	21970.14
584.889	22340.3
585.249	22552.27
585.609	22790.91
585.969	23206.95
586.329	23286.49
586.688	23589.08
587.048	23802.41
587.408	24088.51
587.768	24420.02
588.127	24681.94
588.487	25013.45
588.846	25526.21
589.206	25625.19
589.565	25939.76
589.925	26352.85
590.284	26678.04
590.643	26975.43
591.003	27500.84
591.362	27875.07
591.721	28128.4
592.08	28407.04
592.44	28931.99
592.799	29279.78
593.158	29494.69
593.517	29911.63
593.876	30327.66
594.235	30704.6
594.593	31049.23
594.952	31402.44
595.311	31700.73
595.67	32177.56
596.029	32790.65
596.387	33020.93
596.746	33426.79
597.104	33763.73
597.463	34090.73
597.822	34578.17
598.18	34826.53
598.538	35229.23
598.897	35699.95
599.255	35845.26
599.613	36601.17
599.972	36814.5
600.33	37201.61
600.688	37453.8
601.046	37891.31
601.404	38454.45
601.762	38679.08
602.12	39185.51
602.478	39495.56
602.836	39842.67
603.194	39955.21
603.552	40307.97
603.91	40436.32
604.268	41062.52
604.625	41325.11
604.983	41720.58
605.341	41785.21
605.698	42340.45
606.056	42752.2
606.413	42881.23
606.771	43298.4
607.128	43662.23
607.485	43584.72
607.843	44077.58
608.2	44501.08
608.557	44723.67
608.914	44868.3
609.272	45281.17
609.629	45607.94
609.986	45876.18
610.343	46033.92
610.7	46515.26
611.057	46430.97
611.414	46701.47
611.771	47020.56
612.127	47218.74
612.484	47489.25
612.841	47732.4
613.198	47779.18
613.554	47952.06
613.911	48284.7
614.267	48432.27
614.624	48689.21
614.98	48871.36
615.337	49203.1
615.693	49200.16
616.05	49181.18
616.406	49605.57
616.762	49507.72
617.118	49667.04
617.475	49868.84
617.831	50082.4
618.187	50170.76
618.543	50288.27
618.899	50629.95
619.255	50583.63
619.611	50548.37
619.967	50919.89
620.323	51038.3
620.678	51001.7
621.034	51049.15
621.39	51133.67
621.746	51216.38
622.101	51704.05
622.457	51432.42
622.812	51529.14
623.168	51661.34
623.523	51777.04
623.879	51846.65
624.234	51736.37
624.589	51894.1
624.945	52175.45
625.3	52131.38
625.655	52200.99
626.01	52264.71
626.365	52375.22
626.72	52412.96
627.075	52339.29
627.43	52315.79
627.785	52324.37
628.14	52523.92
628.495	52574.99
628.85	52538.38
629.205	52603.01
629.559	52771.14
629.914	52637.36
630.269	52691.14
630.623	52604.37
630.978	52743.8
631.332	52856.79
631.687	52861.31
632.041	52638.71
632.396	52884.13
632.75	52772.27
633.104	52747.64
633.459	52662.22
633.813	52774.08
634.167	52772.27
634.521	52814.98
634.875	52822.66
635.229	52810.69
635.583	52767.98
635.937	52676.91
636.291	52772.72
636.645	52699.96
636.999	52703.35
637.352	52831.25
637.706	52670.35
638.06	52843.46
638.413	52799.61
638.767	52729.33
639.121	52794.42
639.474	52566.63
639.828	52632.61
640.181	52746.96
640.534	52732.72
640.888	52564.59
641.241	52536.57
641.594	52699.28
641.947	52725.27
642.301	52667.64
642.654	52700.86
643.007	52687.08
643.36	52602.11
643.713	52597.36
644.066	52720.07
644.419	52380.87
644.771	52372.73
645.124	52073.53
645.477	51933.42
645.83	51749.25
646.182	51651.17
646.535	51569.14
646.888	51660.44
647.24	51541.12
647.593	51704.05
647.945	51597.84
648.298	51585.41
648.65	51443.49
649.002	51367.56
649.355	51525.52
649.707	51642.36
650.059	51657.95
650.411	51969.13
650.763	52075.79
651.115	52386.07
651.467	52229.23
651.819	52226.97
652.171	52218.61
652.523	52156.47
652.875	52121.44
653.227	51952.63
653.578	52248.44
653.93	52194.66
654.282	52036.24
654.633	51998.51
654.985	52130.03
655.337	52036.92
655.688	52085.73
656.039	52192.62
656.391	51872.41
656.742	52006.64
657.094	51966.42
657.445	52024.95
657.796	51992.63
658.147	51938.39
658.498	51964.38
658.849	52037.6
659.2	51986.3
659.551	51827.66
659.902	51987.21
660.253	52005.51
660.604	51902.24
660.955	51824.95
661.306	51904.95
661.656	51969.35
662.007	51883.48
662.358	51873.99
662.708	51929.13
663.059	51924.38
663.409	51730.26
663.76	51926.19
664.11	51854.1
664.461	51921.9
664.811	51912.18
665.161	51914.89
665.511	51795.8
665.862	51797.16
666.212	51972.07
666.562	51927.1
666.912	51794.9
667.262	51818.62
667.612	51744.05
667.962	51842.58
668.312	51774.1
668.662	51984.72
669.011	51796.48
669.361	51714.67
669.711	51810.94
670.06	51643.71
670.41	51623.15
670.76	51617.5
671.109	51741.56
671.459	51667.21
671.808	51546.09
672.157	51717.61
672.507	51426.09
672.856	51432.19
673.205	51584.28
673.554	51622.92
673.904	51556.48
674.253	51640.1
674.602	51616.82
674.951	51095.93
675.3	50951.53
675.649	51461.57
675.998	51471.06
676.346	51494.56
676.695	51566.65
677.044	51236.49
677.393	51294.34
677.741	51409.37
678.09	51252.31
678.438	51237.17
678.787	51257.28
679.135	51330.05
679.484	51141.81
679.832	51287.34
680.181	50973
680.529	51057.29
680.877	51051.86
681.225	50883.51
681.573	51184.74
681.922	50877.18
682.27	50751.53
682.618	50788.82
682.966	50789.5
683.314	50760.12
683.661	50714.7
684.009	50613.68
684.357	50453.69
684.705	50416.4
685.053	50536.62
685.4	50457.53
685.748	50236.97
686.095	50339.79
686.443	50095.73
686.79	50043.98
687.138	50205.78
687.485	50200.59
687.832	49973.47
688.18	50104.09
688.527	49771.9
688.874	49860.03
689.221	49806.7
689.568	49668.17
689.915	49616.87
690.262	49615.52
690.609	49477.67
690.956	49374.62
691.303	49348.86
691.65	49187.51
691.997	49261.63
692.344	48932.6
692.69	48967.17
693.037	48971.69
693.383	48586.84
693.73	48743
694.077	48485.83
694.423	48552.95
694.769	48518.82
695.116	48342.33
695.462	48310.69
695.808	48186.4
696.155	48152.28
696.501	47864.6
696.847	47903.47
697.193	47609.02
697.539	47674.78
697.885	47486.76
698.231	47429.59
698.577	47485.4
698.923	47426.65
699.269	47235.47
699.614	47000.44
699.96	46966.55
700.306	46990.73
700.651	46886.78
700.997	46685.88
701.342	46708.02
701.688	46558.87
702.033	46419.22
702.379	46447.24
702.724	46248.6
703.069	46380.8
703.415	46013.58
703.76	46023.97
704.105	45934.26
704.45	45771.1
704.795	45544.21
705.14	45580.37
705.485	45462.41
705.83	45186.26
706.175	45297.44
706.52	45286.14
706.865	45153.94
707.209	45158.23
707.554	44733.84
707.899	44915.3
708.243	44729.54
708.588	44656.55
708.932	44390.12
709.277	44405.94
709.621	44558.02
709.966	44227.64
710.31	44236
710.654	43950.58
710.998	43927.76
711.342	44057.7
711.687	43849.79
712.031	43750.13
712.375	43508.33
712.719	43655.45
713.063	43443.93
713.407	43604.38
713.75	43348.56
714.094	43266.76
714.438	43143.6
714.782	43231.96
715.125	43018.63
715.469	43084.16
715.812	42817.28
716.156	42717.62
716.499	42795.36
716.843	42794.91
717.186	42575.7
717.53	42707.9
717.873	42751.07
718.216	42575.7
718.559	42359.89
718.902	42243.28
719.246	42246.22
719.589	42149.95
719.932	41943.18
720.275	41980.01
720.617	41876.29
720.96	41960.35
721.303	41883.29
721.646	41817.3
721.989	41605.56
722.331	41671.77
722.674	41595.84
723.016	41600.59
723.359	41554.49
723.701	41563.75
724.044	41189.52
724.386	41120.15
724.729	41308.84
725.071	41097.1
725.413	41051.22
725.755	40986.14
726.097	40860.95
726.439	40753.15
726.782	40608.75
727.124	40934.84
727.465	40567.17
727.807	40596.09
728.149	40562.87
728.491	40412.14
728.833	40493.05
729.175	40365.82
729.516	40205.14
729.858	40221.41
730.199	40179.38
730.541	40140.06
730.882	40043.11
731.224	40239.04
731.565	39926.96
731.906	39947.52
732.248	39964.25
732.589	39708.21
732.93	39634.54
733.271	39648.32
733.612	39691.48
733.953	39743.01
734.294	39567.42
734.635	39448.78
734.976	39477.7
735.317	39349.57
735.658	39397.93
735.999	39357.71
736.339	39211.72
736.68	39199.52
737.021	39178.73
737.361	38929.7
737.702	39132.86
738.042	39002.92
738.383	38871.62
738.723	38980.32
739.063	38770.83
739.404	38847.66
739.744	38693.32
740.084	38590.72
740.424	38648.35
740.764	38588.46
741.104	38674.34
741.444	38421.24
741.784	38292.43
742.124	38373.78
742.464	38348.02
742.804	38207
743.143	38190.96
743.483	38198.64
743.823	38073.67
744.162	37931.3
744.502	37974.69
744.841	37928.14
745.181	37877.3
745.52	37826.45
745.86	37899.89
746.199	37800.46
746.538	37732.67
746.877	37705.32
747.216	37673.68
747.556	37710.07
747.895	37633.91
748.234	37455.84
748.573	37385.78
748.911	37369.29
749.25	37332.45
749.589	37184.66
749.928	37193.7
750.267	37261.49
750.605	37164.55
750.944	37091.78
751.283	36877.32
751.621	36905.57
751.96	36796.19
752.298	36815.85
752.636	36788.51
752.975	36631
753.313	36555.75
753.651	36701.96
753.989	36290.44
754.327	36487.05
754.666	36304
755.004	36273.5
755.342	36272.14
755.679	36179.49
756.017	35951.02
756.355	36095.19
756.693	35775.43
