Data from hue_26_FLMS001491_00057.txt Node
Date: Tue Feb 07 17:14:12 GMT 2017
User: dcchb
Spectrometer: FLMS00149
Trigger mode: 0
Integration Time (sec): 2.000000E-2
Scans to average: 10
Electric dark correction enabled: true
Nonlinearity correction enabled: false
Boxcar width: 0
XAxis mode: Wavelengths
Number of Pixels in Spectrum: 2048
>>>>>Begin Spectral Data<<<<<
341.393	-22.25
341.776	-22.25
342.16	-22.25
342.543	-66.54
342.927	-91.62
343.31	-69.93
343.693	-88.91
344.077	-53.88
344.46	-57.5
344.843	-74
345.226	-28.35
345.61	-15.47
345.993	-14.56
346.376	-17.05
346.759	31.09
347.142	13.01
347.525	34.93
347.908	66.57
348.291	69.96
348.674	90.07
349.057	114.02
349.44	106.11
349.823	145.43
350.206	185.21
350.588	211.87
350.971	222.72
351.354	236.51
351.737	243.74
352.119	259.1
352.502	255.49
352.884	279.44
353.267	285.09
353.65	305.2
354.032	286
354.414	293
354.797	317.18
355.179	315.37
355.562	310.4
355.944	327.58
356.326	333.23
356.709	352.43
357.091	348.37
357.473	339.78
357.855	316.73
358.238	346.78
358.62	349.04
359.002	328.48
359.384	340.23
359.766	330.97
360.148	347.24
360.53	329.16
360.912	328.03
361.294	339.78
361.676	330.06
362.057	350.63
362.439	343.62
362.821	307.01
363.203	350.4
363.584	322.15
363.966	322.83
364.348	325.77
364.729	325.09
365.111	311.76
365.493	300.91
365.874	297.52
366.256	331.64
366.637	316.5
367.019	335.49
367.4	325.32
367.781	323.28
368.163	323.06
368.544	325.54
368.925	326.45
369.306	329.16
369.688	325.09
370.069	308.14
370.45	316.73
370.831	301.14
371.212	304.07
371.593	310.18
371.974	298.42
372.355	294.13
372.736	311.98
373.117	321.02
373.498	310.18
373.879	315.83
374.26	303.62
374.641	318.99
375.021	331.42
375.402	309.95
375.783	314.02
376.163	328.48
376.544	332.32
376.925	321.02
377.305	315.83
377.686	326.45
378.066	315.37
378.447	350.4
378.827	339.1
379.208	323.06
379.588	346.11
379.968	340.46
380.349	340.23
380.729	325.77
381.109	329.84
381.489	356.05
381.87	352.66
382.25	344.52
382.63	337.75
383.01	327.8
383.39	348.59
383.77	342.94
384.15	356.5
384.53	349.95
384.91	327.8
385.29	333.68
385.67	359.21
386.049	354.24
386.429	350.85
386.809	354.47
387.189	361.47
387.568	340.23
387.948	350.85
388.328	369.16
388.707	352.43
389.087	352.89
389.466	358.99
389.846	388.14
390.225	370.29
390.605	370.29
390.984	370.74
391.363	369.16
391.743	371.87
392.122	375.71
392.501	377.97
392.881	383.17
393.26	396.5
393.639	385.2
394.018	373
394.397	374.35
394.776	382.26
395.155	358.54
395.534	399.89
395.913	387.01
396.292	371.87
396.671	373.22
397.05	384.07
397.429	388.37
397.808	373
398.186	405.31
398.565	387.91
398.944	413.9
399.323	384.3
399.701	403.28
400.08	399.66
400.458	411.64
400.837	410.51
401.215	406.22
401.594	387.24
401.972	437.4
402.351	411.42
402.729	408.48
403.107	439.44
403.486	403.96
403.864	424.97
404.242	431.3
404.62	422.71
404.999	426.56
405.377	451.64
405.755	413.68
406.133	443.51
406.511	423.39
406.889	450.06
407.267	452.54
407.645	434.01
408.023	453.67
408.401	420
408.779	443.96
409.156	454.13
409.534	462.94
409.912	452.77
410.29	446.67
410.667	447.57
411.045	468.59
411.422	454.35
411.8	460.68
412.178	457.97
412.555	477.63
412.933	460.68
413.31	471.53
413.687	473.56
414.065	525.09
414.442	482.83
414.819	493.22
415.197	492.32
415.574	506.55
415.951	511.75
416.328	527.8
416.705	491.19
417.082	489.38
417.46	524.18
417.837	515.14
418.214	504.07
418.591	501.36
418.967	513.79
419.344	517.85
419.721	517.4
420.098	525.99
420.475	535.71
420.852	507.23
421.228	537.74
421.605	534.58
421.982	534.12
422.358	543.84
422.735	549.04
423.111	539.32
423.488	551.98
423.864	540.23
424.241	578.42
424.617	545.2
424.994	564.86
425.37	574.58
425.746	572.09
426.123	578.42
426.499	564.63
426.875	565.54
427.251	573.45
427.627	591.3
428.003	595.82
428.379	624.07
428.756	608.02
429.132	584.07
429.507	643.05
429.883	617.96
430.259	642.37
430.635	632.88
431.011	631.3
431.387	633.78
431.763	623.61
432.138	664.06
432.514	655.48
432.89	652.09
433.265	670.84
433.641	690.73
434.016	660
434.392	692.76
434.767	688.7
435.143	699.32
435.518	697.74
435.894	737.96
436.269	713.1
436.644	707.68
437.02	709.04
437.395	704.06
437.77	733.89
438.145	739.77
438.52	730.28
438.895	735.02
439.271	730.96
439.646	763.27
440.021	759.88
440.395	762.14
440.77	769.15
441.145	742.03
441.52	755.59
441.895	768.69
442.27	792.87
442.645	782.03
443.019	790.61
443.394	792.65
443.769	792.2
444.143	803.04
444.518	823.61
444.892	812.08
445.267	817.96
445.641	804.85
446.016	828.35
446.39	836.94
446.764	830.16
447.139	828.58
447.513	833.55
447.887	856.83
448.262	865.87
448.636	853.66
449.01	891.18
449.384	871.52
449.758	871.06
450.132	872.65
450.506	868.35
450.88	893.21
451.254	890.5
451.628	908.58
452.002	906.77
452.376	907.22
452.75	913.55
453.123	918.3
453.497	933.66
453.871	948.8
454.244	944.51
454.618	980.67
454.992	979.76
455.365	1003.49
455.739	961.46
456.112	1015.92
456.486	1010.72
456.859	1000.78
457.232	1051.17
457.606	1023.83
457.979	1065.41
458.352	1046.65
458.725	1081.45
459.099	1054.34
459.472	1067.67
459.845	1108.57
460.218	1119.42
460.591	1107.67
460.964	1126.2
461.337	1146.31
461.71	1136.82
462.083	1179.53
462.456	1160.1
462.829	1180.44
463.201	1202.81
463.574	1210.49
463.947	1195.12
464.32	1255.91
464.692	1234.22
465.065	1270.38
465.438	1295.69
465.81	1283.94
466.183	1291.62
466.555	1345.85
466.928	1334.78
467.3	1323.03
467.672	1342.92
468.045	1380.66
468.417	1403.71
468.789	1407.1
469.161	1400.99
469.534	1436.47
469.906	1469.02
470.278	1494.55
470.65	1508.34
471.022	1557.6
471.394	1533.65
471.766	1572.52
472.138	1603.25
472.51	1609.12
472.882	1657.03
473.253	1688.67
473.625	1682.12
473.997	1693.42
474.369	1734.54
474.74	1716.92
475.112	1765.96
475.484	1819.29
475.855	1873.98
476.227	1852.73
476.598	1906.97
476.97	1939.29
477.341	2005.27
477.713	2012.28
478.084	2031.49
478.455	2094.76
478.827	2079.85
479.198	2184.25
479.569	2201.65
479.94	2219.05
480.311	2255.66
480.682	2353.29
481.053	2380.4
481.424	2405.26
481.795	2449.78
482.166	2485.49
482.537	2538.82
482.908	2579.72
483.279	2630.57
483.65	2659.04
484.021	2722.77
484.391	2788.08
484.762	2814.74
485.133	2859.26
485.503	2926.6
485.874	2937.23
486.244	3001.86
486.615	3021.74
486.985	3149.87
487.356	3189.42
487.726	3193.72
488.097	3292.92
488.467	3347.16
488.837	3372.24
489.207	3433.94
489.578	3467.83
489.948	3537.21
490.318	3569.3
490.688	3632.12
491.058	3634.38
491.428	3731.33
491.798	3752.12
492.168	3871.21
492.538	3873.92
492.908	3943.07
493.278	4008.38
493.648	4019.91
494.017	4052.68
494.387	4100.36
494.757	4174.48
495.126	4252.67
495.496	4230.3
495.866	4265.33
496.235	4318.21
496.605	4366.34
496.974	4419.67
497.344	4421.93
497.713	4482.5
498.082	4526.34
498.452	4565.43
498.821	4615.15
499.19	4587.8
499.559	4657.63
499.928	4703.73
500.298	4729.27
500.667	4757.97
501.036	4793.67
501.405	4831.19
501.774	4856.72
502.143	4946.44
502.512	4905.31
502.88	4960.22
503.249	4959.54
503.618	5029.15
503.987	5075.47
504.356	5032.09
504.724	5073.21
505.093	5133.55
505.462	5137.62
505.83	5170.39
506.199	5206.09
506.567	5211.74
506.936	5302.13
507.304	5318.18
507.672	5335.35
508.041	5339.87
508.409	5414.9
508.777	5408.57
509.145	5509.81
509.514	5461.68
509.882	5516.37
510.25	5564.05
510.618	5630.94
510.986	5604.73
511.354	5635.91
511.722	5661.67
512.09	5792.29
512.458	5691.73
512.826	5760.43
513.193	5736.93
513.561	5766.3
513.929	5868.22
514.297	5878.39
514.664	5891.72
515.032	5851.27
515.4	5952.74
515.767	5990.93
516.135	5970.59
516.502	6016.01
516.869	6020.08
517.237	6040.87
517.604	6017.6
517.972	6135.56
518.339	6156.58
518.706	6163.58
519.073	6153.19
519.44	6208.55
519.808	6259.62
520.175	6239.29
520.542	6345.27
520.909	6310.02
521.276	6321.32
521.643	6447.19
522.009	6381.88
522.376	6428.21
522.743	6480.41
523.11	6535.55
523.477	6546.4
523.843	6688.76
524.21	6676.79
524.577	6695.32
524.943	6782.32
525.31	6724.47
525.676	6789.1
526.043	6870.45
526.409	6866.16
526.776	6929.44
527.142	6953.84
527.508	6966.05
527.874	7026.38
528.241	7079.26
528.607	7078.36
528.973	7158.81
529.339	7131.24
529.705	7205.36
530.071	7282.42
530.437	7299.82
530.803	7303.44
531.169	7343.44
531.535	7349.09
531.901	7387.28
532.267	7473.83
532.632	7482.87
532.998	7453.26
533.364	7535.3
533.73	7602.19
534.095	7627.27
534.461	7645.58
534.826	7676.31
535.192	7699.81
535.557	7756.99
535.923	7769.87
536.288	7762.63
536.653	7846.25
537.019	7834.72
537.384	7874.5
537.749	7911.11
538.114	7970.54
538.479	7977.54
538.845	7968.96
539.21	7978
539.575	7988.84
539.94	8129.18
540.305	8138.67
540.67	8130.31
541.034	8158.78
541.399	8175.96
541.764	8257.31
542.129	8237.42
542.494	8321.94
542.858	8328.72
543.223	8358.33
543.587	8448.27
543.952	8411.43
544.316	8439
544.681	8462.73
545.045	8551.31
545.41	8577.53
545.774	8552.22
546.138	8596.96
546.503	8646.91
546.867	8631.99
547.231	8732.55
547.595	8728.71
547.959	8745.21
548.324	8825.66
548.688	8757.64
549.052	8797.64
549.416	8857.75
549.779	8914.02
550.143	8927.12
550.507	9027.46
550.871	9066.78
551.235	9024.52
551.599	9128.93
551.962	9129.15
552.326	9089.61
552.689	9220
553.053	9180
553.417	9184.07
553.78	9304.06
554.143	9231.3
554.507	9339.54
554.87	9337.28
555.234	9472.19
555.597	9434.68
555.96	9452.08
556.323	9474.45
556.686	9424.29
557.05	9580.67
557.413	9602.81
557.776	9643.04
558.139	9631.51
558.502	9750.38
558.865	9626.77
559.228	9738.63
559.59	9722.36
559.953	9774.11
560.316	9840.09
560.679	9860.66
561.041	9895.91
561.404	9892.52
561.767	10023.59
562.129	9994.89
562.492	10062.91
562.854	10080.77
563.217	10049.81
563.579	10144.95
563.941	10159.63
564.304	10271.72
564.666	10326.86
565.028	10276.47
565.39	10341.78
565.753	10373.41
566.115	10470.36
566.477	10431.94
566.839	10495.44
567.201	10519.4
567.563	10549.23
567.925	10628.32
568.287	10646.63
568.648	10693.41
569.01	10681.43
569.372	10771.14
569.734	10754.19
570.095	10891.37
570.457	10961.42
570.819	10998.71
571.18	10922.33
571.542	10983.79
571.903	11064.24
572.265	11164.81
572.626	11260.4
572.987	11236.89
573.349	11240.74
573.71	11365.03
574.071	11330.22
574.432	11379.71
574.794	11522.31
575.155	11612.03
575.516	11569.99
575.877	11594.17
576.238	11768.86
576.599	11827.84
576.96	11817.22
577.32	11993.03
577.681	12109.64
578.042	12165.68
578.403	12251.33
578.763	12260.37
579.124	12492.45
579.485	12639.34
579.845	12727.7
580.206	12812.45
580.566	12861.94
580.927	13034.13
581.287	13266.9
581.648	13283.85
582.008	13464.18
582.368	13597.96
582.728	13727
583.089	13956.37
583.449	14047.44
583.809	14193.88
584.169	14432.52
584.529	14562
584.889	14834.99
585.249	14916.12
585.609	15079.5
585.969	15393.85
586.329	15516.56
586.688	15681.52
587.048	15991.8
587.408	16106.37
587.768	16343.43
588.127	16556.75
588.487	16707.94
588.846	17140.24
589.206	17240.8
589.565	17607.35
589.925	17926.44
590.284	18084.62
590.643	18375.24
591.003	18680.54
591.362	18951.49
591.721	19217.47
592.08	19500.18
592.44	19853.16
592.799	20086.38
593.158	20360.95
593.517	20665.57
593.876	21034.6
594.235	21233.02
594.593	21492.67
594.952	21953.22
595.311	22055.82
595.67	22430.72
596.029	22827.78
596.387	23151.38
596.746	23481.77
597.104	23523.58
597.463	24105.03
597.822	24281.97
598.18	24664.56
598.538	24782.98
598.897	25265.45
599.255	25174.38
599.613	26063.17
599.972	26084.41
600.33	26410.51
600.688	26549.94
601.046	26990.15
601.404	27406.86
601.762	27581.1
602.12	27951.03
602.478	28153.29
602.836	28418.36
603.194	28671.46
603.552	28918.69
603.91	29139.02
604.268	29476.64
604.625	29677.54
604.983	30010.64
605.341	30114.36
605.698	30593.67
606.056	30885.64
606.413	30930.61
606.771	31441.79
607.128	31658.73
607.485	31711.84
607.843	31926.29
608.2	32356.56
608.557	32682.43
608.914	32724.92
609.272	33114.74
609.629	33357.44
609.986	33660.48
610.343	33791.78
610.7	34080.59
611.057	34170.75
611.414	34409.17
611.771	34670.4
612.127	34937.06
612.484	35052.99
612.841	35300.89
613.198	35433.09
613.554	35653.2
613.911	35939.75
614.267	36036.92
614.624	36156.01
614.98	36331.83
615.337	36691.14
615.693	36796.22
616.05	37001.87
616.406	37288.19
616.762	37294.29
617.118	37430.56
617.475	37525.92
617.831	37786.93
618.187	37975.85
618.543	38001.16
618.899	38242.06
619.255	38332.45
619.611	38519.11
619.967	38516.63
620.323	38861.03
620.678	38830.07
621.034	38928.82
621.39	38925.43
621.746	39060.79
622.101	39509.37
622.457	39211.3
622.812	39364.06
623.168	39893.77
623.523	39658.29
623.879	39967.44
624.234	39745.3
624.589	40031.84
624.945	40163.59
625.3	40183.7
625.655	40277.26
626.01	40326.3
626.365	40405.84
626.72	40472.96
627.075	40515.9
627.43	40613.07
627.785	40570.81
628.14	40660.3
628.495	40878.83
628.85	40631.6
629.205	40706.85
629.559	40953.63
629.914	40841.99
630.269	41021.42
630.623	40938.94
630.978	40872.72
631.332	41126.05
631.687	41193.85
632.041	41152.04
632.396	41198.59
632.75	41009.44
633.104	41241.3
633.459	41124.24
633.813	41050.57
634.167	41166.5
634.521	41145.49
634.875	41252.83
635.229	41186.84
635.583	41063.45
635.937	41046.73
636.291	41206.05
636.645	41196.78
636.999	41186.16
637.352	41223
637.706	41055.77
638.06	41249.44
638.413	41040.4
638.767	41058.71
639.121	41085.6
639.474	40915.44
639.828	40910.01
640.181	41049.9
640.534	41121.98
640.888	40971.71
641.241	40722.22
641.594	40910.92
641.947	41151.59
642.301	41023
642.654	41087.41
643.007	40995.43
643.36	40991.59
643.713	41005.83
644.066	41177.35
644.419	40754.99
644.771	40600.64
645.124	40288.33
645.477	40277.71
645.83	40039.07
646.182	39917.95
646.535	39785.75
646.888	39891.51
647.24	39715.69
647.593	39998.85
647.945	39730.83
648.298	39658.07
648.65	39576.49
649.002	39533.32
649.355	39734.9
649.707	39675.69
650.059	39937.16
650.411	40357.03
650.763	40399.97
651.115	40713.18
651.467	40596.57
651.819	40537.82
652.171	40450.14
652.523	40394.55
652.875	40594.99
653.227	40369.46
653.578	40561.32
653.93	40610.58
654.282	40432.06
654.633	40165.85
654.985	40440.19
655.337	40418.5
655.688	40290.14
656.039	40578.95
656.391	40149.58
656.742	40299.86
657.094	40353.64
657.445	40437.03
657.796	40266.64
658.147	40326.3
658.498	40205.17
658.849	40264.61
659.2	40331.5
659.551	40207.21
659.902	40336.92
660.253	40309.8
660.604	40303.25
660.955	40079.07
661.306	40364.94
661.656	40155.91
662.007	40249.46
662.358	40238.39
662.708	40166.98
663.059	40225.74
663.409	40023.71
663.76	40344.6
664.11	40199.97
664.461	40174.44
664.811	40291.05
665.161	40194.1
665.511	40079.53
665.862	40009.92
666.212	40308.9
666.562	40181.22
666.912	40088.11
667.262	40019.87
667.612	39981.22
667.962	40196.81
668.312	39965.18
668.662	40235.91
669.011	40018.74
669.361	40021
669.711	40125.4
670.06	39978.06
670.41	39856.71
670.76	39857.61
671.109	39927.89
671.459	39900.32
671.808	39971.28
672.157	40082.24
672.507	39725.18
672.856	39811.74
673.205	39832.53
673.554	39939.64
673.904	39817.16
674.253	39997.49
674.602	39835.24
674.951	39191.41
675.3	39143.96
675.649	39797.5
675.998	39790.49
676.346	39603.61
676.695	39932.41
677.044	39614
677.393	39757.27
677.741	39717.27
678.09	39539.88
678.438	39374.46
678.787	39626.88
679.135	39548.47
679.484	39442.25
679.832	39500.56
680.181	39238.42
680.529	39309.15
680.877	39294.01
681.225	39056.73
681.573	39444.74
681.922	39185.31
682.27	39058.31
682.618	39111.42
682.966	38922.04
683.314	38980.8
683.661	39044.98
684.009	38573.8
684.357	38632.33
684.705	38581.26
685.053	38722.05
685.4	38658.77
685.748	38444.54
686.095	38505.1
686.443	38235.73
686.79	38265.56
687.138	38315.73
687.485	38342.62
687.832	38101.05
688.18	38219.69
688.527	37925.68
688.874	37956.87
689.221	37871.9
689.568	37812.47
689.915	37751.9
690.262	37769.53
690.609	37621.28
690.956	37618.57
691.303	37566.37
691.65	37272.37
691.997	37212.03
692.344	37112.15
692.69	36978.36
693.037	36988.53
693.383	36850.68
693.73	36923.22
694.077	36688.2
694.423	36803
694.769	36587.41
695.116	36504.48
695.462	36544.93
695.808	36303.81
696.155	36443.46
696.501	36180.19
696.847	36189.01
697.193	35793.99
697.539	36056.58
697.885	35835.57
698.231	35685.74
698.577	35700.21
698.923	35690.94
699.269	35469.25
699.614	35270.16
699.96	35339.99
700.306	35318.07
700.651	35107.9
700.997	34929.38
701.342	34849.61
701.688	34963.73
702.033	34941.58
702.379	34845.99
702.724	34644.64
703.069	34784.98
703.415	34261.83
703.76	34478.99
704.105	34365.55
704.45	34281.94
704.795	34084.43
705.14	34037.2
705.485	34001.27
705.83	33802.18
706.175	33757.88
706.52	33798.33
706.865	33707.04
707.209	33719.92
707.554	33489.87
707.899	33548.62
708.243	33327.39
708.588	33291
708.932	33155.41
709.277	33146.6
709.621	33127.17
709.966	32995.64
710.31	32945.48
710.654	32772.6
710.998	32701.64
711.342	32849.88
711.687	32828.42
712.031	32693.5
712.375	32389.56
712.719	32496.45
713.063	32355.21
713.407	32486.05
713.75	32301.88
714.094	32245.83
714.438	32255.1
714.782	32107.08
715.125	32031.38
715.469	32067.98
715.812	32028.66
716.156	31832.74
716.499	31746.86
716.843	31904.6
717.186	31717.71
717.53	31720.42
717.873	31637.94
718.216	31613.76
718.559	31423.48
718.902	31309.13
719.246	31308.23
719.589	31269.14
719.932	31214.22
720.275	31194.79
720.617	31166.31
720.96	31118.86
721.303	30986.43
721.646	31091.96
721.989	30893.1
722.331	30991.63
722.674	30815.14
723.016	30821.24
723.359	30733.33
723.701	30824.63
724.044	30715.7
724.386	30649.72
724.729	30686.78
725.071	30532.66
725.413	30617.4
725.755	30564.07
726.097	30428.48
726.439	30193.68
726.782	30315.04
727.124	30309.39
727.465	30188.49
727.807	30164.98
728.149	30096.96
728.491	29959.34
728.833	30094.48
729.175	29856.97
729.516	29849.29
729.858	29827.14
730.199	29906.23
730.541	29762.73
730.882	29781.94
731.224	29873.92
731.565	29668.05
731.906	29707.14
732.248	29639.35
732.589	29406.59
732.93	29433.03
733.271	29453.36
733.612	29370.65
733.953	29557.32
734.294	29292.69
734.635	29207.49
734.976	29317.32
735.317	29146.71
735.658	29157.55
735.999	29141.73
736.339	29055.41
736.68	29290.88
737.021	28889.31
737.361	28948.97
737.702	28933.83
738.042	29004.56
738.383	28817.22
738.723	28966.6
739.063	28753.27
739.404	28897.45
739.744	28790.56
740.084	28691.35
740.424	28655.64
740.764	28689.54
741.104	28774.96
741.444	28556.44
741.784	28526.38
742.124	28559.15
742.464	28410.91
742.804	28315.54
743.143	28380.4
743.483	28395.31
743.823	28269.44
744.162	28202.1
744.502	28281.42
744.841	28111.03
745.181	28169.56
745.52	28004.14
745.86	28085.26
746.199	28096.11
746.538	27956.68
746.877	28071.25
747.216	28051.37
747.556	28035.32
747.895	28024.93
748.234	27720.98
748.573	27866.29
748.911	27892.73
749.25	27748.78
749.589	27624.71
749.928	27779.96
750.267	27699.29
750.605	27489.57
750.944	27499.97
751.283	27406.19
751.621	27576.8
751.96	27355.57
752.298	27391.95
752.636	27359.63
752.975	27259.52
753.313	27207.32
753.651	27298.39
753.989	27104.73
754.327	27147.66
754.666	26914.9
755.004	27044.61
755.342	27028.57
755.679	26949.25
756.017	26786.54
756.355	26858.18
756.693	26669.26
757.031	26875.8
757.368	26542.25
757.706	26709.03
758.044	26559.2
758.381	26520.56
758.719	26430.62
759.056	26462.48
759.394	26410.73
759.731	26265.65
760.068	26126.9
