Data from hue_330_FLMS001491_54.txt Node
Date: Mon Feb 06 15:45:35 GMT 2017
User: dcchb
Spectrometer: FLMS00149
Trigger mode: 0
Integration Time (sec): 2.000000E-2
Scans to average: 10
Electric dark correction enabled: true
Nonlinearity correction enabled: false
Boxcar width: 0
XAxis mode: Wavelengths
Number of Pixels in Spectrum: 2048
>>>>>Begin Spectral Data<<<<<
341.393	-24.66
341.776	-24.66
342.16	-24.66
342.543	-55.62
342.927	-56.75
343.31	-70.31
343.693	-73.25
344.077	-59.01
344.46	-57.65
344.843	-43.19
345.226	-46.13
345.61	-49.74
345.993	-14.72
346.376	-19.69
346.759	20.54
347.142	21.44
347.525	43.81
347.908	58.95
348.291	82.68
348.674	92.4
349.057	113.87
349.44	134.21
349.823	152.06
350.206	177.59
350.588	185.28
350.971	199.51
351.354	217.82
351.737	250.81
352.119	227.31
352.502	266.63
352.884	286.07
353.267	276.8
353.65	307.99
354.032	290.81
354.414	319.51
354.797	305.73
355.179	302.11
355.562	328.1
355.944	316.12
356.326	329.91
356.709	322
357.091	320.64
357.473	331.49
357.855	330.36
358.238	349.79
358.62	343.92
359.002	329.91
359.384	359.28
359.766	340.75
360.148	325.84
360.53	356.35
360.912	327.65
361.294	319.06
361.676	318.38
362.057	347.76
362.439	335.1
362.821	329.23
363.203	346.18
363.584	324.03
363.966	330.81
364.348	326.29
364.729	323.81
365.111	297.59
365.493	320.87
365.874	307.53
366.256	329.68
366.637	299.85
367.019	296.69
367.4	299.62
367.781	345.27
368.163	303.24
368.544	296.01
368.925	309.34
369.306	319.51
369.688	303.69
370.069	315.9
370.45	311.15
370.831	328.78
371.212	304.6
371.593	303.92
371.974	298.04
372.355	321.55
372.736	318.16
373.117	316.12
373.498	331.49
373.879	324.03
374.26	316.8
374.641	323.58
375.021	306.63
375.402	323.58
375.783	335.1
376.163	315.22
376.544	338.72
376.925	333.97
377.305	314.31
377.686	331.71
378.066	338.04
378.447	333.75
378.827	326.52
379.208	322
379.588	321.77
379.968	329.45
380.349	323.58
380.729	337.36
381.109	335.56
381.489	327.65
381.87	335.33
382.25	306.86
382.63	340.98
383.01	328.78
383.39	349.57
383.77	342.11
384.15	347.31
384.53	340.3
384.91	336.01
385.29	356.35
385.67	334.43
386.049	362.67
386.429	347.08
386.809	341.21
387.189	353.63
387.568	378.04
387.948	344.14
388.328	369
388.707	346.86
389.087	351.37
389.466	347.31
389.846	347.08
390.225	349.12
390.605	354.99
390.984	356.35
391.363	364.03
391.743	369.45
392.122	378.04
392.501	351.6
392.881	382.11
393.26	377.59
393.639	382.79
394.018	387.76
394.397	375.1
394.776	371.26
395.155	368.32
395.534	394.99
395.913	371.71
396.292	373.07
396.671	392.73
397.05	396.35
397.429	401.77
397.808	391.37
398.186	379.4
398.565	387.31
398.944	400.41
399.323	384.82
399.701	391.37
400.08	397.7
400.458	418.04
400.837	397.48
401.215	398.61
401.594	405.84
401.972	401.32
402.351	419.17
402.729	425.05
403.107	417.81
403.486	416.68
403.864	418.49
404.242	411.71
404.62	442.22
404.999	424.37
405.377	419.62
405.755	431.82
406.133	419.85
406.511	440.86
406.889	447.42
407.267	428.44
407.645	476.8
408.023	460.52
408.401	463.69
408.779	461.2
409.156	472.5
409.534	459.17
409.912	458.26
410.29	468.43
410.667	486.51
411.045	482.9
411.422	487.87
411.8	507.76
412.178	499.62
412.555	528.09
412.933	512.73
413.31	502.11
413.687	530.35
414.065	526.06
414.442	540.97
414.819	533.29
415.197	538.94
415.574	539.17
415.951	566.96
416.328	561.31
416.705	561.31
417.082	552.95
417.46	567.87
417.837	576.23
418.214	589.56
418.591	593.4
418.967	590.92
419.344	614.87
419.721	612.84
420.098	606.51
420.475	615.55
420.852	630.01
421.228	629.11
421.605	655.1
421.982	647.64
422.358	652.38
422.735	667.98
423.111	640.18
423.488	683.12
423.864	666.62
424.241	677.24
424.617	707.07
424.994	727.64
425.37	696.45
425.746	689.9
426.123	705.49
426.499	722.66
426.875	707.07
427.251	722.89
427.627	742.55
428.003	737.58
428.379	767.18
428.756	742.78
429.132	766.51
429.507	768.77
429.883	760.4
430.259	788.2
430.635	777.13
431.011	800.18
431.387	806.96
431.763	839.72
432.138	861.42
432.514	834.3
432.89	828.88
433.265	855.09
433.641	855.77
434.016	865.94
434.392	865.94
434.767	883.11
435.143	871.36
435.518	887.86
435.894	912.04
436.269	917.69
436.644	926.05
437.02	930.79
437.395	962.21
437.77	945.26
438.145	977.57
438.52	984.8
438.895	980.51
439.271	1004.24
439.646	999.04
440.021	994.07
440.395	1019.83
440.77	1005.37
441.145	1008.31
441.52	1024.13
441.895	1024.35
442.27	1039.49
442.645	1031.36
443.019	1054.18
443.394	1034.52
443.769	1079.94
444.143	1059.38
444.518	1083.11
444.892	1085.37
445.267	1094.86
445.641	1081.3
446.016	1065.48
446.39	1085.82
446.764	1095.08
447.139	1108.19
447.513	1123.56
447.887	1101.64
448.262	1097.8
448.636	1097.12
449.01	1149.32
449.384	1136.89
449.758	1154.97
450.132	1159.72
450.506	1157.91
450.88	1166.49
451.254	1175.53
451.628	1191.35
452.002	1177.12
452.376	1190.67
452.75	1168.53
453.123	1194.52
453.497	1210.11
453.871	1213.5
454.244	1226.61
454.618	1239.26
454.992	1254.4
455.365	1254.85
455.739	1271.12
456.112	1294.63
456.486	1270.45
456.859	1304.57
457.232	1325.36
457.606	1327.62
457.979	1305.25
458.352	1359.94
458.725	1344.8
459.099	1374.17
459.472	1365.36
459.845	1404.23
460.218	1375.53
460.591	1392.25
460.964	1425.7
461.337	1425.7
461.71	1452.59
462.083	1465.02
462.456	1465.7
462.829	1489.42
463.201	1498.01
463.574	1512.02
463.947	1500.72
464.32	1542.08
464.692	1521.97
465.065	1547.05
465.438	1568.29
465.81	1600.61
466.183	1621.4
466.555	1609.65
466.928	1647.39
467.3	1605.58
467.672	1652.36
468.045	1694.62
468.417	1661.85
468.789	1706.82
469.161	1710.44
469.534	1750.89
469.906	1780.04
470.278	1787.5
470.65	1809.87
471.022	1827.49
471.394	1855.29
471.766	1867.72
472.138	1890.09
472.51	1926.47
472.882	1927.15
473.253	1934.61
473.625	1954.72
473.997	2001.73
474.369	2019.58
474.74	2002.4
475.112	2052.12
475.484	2102.06
475.855	2102.29
476.227	2131.67
476.598	2169.63
476.97	2186.35
477.341	2213.25
477.713	2277.88
478.084	2282.85
478.455	2322.4
478.827	2347.25
479.198	2392.23
479.569	2411.21
479.94	2423.86
480.311	2446.69
480.682	2538.89
481.053	2570.53
481.424	2570.98
481.795	2615.72
482.166	2629.51
482.537	2668.38
482.908	2724.65
483.279	2707.47
483.65	2765.32
484.021	2811.2
484.391	2875.38
484.762	2881.03
485.133	2907.01
485.503	2886
485.874	2974.13
486.244	3022.94
486.615	3045.09
486.985	3025.2
487.356	3117.63
487.726	3113.34
488.097	3182.94
488.467	3192.88
488.837	3242.15
489.207	3269.26
489.578	3362.6
489.948	3332.31
490.318	3395.36
490.688	3399.88
491.058	3424.51
491.428	3453.67
491.798	3490.73
492.168	3584.74
492.538	3554
492.908	3638.29
493.278	3620.22
493.648	3696.82
494.017	3686.65
494.387	3726.65
494.757	3763.49
495.126	3756.71
495.496	3806.65
495.866	3772.08
496.235	3859.31
496.605	3851.85
496.974	3903.6
497.344	3907.67
497.713	3928.23
498.082	3961.68
498.452	3966.87
498.821	4026.76
499.19	4008.45
499.559	4035.57
499.928	4084.38
500.298	4079.64
500.667	4156.25
501.036	4104.95
501.405	4175.46
501.774	4173.87
502.143	4207.77
502.512	4214.78
502.88	4236.02
503.249	4264.27
503.618	4255.68
503.987	4263.81
504.356	4266.53
504.724	4306.75
505.093	4336.58
505.462	4359.18
505.83	4348.33
506.199	4372.96
506.567	4447.76
506.936	4392.17
507.304	4471.49
507.672	4453.19
508.041	4482.34
508.409	4510.81
508.777	4551.26
509.145	4538.84
509.514	4554.88
509.882	4585.16
510.25	4610.25
510.618	4584.71
510.986	4598.95
511.354	4652.05
511.722	4664.48
512.09	4694.76
512.458	4696.35
512.826	4745.61
513.193	4743.8
513.561	4746.51
513.929	4782.67
514.297	4784.25
514.664	4859.05
515.032	4806.17
515.4	4813.4
515.767	4845.04
516.135	4886.85
516.502	4849.11
516.869	4934.08
517.237	4902.44
517.604	4919.39
517.972	4940.41
518.339	5025.83
518.706	4985.6
519.073	4950.58
519.44	4986.28
519.808	5031.93
520.175	5052.95
520.542	5023.12
520.909	5073.96
521.276	5064.02
521.643	5123.9
522.009	5200.29
522.376	5187.41
522.743	5155.99
523.11	5265.37
523.477	5278.25
523.843	5284.8
524.21	5315.31
524.577	5378.36
524.943	5312.37
525.31	5400.28
525.676	5411.58
526.043	5469.21
526.409	5469.66
526.776	5548.07
527.142	5539.94
527.508	5533.16
527.874	5573.84
528.241	5583.78
528.607	5577.9
528.973	5671.24
529.339	5636.66
529.705	5691.57
530.071	5774.96
530.437	5769.31
530.803	5815.86
531.169	5776.54
531.535	5810.89
531.901	5874.62
532.267	5852.25
532.632	5925.47
532.998	5926.14
533.364	5946.03
533.73	5980.15
534.095	5993.49
534.461	6040.72
534.826	6049.98
535.192	6071
535.557	6074.61
535.923	6141.73
536.288	6104.22
536.653	6156.65
537.019	6172.24
537.384	6212.24
537.749	6204.78
538.114	6239.13
538.479	6209.75
538.845	6304.89
539.21	6260.82
539.575	6323.42
539.94	6360.48
540.305	6414.04
540.67	6398.67
541.034	6471.21
541.399	6474.15
541.764	6486.13
542.129	6468.05
542.494	6521.16
542.858	6602.51
543.223	6601.61
543.587	6659.68
543.952	6678.67
544.316	6683.41
544.681	6712.34
545.045	6778.32
545.41	6779
545.774	6759.79
546.138	6786.23
546.503	6864.65
546.867	6881.82
547.231	6856.29
547.595	6936.96
547.959	6918.66
548.324	6954.37
548.688	6903.07
549.052	6999.11
549.416	7029.84
549.779	7059.45
550.143	7080.01
550.507	7143.29
550.871	7140.8
551.235	7128.15
551.599	7153.91
551.962	7199.56
552.326	7255.37
552.689	7186.9
553.053	7223.51
553.417	7225.77
553.78	7378.31
554.143	7310.29
554.507	7385.77
554.87	7288.37
555.234	7456.95
555.597	7433
555.96	7433.67
556.323	7419.89
556.686	7411.3
557.05	7444.3
557.413	7528.81
557.776	7550.06
558.139	7611.52
558.502	7549.15
558.865	7657.62
559.228	7682.26
559.59	7702.14
559.953	7681.13
560.316	7790.73
560.679	7722.71
561.041	7782.37
561.404	7849.48
561.767	7891.97
562.129	7869.14
562.492	7875.47
562.854	7853.32
563.217	7971.97
563.579	7953.89
563.941	7970.61
564.304	8037.27
564.666	8072.08
565.028	8029.82
565.39	8062.13
565.753	8084.28
566.115	8079.31
566.477	8199.98
566.839	8138.97
567.201	8211.06
567.563	8281.56
567.925	8359.07
568.287	8334.67
568.648	8416.25
569.01	8326.98
569.372	8417.83
569.734	8467.77
570.095	8534.44
570.457	8522.46
570.819	8572.63
571.18	8570.82
571.542	8601.1
571.903	8656.69
572.265	8770.59
572.626	8769.23
572.987	8791.6
573.349	8850.81
573.71	8959.28
574.071	8973.52
574.432	9026.63
574.794	9096.68
575.155	9096.91
575.516	9131.71
575.877	9312.27
576.238	9362.66
576.599	9389.56
576.96	9390.01
577.32	9476.33
577.681	9639.04
578.042	9701.86
578.403	9734.63
578.763	9795.42
579.124	9899.15
579.485	9969.88
579.845	10119.03
580.206	10194.05
580.566	10284
580.927	10394.95
581.287	10563.99
581.648	10592.46
582.008	10871.32
582.368	11008.04
582.728	11168.94
583.089	11246.23
583.449	11455.26
583.809	11557.63
584.169	11767.8
584.529	11877.4
584.889	12252.76
585.249	12318.97
585.609	12407.33
585.969	12735
586.329	12814.78
586.688	13057.71
587.048	13318.27
587.408	13454.76
587.768	13709.89
588.127	13941.07
588.487	14206.6
588.846	14501.96
589.206	14578.8
589.565	14894.72
589.925	15191.89
590.284	15397.31
590.643	15738.54
591.003	15952.77
591.362	16302.14
591.721	16632.3
592.08	16820.77
592.44	17206.3
592.799	17412.4
593.158	17642.22
593.517	18032.27
593.876	18369.21
594.235	18485.36
594.593	18861.4
594.952	19173.93
595.311	19306.13
595.67	19713.8
596.029	20208.25
596.387	20440.34
596.746	20762.59
597.104	20893.43
597.463	21242.13
597.822	21632.62
598.18	21843.92
598.538	22004.36
598.897	22581.75
599.255	22530
599.613	23238
599.972	23281.39
600.33	23720.7
600.688	23859.23
601.046	24287.47
601.404	24635.03
601.762	24840
602.12	25152.08
602.478	25460.32
602.836	25735.11
603.194	25859.63
603.552	26147.53
603.91	26328.55
604.268	26730.34
604.625	27013.27
604.983	27239.93
605.341	27395.86
605.698	27827.94
606.056	28139.34
606.413	28307.7
606.771	28559.67
607.128	28697.97
607.485	28949.49
607.843	29139.54
608.2	29391.52
608.557	29760.77
608.914	29845.06
609.272	30272.17
609.629	30429.91
609.986	30746.28
610.343	30788.31
610.7	31198.93
611.057	31378.36
611.414	31581.74
611.771	31853.6
612.127	32005.68
612.484	32237.99
612.841	32447.71
613.198	32478.89
613.554	32666.01
613.911	33054.02
614.267	33165.88
614.624	33233.45
614.98	33557.51
615.337	33869.82
615.693	33903.71
616.05	34051.73
616.406	34290.14
616.762	34320.88
617.118	34552.96
617.475	34608.1
617.831	34846.51
618.187	35084.25
618.543	35204.7
618.899	35450.57
619.255	35613.27
619.611	35646.27
619.967	35827.73
620.323	35934.85
620.678	35937.78
621.034	35942.08
621.39	36111.11
621.746	36074.73
622.101	36782.73
622.457	36506.81
622.812	36550.88
623.168	36677.2
623.523	37016.85
623.879	37093.01
624.234	37071.54
624.589	37086.91
624.945	37332.32
625.3	37544.52
625.655	37424.98
626.01	37471.3
626.365	37684.4
626.72	37517.86
627.075	37826.55
627.43	37654.12
627.785	37795.81
628.14	37934.12
628.495	38016.15
628.85	37989.48
629.205	37957.84
629.559	38290.04
629.914	38146.77
630.269	38192.64
630.623	38208.91
630.978	38176.82
631.332	38374.78
631.687	38396.02
632.041	38331.39
632.396	38448.68
632.75	38433.54
633.104	38465.18
633.459	38340.66
633.813	38451.62
634.167	38471.05
634.521	38472.86
634.875	38464.5
635.229	38586.98
635.583	38380.88
635.937	38568.45
636.291	38395.8
636.645	38457.94
636.999	38377.04
637.352	38450.94
637.706	38388.11
638.06	38582.69
638.413	38374.78
638.767	38237.38
639.121	38500.65
639.474	38239.42
639.828	38204.16
640.181	38459.75
640.534	38415.23
640.888	38253.88
641.241	38171.62
641.594	38392.18
641.947	38394.44
642.301	38331.85
642.654	38412.75
643.007	38404.16
643.36	38516.7
643.713	38252.98
644.066	38374.1
644.419	38364.84
644.771	37972.53
645.124	37773.89
645.477	37695.03
645.83	37426.78
646.182	37280.12
646.535	37149.96
646.888	37284.64
647.24	37193.34
647.593	37365.09
647.945	37237.64
648.298	37133.01
648.65	36981.15
649.002	36987.7
649.355	37254.13
649.707	37084.65
650.059	37299.1
650.411	37756.49
650.763	37776.38
651.115	38094.34
651.467	38007.79
651.819	38081.46
652.171	37856.15
652.523	37977.05
652.875	37903.61
653.227	37660.45
653.578	37993.78
653.93	37936.38
654.282	37738.64
654.633	37700.9
654.985	37727.34
655.337	37729.6
655.688	37729.15
656.039	37897.05
656.391	37566.22
656.742	37625.65
657.094	37577.74
657.445	37825.42
657.796	37588.59
658.147	37459.1
658.498	37608.25
658.849	37647.12
659.2	37742.71
659.551	37547.46
659.902	37670.85
660.253	37566.89
660.604	37723.95
660.955	37467.91
661.306	37628.36
661.656	37542.71
662.007	37532.09
662.358	37683.95
662.708	37523.28
663.059	37595.37
663.409	37348.82
663.76	37811.18
664.11	37576.16
664.461	37617.51
664.811	37533.22
665.161	37686.44
665.511	37497.74
665.862	37558.98
666.212	37706.78
666.562	37687.34
666.912	37533.22
667.262	37596.95
667.612	37435.15
667.962	37453
668.312	37420.68
668.662	37746.78
669.011	37536.16
669.361	37395.6
669.711	37354.92
670.06	37278.54
670.41	37328.71
670.76	37330.06
671.109	37333.45
671.459	37382.94
671.808	37262.04
672.157	37447.8
672.507	37284.87
672.856	37220.24
673.205	37274.02
673.554	37243.29
673.904	37232.44
674.253	37399.44
674.602	37353.11
674.951	36786.8
675.3	36683.75
675.649	37240.35
675.998	37170.07
676.346	37098.43
676.695	37193.57
677.044	36947.02
677.393	37044.87
677.741	37185.89
678.09	36969.4
678.438	36847.82
678.787	37008.04
679.135	36996.51
679.484	36802.39
679.832	36953.58
680.181	36651.21
680.529	36825.44
680.877	36711.55
681.225	36761.94
681.573	36943.63
681.922	36578.67
682.27	36491.67
682.618	36523.76
682.966	36486.02
683.314	36443.99
683.661	36446.47
684.009	36156.08
684.357	36148.85
684.705	36062.53
685.053	36110.43
685.4	36156.76
685.748	35950.44
686.095	35891.01
686.443	35740.27
686.79	35765.81
687.138	35747.96
687.485	35900.72
687.832	35753.16
688.18	35818.69
688.527	35585.7
688.874	35608.08
689.221	35422.54
689.568	35390.23
689.915	35206.28
690.262	35242.89
690.609	35148.43
690.956	35111.14
691.303	35079.73
691.65	34902.1
691.997	34985.72
692.344	34765.84
692.69	34700.53
693.037	34602.23
693.383	34415.34
693.73	34624.82
694.077	34289.47
694.423	34396.58
694.769	34270.94
695.116	34190.71
695.462	34180.77
695.808	34005.63
696.155	33985.97
696.501	33844.05
696.847	33881.34
697.193	33654.45
697.539	33753.66
697.885	33432.54
698.231	33253.79
698.577	33400
698.923	33346.89
699.269	33077.97
699.614	32890.18
699.96	32959.78
700.306	32889.5
700.651	32936.28
700.997	32620.81
701.342	32711.2
701.688	32607.48
702.033	32599.11
702.379	32585.78
702.724	32359.57
703.069	32517.76
703.415	32039.36
703.76	32172.23
704.105	32198.45
704.45	32072.8
704.795	31907.16
705.14	31755.52
705.485	31748.29
705.83	31667.16
706.175	31742.64
706.52	31502.19
706.865	31507.39
707.209	31533.61
707.554	31367.06
707.899	31474.85
708.243	31430.11
708.588	31231.24
708.932	31092.71
709.277	30995.54
709.621	30951.93
709.966	30636.68
710.31	30823.79
710.654	30640.07
710.998	30670.8
711.342	30664.25
711.687	30521.43
712.031	30394.2
712.375	30266.52
712.719	30433.52
713.063	30310.59
713.407	30393.75
713.75	30226.75
714.094	30239.85
714.438	30119.18
714.782	29979.07
715.125	29977.49
715.469	29916.93
715.812	29764.61
716.156	29657.27
716.499	29773.43
716.843	29546.99
717.186	29434.68
717.53	29755.12
717.873	29719.87
718.216	29545.86
718.559	29408.24
718.902	29299.54
719.246	29307.9
719.589	29217.73
719.932	29137.28
720.275	29181.35
720.617	29106.55
720.96	29064.74
721.303	29100.45
721.646	28971.19
721.989	28789.05
722.331	28896.39
722.674	28847.35
723.016	28771.42
723.359	28780.46
723.701	28721.7
724.044	28582.05
724.386	28467.7
724.729	28622.72
725.071	28458.66
725.413	28509.73
725.755	28482.39
726.097	28379.56
726.439	28201.26
726.782	28379.56
727.124	28331.2
727.465	28094.6
727.807	28190.42
728.149	28131.66
728.491	28020.7
728.833	27993.36
729.175	28011.66
729.516	27843.31
729.858	27853.02
730.199	27816.64
730.541	27898
730.882	27870.65
731.224	27898.45
731.565	27624.56
731.906	27779.13
732.248	27718.11
732.589	27573.94
732.93	27433.37
733.271	27383.88
733.612	27475.41
733.953	27543.88
734.294	27321.06
734.635	27329.87
734.976	27369.65
735.317	27196.32
735.658	27151.12
735.999	27144.79
736.339	27154.06
736.68	27205.81
737.021	27030
737.361	27001.07
737.702	27124.91
738.042	27010.79
738.383	26790.68
738.723	26768.53
739.063	26738.7
739.404	26799.04
739.744	26749.55
740.084	26674.07
740.424	26689.44
740.764	26639.5
741.104	26640.63
741.444	26676.11
741.784	26415.1
742.124	26478.37
742.464	26490.35
742.804	26326.06
743.143	26385.04
743.483	26427.53
743.823	26230.92
744.162	26195.89
744.502	26276.34
744.841	26074.09
745.181	26263.24
745.52	26127.42
745.86	26179.4
746.199	26041.55
746.538	26021.43
746.877	26168.55
747.216	26011.04
747.556	25931.49
747.895	25874.77
748.234	25725.62
748.573	25779.63
748.911	25727.43
749.25	25690.37
749.589	25451.51
749.928	25690.6
750.267	25522.46
750.605	25522.24
750.944	25506.19
751.283	25407.89
751.621	25482.47
751.96	25393.43
752.298	25275.69
752.636	25322.24
752.975	25138.97
753.313	25057.84
753.651	25114.57
753.989	25025.53
754.327	25100.78
754.666	24945.98
755.004	24783.95
755.342	24865.76
755.679	24929.26
756.017	24698.98
756.355	24694.01
756.693	24711.19
757.031	24722.49
757.368	24642.71
757.706	24463.28
758.044	24404.98
758.381	24386.22
758.719	24330.41
759.056	24291.31
759.394	24221.93
759.731	24035.72
760.068	24177.64
