Data from hue_26_FLMS001491_00060.txt Node
Date: Tue Feb 07 17:14:13 GMT 2017
User: dcchb
Spectrometer: FLMS00149
Trigger mode: 0
Integration Time (sec): 2.000000E-2
Scans to average: 10
Electric dark correction enabled: true
Nonlinearity correction enabled: false
Boxcar width: 0
XAxis mode: Wavelengths
Number of Pixels in Spectrum: 2048
>>>>>Begin Spectral Data<<<<<
341.393	-14.52
341.776	-14.52
342.16	-14.52
342.543	-57.46
342.927	-76.89
343.31	-67.17
343.693	-75.76
344.077	-77.79
344.46	-60.85
344.843	-50.9
345.226	-40.96
345.61	-23.56
345.993	-13.16
346.376	-15.2
346.759	23.22
347.142	32.49
347.525	33.61
347.908	64.8
348.291	80.39
348.674	78.81
349.057	112.03
349.44	138.7
349.823	146.61
350.206	169.88
350.588	207.62
350.971	210.11
351.354	201.07
351.737	239.71
352.119	232.48
352.502	236.32
352.884	265.25
353.267	284.23
353.65	300.73
354.032	291.69
354.414	289.43
354.797	302.31
355.179	320.16
355.562	306.38
355.944	331.69
356.326	334.85
356.709	333.95
357.091	327.62
357.473	330.1
357.855	309.54
358.238	333.04
358.62	341.18
359.002	329.65
359.384	334.62
359.766	342.53
360.148	343.89
360.53	338.24
360.912	321.74
361.294	328.75
361.676	333.27
362.057	336.88
362.439	347.73
362.821	330.1
363.203	310.67
363.584	353.83
363.966	309.77
364.348	322.19
364.729	323.78
365.111	312.7
365.493	342.53
365.874	326.94
366.256	314.51
366.637	301.86
367.019	309.77
367.4	296.66
367.781	320.61
368.163	309.99
368.544	324.23
368.925	322.65
369.306	316.32
369.688	333.27
370.069	320.39
370.45	340.05
370.831	306.38
371.212	304.12
371.593	306.38
371.974	299.37
372.355	297.79
372.736	328.3
373.117	305.25
373.498	311.12
373.879	316.32
374.26	313.61
374.641	328.52
375.021	323.1
375.402	331.23
375.783	318.81
376.163	315.64
376.544	320.61
376.925	331.23
377.305	305.25
377.686	321.29
378.066	322.65
378.447	326.71
378.827	338.24
379.208	338.24
379.588	326.26
379.968	326.04
380.349	337.34
380.729	318.13
381.109	333.72
381.489	349.31
381.87	336.43
382.25	340.95
382.63	340.05
383.01	338.69
383.39	343.44
383.77	347.5
384.15	336.43
384.53	365.81
384.91	357.22
385.29	340.05
385.67	343.89
386.049	366.26
386.429	366.94
386.809	367.62
387.189	368.97
387.568	330.56
387.948	367.84
388.328	351.57
388.707	369.2
389.087	364.68
389.466	359.26
389.846	356.32
390.225	367.17
390.605	366.04
390.984	360.84
391.363	370.56
391.743	378.01
392.122	374.4
392.501	352.02
392.881	380.27
393.26	397.9
393.639	367.39
394.018	380.72
394.397	382.76
394.776	394.74
395.155	399.71
395.534	372.36
395.913	346.38
396.292	404.68
396.671	385.24
397.05	411.46
397.429	391.35
397.808	391.8
398.186	381.18
398.565	392.02
398.944	372.82
399.323	399.48
399.701	392.93
400.08	387.05
400.458	406.26
400.837	401.74
401.215	416.66
401.594	405.81
401.972	389.09
402.351	393.15
402.729	409.65
403.107	418.69
403.486	403.1
403.864	393.15
404.242	403.55
404.62	408.97
404.999	406.94
405.377	413.94
405.755	421.85
406.133	432.7
406.511	409.42
406.889	427.28
407.267	438.35
407.645	435.86
408.023	428.86
408.401	419.59
408.779	433.38
409.156	432.7
409.534	425.47
409.912	447.39
410.29	446.03
410.667	449.65
411.045	454.39
411.422	462.08
411.8	476.32
412.178	454.39
412.555	473.38
412.933	469.99
413.31	489.65
413.687	486.26
414.065	488.74
414.442	482.64
414.819	493.04
415.197	469.08
415.574	480.16
415.951	491.91
416.328	503.21
416.705	506.37
417.082	524.9
417.46	507.73
417.837	503.43
418.214	499.37
418.591	517.22
418.967	530.33
419.344	526.26
419.721	520.38
420.098	528.74
420.475	539.14
420.852	536.88
421.228	521.96
421.605	535.97
421.982	531.68
422.358	549.31
422.735	549.76
423.111	533.26
423.488	543.88
423.864	559.25
424.241	558.35
424.617	568.74
424.994	554.96
425.37	573.04
425.746	567.16
426.123	596.31
426.499	573.71
426.875	582.08
427.251	599.48
427.627	613.49
428.003	624.11
428.379	598.57
428.756	614.39
429.132	605.8
429.507	634.5
429.883	630.89
430.259	624.79
430.635	641.96
431.011	639.7
431.387	646.93
431.763	656.2
432.138	642.19
432.514	662.75
432.89	663.43
433.265	697.55
433.641	668.17
434.016	686.25
434.392	674.95
434.767	674.5
435.143	703.65
435.518	719.02
435.894	692.35
436.269	715.4
436.644	719.92
437.02	700.04
437.395	695.74
437.77	717.44
438.145	756.31
438.52	728.96
438.895	735.52
439.271	740.49
439.646	757.44
440.021	763.54
440.395	775.29
440.77	778.23
441.145	747.04
441.52	790.66
441.895	780.49
442.27	803.31
442.645	777.32
443.019	782.3
443.394	789.3
443.769	784.33
444.143	796.08
444.518	816.65
444.892	802.18
445.267	827.04
445.641	825.46
446.016	815.97
446.39	813.26
446.764	835.4
447.139	830.66
447.513	837.44
447.887	869.53
448.262	858.23
448.636	855.06
449.01	862.75
449.384	846.7
449.758	860.94
450.132	892.12
450.506	881.5
450.88	886.02
451.254	891.22
451.628	889.86
452.002	894.16
452.376	914.5
452.75	930.77
453.123	925.34
453.497	941.61
453.871	957.43
454.244	951.56
454.618	972.35
454.992	956.75
455.365	974.61
455.739	994.49
456.112	1010.76
456.486	1019.58
456.859	1010.54
457.232	1027.71
457.606	1032.46
457.979	1039.92
458.352	1048.5
458.725	1072.01
459.099	1052.8
459.472	1093.25
459.845	1110.65
460.218	1105
460.591	1118.78
460.964	1112.46
461.337	1124.89
461.71	1173.25
462.083	1185.9
462.456	1172.34
462.829	1183.19
463.201	1204.66
463.574	1201.27
463.947	1229.29
464.32	1230.42
464.692	1253.02
465.065	1262.51
465.438	1264.32
465.81	1276.52
466.183	1336.41
466.555	1323.75
466.928	1329.85
467.3	1347.03
467.672	1356.29
468.045	1388.61
468.417	1406.23
468.789	1411.21
469.161	1417.76
469.534	1456.63
469.906	1461.83
470.278	1494.37
470.65	1494.59
471.022	1533.91
471.394	1535.95
471.766	1568.26
472.138	1605.33
472.51	1626.57
472.882	1624.99
473.253	1690.52
473.625	1703.85
473.997	1753.12
474.369	1729.39
474.74	1746.56
475.112	1786.11
475.484	1809.84
475.855	1872.89
476.227	1871.08
476.598	1908.59
476.97	1915.6
477.341	1981.13
477.713	1996.05
478.084	2013.45
478.455	2101.36
478.827	2107.91
479.198	2156.95
479.569	2199.66
479.94	2248.92
480.311	2260.68
480.682	2339.54
481.053	2368.02
481.424	2427.68
481.795	2449.14
482.166	2490.05
482.537	2563.49
482.908	2602.13
483.279	2623.6
483.65	2677.39
484.021	2762.58
484.391	2757.39
484.762	2786.08
485.133	2886.42
485.503	2865.18
485.874	2955.57
486.244	3028.79
486.615	3048.9
486.985	3123.7
487.356	3164.38
487.726	3211.84
488.097	3300.65
488.467	3276.47
488.837	3385.39
489.207	3417.03
489.578	3479.85
489.948	3560.75
490.318	3585.84
490.688	3631.71
491.058	3686.85
491.428	3723.01
491.798	3797.36
492.168	3833.06
492.538	3860.63
492.908	3934.98
493.278	3982.21
493.648	4018.14
494.017	4060.4
494.387	4073.96
494.757	4126.16
495.126	4194.64
495.496	4239.38
495.866	4268.53
496.235	4352.6
496.605	4319.83
496.974	4405.7
497.344	4424.91
497.713	4467.62
498.082	4533.61
498.452	4546.49
498.821	4639.82
499.19	4591.46
499.559	4670.78
499.928	4683.89
500.298	4732.7
500.667	4793.72
501.036	4744.9
501.405	4830.55
501.774	4806.37
502.143	4926.59
502.512	4943.99
502.88	4937.67
503.249	5003.2
503.618	4995.07
503.987	4989.64
504.356	5034.61
504.724	5100.83
505.093	5148.51
505.462	5108.06
505.83	5176.3
506.199	5212.01
506.567	5252.69
506.936	5275.29
507.304	5352.12
507.672	5329.07
508.041	5389.41
508.409	5405.23
508.777	5488.61
509.145	5504.88
509.514	5516.86
509.882	5543.75
510.25	5528.39
510.618	5557.76
510.986	5545.79
511.354	5594.6
511.722	5663.98
512.09	5742.62
512.458	5684.99
512.826	5714.6
513.193	5743.3
513.561	5786.68
513.929	5840.69
514.297	5836.85
514.664	5901.71
515.032	5899.9
515.4	5977.19
515.767	5932.89
516.135	6008.15
516.502	5974.7
516.869	6031.42
517.237	6075.94
517.604	6047.24
517.972	6079.78
518.339	6132.66
518.706	6203.4
519.073	6206.11
519.44	6240.01
519.808	6242.94
520.175	6224.64
520.542	6378.08
520.909	6306.22
521.276	6378.31
521.643	6329.27
522.009	6402.04
522.376	6427.35
522.743	6549.6
523.11	6534.46
523.477	6552.31
523.843	6622.59
524.21	6714.57
524.577	6671.63
524.943	6725.19
525.31	6779.43
525.676	6760.22
526.043	6869.37
526.409	6895.36
526.776	6921.12
527.142	6937.84
527.508	6971.74
527.874	7057.16
528.241	7058.29
528.607	7073.43
528.973	7105.29
529.339	7137.38
529.705	7211.05
530.071	7257.61
530.437	7248.34
530.803	7259.64
531.169	7354.78
531.535	7351.39
531.901	7356.81
532.267	7374.89
532.632	7475
532.998	7519.29
533.364	7546.19
533.73	7543.25
534.095	7632.29
534.461	7591.38
534.826	7683.36
535.192	7701.21
535.557	7796.35
535.923	7709.57
536.288	7750.47
536.653	7875.89
537.019	7857.59
537.384	7906.63
537.749	7937.14
538.114	7901.2
538.479	7981.88
538.845	8031.14
539.21	8049.9
539.575	8038.6
539.94	8083.8
540.305	8149.56
540.67	8177.13
541.034	8187.98
541.399	8255.09
541.764	8194.98
542.129	8336
542.494	8341.42
542.858	8291.25
543.223	8374.19
543.587	8451.92
543.952	8395.2
544.316	8504.13
544.681	8536.67
545.045	8562.66
545.41	8576.22
545.774	8595.2
546.138	8638.13
546.503	8638.59
546.867	8698.47
547.231	8699.38
547.595	8741.18
547.959	8745.7
548.324	8822.99
548.688	8797.68
549.052	8852.82
549.416	8896.66
549.779	8913.83
550.143	8946.83
550.507	9046.94
550.871	9057.78
551.235	9060.72
551.599	9108.63
551.962	9102.08
552.326	9097.33
552.689	9171
553.053	9141.62
553.417	9229.76
553.78	9345.46
554.143	9240.83
554.507	9341.62
554.87	9380.71
555.234	9420.94
555.597	9354.27
555.96	9473.37
556.323	9521.73
556.686	9456.42
557.05	9550.88
557.413	9540.48
557.776	9603.76
558.139	9660.25
558.502	9698.45
558.865	9669.97
559.228	9756.98
559.59	9744.09
559.953	9807.14
560.316	9809.86
560.679	9893.92
561.041	9911.32
561.404	9969.4
561.767	10056.18
562.129	9989.51
562.492	10041.04
562.854	10086.46
563.217	10136.85
563.579	10181.37
563.941	10220.69
564.304	10262.72
564.666	10262.72
565.028	10225.44
565.39	10289.16
565.753	10380.69
566.115	10430.86
566.477	10448.71
566.839	10512.44
567.201	10547.46
567.563	10589.95
567.925	10611.87
568.287	10663.17
568.648	10645.31
569.01	10742.94
569.372	10786.1
569.734	10771.19
570.095	10819.55
570.457	10981.12
570.819	10934.8
571.18	10977.28
571.542	11131.18
571.903	11105.64
572.265	11075.13
572.626	11153.1
572.987	11297.5
573.349	11321.45
573.71	11338.85
574.071	11338.63
574.432	11418.85
574.794	11470.6
575.155	11616.36
575.516	11626.08
575.877	11736.13
576.238	11782.68
576.599	11858.84
576.96	11862.68
577.32	11911.04
577.681	12090.25
578.042	12206.4
578.403	12266.97
578.763	12296.12
579.124	12451.14
579.485	12551.03
579.845	12672.15
580.206	12765.03
580.566	12916.44
580.927	12994.63
581.287	13178.35
581.648	13277.33
582.008	13441.85
582.368	13580.83
582.728	13800.03
583.089	13812.69
583.449	14053.59
583.809	14295.39
584.169	14381.94
584.529	14545.55
584.889	14838.88
585.249	14783.28
585.609	15067.12
585.969	15360.67
586.329	15480.44
586.688	15753.43
587.048	15874.55
587.408	16068
587.768	16305.96
588.127	16542.56
588.487	16820.97
588.846	17061.87
589.206	17282.88
589.565	17582.08
589.925	17898.91
590.284	18117.66
590.643	18430.87
591.003	18608.95
591.362	19020.91
591.721	19267.23
592.08	19493.44
592.44	19811.17
592.799	20104.95
593.158	20349.69
593.517	20689.12
593.876	20927.08
594.235	21126.85
594.593	21513.28
594.952	21856.09
595.311	22113.26
595.67	22591.21
596.029	22898.32
596.387	23080.47
596.746	23414.7
597.104	23626.89
597.463	23990.27
597.822	24329.7
598.18	24517.26
598.538	24820.53
598.897	25241.31
599.255	25391.14
599.613	25935.76
599.972	26150.22
600.33	26443.77
600.688	26683.76
601.046	26982.96
601.404	27376.17
601.762	27615.49
602.12	28119.66
602.478	28199.2
602.836	28554.45
603.194	28586.99
603.552	28977.26
603.91	29093.87
604.268	29446.85
604.625	29733.4
604.983	30202.54
605.341	30217.45
605.698	30654.73
606.056	30797.33
606.413	31004.33
606.771	31436.41
607.128	31631.88
607.485	31590.75
607.843	31945.77
608.2	32326.33
608.557	32692.42
608.914	32782.13
609.272	33056.25
609.629	33330.37
609.986	33784.82
610.343	33748.66
610.7	34074.3
611.057	34150.91
611.414	34381.19
611.771	34514.97
612.127	34923.09
612.484	35043.54
612.841	35284.89
613.198	35434.94
613.554	35597.43
613.911	35880.13
614.267	36052.33
614.624	36121.25
614.98	36437.18
615.337	36656.38
615.693	36783.16
616.05	36909.48
616.406	37217.72
616.762	37304.5
617.118	37288.45
617.475	37583.36
617.831	37773.64
618.187	37860.19
618.543	37995.33
618.899	38444.13
619.255	38361.19
619.611	38502.89
619.967	38647.29
620.323	38927.51
620.678	38724.58
621.034	38995.3
621.39	38935.64
621.746	39094.51
622.101	39553.71
622.457	39605.23
622.812	39524.1
623.168	39750.08
623.523	39765
623.879	39866.01
624.234	39803.64
624.589	39964.32
624.945	40181.26
625.3	40199.11
625.655	40274.59
626.01	40458.09
626.365	40451.99
626.72	40490.4
627.075	40443.85
627.43	40532.21
627.785	40521.14
628.14	40745.99
628.495	40885.87
628.85	40782.15
629.205	40638.87
629.559	41076.15
629.914	40819.44
630.269	41099.65
630.623	40974.91
630.978	40962.71
631.332	41076.15
631.687	41312.53
632.041	41097.39
632.396	41175.36
632.75	41070.28
633.104	41308.24
633.459	41117.28
633.813	41095.59
634.167	41204.96
634.521	41072.54
634.875	41334.68
635.229	41284.06
635.583	41201.57
635.937	41141.23
636.291	41127.68
636.645	41136.26
636.999	41148.24
637.352	41202.93
637.706	41074.34
638.06	41286.32
638.413	41183.49
638.767	40875.7
639.121	40996.83
639.474	40874.35
639.828	41050.16
640.181	41064.4
640.534	41058.75
640.888	40958.64
641.241	41046.32
641.594	40937.62
641.947	41136.71
642.301	41062.82
642.654	41143.27
643.007	41092.2
643.36	40949.6
643.713	40877.96
644.066	41011.75
644.419	40871.41
644.771	40734.01
645.124	40268.49
645.477	40209.06
645.83	40078.66
646.182	39965.45
646.535	39846.35
646.888	39890.19
647.24	39682.52
647.593	40016.52
647.945	39854.49
648.298	39682.52
648.65	39627.6
649.002	39528.4
649.355	39802.29
649.707	39714.15
650.059	39919.57
650.411	40405.21
650.763	40461.48
651.115	40776.05
651.467	40593.68
651.819	40655.6
652.171	40443.17
652.523	40512.1
652.875	40498.99
653.227	40381.48
653.578	40577.41
653.93	40430.74
654.282	40337.64
654.633	40263.29
654.985	40360.01
655.337	40388.71
655.688	40375.38
656.039	40587.8
656.391	40233.69
656.742	40294.25
657.094	40365.89
657.445	40498.54
657.796	40315.49
658.147	40278.21
658.498	40221.94
658.849	40360.92
659.2	40301.71
659.551	40235.5
659.902	40277.98
660.253	40206.12
660.604	40375.61
660.955	40103.52
661.306	40345.32
661.656	40250.18
662.007	40364.53
662.358	40339.22
662.708	40305.55
663.059	40294.03
663.409	39979.46
663.76	40331.09
664.11	40136.29
664.461	40296.51
664.811	40374.02
665.161	40223.07
665.511	40081.6
665.862	40205.89
666.212	40251.99
666.562	40226
666.912	40102.84
667.262	40045.9
667.612	40156.85
667.962	40032.11
668.312	39987.59
668.662	40209.51
669.011	40152.11
669.361	40065.56
669.711	40000.93
670.06	39904.66
670.41	39889.29
670.76	39995.28
671.109	40004.32
671.459	39945.33
671.808	39897.2
672.157	40081.38
672.507	39755.73
672.856	39799.12
673.205	39866.24
673.554	39845.22
673.904	39865.11
674.253	40044.77
674.602	39882.28
674.951	39393.71
675.3	39171.34
675.649	39838.22
675.998	39732.68
676.346	39727.49
676.695	39830.08
677.044	39585.57
677.393	39628.05
677.741	39867.6
678.09	39508.96
678.438	39615.4
678.787	39625.79
679.135	39594.38
679.484	39331.79
679.832	39523.65
680.181	39321.62
680.529	39367.95
680.877	39193.04
681.225	39099.48
681.573	39478.68
681.922	39146.03
682.27	38938.13
682.618	39097.67
682.966	38922.54
683.314	39043.66
683.661	38773.61
684.009	38755.31
684.357	38643.45
684.705	38670.79
685.053	38754.63
685.4	38548.53
685.748	38530.23
686.095	38443.68
686.443	38395.32
686.79	38276
687.138	38314.64
687.485	38378.6
687.832	38149.22
688.18	38186.06
688.527	37981.09
688.874	38052.5
689.221	37979.96
689.568	37873.75
689.915	37766.18
690.262	37807.31
690.609	37754.66
690.956	37502.46
691.303	37460.65
691.65	37442.57
691.997	37355.12
692.344	37076.71
692.69	37050.49
693.037	37057.95
693.383	36855.47
693.73	37022.25
694.077	36674.23
694.423	36652.31
694.769	36597.17
695.116	36536.38
695.462	36538.42
695.808	36448.02
696.155	36474.24
696.501	36214.13
696.847	36171.65
697.193	35972.56
697.539	36052.55
697.885	35769.85
698.231	35740.7
698.577	35565.79
698.923	35650.08
699.269	35516.98
699.614	35228.85
699.96	35298.22
700.306	35292.8
700.651	35000.38
700.997	35025.24
701.342	35096.65
701.688	34957.67
702.033	34874.73
702.379	34758.58
702.724	34722.65
703.069	34772.81
703.415	34408.53
703.76	34341.41
704.105	34457.12
704.45	34360.85
704.795	34031.59
705.14	34019.61
705.485	34024.36
705.83	33965.15
706.175	33863.46
706.52	33801.54
706.865	33727.87
707.209	33674.31
707.554	33459.63
707.899	33511.83
708.243	33483.58
708.588	33413.3
708.932	33110.94
709.277	33186.19
709.621	33157.94
709.966	32931.96
710.31	32923.37
710.654	32708.91
710.998	32877.05
711.342	32882.02
711.687	32755.47
712.031	32654.68
712.375	32446.32
712.719	32509.37
713.063	32406.55
713.407	32488.58
713.75	32279.09
714.094	32218.31
714.438	32165.88
714.782	32222.6
715.125	32048.14
715.469	32084.98
715.812	31900.12
716.156	31772.89
716.499	31901.48
716.843	31933.12
717.186	31700.35
717.53	31888.82
717.873	31779.22
718.216	31686.57
718.559	31636.4
718.902	31244.55
719.246	31354.6
719.589	31242.96
719.932	31281.38
720.275	31111.67
720.617	31210.87
720.96	31072.35
721.303	31041.16
721.646	31070.54
721.989	30868.74
722.331	30989.86
722.674	30889.75
723.016	30864.67
723.359	30798.91
723.701	30899.02
724.044	30579.03
724.386	30513.94
724.729	30758.23
725.071	30532.47
725.413	30485.24
725.755	30350.11
726.097	30289.09
726.439	30303.33
726.782	30241.18
727.124	30378.13
727.465	30064.46
727.807	30238.47
728.149	30057.46
728.491	30015.2
728.833	29976.1
729.175	29979.04
729.516	29955.09
729.858	29877.35
730.199	29887.07
730.541	29811.14
730.882	29803.23
731.224	29831.7
731.565	29715.32
731.906	29654.08
732.248	29696.56
732.589	29494.31
732.93	29439.85
733.271	29390.81
733.612	29427.64
733.953	29471.48
734.294	29399.4
734.635	29323.92
734.976	29419.51
735.317	29168.44
735.658	29156.01
735.999	29098.39
736.339	29134.32
736.68	29250.47
737.021	28903.14
737.361	28979.29
737.702	29144.26
738.042	28910.6
738.383	28874.66
738.723	28894.78
739.063	28833.99
739.404	28953.31
739.744	28843.93
740.084	28653.2
740.424	28705.63
740.764	28641.68
741.104	28691.84
741.444	28548.8
741.784	28346.77
742.124	28580.21
742.464	28489.59
742.804	28457.5
743.143	28438.29
743.483	28299.09
743.823	28252.99
744.162	28235.59
744.502	28228.35
744.841	28058.41
745.181	28261.8
745.52	28102.48
745.86	28218.18
746.199	28105.42
746.538	28102.03
746.877	28067
747.216	27991.75
747.556	27971.19
747.895	27893.9
748.234	27832.21
748.573	27893.22
748.911	27796.27
749.25	27795.14
749.589	27645.32
749.928	27738.88
750.267	27602.83
750.605	27676.96
750.944	27483.29
751.283	27357.19
751.621	27511.31
751.96	27273.12
752.298	27394.25
752.636	27369.17
752.975	27256.85
753.313	27208.04
753.651	27323.52
753.989	27174.37
754.327	27204.43
754.666	26857.32
755.004	26993.36
755.342	27036.52
755.679	26884.66
756.017	26775.96
756.355	26857.99
756.693	26727.83
757.031	26765.12
757.368	26763.08
757.706	26650.77
758.044	26540.26
758.381	26480.83
758.719	26350.21
759.056	26474.95
759.394	26362.19
