Data from hue_22_FLMS001491_00059.txt Node
Date: Tue Feb 07 17:10:20 GMT 2017
User: dcchb
Spectrometer: FLMS00149
Trigger mode: 0
Integration Time (sec): 2.000000E-2
Scans to average: 10
Electric dark correction enabled: true
Nonlinearity correction enabled: false
Boxcar width: 0
XAxis mode: Wavelengths
Number of Pixels in Spectrum: 2048
>>>>>Begin Spectral Data<<<<<
341.393	-33.84
341.776	-33.84
342.16	-33.84
342.543	-68.64
342.927	-55.99
343.31	-62.54
343.693	-63.9
344.077	-70.9
344.46	-58.93
344.843	-37
345.226	-45.37
345.61	-45.37
345.993	-26.84
346.376	-6.5
346.759	-7.4
347.142	47.06
347.525	29.89
347.908	47.29
348.291	94.52
348.674	99.49
349.057	106.49
349.44	108.3
349.823	138.36
350.206	148.08
350.588	207.51
350.971	223.33
351.354	215.64
351.737	233.72
352.119	236.66
352.502	265.81
352.884	267.17
353.267	264.23
353.65	284.57
354.032	296.55
354.414	284.57
354.797	329.09
355.179	324.57
355.562	322.08
355.944	313.95
356.326	328.64
356.709	334.96
357.091	335.87
357.473	329.99
357.855	323.89
358.238	344
358.62	339.48
359.002	320.27
359.384	346.26
359.766	341.06
360.148	341.74
360.53	331.12
360.912	339.03
361.294	353.04
361.676	323.21
362.057	338.8
362.439	347.17
362.821	330.9
363.203	325.25
363.584	332.25
363.966	329.54
364.348	313.95
364.729	320.95
365.111	309.88
365.493	318.92
365.874	329.99
366.256	315.75
366.637	289.77
367.019	305.13
367.4	310.1
367.781	320.5
368.163	326.15
368.544	308.97
368.925	309.43
369.306	305.36
369.688	309.2
370.069	313.95
370.45	325.25
370.831	303.33
371.212	317.34
371.593	324.12
371.974	296.09
372.355	306.94
372.736	317.79
373.117	312.36
373.498	307.17
373.879	310.1
374.26	328.64
374.641	309.2
375.021	305.81
375.402	319.6
375.783	316.66
376.163	334.06
376.544	348.75
376.925	321.63
377.305	305.36
377.686	317.34
378.066	322.99
378.447	336.77
378.827	315.53
379.208	325.47
379.588	316.66
379.968	324.79
380.349	344.91
380.729	339.48
381.109	349.43
381.489	326.38
381.87	326.15
382.25	340.84
382.63	318.69
383.01	334.28
383.39	343.32
383.77	343.55
384.15	334.28
384.53	355.53
384.91	335.64
385.29	355.3
385.67	349.2
386.049	351.01
386.429	351.69
386.809	346.04
387.189	347.17
387.568	365.02
387.948	343.78
388.328	346.49
388.707	356.66
389.087	366.83
389.466	367.28
389.846	351.23
390.225	384.45
390.605	377
390.984	351.23
391.363	374.74
391.743	342.87
392.122	372.02
392.501	381.52
392.881	374.74
393.26	375.87
393.639	366.37
394.018	346.26
394.397	360.27
394.776	393.72
395.155	402.31
395.534	372.25
395.913	382.65
396.292	381.52
396.671	382.65
397.05	387.16
397.429	395.53
397.808	383.78
398.186	400.05
398.565	377.9
398.944	380.39
399.323	383.32
399.701	393.49
400.08	417.45
400.458	404.57
400.837	384.68
401.215	427.84
401.594	411.12
401.972	429.2
402.351	418.58
402.729	393.94
403.107	428.75
403.486	406.37
403.864	417.45
404.242	406.15
404.62	415.86
404.999	400.5
405.377	437.11
405.755	429.42
406.133	428.29
406.511	412.02
406.889	424.9
407.267	434.62
407.645	453.38
408.023	462.19
408.401	438.46
408.779	432.14
409.156	441.4
409.534	470.55
409.912	435.53
410.29	438.24
410.667	435.53
411.045	454.28
411.422	457.9
411.8	475.98
412.178	453.38
412.555	452.02
412.933	450.21
413.31	469.87
413.687	482.08
414.065	500.38
414.442	474.85
414.819	490.21
415.197	488.63
415.574	488.63
415.951	502.42
416.328	506.48
416.705	507.39
417.082	482.3
417.46	497.22
417.837	538.8
418.214	499.7
418.591	518.01
418.967	533.15
419.344	522.75
419.721	524.56
420.098	512.81
420.475	519.82
420.852	503.55
421.228	543.32
421.605	517.78
421.982	555.3
422.358	559.14
422.735	537.44
423.111	546.03
423.488	556.88
423.864	549.87
424.241	557.33
424.617	573.83
424.994	554.84
425.37	567.05
425.746	559.36
426.123	566.6
426.499	582.41
426.875	584.45
427.251	580.15
427.627	580.83
428.003	589.65
428.379	584.9
428.756	592.81
429.132	606.82
429.507	618.57
429.883	610.89
430.259	633.49
430.635	617.44
431.011	630.32
431.387	623.54
431.763	647.72
432.138	657.89
432.514	642.75
432.89	644.79
433.265	659.47
433.641	657.44
434.016	666.25
434.392	676.65
434.767	694.28
435.143	694.95
435.518	681.17
435.894	691.79
436.269	699.02
436.644	710.32
437.02	694.5
437.395	706.03
437.77	718.46
438.145	714.16
438.52	739.02
438.895	745.57
439.271	735.86
439.646	726.37
440.021	740.83
440.395	726.82
440.77	752.35
441.145	750.09
441.52	767.72
441.895	750.55
442.27	766.82
442.645	760.26
443.019	802.07
443.394	763.65
443.769	782.41
444.143	822.86
444.518	795.97
444.892	807.94
445.267	813.14
445.641	812.92
446.016	801.84
446.39	813.82
446.764	805.01
447.139	797.32
447.513	825.35
447.887	852.46
448.262	820.15
448.636	839.36
449.01	836.42
449.384	878.45
449.758	826.02
450.132	880.03
450.506	884.55
450.88	893.82
451.254	870.99
451.628	892.69
452.002	882.75
452.376	890.88
452.75	884.78
453.123	920.48
453.497	925.46
453.871	944.44
454.244	943.53
454.618	949.86
454.992	951.22
455.365	961.39
455.739	978.79
456.112	988.51
456.486	977.43
456.859	1001.61
457.232	1017.66
457.606	1034.15
457.979	1031.67
458.352	1034.38
458.725	1088.16
459.099	1069.41
459.472	1090.2
459.845	1078.45
460.218	1098.56
460.591	1091.1
460.964	1101.27
461.337	1112.57
461.71	1116.64
462.083	1141.72
462.456	1181.49
462.829	1176.07
463.201	1186.47
463.574	1161.38
463.947	1183.75
464.32	1208.84
464.692	1212.45
465.065	1225.11
465.438	1263.53
465.81	1270.31
466.183	1323.64
466.555	1293.13
466.928	1308.72
467.3	1325.45
467.672	1324.09
468.045	1372.9
468.417	1374.26
468.789	1383.97
469.161	1394.14
469.534	1426.01
469.906	1445.22
470.278	1469.17
470.65	1486.8
471.022	1486.8
471.394	1496.51
471.766	1529.28
472.138	1562.5
472.51	1565.44
472.882	1612.67
473.253	1627.36
473.625	1656.96
473.997	1721.59
474.369	1719.33
474.74	1735.83
475.112	1753.23
475.484	1787.58
475.855	1800.91
476.227	1827.81
476.598	1868.03
476.97	1893.57
477.341	1971.08
477.713	2004.75
478.084	1993
478.455	2062.83
478.827	2056.27
479.198	2117.51
479.569	2149.38
479.94	2209.26
480.311	2219.43
480.682	2289.04
481.053	2303.5
481.424	2367.23
481.795	2385.76
482.166	2443.38
482.537	2515.92
482.908	2534
483.279	2564.96
483.65	2659.42
484.021	2665.3
484.391	2728.12
484.762	2784.62
485.133	2805.41
485.503	2844.28
485.874	2879.3
486.244	2935.57
486.615	2989.36
486.985	2997.04
487.356	3095.34
487.726	3099.41
488.097	3172.18
488.467	3208.79
488.837	3285.39
489.207	3324.49
489.578	3382.57
489.948	3395.22
490.318	3489
490.688	3458.95
491.058	3557.03
491.428	3613.97
491.798	3635.89
492.168	3720.41
492.538	3761.77
492.908	3802.44
493.278	3845.38
493.648	3844.93
494.017	3899.84
494.387	4010.35
494.757	3998.6
495.126	4044.47
495.496	4080.18
495.866	4128.54
496.235	4156.11
496.605	4202.88
496.974	4231.58
497.344	4297.8
497.713	4312.49
498.082	4330.79
498.452	4393.16
498.821	4413.05
499.19	4437
499.559	4475.19
499.928	4476.55
500.298	4522.2
500.667	4566.26
501.036	4558.81
501.405	4613.49
501.774	4666.15
502.143	4635.64
502.512	4708.18
502.88	4727.62
503.249	4763.32
503.618	4791.57
503.987	4843.09
504.356	4872.24
504.724	4893.71
505.093	4832.02
505.462	4909.53
505.83	4904.56
506.199	4996.76
506.567	5073.37
506.936	4990.89
507.304	5056.65
507.672	5096.19
508.041	5118.79
508.409	5160.82
508.777	5135.97
509.145	5180.94
509.514	5214.83
509.882	5192.24
510.25	5264.1
510.618	5276.53
510.986	5280.82
511.354	5328.96
511.722	5347.94
512.09	5426.13
512.458	5412.8
512.826	5489.63
513.193	5479.01
513.561	5486.69
513.929	5543.87
514.297	5554.49
514.664	5602.85
515.032	5598.1
515.4	5645.78
515.767	5632.68
516.135	5701.15
516.502	5657.08
516.869	5736.85
517.237	5797.64
517.604	5698.66
517.972	5777.31
518.339	5826.34
518.706	5824.31
519.073	5835.38
519.44	5836.51
519.808	5919
520.175	5950.86
520.542	5978.43
520.909	6015.04
521.276	6022.5
521.643	6074.7
522.009	6083.51
522.376	6125.09
522.743	6182.94
523.11	6181.59
523.477	6270.17
523.843	6259.78
524.21	6332.55
524.577	6337.97
524.943	6347.69
525.31	6412.77
525.676	6479.43
526.043	6472.43
526.409	6520.79
526.776	6584.74
527.142	6570.05
527.508	6652.31
527.874	6679.88
528.241	6639.66
528.607	6703.16
528.973	6808.69
529.339	6806.88
529.705	6850.5
530.071	6897.73
530.437	6855.92
530.803	6928.46
531.169	6934.11
531.535	6970.72
531.901	7008.23
532.267	6952.19
532.632	7164.16
532.998	7081.68
533.364	7154.44
533.73	7156.03
534.095	7230.6
534.461	7244.16
534.826	7331.84
535.192	7297.94
535.557	7333.2
535.923	7345.63
536.288	7377.94
536.653	7408.45
537.019	7391.05
537.384	7441.67
537.749	7493.64
538.114	7531.16
538.479	7595.11
538.845	7584.26
539.21	7616.81
539.575	7661.78
539.94	7636.24
540.305	7735.9
540.67	7725.05
541.034	7760.53
541.399	7831.04
541.764	7817.25
542.129	7883.01
542.494	7887.98
542.858	7927.98
543.223	7978.15
543.587	8044.59
543.952	8038.04
544.316	8021.99
544.681	8028.09
545.045	8093.18
545.41	8175.21
545.774	8221.99
546.138	8200.97
546.503	8278.03
546.867	8212.5
547.231	8292.49
547.595	8393.28
547.959	8355.09
548.324	8348.99
548.688	8443.68
549.052	8479.83
549.416	8510.34
549.779	8455.88
550.143	8499.72
550.507	8588.31
550.871	8615.88
551.235	8560.51
551.599	8674.86
551.962	8716.89
552.326	8680.51
552.689	8764.35
553.053	8711.24
553.417	8699.94
553.78	8806.15
554.143	8832.59
554.507	8874.17
554.87	8837.34
555.234	8974.06
555.597	8863.1
555.96	8932.03
556.323	8933.15
556.686	9003.89
557.05	9107.16
557.413	9053.38
557.776	9144.67
558.139	9238.23
558.502	9175.63
558.865	9236.88
559.228	9265.12
559.59	9248.4
559.953	9322.98
560.316	9448.62
560.679	9405.46
561.041	9442.75
561.404	9489.52
561.767	9509.18
562.129	9490.65
562.492	9606.81
562.854	9525.23
563.217	9605.23
563.579	9675.96
563.941	9711.67
564.304	9757.77
564.666	9729.74
565.028	9842.74
565.39	9856.97
565.753	9932.68
566.115	9962.73
566.477	10033.46
566.839	9979.91
567.201	10035.72
567.563	10082.05
567.925	10096.74
568.287	10124.99
568.648	10158.66
569.01	10242.5
569.372	10352.55
569.734	10283.4
570.095	10348.71
570.457	10383.74
570.819	10368.82
571.18	10395.04
571.542	10526.33
571.903	10498.54
572.265	10617.4
572.626	10618.08
572.987	10675.48
573.349	10696.05
573.71	10714.8
574.071	10832.54
574.432	10996.6
574.794	10964.51
575.155	10964.06
575.516	11058.52
575.877	11149.37
576.238	11147.11
576.599	11314.79
576.96	11394.33
577.32	11419.64
577.681	11543.71
578.042	11601.11
578.403	11649.02
578.763	11735.79
579.124	11839.52
579.485	11974.2
579.845	12095.11
580.206	12196.35
580.566	12210.81
580.927	12395.44
581.287	12589.1
581.648	12657.8
582.008	12787.74
582.368	12962.88
582.728	13160.16
583.089	13252.14
583.449	13372.81
583.809	13604.22
584.169	13731.67
584.529	13871.33
584.889	14164.66
585.249	14311.54
585.609	14465.89
585.969	14635.38
586.329	14897.07
586.688	15060
587.048	15374.34
587.408	15530.27
587.768	15798.51
588.127	15996.7
588.487	16241.66
588.846	16625.83
589.206	16655.89
589.565	17126.39
589.925	17262.88
590.284	17584.23
590.643	17814.96
591.003	18124.1
591.362	18386.47
591.721	18681.37
592.08	18917.53
592.44	19243.39
592.799	19554.34
593.158	19905.97
593.517	20110.04
593.876	20443.13
594.235	20781.2
594.593	21104.81
594.952	21416.89
595.311	21674.06
595.67	22002.64
596.029	22429.3
596.387	22788.16
596.746	23149.96
597.104	23246.68
597.463	23627.23
597.822	24026.77
598.18	24191.51
598.538	24441.22
598.897	24975.9
599.255	25052.96
599.613	25722.32
599.972	25921.41
600.33	26200.5
600.688	26382.87
601.046	26762.74
601.404	27282.28
601.762	27462.16
602.12	27957.06
602.478	28146.66
602.836	28382.81
603.194	28556.37
603.552	28780.54
603.91	29142.79
604.268	29522.9
604.625	29716.56
604.983	30069.55
605.341	30256.21
605.698	30682.64
606.056	30936.87
606.413	31251.66
606.771	31573.46
607.128	31907.92
607.485	31851.2
607.843	32136.61
608.2	32585.41
608.557	32863.15
608.914	33057.49
609.272	33386.07
609.629	33614.54
609.986	33944.7
610.343	34158.48
610.7	34432.15
611.057	34553.72
611.414	34594.63
611.771	34978.8
612.127	35238.68
612.484	35435.96
612.841	35704.2
613.198	35913.46
613.554	36016.51
613.911	36386.44
614.267	36473.9
614.624	36700.11
614.98	36851.74
615.337	37199.3
615.693	37332.41
616.05	37502.35
616.406	37722
616.762	37989.79
617.118	38043.12
617.475	38151.6
617.831	38454.64
618.187	38610.57
618.543	38569.89
618.899	38959.71
619.255	39124
619.611	39132.36
619.967	39305.92
620.323	39557.21
620.678	39490.09
621.034	39439.47
621.39	39742.06
621.746	39732.12
622.101	40356.06
622.457	40057.99
622.812	40313.8
623.168	40427.02
623.523	40547.69
623.879	40612.55
624.234	40654.58
624.589	40701.13
624.945	40860.23
625.3	41110.16
625.655	41094.34
626.01	41281
626.365	41221.35
626.72	41388.12
627.075	41276.26
627.43	41504.28
627.785	41334.11
628.14	41582.92
628.495	41693.65
628.85	41694.1
629.205	41611.62
629.559	41890.25
629.914	41652.29
630.269	41900.42
630.623	41829.01
630.978	41797.83
631.332	42072.4
631.687	42143.58
632.041	42061.1
632.396	42150.59
632.75	42120.53
633.104	42165.28
633.459	42084.83
633.813	42139.06
634.167	42146.29
634.521	42173.86
634.875	42253.18
635.229	42264.26
635.583	42134.77
635.937	42029.91
636.291	42078.05
636.645	42151.04
636.999	42178.61
637.352	42236.23
637.706	41988.78
638.06	42270.58
638.413	42165.05
638.767	42003.92
639.121	42196.24
639.474	42067.2
639.828	42046.18
640.181	42064.94
640.534	42151.72
640.888	42028.56
641.241	41877.15
641.594	42001.21
641.947	42083.02
642.301	42107.88
642.654	42097.71
643.007	42107.42
643.36	42091.38
643.713	41956.47
644.066	42123.69
644.419	41873.76
644.771	41605.74
645.124	41261.34
645.477	41279.88
645.83	41045.53
646.182	40981.8
646.535	40910.85
646.888	40961.47
647.24	40866.1
647.593	41024.29
647.945	40926.21
648.298	40725.77
648.65	40607.35
649.002	40521.25
649.355	40773.67
649.707	40807.35
650.059	40876.04
650.411	41424.28
650.763	41294.34
651.115	41827.43
651.467	41572.97
651.819	41645.97
652.171	41539.08
652.523	41523.48
652.875	41597.61
653.227	41439.87
653.578	41642.13
653.93	41560.32
654.282	41376.37
654.633	41392.41
654.985	41564.61
655.337	41633.31
655.688	41360.78
656.039	41603.26
656.391	41320.78
656.742	41437.16
657.094	41538.4
657.445	41570.26
657.796	41460.21
658.147	41379.08
658.498	41279.2
658.849	41439.42
659.2	41392.87
659.551	41212.98
659.902	41300.67
660.253	41222.7
660.604	41362.58
660.955	41254.34
661.306	41370.95
661.656	41196.04
662.007	41284.17
662.358	41295.92
662.708	41313.55
663.059	41275.13
663.409	41079.65
663.76	41411.62
664.11	41311.74
664.461	41373.43
664.811	41294.56
665.161	41312.87
665.511	41154.68
665.862	41166.66
666.212	41306.54
666.562	41267.22
666.912	41129.14
667.262	41201.01
667.612	41066.1
667.962	41350.16
668.312	41093.67
668.662	41293.66
669.011	41200.33
669.361	41151.29
669.711	41038.98
670.06	41031.29
670.41	41018.64
670.76	41080.56
671.109	41076.26
671.459	41060.67
671.808	41063.38
672.157	41136.15
672.507	40933.67
672.856	40952.43
673.205	40961.24
673.554	41095.02
673.904	40941.35
674.253	41071.07
674.602	40989.26
674.951	40422.72
675.3	40370.07
675.649	40896.16
675.998	40825.42
676.346	40693.9
676.695	40926.21
677.044	40540.69
677.393	40803.28
677.741	40705.88
678.09	40657.74
678.438	40745.65
678.787	40645.99
679.135	40674.24
679.484	40450.07
679.832	40536.17
680.181	40382.72
680.529	40512.66
680.877	40213.24
681.225	40251.2
681.573	40434.93
681.922	40238.09
682.27	40147.7
682.618	40292.1
682.966	40168.94
683.314	40119.68
683.661	39988.16
684.009	39834.72
684.357	39843.3
684.705	39694.83
685.053	39735.51
685.4	39705.91
685.748	39600.82
686.095	39580.26
686.443	39366.48
686.79	39291.45
687.138	39529.41
687.485	39424.1
687.832	39266.82
688.18	39420.26
688.527	38982.76
688.874	39068.41
689.221	39008.3
689.568	39028.63
689.915	38827.51
690.262	38838.36
690.609	38770.11
690.956	38747.96
691.303	38596.78
691.65	38394.3
691.997	38436.33
692.344	38206.51
692.69	38135.32
693.037	38161.76
693.383	38078.6
693.73	38043.58
694.077	37716.58
694.423	37819.4
694.769	37773.3
695.116	37607.43
695.462	37497.15
695.808	37390.94
696.155	37532.4
696.501	37240.21
696.847	37365.63
697.193	37095.8
697.539	37024.17
697.885	36799.09
698.231	36823.5
698.577	36854.23
698.923	36788.92
699.269	36650.62
699.614	36438.65
699.96	36277.29
700.306	36361.59
700.651	36227.13
700.997	36041.59
701.342	36129.73
701.688	35969.28
702.033	35884.54
702.379	35774.94
702.724	35727.25
703.069	35803.86
703.415	35415.62
703.76	35506.02
704.105	35519.35
704.45	35236.64
704.795	35158.45
705.14	35044.56
705.485	35063.32
705.83	34816.54
706.175	34897.67
706.52	34844.56
706.865	34782.64
707.209	34527.74
707.554	34568.64
707.899	34703.55
708.243	34458.81
708.588	34351.02
708.932	34048.88
709.277	34165.26
709.621	34213.62
709.966	33936.79
710.31	33984.93
710.654	33687.53
710.998	33902.89
711.342	33843.91
711.687	33791.48
712.031	33530.47
712.375	33498.38
712.719	33626.06
713.063	33530.25
713.407	33606.18
713.75	33376.35
714.094	33251.61
714.438	33190.14
714.782	33276.24
715.125	33146.08
715.469	33157.15
715.812	33043.48
716.156	32935.01
716.499	32861.79
716.843	32836.93
717.186	32715.58
717.53	32984.05
717.873	32711.06
718.216	32747.67
718.559	32579.99
718.902	32236.05
719.246	32434.91
719.589	32303.84
719.932	32273.78
720.275	32117.63
720.617	32150.85
720.96	31993.57
721.303	32026.11
721.646	32243.05
721.989	31913.12
722.331	31991.76
722.674	31883.29
723.016	31841.93
723.359	31734.36
723.701	31907.92
724.044	31611.65
724.386	31480.81
724.729	31531.2
725.071	31496.86
725.413	31421.38
725.755	31458.21
726.097	31159.46
726.439	31149.52
726.782	31223.64
727.124	31315.39
727.465	31152.01
727.807	31102.52
728.149	31054.38
728.491	30921.28
728.833	31007.38
729.175	30936.64
729.516	30938
729.858	30812.81
730.199	30869.75
730.541	30790.43
730.882	30716.76
731.224	30699.14
731.565	30606.03
731.906	30615.75
732.248	30517.45
732.589	30385.7
732.93	30400.39
733.271	30366.04
733.612	30439.26
733.953	30414.85
734.294	30218.92
734.635	30104.58
734.976	30323.1
735.317	30234.74
735.658	30097.12
735.999	30128.3
736.339	30002.21
736.68	30023.45
737.021	30062.54
737.361	29806.05
737.702	30020.06
738.042	29837.69
738.383	29703.46
738.723	29801.53
739.063	29760.18
739.404	29783.91
739.744	29584.82
740.084	29616.68
740.424	29603.12
740.764	29629.11
741.104	29602.67
741.444	29554.53
741.784	29402.45
742.124	29483.35
742.464	29400.87
742.804	29346.18
743.143	29251.94
743.483	29230.47
743.823	29248.33
744.162	29125.17
744.502	29119.97
744.841	29040.65
745.181	29101.89
745.52	28908
745.86	28973.76
746.199	29063.93
746.538	28990.25
746.877	28955.23
747.216	28862.8
747.556	28875.91
747.895	28867.09
748.234	28783.48
748.573	28626.2
748.911	28664.84
749.25	28686.99
749.589	28544.39
749.928	28619.42
750.267	28569.02
750.605	28529.02
750.944	28413.77
751.283	28255.81
751.621	28471.4
751.96	28219.2
752.298	28205.19
752.636	28303.27
752.975	28086.55
753.313	27857.86
753.651	28162.48
753.989	27938.3
754.327	27914.35
754.666	27769.72
755.004	27748.93
755.342	27873.22
755.679	27813.79
756.017	27625.32
756.355	27693.57
756.693	27642.04
757.031	27669.84
757.368	27366.79
757.706	27329.51
758.044	27273.01
758.381	27314.59
758.719	27242.28
759.056	27253.35
759.394	27157.53
759.731	26982.85
760.068	26973.36
