Data from hue_120_FLMS001491_00021.txt Node
Date: Tue Feb 07 16:59:07 GMT 2017
User: dcchb
Spectrometer: FLMS00149
Trigger mode: 0
Integration Time (sec): 2.000000E-2
Scans to average: 10
Electric dark correction enabled: true
Nonlinearity correction enabled: false
Boxcar width: 0
XAxis mode: Wavelengths
Number of Pixels in Spectrum: 2048
>>>>>Begin Spectral Data<<<<<
341.393	-16.24
341.776	-16.24
342.16	-16.24
342.543	-75.9
342.927	-63.7
343.31	-77.71
343.693	-54.43
344.077	-65.51
344.46	-58.5
344.843	-57.82
345.226	-52.4
345.61	-39.97
345.993	1.38
346.376	7.03
346.759	21.5
347.142	33.7
347.525	35.51
347.908	61.95
348.291	59.24
348.674	75.05
349.057	110.99
349.44	128.61
349.823	129.52
350.206	177.2
350.588	182.4
350.971	197.54
351.354	227.82
351.737	227.37
352.119	250.19
352.502	271.21
352.884	255.61
353.267	283.64
353.65	309.17
354.032	305.1
354.414	288.38
354.797	309.85
355.179	319.12
355.562	312.11
355.944	313.24
356.326	311.66
356.709	327.03
357.091	343.3
357.473	326.12
357.855	345.1
358.238	341.49
358.62	314.82
359.002	320.47
359.384	361.37
359.766	323.64
360.148	340.58
360.53	328.38
360.912	347.59
361.294	327.03
361.676	352.11
362.057	340.36
362.439	324.77
362.821	340.58
363.203	324.77
363.584	297.42
363.966	327.48
364.348	289.96
364.729	327.93
365.111	326.35
365.493	306.23
365.874	319.12
366.256	306.91
366.637	306.91
367.019	309.17
367.4	301.26
367.781	321.83
368.163	318.44
368.544	306.23
368.925	296.52
369.306	322.73
369.688	296.97
370.069	312.11
370.45	299.68
370.831	328.61
371.212	308.95
371.593	312.56
371.974	312.56
372.355	321.38
372.736	324.09
373.117	309.4
373.498	324.77
373.879	314.6
374.26	320.25
374.641	322.28
375.021	318.44
375.402	307.36
375.783	313.47
376.163	309.17
376.544	314.82
376.925	327.25
377.305	346.69
377.686	325.22
378.066	313.01
378.447	314.82
378.827	343.52
379.208	334.93
379.588	335.84
379.968	327.48
380.349	329.29
380.729	317.53
381.109	328.38
381.489	310.53
381.87	346.01
382.25	341.71
382.63	361.6
383.01	346.46
383.39	349.62
383.77	332.45
384.15	362.73
384.53	348.27
384.91	346.91
385.29	322.05
385.67	331.77
386.049	351.21
386.429	341.04
386.809	350.08
387.189	323.86
387.568	359.11
387.948	382.17
388.328	345.56
388.707	342.84
389.087	354.6
389.466	361.6
389.846	363.63
390.225	379.68
390.605	368.61
390.984	371.54
391.363	368.83
391.743	367.25
392.122	388.04
392.501	386.46
392.881	376.97
393.26	367.93
393.639	376.97
394.018	380.81
394.397	388.04
394.776	387.36
395.155	388.49
395.534	373.13
395.913	384.65
396.292	385.1
396.671	401.37
397.05	393.69
397.429	389.62
397.808	391.2
398.186	390.53
398.565	412.9
398.944	395.27
399.323	402.05
399.701	409.06
400.08	412.67
400.458	421.49
400.837	404.99
401.215	414.71
401.594	397.98
401.972	390.07
402.351	404.76
402.729	410.64
403.107	414.48
403.486	444.31
403.864	412.22
404.242	413.58
404.62	440.92
404.999	428.27
405.377	409.96
405.755	434.37
406.133	453.12
406.511	435.27
406.889	436.4
407.267	438.43
407.645	434.14
408.023	453.58
408.401	450.41
408.779	432.56
409.156	440.24
409.534	468.49
409.912	468.26
410.29	460.58
410.667	462.84
411.045	463.29
411.422	469.62
411.8	473.91
412.178	487.93
412.555	486.34
412.933	473.01
413.31	491.54
413.687	513.46
414.065	513.69
414.442	494.48
414.819	493.12
415.197	516.4
415.574	501.48
415.951	508.72
416.328	508.49
416.705	512.78
417.082	502.84
417.46	526.79
417.837	505.33
418.214	538.32
418.591	536.06
418.967	550.3
419.344	541.93
419.721	574.02
420.098	548.49
420.475	538.55
420.852	546.45
421.228	544.65
421.605	562.73
421.982	541.48
422.358	563.63
422.735	569.28
423.111	564.08
423.488	564.99
423.864	580.13
424.241	582.39
424.617	573.35
424.994	587.58
425.37	610.63
425.746	589.17
426.123	598.66
426.499	596.4
426.875	618.54
427.251	623.06
427.627	646.34
428.003	629.62
428.379	617.87
428.756	629.39
429.132	661.25
429.507	611.76
429.883	647.47
430.259	660.8
430.635	656.28
431.011	657.86
431.387	678.88
431.763	684.3
432.138	664.87
432.514	697.19
432.89	683.63
433.265	690.41
433.641	694.93
434.016	720.91
434.392	717.98
434.767	741.93
435.143	719.11
435.518	733.12
435.894	741.48
436.269	737.86
436.644	793.45
437.02	765.43
437.395	773.34
437.77	774.47
438.145	784.19
438.52	794.13
438.895	816.05
439.271	828.48
439.646	821.25
440.021	837.97
440.395	815.15
440.77	812.89
441.145	830.51
441.52	856.28
441.895	840.23
442.27	883.85
442.645	837.97
443.019	862.83
443.394	860.12
443.769	878.88
444.143	855.6
444.518	881.59
444.892	891.98
445.267	895.37
445.641	900.12
446.016	908.93
446.39	915.03
446.764	907.58
447.139	913.9
447.513	943.28
447.887	938.76
448.262	906.45
448.636	929.95
449.01	955.26
449.384	968.36
449.758	945.99
450.132	981.02
450.506	970.85
450.88	992.77
451.254	981.7
451.628	1016.72
452.002	1010.85
452.376	1012.43
452.75	1015.37
453.123	1036.84
453.497	1025.99
453.871	1035.93
454.244	1066.89
454.618	1058.76
454.992	1072.32
455.365	1076.61
455.739	1094.46
456.112	1120
456.486	1131.07
456.859	1134.69
457.232	1188.92
457.606	1182.82
457.979	1143.73
458.352	1206.78
458.725	1235.48
459.099	1212.43
459.472	1230.96
459.845	1283.84
460.218	1265.98
460.591	1297.62
460.964	1266.89
461.337	1341.24
461.71	1333.33
462.083	1368.81
462.456	1373.78
462.829	1391.86
463.201	1400.44
463.574	1425.75
463.947	1420.56
464.32	1480.44
464.692	1474.11
465.065	1491.97
465.438	1522.02
465.81	1546.43
466.183	1547.56
466.555	1559.54
466.928	1627.78
467.3	1614.9
467.672	1632.75
468.045	1684.5
468.417	1695.12
468.789	1705.07
469.161	1755.24
469.534	1790.49
469.906	1795.24
470.278	1830.26
470.65	1886.53
471.022	1891.73
471.394	1962.91
471.766	1938.51
472.138	2008.79
472.51	2034.78
472.882	2084.49
473.253	2136.02
473.625	2185.28
473.997	2234.09
474.369	2255.79
474.74	2289.69
475.112	2362
475.484	2427.54
475.855	2514.76
476.227	2537.14
476.598	2599.96
476.97	2682.9
477.341	2726.51
477.713	2771.93
478.084	2816.45
478.455	2944.13
478.827	2984.13
479.198	3089.89
479.569	3198.81
479.94	3264.12
480.311	3317.91
480.682	3446.27
481.053	3558.8
481.424	3665.69
481.795	3745.47
482.166	3832.24
482.537	3905.46
482.908	4033.37
483.279	4127.83
483.65	4264.77
484.021	4381.38
484.391	4512.23
484.762	4603.97
485.133	4700.02
485.503	4830.64
485.874	4996.73
486.244	5088.03
486.615	5249.38
486.985	5342.94
487.356	5481.47
487.726	5598.75
488.097	5805.75
488.467	5860.89
488.837	6102.69
489.207	6220.43
489.578	6324.16
489.948	6453.64
490.318	6621.78
490.688	6739.96
491.058	6897.02
491.428	7050.69
491.798	7202.1
492.168	7435.76
492.538	7517.8
492.908	7692.71
493.278	7817.68
493.648	7955.3
494.017	8098.8
494.387	8265.35
494.757	8407.72
495.126	8559.8
495.496	8645
495.866	8753.24
496.235	8920.92
496.605	9032.79
496.974	9176.28
497.344	9376.28
497.713	9422.61
498.082	9537.63
498.452	9755.7
498.821	9873.21
499.19	9887.23
499.559	10050.39
499.928	10165.86
500.298	10255.13
500.667	10437.49
501.036	10435.69
501.405	10604.5
501.774	10659.18
502.143	10793.19
502.512	10942.34
502.88	11048.33
503.249	11097.14
503.618	11188.89
503.987	11279.05
504.356	11350.69
504.724	11463.68
505.093	11590.23
505.462	11619.38
505.83	11717.91
506.199	11789.32
506.567	12017.57
506.936	11989.77
507.304	12156.77
507.672	12241.97
508.041	12224.11
508.409	12350.89
508.777	12472.69
509.145	12515.86
509.514	12558.79
509.882	12614.61
510.25	12658.23
510.618	12700.94
510.986	12845.34
511.354	12932.34
511.722	12955.85
512.09	13137.54
512.458	13068.61
512.826	13252.56
513.193	13302.96
513.561	13255.95
513.929	13316.51
514.297	13491.42
514.664	13506.57
515.032	13529.84
515.4	13544.98
515.767	13650.97
516.135	13703.85
516.502	13630.18
516.869	13810.06
517.237	13860.23
517.604	13849.16
517.972	13912.88
518.339	13885.31
518.706	13923.05
519.073	13920.34
519.44	14060.45
519.808	14160.11
520.175	14020.68
520.542	14238.98
520.909	14298.18
521.276	14237.85
521.643	14350.61
522.009	14355.58
522.376	14412.3
522.743	14408.01
523.11	14541.11
523.477	14577.5
523.843	14584.28
524.21	14678.51
524.577	14787.21
524.943	14793.31
525.31	14764.84
525.676	14810.71
526.043	14857.72
526.409	14875.8
526.776	15011.38
527.142	14958.96
527.508	14949.01
527.874	14989.24
528.241	14956.92
528.607	14987.2
528.973	15141.1
529.339	15056.13
529.705	15064.49
530.071	15142.68
530.437	15100.65
530.803	15171.61
531.169	15222
531.535	15187.2
531.901	15226.29
532.267	15186.52
532.632	15171.15
532.998	15209.8
533.364	15214.09
533.73	15247.08
534.095	15267.65
534.461	15170.02
534.826	15248.89
535.192	15111.5
535.557	15176.13
535.923	15159.86
536.288	15067.43
536.653	15112.63
537.019	15002.12
537.384	15043.47
537.749	15092.51
538.114	15044.83
538.479	14976.13
538.845	15038.28
539.21	14848.68
539.575	14887.09
539.94	14938.84
540.305	14895.68
540.67	14840.09
541.034	14818.4
541.399	14833.54
541.764	14749.02
542.129	14751.28
542.494	14664.73
542.858	14705.63
543.223	14638.97
543.587	14656.59
543.952	14594.9
544.316	14660.21
544.681	14491.62
545.045	14472.87
545.41	14450.72
545.774	14467.67
546.138	14454.56
546.503	14354
546.867	14390.16
547.231	14415.47
547.595	14419.08
547.959	14326.43
548.324	14188.13
548.688	14255.02
549.052	14258.86
549.416	14159.43
549.779	14187
550.143	14088.02
550.507	14092.09
550.871	14013.22
551.235	14036.5
551.599	14082.37
551.962	14052.99
552.326	13957.18
552.689	14025.42
553.053	13905.2
553.417	13881.47
553.78	14035.82
554.143	13790.63
554.507	13924.18
554.87	13871.98
555.234	13847.57
555.597	13827.46
555.96	13866.78
556.323	13816.61
556.686	13695.49
557.05	13843.51
557.413	13788.82
557.776	13762.6
558.139	13813
558.502	13760.12
558.865	13774.36
559.228	13871.75
559.59	13794.69
559.953	13794.47
560.316	13871.98
560.679	13759.21
561.041	13827.46
561.404	13754.92
561.767	13869.49
562.129	13759.89
562.492	13956.05
562.854	13865.2
563.217	13849.61
563.579	13833.79
563.941	13844.86
564.304	13872.88
564.666	13917.85
565.028	13852.09
565.39	13852.55
565.753	13911.75
566.115	13845.77
566.477	13965.99
566.839	13874.47
567.201	13964.41
567.563	14003.95
567.925	14069.04
568.287	14077.17
568.648	13952.88
569.01	14063.39
569.372	14066.1
569.734	13982.49
570.095	14162.14
570.457	14178.19
570.819	14106.1
571.18	14097.06
571.542	14205.53
571.903	14175.02
572.265	14193.78
572.626	14231.52
572.987	14193.55
573.349	14096.38
573.71	14277.84
574.071	14216.6
574.432	14283.04
574.794	14377.28
575.155	14292.31
575.516	14297.05
575.877	14342.02
576.238	14359.65
576.599	14392.87
576.96	14245.3
577.32	14320.33
577.681	14284.62
578.042	14326.66
578.403	14360.78
578.763	14344.74
579.124	14338.18
579.485	14384.96
579.845	14457.28
580.206	14381.12
580.566	14413.89
580.927	14452.53
581.287	14476.26
581.648	14389.48
582.008	14335.47
582.368	14390.16
582.728	14366.66
583.089	14306.77
583.449	14377.05
583.809	14402.81
584.169	14316.04
584.529	14297.51
584.889	14397.84
585.249	14207.56
585.609	14191.52
585.969	14350.39
586.329	14265.64
586.688	14309.71
587.048	14151.29
587.408	14243.04
587.768	14251.4
588.127	14137.06
588.487	14140.67
588.846	14330.72
589.206	14214.57
589.565	14218.41
589.925	14211.63
590.284	14120.56
590.643	14102.93
591.003	14222.25
591.362	14151.07
591.721	14151.97
592.08	14083.5
592.44	14183.61
592.799	14136.61
593.158	14078.75
593.517	14074.01
593.876	14171.86
594.235	14062.26
594.593	14083.5
594.952	14055.48
595.311	13994.69
595.67	14071.97
596.029	14180.22
596.387	14137.74
596.746	14130.5
597.104	13953.79
597.463	13980.68
597.822	14058.64
598.18	14005.08
598.538	14027
598.897	14050.96
599.255	13946.55
599.613	14046.44
599.972	14039.43
600.33	14189.49
600.688	13962.15
601.046	14104.29
601.404	14091.64
601.762	14013.67
602.12	14100.67
602.478	14080.11
602.836	14088.47
603.194	14052.31
603.552	14008.47
603.91	13991.98
604.268	14071.3
604.625	13983.62
604.983	14058.42
605.341	13999.89
605.698	14085.08
606.056	14078.08
606.413	14045.99
606.771	14097.28
607.128	14142.71
607.485	14062.94
607.843	14038.3
608.2	14135.48
608.557	14182.93
608.914	14150.84
609.272	14221.8
609.629	14190.84
609.986	14150.16
610.343	14148.58
610.7	14231.29
611.057	14152.88
611.414	14179.32
611.771	14144.06
612.127	14249.15
612.484	14239.65
612.841	14307
613.198	14220.67
613.554	14281.01
613.911	14366.43
614.267	14305.19
614.624	14274.46
614.98	14302.03
615.337	14324.85
615.693	14405.3
616.05	14316.04
616.406	14486.2
616.762	14425.86
617.118	14334.57
617.475	14377.28
617.831	14435.13
618.187	14451.63
618.543	14443.72
618.899	14557.84
619.255	14555.58
619.611	14418.63
619.967	14510.38
620.323	14550.38
620.678	14523.26
621.034	14421.34
621.39	14434.22
621.746	14417.05
622.101	14604.39
622.457	14376.37
622.812	14488.01
623.168	14509.7
623.523	14567.55
623.879	14574.11
624.234	14445.75
624.589	14557.16
624.945	14476.03
625.3	14528.91
625.655	14460.44
626.01	14425.86
626.365	14493.66
626.72	14459.99
627.075	14434.45
627.43	14491.17
627.785	14386.54
628.14	14464.51
628.495	14412.98
628.85	14412.76
629.205	14370.27
629.559	14457.95
629.914	14369.37
630.269	14321.01
630.623	14374.34
630.978	14265.19
631.332	14347.67
631.687	14406.2
632.041	14399.88
632.396	14298.86
632.75	14217.51
633.104	14323.27
633.459	14137.06
633.813	14232.42
634.167	14210.73
634.521	14235.13
634.875	14280.33
635.229	14210.05
635.583	14174.34
635.937	14209.15
636.291	14121.69
636.645	14129.83
636.999	14065.87
637.352	14123.72
637.706	14094.12
638.06	14081.92
638.413	14039.89
638.767	14076.27
639.121	14017.29
639.474	13924.41
639.828	14009.6
640.181	14085.08
640.534	14014.35
640.888	13961.92
641.241	13903.39
641.594	13963.5
641.947	13949.94
642.301	13920.11
642.654	13996.95
643.007	13887.35
643.36	13937.06
643.713	13858.42
644.066	13934.8
644.419	13829.95
644.771	13721.25
645.124	13573.23
645.477	13578.43
645.83	13514.93
646.182	13410.07
646.535	13416.4
646.888	13357.42
647.24	13368.04
647.593	13434.93
647.945	13384.99
648.298	13300.92
648.65	13314.71
649.002	13229.51
649.355	13387.92
649.707	13396.51
650.059	13374.59
650.411	13516.51
650.763	13581.82
651.115	13724.64
651.467	13647.35
651.819	13668.37
652.171	13659.33
652.523	13643.74
652.875	13716.73
653.227	13516.28
653.578	13676.28
653.93	13620.91
654.282	13621.59
654.633	13556.06
654.985	13624.98
655.337	13602.38
655.688	13665.21
656.039	13720.12
656.391	13590.18
656.742	13639.44
657.094	13626.56
657.445	13697.75
657.796	13677.41
658.147	13618.43
658.498	13628.14
658.849	13674.47
659.2	13577.3
659.551	13653.68
659.902	13687.13
660.253	13594.7
660.604	13648.03
660.955	13614.36
661.306	13741.59
661.656	13722.15
662.007	13749.72
662.358	13696.84
662.708	13788.14
663.059	13732.77
663.409	13621.59
663.76	13736.84
664.11	13732.55
664.461	13800.8
664.811	13806.67
665.161	13704.98
665.511	13736.16
665.862	13761.47
666.212	13854.13
666.562	13782.04
666.912	13822.49
667.262	13831.75
667.612	13761.02
667.962	13804.64
668.312	13724.19
668.662	13801.25
669.011	13695.49
669.361	13738.88
669.711	13757.63
670.06	13729.84
670.41	13671.08
670.76	13706.56
671.109	13739.55
671.459	13704.3
671.808	13647.8
672.157	13759.44
672.507	13598.99
672.856	13568.94
673.205	13659.78
673.554	13641.25
673.904	13594.25
674.253	13699.78
674.602	13574.36
674.951	13415.04
675.3	13315.16
675.649	13578.65
675.998	13571.65
676.346	13575.72
676.695	13583.63
677.044	13475.15
677.393	13523.51
677.741	13463.63
678.09	13526
678.438	13399.45
678.787	13457.08
679.135	13423.63
679.484	13267.02
679.832	13427.92
680.181	13276.97
680.529	13253.69
680.877	13313.35
681.225	13260.47
681.573	13332.11
681.922	13220.25
682.27	13185.67
682.618	13170.98
682.966	13121.49
683.314	13174.15
683.661	13120.81
684.009	13092.79
684.357	13084.43
684.705	12943.19
685.053	13018.67
685.4	12987.48
685.748	12955.39
686.095	12938.67
686.443	12830.65
686.79	12923.3
687.138	12861.61
687.485	12932.8
687.832	12812.12
688.18	12872.68
688.527	12735.29
688.874	12769.64
689.221	12707.26
689.568	12641.96
689.915	12625.91
690.262	12641.73
690.609	12487.16
690.956	12494.84
691.303	12461.62
691.65	12445.58
691.997	12316.77
692.344	12308.86
692.69	12244.23
693.037	12187.05
693.383	12177.34
693.73	12130.78
694.077	12041.75
694.423	12128.52
694.769	12030.22
695.116	12026.83
695.462	11967.17
695.808	11910.45
696.155	11904.35
696.501	11872.71
696.847	11855.54
697.193	11745.48
697.539	11780.96
697.885	11623.68
698.231	11670
698.577	11707.29
698.923	11655.99
699.269	11571.7
699.614	11503
699.96	11421.65
700.306	11397.92
700.651	11348.88
700.997	11301.88
701.342	11330.35
701.688	11270.01
702.033	11193.86
702.379	11197.25
702.724	11175.78
703.069	11170.81
703.415	11038.38
703.76	11006.74
704.105	11031.15
704.45	10947.31
704.795	10968.1
705.14	10849.01
705.485	10835.9
705.83	10764.49
706.175	10820.53
706.52	10819.4
706.865	10742.57
707.209	10710.26
707.554	10681.1
707.899	10728.11
708.243	10613.53
708.588	10525.85
708.932	10512.07
709.277	10471.84
709.621	10571.5
709.966	10419.87
710.31	10453.31
710.654	10348.23
710.998	10390.49
711.342	10325.18
711.687	10360.43
712.031	10296.93
712.375	10181.68
712.719	10313.43
713.063	10243.15
713.407	10306.88
713.75	10187.78
714.094	10243.6
714.438	10135.58
714.782	10201.79
715.125	10105.07
715.469	10217.16
715.812	10022.36
716.156	10013.55
716.499	10030.05
716.843	10047
717.186	10042.25
717.53	10052.19
717.873	10051.29
718.216	9987.11
718.559	9944.63
718.902	9869.37
719.246	9878.64
719.589	9931.52
719.932	9856.72
720.275	9853.78
720.617	9845.19
720.96	9818.08
721.303	9806.32
721.646	9749.83
721.989	9745.76
722.331	9806.32
722.674	9713.45
723.016	9775.82
723.359	9732.65
723.701	9765.42
724.044	9679.77
724.386	9689.04
724.729	9743.73
725.071	9771.97
725.413	9679.1
725.755	9739.43
726.097	9701.02
726.439	9626.67
726.782	9577.63
727.124	9691.07
727.465	9620.11
727.807	9627.35
728.149	9703.73
728.491	9624.41
728.833	9564.07
729.175	9577.18
729.516	9632.77
729.858	9637.29
730.199	9564.75
730.541	9620.79
730.882	9608.36
731.224	9630.06
731.565	9531.76
731.906	9585.99
732.248	9549.16
732.589	9503.96
732.93	9465.99
733.271	9563.39
733.612	9558.2
733.953	9605.2
734.294	9457.41
734.635	9541.92
734.976	9538.99
735.317	9525.65
735.658	9453.34
735.999	9511.87
736.339	9463.73
736.68	9613.33
737.021	9482.04
737.361	9510.29
737.702	9574.24
738.042	9544.86
738.383	9629.61
738.723	9615.37
739.063	9548.7
739.404	9559.78
739.744	9593
740.084	9562.94
740.424	9595.93
740.764	9544.86
741.104	9643.16
741.444	9594.35
741.784	9610.4
742.124	9633.22
742.464	9628.93
742.804	9701.47
743.143	9664.41
743.483	9757.06
743.823	9644.07
744.162	9680.68
744.502	9793.22
744.841	9779.21
745.181	9910.05
745.52	9831.18
745.86	9899.43
746.199	9996.6
746.538	9959.77
746.877	10070.5
747.216	10060.55
747.556	10159.99
747.895	10233.88
748.234	10159.54
748.573	10217.84
748.911	10353.43
749.25	10422.35
749.589	10472.07
749.928	10474.56
750.267	10639.52
750.605	10695.34
750.944	10730.37
751.283	10833.64
751.621	10916.35
751.96	10955.22
752.298	11052.39
752.636	11201.32
752.975	11239.05
753.313	11298.71
753.651	11448.09
753.989	11653.28
754.327	11710.23
754.666	11745.03
755.004	11864.12
755.342	12087.17
755.679	12105.47
756.017	12272.25
756.355	12439.7
756.693	12585.69
757.031	12785.91
757.368	12794.72
757.706	13025
