Data from hue_220_FLMS001491_00095.txt Node
Date: Tue Feb 07 16:40:12 GMT 2017
User: dcchb
Spectrometer: FLMS00149
Trigger mode: 0
Integration Time (sec): 2.000000E-2
Scans to average: 10
Electric dark correction enabled: true
Nonlinearity correction enabled: false
Boxcar width: 0
XAxis mode: Wavelengths
Number of Pixels in Spectrum: 2048
>>>>>Begin Spectral Data<<<<<
341.393	5.88
341.776	5.88
342.16	5.88
342.543	-49.94
342.927	-55.59
343.31	-59.66
343.693	-83.84
344.077	-47.46
344.46	-63.28
344.843	-64.63
345.226	-50.17
345.61	-41.35
345.993	-3.62
346.376	-11.75
346.759	26.21
347.142	29.83
347.525	42.94
347.908	56.27
348.291	71.18
348.674	84.97
349.057	114.35
349.44	134.69
349.823	138.08
350.206	188.47
350.588	197.73
350.971	199.54
351.354	222.82
351.737	234.57
352.119	224.63
352.502	284.29
352.884	253.1
353.267	289.03
353.65	276.15
354.032	313.44
354.414	320.44
354.797	324.51
355.179	319.31
355.562	311.4
355.944	319.99
356.326	307.11
356.709	330.61
357.091	343.49
357.473	347.34
357.855	328.8
358.238	336.94
358.62	333.55
359.002	344.62
359.384	340.78
359.766	340.33
360.148	338.3
360.53	354.57
360.912	330.39
361.294	336.26
361.676	314.34
362.057	313.66
362.439	316.6
362.821	338.75
363.203	310.95
363.584	329.93
363.966	340.33
364.348	316.38
364.729	324.51
365.111	317.05
365.493	305.08
365.874	302.36
366.256	331.29
366.637	316.6
367.019	311.63
367.4	296.49
367.781	304.85
368.163	323.16
368.544	315.02
368.925	345.08
369.306	306.88
369.688	303.95
370.069	304.62
370.45	306.88
370.831	314.79
371.212	325.42
371.593	302.36
371.974	293.1
372.355	301.24
372.736	325.42
373.117	336.71
373.498	313.89
373.879	310.95
374.26	329.03
374.641	303.04
375.021	311.18
375.402	312.99
375.783	309.6
376.163	313.66
376.544	326.09
376.925	321.8
377.305	320.44
377.686	297.39
378.066	323.83
378.447	320.67
378.827	337.62
379.208	331.74
379.588	332.65
379.968	332.65
380.349	324.51
380.729	312.53
381.109	329.93
381.489	321.57
381.87	312.76
382.25	346.66
382.63	344.85
383.01	331.74
383.39	341.46
383.77	341.01
384.15	307.56
384.53	359.54
384.91	338.07
385.29	328.58
385.67	331.29
386.049	365.41
386.429	322.48
386.809	350.95
387.189	333.55
387.568	341.91
387.948	355.47
388.328	358.86
388.707	357.05
389.087	376.26
389.466	361.57
389.846	370.84
390.225	369.93
390.605	372.42
390.984	355.02
391.363	362.02
391.743	360.44
392.122	383.04
392.501	381.23
392.881	385.07
393.26	364.51
393.639	372.19
394.018	370.39
394.397	383.04
394.776	363.61
395.155	404.74
395.534	379.43
395.913	385.07
396.292	400.89
396.671	362.02
397.05	367.22
397.429	392.76
397.808	404.96
398.186	390.72
398.565	394.57
398.944	391.4
399.323	408.12
399.701	406.99
400.08	411.97
400.458	402.25
400.837	406.09
401.215	397.96
401.594	396.83
401.972	433.89
402.351	420.1
402.729	419.88
403.107	442.47
403.486	437.5
403.864	448.8
404.242	439.99
404.62	433.66
404.999	446.77
405.377	440.44
405.755	454.23
406.133	453.32
406.511	443.38
406.889	458.74
407.267	458.29
407.645	491.51
408.023	482.47
408.401	473.89
408.779	495.35
409.156	501.68
409.534	502.59
409.912	508.91
410.29	518.63
410.667	515.24
411.045	509.82
411.422	535.13
411.8	562.02
412.178	534.22
412.555	571.51
412.933	568.8
413.31	573.32
413.687	583.04
414.065	618.51
414.442	582.81
414.819	607.22
415.197	583.04
415.574	615.58
415.951	628.46
416.328	621.68
416.705	656.48
417.082	637.05
417.46	661.45
417.837	643.37
418.214	661.23
418.591	684.95
418.967	685.18
419.344	690.15
419.721	700.32
420.098	723.37
420.475	694.22
420.852	741.45
421.228	739.42
421.605	752.3
421.982	747.78
422.358	778.28
422.735	794.1
423.111	783.03
423.488	807.44
423.864	822.8
424.241	834.78
424.617	842.24
424.994	854.89
425.37	856.47
425.746	873.2
426.123	896.7
426.499	898.73
426.875	925.63
427.251	952.52
427.627	955
428.003	950.94
428.379	925.85
428.756	984.83
429.132	1000.65
429.507	1007.21
429.883	1001.33
430.259	1024.61
430.635	1025.96
431.011	1013.53
431.387	1072.51
431.763	1072.29
432.138	1095.79
432.514	1103.93
432.89	1124.04
433.265	1137.15
433.641	1183.25
434.016	1152.74
434.392	1205.17
434.767	1226.41
435.143	1231.15
435.518	1264.37
435.894	1253.53
436.269	1304.82
436.644	1324.71
437.02	1340.53
437.395	1344.15
437.77	1402
438.145	1404.48
438.52	1406.97
438.895	1422.11
439.271	1450.81
439.646	1484.25
440.021	1518.38
440.395	1504.59
440.77	1517.47
441.145	1532.39
441.52	1568.09
441.895	1573.52
442.27	1649.45
442.645	1586.62
443.019	1616
443.394	1638.15
443.769	1665.49
444.143	1670.92
444.518	1684.93
444.892	1710.46
445.267	1699.62
445.641	1705.72
446.016	1736
446.39	1757.92
446.764	1767.64
447.139	1781.87
447.513	1787.3
447.887	1794.3
448.262	1802.44
448.636	1816.9
449.01	1864.58
449.384	1824.13
449.758	1903.45
450.132	1900.97
450.506	1895.09
450.88	1934.41
451.254	1902.32
451.628	1929.89
452.002	1953.17
452.376	1965.82
452.75	1991.59
453.123	1979.83
453.497	2034.97
453.871	2029.33
454.244	2084.69
454.618	2091.7
454.992	2125.59
455.365	2124.92
455.739	2175.31
456.112	2189.77
456.486	2206.72
456.859	2205.82
457.232	2247.85
457.606	2256.21
457.979	2275.87
458.352	2335.08
458.725	2357
459.099	2329.66
459.472	2408.07
459.845	2423.44
460.218	2437.68
460.591	2473.38
460.964	2471.57
461.337	2534.17
461.71	2572.14
462.083	2586.37
462.456	2617.78
462.829	2617.56
463.201	2654.39
463.574	2619.14
463.947	2686.93
464.32	2723.54
464.692	2749.76
465.065	2761.28
465.438	2843.99
465.81	2839.93
466.183	2860.94
466.555	2925.57
466.928	2933.71
467.3	2918.79
467.672	2984.1
468.045	3030.88
468.417	3104.55
468.789	3087.15
469.161	3081.27
469.534	3194.27
469.906	3234.04
470.278	3255.96
470.65	3288.5
471.022	3302.74
471.394	3395.39
471.766	3386.58
472.138	3453.69
472.51	3495.95
472.882	3492.79
473.253	3562.62
473.625	3610.53
473.997	3676.51
474.369	3707.7
474.74	3700.47
475.112	3778.66
475.484	3823.18
475.855	3896.17
476.227	3915.38
476.598	4061.36
476.97	4049.61
477.341	4087.8
477.713	4173.22
478.084	4209.15
478.455	4250.06
478.827	4327.8
479.198	4384.97
479.569	4401.92
479.94	4509.71
480.311	4504.74
480.682	4653.66
481.053	4742.02
481.424	4790.83
481.795	4807.78
482.166	4867.89
482.537	4930.49
482.908	5020.88
483.279	5038.06
483.65	5175.23
484.021	5255
484.391	5251.61
484.762	5309.69
485.133	5341.55
485.503	5360.99
485.874	5498.84
486.244	5497.71
486.615	5613.86
486.985	5638.72
487.356	5732.28
487.726	5781.99
488.097	5866.74
488.467	5872.84
488.837	5995.77
489.207	6083.91
489.578	6103.34
489.948	6141.76
490.318	6277.12
490.688	6291.36
491.058	6313.28
491.428	6392.37
491.798	6459.72
492.168	6563.44
492.538	6531.13
492.908	6649.54
493.278	6671.69
493.648	6657
494.017	6733.16
494.387	6886.37
494.757	6859.71
495.126	6964.11
495.496	6942.19
495.866	6926.37
496.235	7012.47
496.605	7041.62
496.974	7118.91
497.344	7119.59
497.713	7114.84
498.082	7183.54
498.452	7271.9
498.821	7296.98
499.19	7281.39
499.559	7382.86
499.928	7327.94
500.298	7396.64
500.667	7461.5
501.036	7456.98
501.405	7493.36
501.774	7539.91
502.143	7508.05
502.512	7517.99
502.88	7609.97
503.249	7538.33
503.618	7598.67
503.987	7649.74
504.356	7662.17
504.724	7699.68
505.093	7724.99
505.462	7718.22
505.83	7757.99
506.199	7819.46
506.567	7869.62
506.936	7815.84
507.304	7910.07
507.672	7927.7
508.041	7983.29
508.409	7928.38
508.777	8011.54
509.145	8025.78
509.514	8071.2
509.882	8067.81
510.25	8006.57
510.618	8150.97
510.986	8079.34
511.354	8103.29
511.722	8161.37
512.09	8212.21
512.458	8167.92
512.826	8216.51
513.193	8199.78
513.561	8259.67
513.929	8197.3
514.297	8246.56
514.664	8287.69
515.032	8289.95
515.4	8339.44
515.767	8315.94
516.135	8351.19
516.502	8258.09
516.869	8373.79
517.237	8387.58
517.604	8333.79
517.972	8341.25
518.339	8416.73
518.706	8356.16
519.073	8368.37
519.44	8437.74
519.808	8461.7
520.175	8424.64
520.542	8450.85
520.909	8440.91
521.276	8433.9
521.643	8441.81
522.009	8465.54
522.376	8506.67
522.743	8525.88
523.11	8590.06
523.477	8589.38
523.843	8593.45
524.21	8616.95
524.577	8654.69
524.943	8618.98
525.31	8610.17
525.676	8699.21
526.043	8672.77
526.409	8679.32
526.776	8753.44
527.142	8651.52
527.508	8757.96
527.874	8755.25
528.241	8805.87
528.607	8722.93
528.973	8773.55
529.339	8691.52
529.705	8771.29
530.071	8804.06
530.437	8802.03
530.803	8761.35
531.169	8828.47
531.535	8708.47
531.901	8720.9
532.267	8788.24
532.632	8725.42
532.998	8764.29
533.364	8711.18
533.73	8696.49
534.095	8754.57
534.461	8760.9
534.826	8755.02
535.192	8754.12
535.557	8746.89
535.923	8682.26
536.288	8671.64
536.653	8679.32
537.019	8624.63
537.384	8670.51
537.749	8633.45
538.114	8604.29
538.479	8583.96
538.845	8608.59
539.21	8552.09
539.575	8604.52
539.94	8507.57
540.305	8566.1
540.67	8517.06
541.034	8514.58
541.399	8500.79
541.764	8474.81
542.129	8438.87
542.494	8537.18
542.858	8440.68
543.223	8435.48
543.587	8449.95
543.952	8376.73
544.316	8406.33
544.681	8341.25
545.045	8374.7
545.41	8343.06
545.774	8370.18
546.138	8306.67
546.503	8299.22
546.867	8251.53
547.231	8305.09
547.595	8271.19
547.959	8307.35
548.324	8208.6
548.688	8182.61
549.052	8177.19
549.416	8210.63
549.779	8171.76
550.143	8120.24
550.507	8116.62
550.871	8136.96
551.235	8064.65
551.599	8156.62
551.962	8061.93
552.326	8052.9
552.689	8078.66
553.053	8009.51
553.417	8073.91
553.78	8059.45
554.143	8050.18
554.507	8072.1
554.87	8093.57
555.234	8049.73
555.597	7977.64
555.96	8010.41
556.323	7925.89
556.686	8023.29
557.05	7954.14
557.413	7961.6
557.776	7951.88
558.139	7932.45
558.502	7965.89
558.865	7948.72
559.228	8005.21
559.59	7963.86
559.953	7986.23
560.316	8008.83
560.679	7973.8
561.041	7984.42
561.404	8060.13
561.767	8068.26
562.129	7962.73
562.492	8037.75
562.854	8015.38
563.217	7920.7
563.579	8081.14
563.941	8054.48
564.304	8063.52
564.666	8106.91
565.028	8049.73
565.39	8063.06
565.753	8077.08
566.115	8083.86
566.477	8159.56
566.839	8148.94
567.201	8187.36
567.563	8116.62
567.925	8191.88
568.287	8200.01
568.648	8160.24
569.01	8244.3
569.372	8235.49
569.734	8218.99
570.095	8278.65
570.457	8247.69
570.819	8235.72
571.18	8313.91
571.542	8316.17
571.903	8297.86
572.265	8347.8
572.626	8316.62
572.987	8316.84
573.349	8366.33
573.71	8398.88
574.071	8427.12
574.432	8407.24
574.794	8423.28
575.155	8403.85
575.516	8435.48
575.877	8452.21
576.238	8497.4
576.599	8495.82
576.96	8534.92
577.32	8531.08
577.681	8482.94
578.042	8558.87
578.403	8531.3
578.763	8520
579.124	8571.98
579.485	8618.3
579.845	8688.36
580.206	8630.28
580.566	8693.1
580.927	8624.86
581.287	8678.64
581.648	8619.89
582.008	8676.38
582.368	8729.94
582.728	8713.44
583.089	8759.32
583.449	8689.26
583.809	8757.28
584.169	8789.37
584.529	8726.78
584.889	8808.36
585.249	8793.22
585.609	8714.57
585.969	8795.7
586.329	8886.32
586.688	8903.27
587.048	8934.45
587.408	8871.41
587.768	8892.65
588.127	8907.79
588.487	8858.75
588.846	8976.71
589.206	8914.57
589.565	8966.54
589.925	8992.76
590.284	8897.17
590.643	9009.93
591.003	8992.08
591.362	9050.16
591.721	8988.69
592.08	9014.23
592.44	9074.56
592.799	9063.72
593.158	9061.68
593.517	9066.88
593.876	9066.43
594.235	9065.07
594.593	9124.51
594.952	9093.09
595.311	9121.57
595.67	9119.99
596.029	9167.67
596.387	9184.39
596.746	9173.09
597.104	9108.01
597.463	9158.86
597.822	9137.61
598.18	9152.98
598.538	9126.54
598.897	9220.32
599.255	9134.9
599.613	9259.87
599.972	9225.52
600.33	9219.19
600.688	9164.05
601.046	9165.86
601.404	9287.89
601.762	9258.97
602.12	9268.23
602.478	9211.74
602.836	9287.44
603.194	9255.8
603.552	9301.9
603.91	9210.15
604.268	9318.63
604.625	9269.13
604.983	9302.81
605.341	9186.43
605.698	9244.28
606.056	9292.19
606.413	9291.73
606.771	9346.19
607.128	9370.6
607.485	9322.24
607.843	9310.26
608.2	9389.36
608.557	9362.92
608.914	9325.4
609.272	9349.36
609.629	9399.98
609.986	9399.3
610.343	9389.81
610.7	9465.51
611.057	9430.49
611.414	9375.8
611.771	9461.9
612.127	9483.59
612.484	9445.4
612.841	9488.11
613.198	9377.15
613.554	9433.42
613.911	9474.33
614.267	9526.08
614.624	9469.81
614.98	9487.43
615.337	9594.55
615.693	9492.86
616.05	9504.16
616.406	9667.54
616.762	9559.3
617.118	9549.35
617.475	9540.54
617.831	9594.55
618.187	9580.54
618.543	9597.49
618.899	9654.44
619.255	9574.44
619.611	9553.2
619.967	9618.96
620.323	9677.94
620.678	9603.36
621.034	9640.2
621.39	9557.94
621.746	9566.98
622.101	9729.69
622.457	9580.09
622.812	9653.53
623.168	9611.27
623.523	9674.32
623.879	9700.08
624.234	9639.75
624.589	9555.91
624.945	9690.59
625.3	9644.49
625.655	9571.27
626.01	9659.86
626.365	9647.2
626.72	9564.72
627.075	9605.4
627.43	9651.27
627.785	9666.86
628.14	9578.96
628.495	9582.12
628.85	9623.25
629.205	9548
629.559	9545.74
629.914	9526.98
630.269	9554.55
630.623	9580.09
630.978	9556.81
631.332	9591.84
631.687	9564.04
632.041	9599.3
632.396	9558.62
632.75	9533.31
633.104	9492.86
633.459	9466.87
633.813	9410.83
634.167	9454.67
634.521	9435.91
634.875	9426.42
635.229	9458.73
635.583	9338.51
635.937	9415.57
636.291	9351.62
636.645	9369.92
636.999	9412.86
637.352	9366.76
637.706	9293.31
638.06	9327.89
638.413	9322.69
638.767	9286.99
639.121	9319.3
639.474	9265.97
639.828	9277.5
640.181	9321.11
640.534	9315.46
640.888	9195.46
641.241	9237.72
641.594	9260.77
641.947	9250.15
642.301	9205.41
642.654	9201.34
643.007	9212.87
643.36	9194.11
643.713	9217.38
644.066	9248.57
644.419	9169.7
644.771	9192.07
645.124	9111.85
645.477	9014.23
645.83	8951.18
646.182	8969.93
646.535	8921.8
646.888	8935.36
647.24	8860.56
647.593	8952.08
647.945	8909.14
648.298	8876.38
648.65	8916.15
649.002	8790.96
649.355	8878.86
649.707	8898.75
650.059	8925.19
650.411	8977.62
650.763	8960.44
651.115	9106.65
651.467	9082.47
651.819	9082.25
652.171	9061.91
652.523	9062.36
652.875	9019.2
653.227	8994.57
653.578	9109.37
653.93	9083.6
654.282	9011.97
654.633	9026.66
654.985	9098.07
655.337	9017.16
655.688	9091.74
656.039	9089.93
656.391	8990.27
656.742	9084.28
657.094	9043.15
657.445	9060.78
657.796	9064.17
658.147	9078.41
658.498	9017.39
658.849	9069.82
659.2	9029.82
659.551	9061.68
659.902	9051.51
660.253	9082.02
660.604	9074.34
660.955	8990.5
661.306	9042.47
661.656	9088.8
662.007	9049.48
662.358	9042.47
662.708	9060.55
663.059	9075.69
663.409	8999.99
663.76	9059.65
664.11	9101.91
664.461	9121.34
664.811	9119.99
665.161	9127.44
665.511	9128.12
665.862	9142.81
666.212	9139.65
666.562	9147.56
666.912	9108.24
667.262	9152.75
667.612	9086.99
667.962	9144.84
668.312	9130.61
668.662	9128.35
669.011	9105.07
669.361	9040.67
669.711	9087.9
670.06	9030.72
670.41	9047.22
670.76	9075.47
671.109	9084.51
671.459	9069.14
671.808	9051.97
672.157	9059.42
672.507	9004.28
672.856	8970.84
673.205	8993.21
673.554	9079.31
673.904	9073.21
674.253	9054.23
674.602	8987.11
674.951	8869.82
675.3	8871.18
675.649	9007.67
675.998	9011.29
676.346	8939.2
676.695	9064.62
677.044	8996.37
677.393	8971.74
677.741	8953.66
678.09	8910.27
678.438	8878.18
678.787	8949.82
679.135	9003.83
679.484	8836.83
679.832	8885.87
680.181	8841.12
680.529	8858.3
680.877	8814.91
681.225	8816.04
681.573	8858.3
681.922	8783.95
682.27	8782.14
682.618	8765.87
682.966	8703.05
683.314	8782.82
683.661	8689.49
684.009	8649.94
684.357	8625.31
684.705	8605.42
685.053	8641.13
685.4	8607.91
685.748	8663.5
686.095	8574.24
686.443	8570.85
686.79	8537.63
687.138	8502.15
687.485	8500.34
687.832	8535.37
688.18	8472.32
688.527	8463.96
688.874	8373.79
689.221	8417.86
689.568	8386.9
689.915	8387.58
690.262	8342.61
690.609	8304.87
690.956	8296.51
691.303	8289.5
691.65	8188.94
691.997	8233.23
692.344	8205.89
692.69	8110.75
693.037	8166.34
693.383	8018.55
693.73	8124.53
694.077	7975.84
694.423	8029.39
694.769	7958.43
695.116	7964.99
695.462	7873.24
695.808	7884.99
696.155	7927.7
696.501	7858.1
696.847	7806.12
697.193	7731.55
697.539	7799.79
697.885	7727.93
698.231	7705.79
698.577	7750.98
698.923	7675.05
699.269	7662.4
699.614	7571.33
699.96	7546.92
700.306	7587.15
700.651	7498.56
700.997	7423.31
701.342	7455.85
701.688	7429.64
702.033	7381.5
702.379	7398
702.724	7366.13
703.069	7379.47
703.415	7293.59
703.76	7266.93
704.105	7313.93
704.45	7256.53
704.795	7218.34
705.14	7187.16
705.485	7148.29
705.83	7126.59
706.175	7157.33
706.52	7072.81
706.865	7082.75
707.209	7065.35
707.554	7018.35
707.899	7044.11
708.243	7008.63
708.588	7019.25
708.932	6963.21
709.277	6933.83
709.621	6966.37
709.966	6906.03
710.31	6903.55
710.654	6863.32
710.998	6882.98
711.342	6839.37
711.687	6822.87
712.031	6798.01
712.375	6826.26
712.719	6813.15
713.063	6772.48
713.407	6764.57
713.75	6752.36
714.094	6771.35
714.438	6746.04
714.782	6741.29
715.125	6646.83
715.469	6689.77
715.812	6635.08
716.156	6596.44
716.499	6596.89
716.843	6646.38
717.186	6594.18
717.53	6640.96
717.873	6620.39
718.216	6657.9
718.559	6584.69
718.902	6533.16
719.246	6536.55
719.589	6536.78
719.932	6510.11
720.275	6517.12
720.617	6481.86
720.96	6494.52
721.303	6528.87
721.646	6482.77
721.989	6458.59
722.331	6516.66
722.674	6495.87
723.016	6532.94
723.359	6516.89
723.701	6483.22
724.044	6431.24
724.386	6419.72
724.729	6413.84
725.071	6471.02
725.413	6481.41
725.755	6404.35
726.097	6402.77
726.439	6360.96
726.782	6348.08
727.124	6432.83
727.465	6383.11
727.807	6391.24
728.149	6336.78
728.491	6379.72
728.833	6341.98
729.175	6393.05
729.516	6336.78
729.858	6326.61
730.199	6381.75
730.541	6320.51
730.882	6337.23
731.224	6345.14
731.565	6309.89
731.906	6328.87
732.248	6378.36
732.589	6310.34
732.93	6339.49
733.271	6347.4
733.612	6406.61
733.953	6360.28
734.294	6371.58
734.635	6306.5
734.976	6352.38
735.317	6324.13
735.658	6285.71
735.999	6303.34
736.339	6346.05
736.68	6408.19
737.021	6320.74
737.361	6350.57
737.702	6381.75
738.042	6363.22
738.383	6398.25
738.723	6362.77
739.063	6345.37
739.404	6390.57
739.744	6393.73
740.084	6340.17
740.424	6417.68
740.764	6389.21
741.104	6397.57
741.444	6454.07
741.784	6431.24
742.124	6485.03
742.464	6470.11
742.804	6493.39
743.143	6454.52
743.483	6538.36
743.823	6479.6
744.162	6577.45
744.502	6612.03
744.841	6577
745.181	6703.78
745.52	6678.24
745.86	6712.82
746.199	6697.23
746.538	6654.97
746.877	6831.01
747.216	6864.68
747.556	6859.25
747.895	6928.63
748.234	6917.33
748.573	6966.6
748.911	7010.66
749.25	7145.57
749.589	7110.55
749.928	7189.19
750.267	7261.05
750.605	7276.87
750.944	7371.56
751.283	7448.17
751.621	7512.12
751.96	7557.77
752.298	7654.26
752.636	7731.1
752.975	7821.49
753.313	7895.16
753.651	8029.39
753.989	8077.3
754.327	8159.56
754.666	8285.66
755.004	8390.74
755.342	8553
755.679	8608.36
756.017	8683.84
756.355	8886.32
756.693	8941.23
757.031	9093.32
757.368	9230.94
757.706	9396.14
758.044	9433.88
758.381	9674.1
758.719	9804.94
759.056	9950.25
759.394	10027.31
759.731	10109.56
760.068	10332.16
760.405	10520.63
760.743	10670.91
761.08	10885.59
761.417	10952.93
761.754	11188.41
762.091	11260.72
762.428	11394.28
762.765	11561.05
763.102	11777.77
763.438	11905
763.775	12043.75
764.112	12223.63
764.449	12476.06
764.785	12547.69
765.122	12703.17
765.458	12771.87
765.795	12931.41
766.131	13121.24
766.467	13321.46
766.804	13485.52
767.14	13632.18
767.476	13767.32
767.812	13930.71
768.148	14023.13
768.485	14128.67
768.821	14290.92
