Data from hue_350_FLMS001491_8.txt Node
Date: Mon Feb 06 15:37:29 GMT 2017
User: dcchb
Spectrometer: FLMS00149
Trigger mode: 0
Integration Time (sec): 2.000000E-2
Scans to average: 10
Electric dark correction enabled: true
Nonlinearity correction enabled: false
Boxcar width: 0
XAxis mode: Wavelengths
Number of Pixels in Spectrum: 2048
>>>>>Begin Spectral Data<<<<<
341.393	9.49
341.776	9.49
342.16	9.49
342.543	-86.1
342.927	-65.54
343.31	-83.39
343.693	-63.95
344.077	-63.28
344.46	-66.44
344.843	-35.71
345.226	-29.6
345.61	-49.49
345.993	-37.06
346.376	-6.78
346.759	20.11
347.142	36.61
347.525	30.28
347.908	71.86
348.291	62.37
348.674	98.08
349.057	116.38
349.44	115.7
349.823	136.04
350.206	163.39
350.588	182.59
350.971	209.71
351.354	233.89
351.737	228.24
352.119	231.63
352.502	267.34
352.884	267.56
353.267	262.59
353.65	302.82
354.032	297.85
354.414	313.89
354.797	307.79
355.179	317.05
355.562	323.38
355.944	327.45
356.326	318.64
356.709	327
357.091	336.94
357.473	343.95
357.855	329.26
358.238	348.24
358.62	354.57
359.002	335.13
359.384	317.05
359.766	320.22
360.148	336.04
360.53	318.18
360.912	327.9
361.294	332.42
361.676	343.95
362.057	326.32
362.439	341.91
362.821	338.97
363.203	310.73
363.584	340.78
363.966	297.17
364.348	333.55
364.729	318.18
365.111	311.63
365.493	318.41
365.874	308.92
366.256	321.12
366.637	301.69
367.019	312.31
367.4	308.01
367.781	312.99
368.163	313.44
368.544	308.47
368.925	310.5
369.306	322.03
369.688	311.63
370.069	325.64
370.45	314.57
370.831	298.52
371.212	298.07
371.593	300.56
371.974	329.93
372.355	322.7
372.736	328.13
373.117	311.63
373.498	317.51
373.879	315.47
374.26	310.95
374.641	306.66
375.021	299.43
375.402	327.22
375.783	313.44
376.163	358.63
376.544	310.05
376.925	315.25
377.305	303.27
377.686	317.96
378.066	332.87
378.447	346.21
378.827	335.36
379.208	321.57
379.588	328.35
379.968	336.49
380.349	334
380.729	348.01
381.109	343.72
381.489	360.22
381.87	334.45
382.25	336.04
382.63	350.73
383.01	332.87
383.39	346.21
383.77	347.79
384.15	336.49
384.53	369.03
384.91	339.65
385.29	360.44
385.67	343.04
386.049	345.3
386.429	353.66
386.809	331.97
387.189	362.02
387.568	348.24
387.948	371.06
388.328	353.44
388.707	369.71
389.087	360.22
389.466	345.08
389.846	366.77
390.225	357.73
390.605	341.91
390.984	365.87
391.363	381.01
391.743	363.83
392.122	355.24
392.501	390.72
392.881	361.57
393.26	347.34
393.639	374.91
394.018	363.83
394.397	354.79
394.776	366.32
395.155	381.91
395.534	393.44
395.913	374.45
396.292	382.81
396.671	379.43
397.05	369.71
397.429	386.66
397.808	376.94
398.186	399.99
398.565	413.55
398.944	375.81
399.323	380.33
399.701	368.8
400.08	381.46
400.458	395.92
400.837	400.89
401.215	400.67
401.594	411.74
401.972	405.64
402.351	398.86
402.729	389.14
403.107	381.23
403.486	400.67
403.864	409.03
404.242	417.84
404.62	431.85
404.999	407.45
405.377	427.56
405.755	401.8
406.133	416.71
406.511	418.75
406.889	428.92
407.267	434.34
407.645	449.71
408.023	435.92
408.401	433.43
408.779	438.86
409.156	441.8
409.534	433.89
409.912	438.63
410.29	442.47
410.667	451.29
411.045	463.04
411.422	459.42
411.8	455.36
412.178	436.37
412.555	457.16
412.933	438.63
413.31	482.25
413.687	473.66
414.065	479.08
414.442	485.41
414.819	480.89
415.197	485.64
415.574	502.36
415.951	509.37
416.328	503.49
416.705	503.26
417.082	477.05
417.46	496.94
417.837	505.98
418.214	504.39
418.591	511.17
418.967	513.88
419.344	543.04
419.721	542.81
420.098	546.2
420.475	533.55
420.852	538.06
421.228	535.81
421.605	559.99
421.982	544.62
422.358	551.4
422.735	552.53
423.111	572.41
423.488	547.33
423.864	557.27
424.241	562.02
424.617	542.81
424.994	571.96
425.37	592.98
425.746	610.15
426.123	583.71
426.499	587.56
426.875	597.05
427.251	599.76
427.627	598.85
428.003	611.74
428.379	621.9
428.756	613.09
429.132	615.58
429.507	625.29
429.883	633.2
430.259	640.89
430.635	664.84
431.011	663.03
431.387	653.54
431.763	670.49
432.138	674.78
432.514	669.59
432.89	679.98
433.265	681.11
433.641	705.52
434.016	701.68
434.392	722.01
434.767	723.37
435.143	727.44
435.518	733.09
435.894	754.56
436.269	716.37
436.644	739.64
437.02	748.91
437.395	767.44
437.77	765.18
438.145	760.21
438.52	787.55
438.895	781
439.271	800.66
439.646	781.67
440.021	802.24
440.395	796.14
440.77	780.54
441.145	793.88
441.52	803.37
441.895	806.76
442.27	821.45
442.645	820.77
443.019	832.97
443.394	827.77
443.769	837.49
444.143	830.49
444.518	824.84
444.892	821.22
445.267	842.92
445.641	862.58
446.016	857.38
446.39	862.58
446.764	888.11
447.139	877.04
447.513	893.08
447.887	872.97
448.262	886.08
448.636	883.37
449.01	896.7
449.384	895.34
449.758	908.22
450.132	915
450.506	883.82
450.88	927.89
451.254	904.61
451.628	919.98
452.002	941.67
452.376	938.73
452.75	946.87
453.123	955.23
453.497	978.51
453.871	957.71
454.244	952.52
454.618	995.23
454.992	978.51
455.365	987.09
455.739	1006.53
456.112	1016.02
456.486	1023.48
456.859	1055.79
457.232	1043.14
457.606	1054.44
457.979	1072.74
458.352	1096.47
458.725	1098.73
459.099	1058.96
459.472	1110.71
459.845	1112.97
460.218	1115.45
460.591	1127.65
460.964	1119.52
461.337	1155.9
461.71	1177.6
462.083	1180.31
462.456	1186.64
462.829	1192.06
463.201	1207.88
463.574	1208.56
463.947	1242.23
464.32	1235.9
464.692	1247.42
465.065	1256.69
465.438	1294.66
465.81	1286.29
466.183	1305.73
466.555	1335.78
466.928	1314.09
467.3	1316.12
467.672	1342.79
468.045	1364.03
468.417	1360.19
468.789	1418.72
469.161	1413.3
469.534	1421.43
469.906	1458.04
470.278	1475.67
470.65	1488.55
471.022	1510.69
471.394	1547.76
471.766	1565.16
472.138	1543.69
472.51	1596.57
472.882	1599.28
473.253	1619.17
473.625	1650.35
473.997	1686.51
474.369	1694.42
474.74	1701.88
475.112	1727.86
475.484	1752.04
475.855	1804.7
476.227	1843.12
476.598	1872.95
476.97	1840.18
477.341	1904.36
477.713	1942.1
478.084	1935.99
478.455	2015.99
478.827	2022.55
479.198	2056.44
479.569	2067.29
479.94	2131.47
480.311	2150.23
480.682	2210.34
481.053	2245.82
481.424	2296.66
481.795	2321.07
482.166	2348.64
482.537	2347.06
482.908	2455.75
483.279	2438.81
483.65	2484.91
484.021	2559.03
484.391	2552.48
484.762	2598.8
485.133	2605.13
485.503	2678.35
485.874	2717.44
486.244	2749.98
486.615	2798.8
486.985	2778.91
487.356	2869.53
487.726	2889.42
488.097	2976.87
488.467	2964.89
488.837	3044.89
489.207	3102.52
489.578	3126.92
489.948	3134.61
490.318	3208.96
490.688	3221.61
491.058	3268.84
491.428	3328.27
491.798	3318.56
492.168	3420.02
492.538	3456.18
492.908	3424.32
493.278	3506.57
493.648	3555.16
494.017	3626.12
494.387	3573.24
494.757	3603.07
495.126	3668.83
495.496	3654.14
495.866	3740.01
496.235	3768.71
496.605	3741.14
496.974	3867.69
497.344	3887.13
497.713	3884.19
498.082	3902.72
498.452	3956.96
498.821	3962.83
499.19	3943.63
499.559	4048.03
499.928	4029.72
500.298	4086.22
500.667	4107.24
501.036	4124.41
501.405	4125.99
501.774	4143.39
502.143	4184.75
502.512	4229.95
502.88	4267.23
503.249	4203.28
503.618	4304.75
503.987	4313.33
504.356	4339.55
504.724	4285.54
505.093	4436.04
505.462	4378.42
505.83	4384.52
506.199	4417.06
506.567	4456.38
506.936	4491.41
507.304	4544.06
507.672	4522.37
508.041	4550.16
508.409	4534.12
508.777	4622.93
509.145	4638.97
509.514	4672.65
509.882	4702.02
510.25	4711.29
510.618	4771.63
510.986	4748.12
511.354	4735.47
511.722	4815.69
512.09	4815.47
512.458	4791.74
512.826	4829.7
513.193	4864.5
513.561	4862.47
513.929	4926.2
514.297	4892.75
514.664	4933.66
515.032	4951.28
515.4	4998.96
515.767	5004.39
516.135	5026.08
516.502	5030.15
516.869	5066.08
517.237	5058.4
517.604	5067.44
517.972	5112.41
518.339	5135.46
518.706	5122.8
519.073	5209.13
519.44	5174.55
519.808	5268.11
520.175	5284.61
520.542	5281.22
520.909	5309.92
521.276	5242.8
521.643	5319.18
522.009	5362.57
522.376	5455.68
522.743	5419.97
523.11	5440.31
523.477	5467.2
523.843	5483.7
524.21	5569.57
524.577	5617.25
524.943	5607.99
525.31	5613.41
525.676	5636.01
526.043	5686.63
526.409	5738.61
526.776	5770.7
527.142	5720.75
527.508	5732.73
527.874	5872.84
528.241	5915.55
528.607	5931.37
528.973	5982.67
529.339	5974.98
529.705	6032.61
530.071	6055.89
530.437	6064.25
530.803	6095.88
531.169	6120.74
531.535	6073.96
531.901	6157.35
532.267	6156.9
532.632	6235.99
532.998	6238.25
533.364	6261.76
533.73	6287.29
534.095	6310.12
534.461	6319.61
534.826	6372.94
535.192	6376.33
535.557	6458.36
535.923	6414.97
536.288	6509.43
536.653	6454.07
537.019	6477.8
537.384	6567.96
537.749	6551.01
538.114	6603.44
538.479	6586.49
538.845	6618.36
539.21	6647.06
539.575	6698.13
539.94	6733.61
540.305	6810.89
540.67	6764.57
541.034	6788.3
541.399	6792.82
541.764	6798.01
542.129	6813.61
542.494	6918.91
542.858	6910.55
543.223	6930.44
543.587	6983.09
543.952	6973.6
544.316	7014.5
544.681	7000.95
545.045	7038.23
545.41	7163.65
545.774	7136.54
546.138	7198.68
546.503	7143.99
546.867	7195.52
547.231	7238.23
547.595	7288.62
547.959	7315.29
548.324	7292.01
548.688	7308.96
549.052	7403.87
549.416	7349.19
549.779	7411.56
550.143	7413.82
550.507	7461.72
550.871	7492.91
551.235	7494.49
551.599	7610.87
551.962	7555.06
552.326	7595.51
552.689	7668.05
553.053	7650.65
553.417	7667.37
553.78	7755.95
554.143	7714.83
554.507	7714.6
554.87	7777.87
555.234	7861.49
555.597	7783.52
555.96	7831.88
556.323	7906.01
556.686	7909.17
557.05	7905.55
557.413	7944.65
557.776	7940.36
558.139	7987.81
558.502	7961.15
558.865	8049.28
559.228	8092.89
559.59	8094.02
559.953	8124.08
560.316	8209.05
560.679	8195.04
561.041	8221.25
561.404	8210.18
561.767	8328.82
562.129	8276.62
562.492	8425.09
562.854	8399.78
563.217	8397.07
563.579	8417.86
563.941	8439.55
564.304	8449.04
564.666	8552.32
565.028	8529.27
565.39	8580.11
565.753	8606.55
566.115	8628.25
566.477	8644.74
566.839	8644.97
567.201	8724.74
567.563	8727.23
567.925	8804.29
568.287	8817.17
568.648	8792.09
569.01	8864.63
569.372	8929.93
569.734	8905.75
570.095	8990.05
570.457	9005.41
570.819	9101.91
571.18	9040.67
571.542	9209.02
571.903	9185.97
572.265	9209.02
572.626	9271.62
572.987	9335.8
573.349	9395.23
573.71	9457.6
574.071	9496.93
574.432	9523.14
574.794	9545.29
575.155	9548.22
575.516	9562.23
575.877	9743.92
576.238	9803.13
576.599	9887.65
576.96	9920.64
577.32	9958.16
577.681	10051.71
578.042	10106.85
578.403	10167.64
578.763	10253.06
579.124	10314.98
579.485	10501.87
579.845	10606.5
580.206	10679.04
580.566	10722.88
580.927	10767.17
581.287	11006.49
581.648	11067.28
582.008	11261.62
582.368	11302.98
582.728	11487.83
583.089	11648.51
583.449	11804.44
583.809	11971.21
584.169	12088.5
584.529	12228.61
584.889	12542.27
585.249	12576.62
585.609	12755.14
585.969	12959.89
586.329	13203.72
586.688	13358.29
587.048	13562.58
587.408	13698.62
587.768	13973.19
588.127	14188.1
588.487	14408.43
588.846	14697.01
589.206	14766.62
589.565	15023.11
589.925	15379.26
590.284	15632.81
590.643	15758.23
591.003	16015.17
591.362	16372.9
591.721	16553.24
592.08	16835.26
592.44	17098.76
592.799	17413.33
593.158	17680.21
593.517	17999.3
593.876	18177.83
594.235	18435.67
594.593	18733.97
594.952	19188.65
595.311	19242.66
595.67	19580.5
596.029	20006.03
596.387	20193.37
596.746	20592
597.104	20787.48
597.463	21044.19
597.822	21307.91
598.18	21495.03
598.538	21733.21
598.897	22136.59
599.255	22261.56
599.613	22878.72
599.972	22969.79
600.33	23224.93
600.688	23485.71
601.046	23859.71
601.404	24128.18
601.762	24404.78
602.12	24688.16
602.478	24988.27
602.836	25197.53
603.194	25404.08
603.552	25612.66
603.91	25790.96
604.268	26231.63
604.625	26310.04
604.983	26633.65
605.341	26743.7
605.698	27141.66
606.056	27359.73
606.413	27616.45
606.771	27859.61
607.128	28137.34
607.485	28417.33
607.843	28528.52
608.2	28805.12
608.557	29178.67
608.914	29240.59
609.272	29627.24
609.629	29722.16
609.986	30027.46
610.343	30240.33
610.7	30546.32
611.057	30741.56
611.414	30760.32
611.771	31018.62
612.127	31269.91
612.484	31329.57
612.841	31672.84
613.198	31690.24
613.554	31961.87
613.911	32203.45
614.267	32204.58
614.624	32406.83
614.98	32678.46
615.337	32832.81
615.693	32919.13
616.05	33012.01
616.406	33301.27
616.762	33391.66
617.118	33541.49
617.475	33724.31
617.831	33747.14
618.187	34126.56
618.543	34090.4
618.899	34472.09
619.255	34417.17
619.611	34547.11
619.967	34780.33
620.323	34993.88
620.678	34902.13
621.034	34900.55
621.39	35151.84
621.746	35051.06
622.101	35708.67
622.457	35523.59
622.812	35522.46
623.168	35761.55
623.523	35873.41
623.879	35986.62
624.234	36002.67
624.589	36041.09
624.945	36128.32
625.3	36228.43
625.655	36265.26
626.01	36446.05
626.365	36505.93
626.72	36455.31
627.075	36514.07
627.43	36691.01
627.785	36526.27
628.14	36756.77
628.495	36845.13
628.85	36853.49
629.205	36785.93
629.559	37085.58
629.914	37003.55
630.269	36960.38
630.623	36983.21
630.978	36833.16
631.332	37094.84
631.687	37168.51
632.041	36981.63
632.396	37037.44
632.75	37054.84
633.104	37192.24
633.459	37141.85
633.813	37154.05
634.167	37222.75
634.521	37100.49
634.875	37321.05
635.229	37273.6
635.583	37043.77
635.937	37175.29
636.291	37128.74
636.645	37270.21
636.999	37202.64
637.352	37256.65
637.706	37027.5
638.06	37228.63
638.413	37209.42
638.767	37183.88
639.121	37251
639.474	37054.62
639.828	37170.1
640.181	37190.66
640.534	37172.81
640.888	37063.66
641.241	36961.06
641.594	36969.42
641.947	37045.35
642.301	37128.52
642.654	37146.59
643.007	37146.14
643.36	36984.79
643.713	37059.36
644.066	36979.82
644.419	36918.13
644.771	36682.88
645.124	36425.93
645.477	36376.22
645.83	36076.79
646.182	36028.43
646.535	35907.53
646.888	35983.69
647.24	35701.21
647.593	36125.6
647.945	35929.45
648.298	35778.04
648.65	35660.08
649.002	35783.24
649.355	35796.8
649.707	35797.93
650.059	36004.48
650.411	36317.46
650.763	36524.01
651.115	36792.48
651.467	36615.31
651.819	36767.17
652.171	36704.57
652.523	36540.73
652.875	36722.65
653.227	36378.93
653.578	36730.11
653.93	36713.61
654.282	36458.48
654.633	36372.15
654.985	36613.5
655.337	36405.37
655.688	36415.99
656.039	36544.35
656.391	36186.39
656.742	36357.91
657.094	36387.29
657.445	36665.48
657.796	36370.57
658.147	36374.86
658.498	36347.07
658.849	36489.89
659.2	36176.45
659.551	36265.04
659.902	36402.66
660.253	36314.75
660.604	36327.63
660.955	36249.44
661.306	36405.14
661.656	36270.46
662.007	36326.5
662.358	36225.71
662.708	36327.18
663.059	36192.04
663.409	36086.96
663.76	36305.26
664.11	36210.12
664.461	36094.87
664.811	36154.08
665.161	36150.69
665.511	36146.62
665.862	36191.59
666.212	36302.32
666.562	36375.31
666.912	36154.76
667.262	36163.57
667.612	36181.42
667.962	36252.83
668.312	36177.13
668.662	36219.39
669.011	36158.37
669.361	36172.61
669.711	36016.23
670.06	36019.62
670.41	35951.6
670.76	35995.44
671.109	36041.76
671.459	36082.67
671.808	35925.16
672.157	36179.39
672.507	35862.11
672.856	35891.49
673.205	35878.38
673.554	36006.96
673.904	35854.42
674.253	36126.73
674.602	35989.56
674.951	35411.72
675.3	35231.39
675.649	35670.7
675.998	35750.25
676.346	35771.94
676.695	35945.5
677.044	35628.22
677.393	35724.71
677.741	35661.21
678.09	35653.53
678.438	35669.34
678.787	35673.41
679.135	35734.43
679.484	35471.16
679.832	35537.14
680.181	35396.36
680.529	35498.73
680.877	35416.24
681.225	35419.63
681.573	35542.79
681.922	35255.57
682.27	35186.87
682.618	35110.04
682.966	35195.68
683.314	35225.29
683.661	35025.75
684.009	34815.13
684.357	34747.79
684.705	34755.92
685.053	34733.1
685.4	34728.35
685.748	34656.94
686.095	34531.52
686.443	34583.72
686.79	34531.3
687.138	34583.05
687.485	34440.22
687.832	34576.94
688.18	34491.52
688.527	34331.3
688.874	34284.3
689.221	34188.48
689.568	34090.86
689.915	34049.5
690.262	33987.81
690.609	33848.15
690.956	33792.78
691.303	33703.07
691.65	33437.54
691.997	33586.46
692.344	33434.38
692.69	33361.38
693.037	33523.41
693.383	33196.19
693.73	33244.1
694.077	33048.85
694.423	32939.02
694.769	32877.55
695.116	32919.36
695.462	32803.88
695.808	32690.67
696.155	32719.37
696.501	32535.64
696.847	32542.42
697.193	32405.7
697.539	32374.29
697.885	32078.48
698.231	32080.74
698.577	32083
698.923	31980.4
699.269	31963
699.614	31763.68
699.96	31749.67
700.306	31736.11
700.651	31547.65
700.997	31464.71
701.342	31413.41
701.688	31396.46
702.033	31274.43
702.379	31312.85
702.724	31190.59
703.069	31172.74
703.415	30828.12
703.76	31008
704.105	30874.22
704.45	30908.79
704.795	30643.49
705.14	30544.51
705.485	30573.21
705.83	30305.87
706.175	30405.08
706.52	30335.7
706.865	30173.22
707.209	30185.87
707.554	30109.94
707.899	30220
708.243	30022.04
708.588	29980.23
708.932	29843.96
709.277	29762.83
709.621	29694.81
709.966	29533.23
710.31	29718.09
710.654	29390.64
710.998	29438.32
711.342	29462.95
711.687	29413.92
712.031	29316.74
712.375	29101.61
712.719	29133.25
713.063	29176.63
713.407	29154.71
713.75	28980.03
714.094	28986.36
714.438	28914.49
714.782	29005.57
715.125	28755.4
715.469	28839.92
715.812	28768.51
716.156	28451.91
716.499	28542.3
716.843	28494.17
717.186	28349.54
717.53	28577.78
717.873	28535.07
718.216	28341.63
718.559	28266.6
718.902	28138.02
719.246	28155.19
719.589	27989.55
719.932	27936.44
720.275	28035.65
720.617	28014.86
720.96	27855.99
721.303	27900.51
721.646	27931.69
721.989	27655.77
722.331	27853.73
722.674	27651.48
723.016	27582.33
723.359	27604.7
723.701	27629.56
724.044	27308.21
724.386	27245.16
724.729	27522.44
725.071	27401.77
725.413	27324.93
725.755	27308.66
726.097	27203.35
726.439	27083.13
726.782	27032.06
727.124	27241.54
727.465	27105.05
727.807	27046.97
728.149	27038.61
728.491	26898.95
728.833	27032.74
729.175	26877.71
729.516	26755.68
729.858	26843.59
730.199	26715.91
730.541	26672.74
730.882	26763.36
731.224	26771.73
731.565	26621.22
731.906	26482.47
732.248	26570.37
732.589	26386.42
732.93	26479.76
733.271	26295.13
733.612	26342.58
733.953	26395.46
734.294	26268.46
734.635	26291.29
734.976	26318.86
735.317	26176.26
735.658	26089.48
735.999	26151.85
736.339	26079.77
736.68	26198.41
737.021	25943.05
737.361	25957.74
737.702	26090.84
738.042	25968.13
738.383	25928.36
738.723	25859.66
739.063	25853.56
739.404	25768.81
739.744	25647.24
740.084	25745.31
740.424	25713.9
740.764	25626.67
741.104	25754.13
741.444	25497.18
741.784	25485.21
742.124	25480.91
742.464	25444.3
742.804	25371.31
743.143	25428.94
743.483	25345.77
743.823	25248.6
744.162	25283.63
744.502	25284.53
744.841	25122.73
745.181	25126.34
745.52	25047.93
745.86	25236.62
746.199	25149.17
746.538	25027.14
746.877	25060.36
747.216	24993.47
747.556	25150.98
747.895	24913.7
748.234	24881.61
748.573	24805.22
748.911	24844.54
749.25	24796.41
749.589	24592.8
749.928	24673.02
750.267	24615.62
750.605	24688.84
750.944	24581.27
751.283	24518.23
751.621	24489.75
751.96	24435.06
752.298	24455.4
752.636	24415.4
752.975	24232.58
753.313	24127.95
753.651	24351.45
753.989	24149.2
754.327	24110.33
754.666	23992.59
755.004	24113.94
755.342	24035.98
755.679	24043.66
756.017	23837.34
756.355	23967.51
756.693	23651.36
757.031	23871.24
757.368	23728.19
757.706	23639.38
758.044	23659.94
758.381	23561.19
758.719	23490
759.056	23508.99
759.394	23339.95
759.731	23327.52
760.068	23275.32
