Data from hue_10_FLMS001491_12.txt Node
Date: Mon Feb 06 15:31:29 GMT 2017
User: dcchb
Spectrometer: FLMS00149
Trigger mode: 0
Integration Time (sec): 2.000000E-2
Scans to average: 10
Electric dark correction enabled: true
Nonlinearity correction enabled: false
Boxcar width: 0
XAxis mode: Wavelengths
Number of Pixels in Spectrum: 2048
>>>>>Begin Spectral Data<<<<<
341.393	-25.51
341.776	-25.51
342.16	-25.51
342.543	-65.05
342.927	-75.68
343.31	-52.4
343.693	-66.86
344.077	-54.66
344.46	-56.69
344.843	-39.97
345.226	-49.24
345.61	-41.55
345.993	-27.99
346.376	-2.23
346.759	1.84
347.142	11.78
347.525	39.8
347.908	65.56
348.291	83.42
348.674	94.72
349.057	94.49
349.44	128.39
349.823	147.14
350.206	146.47
350.588	183.3
350.971	220.14
351.354	224.43
351.737	235.95
352.119	256.07
352.502	268.5
352.884	265.33
353.267	278.44
353.65	293.58
354.032	304.65
354.414	320.92
354.797	314.82
355.179	318.89
355.562	310.3
355.944	348.27
356.326	324.31
356.709	319.12
357.091	320.92
357.473	341.94
357.855	330.42
358.238	327.03
358.62	332.9
359.002	344.43
359.384	343.07
359.766	317.76
360.148	318.21
360.53	345.78
360.912	315.05
361.294	326.12
361.676	329.96
362.057	334.48
362.439	314.82
362.821	317.53
363.203	318.89
363.584	324.99
363.966	314.14
364.348	317.53
364.729	307.59
365.111	322.28
365.493	331.32
365.874	316.18
366.256	306.69
366.637	305.1
367.019	311.66
367.4	302.62
367.781	310.08
368.163	309.62
368.544	295.84
368.925	301.72
369.306	313.92
369.688	309.62
370.069	312.11
370.45	306.23
370.831	297.65
371.212	297.87
371.593	318.21
371.974	312.79
372.355	326.35
372.736	341.49
373.117	315.5
373.498	307.59
373.879	293.81
374.26	316.63
374.641	333.13
375.021	319.79
375.402	302.62
375.783	311.66
376.163	313.01
376.544	313.24
376.925	317.99
377.305	313.24
377.686	311.88
378.066	316.4
378.447	317.99
378.827	326.12
379.208	331.77
379.588	330.87
379.968	318.66
380.349	314.14
380.729	307.59
381.109	315.05
381.489	329.29
381.87	306.01
382.25	317.76
382.63	334.93
383.01	347.59
383.39	332.22
383.77	333.35
384.15	344.43
384.53	341.49
384.91	358.44
385.29	327.93
385.67	322.28
386.049	342.39
386.429	335.84
386.809	351.21
387.189	343.52
387.568	337.42
387.948	345.78
388.328	338.1
388.707	355.5
389.087	343.97
389.466	354.14
389.846	335.84
390.225	345.78
390.605	347.82
390.984	343.52
391.363	359.57
391.743	340.13
392.122	353.01
392.501	350.53
392.881	349.4
393.26	356.63
393.639	348.49
394.018	361.6
394.397	357.53
394.776	336.74
395.155	363.63
395.534	376.52
395.913	345.78
396.292	368.61
396.671	361.37
397.05	337.42
397.429	354.14
397.808	388.27
398.186	366.57
398.565	378.1
398.944	356.4
399.323	389.85
399.701	383.3
400.08	387.14
400.458	366.35
400.837	380.81
401.215	383.75
401.594	364.99
401.972	377.42
402.351	382.62
402.729	386.68
403.107	366.35
403.486	382.39
403.864	383.52
404.242	402.05
404.62	402.96
404.999	377.87
405.377	385.55
405.755	406.57
406.133	376.06
406.511	395.5
406.889	408.38
407.267	410.41
407.645	409.51
408.023	393.69
408.401	417.87
408.779	407.48
409.156	416.74
409.534	403.63
409.912	404.76
410.29	432.56
410.667	415.38
411.045	431.43
411.422	433.01
411.8	422.16
412.178	428.72
412.555	431.88
412.933	437.53
413.31	447.02
413.687	433.46
414.065	450.41
414.442	437.76
414.819	445.44
415.197	425.55
415.574	452.22
415.951	454.93
416.328	453.35
416.705	471.88
417.082	451.99
417.46	465.78
417.837	481.37
418.214	464.87
418.591	473.46
418.967	464.42
419.344	475.72
419.721	446.8
420.098	486.57
420.475	459.45
420.852	477.76
421.228	482.05
421.605	502.61
421.982	496.74
422.358	482.28
422.735	499
423.111	477.3
423.488	520.47
423.864	464.42
424.241	494.7
424.617	504.87
424.994	520.24
425.37	503.07
425.746	512.11
426.123	508.72
426.499	525.21
426.875	499.68
427.251	518.43
427.627	534.03
428.003	534.03
428.379	528.6
428.756	557.53
429.132	541.48
429.507	562.95
429.883	541.03
430.259	544.87
430.635	539.22
431.011	564.31
431.387	564.31
431.763	556.4
432.138	583.52
432.514	569.5
432.89	550.07
433.265	579
433.641	554.59
434.016	595.49
434.392	599.79
434.767	588.71
435.143	612.44
435.518	592.1
435.894	593.91
436.269	609.05
436.644	613.8
437.02	634.36
437.395	610.18
437.77	632.55
438.145	644.53
438.52	640.46
438.895	644.98
439.271	646.79
439.646	653.34
440.021	660.12
440.395	661.71
440.77	661.25
441.145	659.67
441.52	673.68
441.895	650.18
442.27	677.52
442.645	664.64
443.019	676.62
443.394	668.94
443.769	692.21
444.143	686.11
444.518	692.89
444.892	676.39
445.267	729.05
445.641	691.54
446.016	716.85
446.39	717.3
446.764	694.93
447.139	728.14
447.513	694.47
447.887	733.12
448.262	713.23
448.636	716.17
449.01	725.43
449.384	731.53
449.758	728.6
450.132	741.7
450.506	749.39
450.88	761.82
451.254	725.88
451.628	749.61
452.002	768.14
452.376	781.25
452.75	757.75
453.123	780.35
453.497	767.69
453.871	781.7
454.244	795.04
454.618	795.26
454.992	801.82
455.365	792.55
455.739	831.64
456.112	878.65
456.486	844.53
456.859	818.31
457.232	852.21
457.606	862.38
457.979	838.88
458.352	864.41
458.725	895.82
459.099	892.21
459.472	873.9
459.845	891.3
460.218	864.86
460.591	895.37
460.964	910.06
461.337	928.59
461.71	936.27
462.083	961.13
462.456	949.61
462.829	958.42
463.201	972.21
463.574	975.82
463.947	991.64
464.32	1013.56
464.692	1022.6
465.065	1022.83
465.438	1018.76
465.81	1044.97
466.183	1037.74
466.555	1084.07
466.928	1060.57
467.3	1067.34
467.672	1069.15
468.045	1115.25
468.417	1131.3
468.789	1122.26
469.161	1120.9
469.534	1149.15
469.906	1185.53
470.278	1172.2
470.65	1198.64
471.022	1202.93
471.394	1256.94
471.766	1247.68
472.138	1265.53
472.51	1267.34
472.882	1299.43
473.253	1316.38
473.625	1335.13
473.997	1346.89
474.369	1379.65
474.74	1407
475.112	1433.66
475.484	1422.36
475.855	1461.91
476.227	1480.89
476.598	1516.82
476.97	1512.76
477.341	1534
477.713	1561.12
478.084	1611.06
478.455	1627.1
478.827	1670.04
479.198	1705.29
479.569	1704.84
479.94	1771.28
480.311	1760.89
480.682	1816.7
481.053	1881.56
481.424	1902.35
481.795	1930.15
482.166	1959.98
482.537	1964.95
482.908	2045.4
483.279	2059.86
483.65	2089.46
484.021	2124.72
484.391	2159.97
484.762	2200.87
485.133	2203.36
485.503	2256.24
485.874	2297.59
486.244	2326.29
486.615	2365.39
486.985	2439.96
487.356	2465.05
487.726	2502.34
488.097	2546.18
488.467	2543.46
488.837	2635.44
489.207	2657.81
489.578	2720.18
489.948	2732.39
490.318	2756.57
490.688	2762.89
491.058	2831.82
491.428	2874.75
491.798	2940.06
492.168	2975.77
492.538	2950.46
492.908	3026.84
493.278	3057.8
493.648	3053.28
494.017	3082.66
494.387	3147.29
494.757	3188.19
495.126	3206.05
495.496	3187.52
495.866	3258.93
496.235	3344.8
496.605	3306.16
496.974	3350.45
497.344	3388.19
497.713	3437
498.082	3430.45
498.452	3523.55
498.821	3528.07
499.19	3548.64
499.559	3545.25
499.928	3532.82
500.298	3606.26
500.667	3615.3
501.036	3626.83
501.405	3668.18
501.774	3690.33
502.143	3670.44
502.512	3739.36
502.88	3747.27
503.249	3793.6
503.618	3814.39
503.987	3820.49
504.356	3837.89
504.724	3815.97
505.093	3872.47
505.462	3888.97
505.83	3905.01
506.199	3932.81
506.567	3952.92
506.936	3970.09
507.304	4029.3
507.672	4015.52
508.041	4022.52
508.409	4052.35
508.777	4088.28
509.145	4138
509.514	4099.13
509.882	4156.08
510.25	4155.4
510.618	4192.91
510.986	4138.9
511.354	4194.72
511.722	4261.84
512.09	4206.7
512.458	4218.9
512.826	4286.02
513.193	4331.89
513.561	4274.94
513.929	4342.29
514.297	4342.06
514.664	4359.69
515.032	4374.38
515.4	4367.37
515.767	4454.6
516.135	4419.57
516.502	4418.67
516.869	4473.81
517.237	4475.39
517.604	4477.65
517.972	4485.56
518.339	4535.05
518.706	4494.83
519.073	4558.33
519.44	4583.18
519.808	4606.46
520.175	4579.12
520.542	4656.18
520.909	4627.25
521.276	4660.47
521.643	4682.17
522.009	4699.57
522.376	4689.62
522.743	4722.62
523.11	4774.82
523.477	4820.01
523.843	4802.84
524.21	4865.21
524.577	4912.44
524.943	4890.75
525.31	4917.41
525.676	4955.38
526.043	4899.11
526.409	4970.97
526.776	5006.68
527.142	5040.12
527.508	5086.45
527.874	5054.58
528.241	5083.06
528.607	5106.33
528.973	5207.8
529.339	5122.83
529.705	5182.26
530.071	5271.53
530.437	5262.26
530.803	5269.95
531.169	5308.82
531.535	5359.89
531.901	5373.45
532.267	5360.57
532.632	5387.91
532.998	5411.41
533.364	5459.77
533.73	5431.07
534.095	5536.61
534.461	5542.93
534.826	5532.54
535.192	5584.74
535.557	5573.22
535.923	5606.89
536.288	5577.51
536.653	5602.37
537.019	5647.56
537.384	5634
537.749	5677.39
538.114	5699.99
538.479	5752.65
538.845	5732.53
539.21	5748.13
539.575	5749.71
539.94	5780.44
540.305	5845.3
540.67	5839.2
541.034	5868.57
541.399	5896.37
541.764	5896.37
542.129	5957.16
542.494	5963.49
542.858	5958.74
543.223	5962.81
543.587	6050.26
543.952	6035.58
544.316	6077.38
544.681	6089.36
545.045	6067.44
545.41	6111.28
545.774	6164.16
546.138	6185.85
546.503	6236.25
546.867	6245.06
547.231	6296.36
547.595	6302.69
547.959	6327.32
548.324	6319.64
548.688	6379.75
549.052	6431.27
549.416	6413.64
549.779	6394.89
550.143	6429.01
550.507	6499.74
550.871	6492.74
551.235	6473.08
551.599	6552.4
551.962	6530.25
552.326	6548.1
552.689	6569.35
553.053	6612.74
553.417	6607.54
553.78	6691.38
554.143	6611.15
554.507	6649.8
554.87	6745.84
555.234	6814.76
555.597	6742.68
555.96	6798.27
556.323	6790.36
556.686	6766.4
557.05	6873.75
557.413	6812.28
557.776	6882.11
558.139	6894.54
558.502	6930.02
558.865	6959.39
559.228	6980.64
559.59	7000.97
559.953	6961.43
560.316	7092.5
560.679	7090.92
561.041	7127.52
561.404	7086.4
561.767	7137.24
562.129	7126.17
562.492	7218.37
562.854	7197.58
563.217	7195.77
563.579	7228.76
563.941	7321.64
564.304	7332.04
564.666	7343.56
565.028	7322.55
565.39	7377.01
565.753	7437.35
566.115	7408.87
566.477	7464.69
566.839	7470.79
567.201	7543.33
567.563	7550.34
567.925	7602.99
568.287	7573.61
568.648	7644.8
569.01	7671.69
569.372	7726.38
569.734	7700.16
570.095	7775.87
570.457	7769.99
570.819	7824.46
571.18	7831.46
571.542	7928.63
571.903	7891.8
572.265	7986.71
572.626	8008.63
572.987	8064.67
573.349	8026.48
573.71	8134.05
574.071	8167.72
574.432	8266.7
574.794	8320.49
575.155	8350.09
575.516	8319.81
575.877	8387.6
576.238	8447.04
576.599	8555.51
576.96	8668.05
577.32	8711.44
577.681	8739.23
578.042	8895.16
578.403	8974.26
578.763	8922.96
579.124	9095.61
579.485	9152.1
579.845	9220.35
580.206	9380.57
580.566	9421.48
580.927	9482.72
581.287	9643.84
581.648	9801.8
582.008	9878.86
582.368	10085.19
582.728	10184.17
583.089	10317.95
583.449	10454.89
583.809	10579.19
584.169	10729.24
584.529	10939.4
584.889	11122.45
585.249	11277.7
585.609	11410.8
585.969	11607.41
586.329	11771.47
586.688	12152.93
587.048	12213.04
587.408	12404.67
587.768	12638.11
588.127	12921.72
588.487	13091.89
588.846	13406.68
589.206	13519.67
589.565	13717.18
589.925	14009.15
590.284	14329.14
590.643	14489.36
591.003	14829.02
591.362	15081.89
591.721	15276.69
592.08	15595.78
592.44	15840.74
592.799	16125.93
593.158	16399.6
593.517	16619.48
593.876	17068.28
594.235	17191.89
594.593	17415.84
594.952	17841.59
595.311	18071.64
595.67	18477.28
596.029	18770.38
596.387	19065.29
596.746	19420.53
597.104	19602.45
597.463	19933.97
597.822	20150.68
598.18	20473.84
598.538	20706.83
598.897	21125.57
599.255	21205.8
599.613	21856.85
599.972	22041.03
600.33	22185.89
600.688	22446.22
601.046	22843.72
601.404	23210.49
601.762	23366.42
602.12	23810.25
602.478	24102.22
602.836	24364.36
603.194	24527.29
603.552	24952.14
603.91	24924.34
604.268	25386.93
604.625	25542.63
604.983	25938.56
605.341	26047.03
605.698	26467.13
606.056	26818.08
606.413	26951.86
606.771	27232.08
607.128	27489.02
607.485	27594.78
607.843	27824.83
608.2	28124.94
608.557	28571.25
608.914	28585.72
609.272	28877.69
609.629	29145.7
609.986	29535.52
610.343	29507.73
610.7	30033.81
611.057	30040.37
611.414	30265.45
611.771	30400.36
612.127	30634.48
612.484	30901.81
612.841	31247.34
613.198	31144.52
613.554	31364.63
613.911	31770.72
614.267	31783.83
614.624	32053.87
614.98	32285.73
615.337	32488.67
615.693	32582.22
616.05	32642.56
616.406	32941.08
616.762	33087.97
617.118	33199.61
617.475	33445.25
617.831	33720.27
618.187	33740.84
618.543	33877.33
618.899	34266.02
619.255	34232.8
619.611	34289.97
619.967	34603.86
620.323	34568.84
620.678	34637.99
621.034	34696.97
621.39	34820.58
621.746	34925.89
622.101	35498.76
622.457	35307.8
622.812	35421.47
623.168	35555.25
623.523	35785.08
623.879	35830.05
624.234	35811.74
624.589	36010.15
624.945	36007.22
625.3	36169.92
625.655	36166.08
626.01	36216.93
626.365	36423.7
626.72	36338.96
627.075	36386.42
627.43	36687.65
627.785	36413.53
628.14	36646.3
628.495	36784.37
628.85	36781.66
629.205	36670.48
629.559	36971.49
629.914	36998.15
630.269	36990.02
630.623	36886.74
630.978	36908.21
631.332	37078.15
631.687	37173.51
632.041	37131.71
632.396	37276.56
632.75	37083.12
633.104	37263.23
633.459	37031.14
633.813	37207.41
634.167	37220.29
634.521	37224.36
634.875	37277.92
635.229	37288.31
635.583	37136.9
635.937	37136
636.291	37090.8
636.645	37247.86
636.999	37160.18
637.352	37293.28
637.706	37132.84
638.06	37231.37
638.413	37185.49
638.767	37141.88
639.121	37189.78
639.474	36965.84
639.828	37209.45
640.181	37264.36
640.534	37300.06
640.888	37219.61
641.241	36997.25
641.594	37123.35
641.947	37235.89
642.301	37194.08
642.654	37243.12
643.007	37287.18
643.36	37180.52
643.713	37140.52
644.066	37230.46
644.419	37031.82
644.771	36816.69
645.124	36623.92
645.477	36531.95
645.83	36362.46
646.182	36225.06
646.535	36121.34
646.888	36242.92
647.24	36016.03
647.593	36198.85
647.945	36138.06
648.298	35991.85
648.65	35908.24
649.002	35962.7
649.355	36080.21
649.707	35981.23
650.059	36041.57
650.411	36555.23
650.763	36572.17
651.115	36913.63
651.467	36755.9
651.819	36853.75
652.171	36801.09
652.523	36837.03
652.875	36670.93
653.227	36561.55
653.578	36871.15
653.93	36692.4
654.282	36571.72
654.633	36408.56
654.985	36712.74
655.337	36623.7
655.688	36697.59
656.039	36732.17
656.391	36436.36
656.742	36561.1
657.094	36496.7
657.445	36688.33
657.796	36714.09
658.147	36567.88
658.498	36659.4
658.849	36609.69
659.2	36532.63
659.551	36487.88
659.902	36539.41
660.253	36517.49
660.604	36446.98
660.955	36363.14
661.306	36564.94
661.656	36374.21
662.007	36448.34
662.358	36456.47
662.708	36419.18
663.059	36406.53
663.409	36207.89
663.76	36482.01
664.11	36406.3
664.461	36476.58
664.811	36576.02
665.161	36398.17
665.511	36329.92
665.862	36388.68
666.212	36493.31
666.562	36562.46
666.912	36511.84
667.262	36349.81
667.612	36286.08
667.962	36559.07
668.312	36278.85
668.662	36331.5
669.011	36323.82
669.361	36358.62
669.711	36263.93
670.06	36195.01
670.41	36192.52
670.76	36159.53
671.109	36319.3
671.459	36326.08
671.808	36086.76
672.157	36225.97
672.507	36048.57
672.856	36184.16
673.205	36190.72
673.554	36244.95
673.904	36048.35
674.253	36312.29
674.602	36211.05
674.951	35585.08
675.3	35531.3
675.649	36160.89
675.998	36213.99
676.346	35975.58
676.695	36224.61
677.044	35872.98
677.393	36171.73
677.741	35990.72
678.09	35979.65
678.438	35807.22
678.787	35971.74
679.135	36063.71
679.484	35720.9
679.832	35924.06
680.181	35671.63
680.529	35711.18
680.877	35648.58
681.225	35742.82
681.573	35802.02
681.922	35561.35
682.27	35421.24
682.618	35518.87
682.966	35359.32
683.314	35435.25
683.661	35308.48
684.009	35167.24
684.357	35096.73
684.705	34976.28
685.053	35192.1
685.4	35058.54
685.748	34896.96
686.095	34818.1
686.443	34841.82
686.79	34738.32
687.138	34760.47
687.485	34835.27
687.832	34665.33
688.18	34638.21
688.527	34496.75
688.874	34480.93
689.221	34338.79
689.568	34338.33
689.915	34240.03
690.262	34306.47
690.609	34194.16
690.956	34184.67
691.303	34074.61
691.65	33984.45
691.997	33895.86
692.344	33711.91
692.69	33606.6
693.037	33720.27
693.383	33414.29
693.73	33596.88
694.077	33353.28
694.423	33405.03
694.769	33170.68
695.116	33218.59
695.462	33087.07
695.808	33033.74
696.155	33103.56
696.501	32878.49
696.847	32781.09
697.193	32498.61
697.539	32707.19
697.885	32362.12
698.231	32364.6
698.577	32349.91
698.923	32152.18
699.269	32170.71
699.614	31965.52
699.96	32006.42
700.306	31951.5
700.651	31916.03
700.997	31732.08
701.342	31626.77
701.688	31602.14
702.033	31510.16
702.379	31644.17
702.724	31377.51
703.069	31578.41
703.415	31123.5
703.76	31120.11
704.105	31171.64
704.45	31053.45
704.795	30989.5
705.14	30784.98
705.485	30872.21
705.83	30714.25
706.175	30804.64
706.52	30595.38
706.865	30672.89
707.209	30520.81
707.554	30284.43
707.899	30471.77
708.243	30263.19
708.588	30261.15
708.932	30052.57
709.277	29992.01
709.621	30116.52
709.966	29902.07
710.31	29815.52
710.654	29661.85
710.998	29756.31
711.342	29696.42
711.687	29592.24
712.031	29543.88
712.375	29355.87
712.719	29438.8
713.063	29327.84
713.407	29519.48
713.75	29196.55
714.094	29160.84
714.438	29085.37
714.782	29260.95
715.125	29070.68
715.469	29119.04
715.812	28919.72
716.156	28712.95
716.499	28803.79
716.843	28782.77
717.186	28593.4
717.53	28854.18
717.873	28693.96
718.216	28630.46
718.559	28441.31
718.902	28403.8
719.246	28423.01
719.589	28322.22
719.932	28217.14
720.275	28141.21
720.617	28110.25
720.96	28150.47
721.303	28048.33
721.646	27980.76
721.989	27989.35
722.331	28017.37
722.674	27942.8
723.016	27959.07
723.359	27841.33
723.701	27860.09
724.044	27695.57
724.386	27648.34
724.729	27689.24
725.071	27525.63
725.413	27586.65
725.755	27706.64
726.097	27564.05
726.439	27382.59
726.782	27338.74
727.124	27465.52
727.465	27285.41
727.807	27256.26
728.149	27282.7
728.491	27270.72
728.833	27241.35
729.175	27147.34
729.516	27044.29
729.858	27067.79
730.199	27094.68
730.541	27021.46
730.882	26930.39
731.224	27071.18
731.565	26898.98
731.906	26804.97
732.248	26838.42
732.589	26696.5
732.93	26510.97
733.271	26596.39
733.612	26644.98
733.953	26653.34
734.294	26530.63
734.635	26400.92
734.976	26536.51
735.317	26402.5
735.658	26347.36
735.999	26401.59
736.339	26268.94
736.68	26263.29
737.021	26260.81
737.361	26134.26
737.702	26251.99
738.042	26115.95
738.383	26170.41
738.723	26135.61
739.063	25912.34
739.404	26112.34
739.744	25911.44
740.084	25944.43
740.424	25959.12
740.764	25814.49
741.104	25986.92
741.444	26014.94
741.784	25802.74
742.124	25849.52
742.464	25739.92
742.804	25687.49
743.143	25671.22
743.483	25643.2
743.823	25552.8
744.162	25558.45
744.502	25540.15
744.841	25506.93
745.181	25465.35
745.52	25467.38
745.86	25546.7
746.199	25491.34
746.538	25285.69
746.877	25400.04
747.216	25247.5
747.556	25326.14
747.895	25221.29
748.234	25144.68
748.573	25197.78
748.911	25116.2
749.25	24980.39
749.589	25008.86
749.928	25000.95
750.267	25012.03
750.605	24879.83
750.944	24887.74
751.283	24739.49
751.621	24848.19
751.96	24687.97
752.298	24712.15
752.636	24720.51
752.975	24606.16
753.313	24438.03
753.651	24544.02
753.989	24527.52
754.327	24383.57
754.666	24333.85
755.004	24409.78
755.342	24324.36
755.679	24291.82
756.017	24271.25
756.355	24214.53
756.693	24110.58
757.031	24279.39
757.368	23955.78
757.706	23999.62
758.044	24010.24
758.381	24016.12
758.719	23850.02
759.056	23938.16
759.394	23762.34
759.731	23654.1
760.068	23664.04
760.405	23557.15
760.743	23472.86
761.08	23556.47
