Data from hue_160_FLMS001491_00070.txt Node
Date: Tue Feb 07 16:51:32 GMT 2017
User: dcchb
Spectrometer: FLMS00149
Trigger mode: 0
Integration Time (sec): 2.000000E-2
Scans to average: 10
Electric dark correction enabled: true
Nonlinearity correction enabled: false
Boxcar width: 0
XAxis mode: Wavelengths
Number of Pixels in Spectrum: 2048
>>>>>Begin Spectral Data<<<<<
341.393	-12.88
341.776	-12.88
342.16	-12.88
342.543	-50.17
342.927	-71.86
343.31	-89.94
343.693	-63.5
344.077	-57.17
344.46	-60.34
344.843	-70.28
345.226	-52.2
345.61	-19.43
345.993	-15.37
346.376	-14.01
346.759	17.85
347.142	8.59
347.525	42.26
347.908	70.96
348.291	80.22
348.674	103.27
349.057	119.09
349.44	116.83
349.823	143.95
350.206	161.35
350.588	205.64
350.971	205.64
351.354	210.62
351.737	219.43
352.119	223.27
352.502	254.91
352.884	278.86
353.267	277.73
353.65	289.94
354.032	299.65
354.414	296.94
354.797	300.56
355.179	298.75
355.562	319.77
355.944	334.45
356.326	334.91
356.709	336.26
357.091	328.35
357.473	316.83
357.855	332.42
358.238	341.46
358.62	348.47
359.002	345.3
359.384	330.39
359.766	343.27
360.148	328.58
360.53	318.41
360.912	327
361.294	314.12
361.676	328.13
362.057	325.42
362.439	301.24
362.821	321.35
363.203	314.12
363.584	304.85
363.966	323.16
364.348	312.08
364.729	309.82
365.111	333.1
365.493	322.25
365.874	307.56
366.256	306.88
366.637	303.95
367.019	298.07
367.4	278.86
367.781	327.22
368.163	316.83
368.544	321.12
368.925	299.65
369.306	317.05
369.688	304.85
370.069	310.5
370.45	288.81
370.831	312.76
371.212	308.47
371.593	290.84
371.974	305.75
372.355	310.27
372.736	314.12
373.117	317.96
373.498	323.38
373.879	306.43
374.26	325.64
374.641	326.55
375.021	294.68
375.402	310.27
375.783	325.64
376.163	326.32
376.544	313.66
376.925	318.64
377.305	314.79
377.686	327.22
378.066	338.3
378.447	296.72
378.827	330.84
379.208	333.55
379.588	326.77
379.968	321.8
380.349	333.55
380.729	323.83
381.109	341.23
381.489	329.71
381.87	322.03
382.25	310.73
382.63	299.88
383.01	359.99
383.39	333.78
383.77	310.73
384.15	334.23
384.53	331.06
384.91	346.21
385.29	348.47
385.67	343.49
386.049	343.27
386.429	344.85
386.809	345.08
387.189	340.56
387.568	346.66
387.948	333.55
388.328	372.19
388.707	363.61
389.087	379.65
389.466	360.89
389.846	379.2
390.225	357.73
390.605	362.93
390.984	351.86
391.363	366.77
391.743	354.57
392.122	367.22
392.501	362.25
392.881	357.73
393.26	376.49
393.639	375.58
394.018	375.13
394.397	384.17
394.776	384.85
395.155	381.01
395.534	399.76
395.913	382.59
396.292	381.46
396.671	378.97
397.05	380.1
397.429	382.14
397.808	379.88
398.186	402.7
398.565	402.25
398.944	386.88
399.323	384.17
399.701	390.27
400.08	399.09
400.458	388.46
400.837	397.5
401.215	411.51
401.594	399.54
401.972	401.35
402.351	402.7
402.729	380.78
403.107	421.68
403.486	414.68
403.864	415.81
404.242	417.84
404.62	396.15
404.999	426.88
405.377	417.16
405.755	418.97
406.133	402.93
406.511	439.99
406.889	440.21
407.267	432.98
407.645	423.72
408.023	433.89
408.401	438.63
408.779	434.79
409.156	427.79
409.534	439.76
409.912	432.53
410.29	470.04
410.667	463.72
411.045	472.76
411.422	485.64
411.8	475.47
412.178	474.56
412.555	456.49
412.933	472.08
413.31	488.12
413.687	491.74
414.065	477.73
414.442	500.1
414.819	478.63
415.197	490.16
415.574	487.22
415.951	512.75
416.328	527.22
416.705	514.79
417.082	512.98
417.46	503.49
417.837	518.4
418.214	524.96
418.591	534.68
418.967	525.86
419.344	542.13
419.721	535.58
420.098	521.79
420.475	542.13
420.852	543.71
421.228	543.26
421.605	532.19
421.982	586.88
422.358	593.43
422.735	581.23
423.111	567.44
423.488	558.63
423.864	574
424.241	578.06
424.617	586.88
424.994	581.45
425.37	584.84
425.746	585.3
426.123	599.53
426.499	619.64
426.875	628.91
427.251	613.32
427.627	648.34
428.003	609.93
428.379	640.21
428.756	637.05
429.132	643.37
429.507	644.95
429.883	669.59
430.259	656.25
430.635	666.88
431.011	700.55
431.387	691.28
431.763	686.31
432.138	701.68
432.514	710.49
432.89	682.02
433.265	719.08
433.641	722.47
434.016	726.76
434.392	716.14
434.767	745.97
435.143	733.99
435.518	727.21
435.894	768.79
436.269	750.04
436.644	780.09
437.02	789.36
437.395	786.65
437.77	783.26
438.145	804.27
438.52	797.27
438.895	823.03
439.271	832.52
439.646	847.89
440.021	844.5
440.395	848.79
440.77	841.11
441.145	879.07
441.52	873.65
441.895	866.42
442.27	874.78
442.645	860.54
443.019	863.03
443.394	893.76
443.769	907.55
444.143	916.59
444.518	906.19
444.892	891.95
445.267	910.26
445.641	910.03
446.016	913.2
446.39	927.66
446.764	941.44
447.139	947.09
447.513	926.53
447.887	950.26
448.262	979.86
448.636	936.25
449.01	988.67
449.384	997.94
449.758	993.19
450.132	1006.75
450.506	992.97
450.88	1007.66
451.254	1017.83
451.628	1041.55
452.002	1056.02
452.376	1074.32
452.75	1066.19
453.123	1058.05
453.497	1066.86
453.871	1089.24
454.244	1114.32
454.618	1119.52
454.992	1113.64
455.365	1140.08
455.739	1157.03
456.112	1171.95
456.486	1166.07
456.859	1183.7
457.232	1184.83
457.606	1214.66
457.979	1240.87
458.352	1242.23
458.725	1272.96
459.099	1268.89
459.472	1311.6
459.845	1310.25
460.218	1306.86
460.591	1339.85
460.964	1349.57
461.337	1376.24
461.71	1433.18
462.083	1403.58
462.456	1421.43
462.829	1455.78
463.201	1467.31
463.574	1456.01
463.947	1500.3
464.32	1533.74
464.692	1551.6
465.065	1545.04
465.438	1589.56
465.81	1600.86
466.183	1622.56
466.555	1635.44
466.928	1666.62
467.3	1672.95
467.672	1721.08
468.045	1750.46
468.417	1747.07
468.789	1786.17
469.161	1819.39
469.534	1860.29
469.906	1883.79
470.278	1892.83
470.65	1931.93
471.022	1997.91
471.394	2018.7
471.766	2053.28
472.138	2109.32
472.51	2153.39
472.882	2155.88
473.253	2252.37
473.625	2277.45
473.997	2328.3
474.369	2342.54
474.74	2407.17
475.112	2463.66
475.484	2518.8
475.855	2557.67
476.227	2597.45
476.598	2668.63
476.97	2790.66
477.341	2875.4
477.713	2907.04
478.084	2948.4
478.455	3044.89
478.827	3099.58
479.198	3207.15
479.569	3252.8
479.94	3349.97
480.311	3415.05
480.682	3497.99
481.053	3632.67
481.424	3738.66
481.795	3831.76
482.166	3885.55
482.537	3983.17
482.908	4096.39
483.279	4142.26
483.65	4310.17
484.021	4391.97
484.391	4503.16
484.762	4594.23
485.133	4721.23
485.503	4791.96
485.874	4950.38
486.244	5044.16
486.615	5224.5
486.985	5263.36
487.356	5449.8
487.726	5505.62
488.097	5700.42
488.467	5762.79
488.837	5885.04
489.207	6042.78
489.578	6202.55
489.948	6237.12
490.318	6411.13
490.688	6525.7
491.058	6674.63
491.428	6822.65
491.798	6936.31
492.168	7138.57
492.538	7242.3
492.908	7344.89
493.278	7504.89
493.648	7572
494.017	7684.54
494.387	7862.39
494.757	7999.11
495.126	8092.89
495.496	8121.37
495.866	8283.4
496.235	8402.72
496.605	8552.54
496.974	8694.46
497.344	8705.76
497.713	8800.45
498.082	8930.61
498.452	9090.61
498.821	9193.66
499.19	9241.11
499.559	9365.18
499.928	9467.32
500.298	9542.8
500.667	9623.7
501.036	9706.19
501.405	9785.51
501.774	9879.06
502.143	9898.95
502.512	10013.07
502.88	10107.98
503.249	10128.1
503.618	10217.36
503.987	10297.81
504.356	10414.19
504.724	10439.73
505.093	10527.18
505.462	10639.72
505.83	10664.13
506.199	10707.52
506.567	10920.39
506.936	10864.57
507.304	11039.03
507.672	11029.31
508.041	11053.72
508.409	11173.94
508.777	11194.06
509.145	11373.26
509.514	11333.71
509.882	11431.79
510.25	11413.03
510.618	11531.45
510.986	11542.75
511.354	11632.01
511.722	11690.77
512.09	11750.43
512.458	11731.89
512.826	11818.67
513.193	11825.23
513.561	11887.37
513.929	12003.3
514.297	12073.13
514.664	12096.18
515.032	12195.84
515.4	12160.13
515.767	12205.1
516.135	12291.2
516.502	12138.44
516.869	12322.84
517.237	12346.12
517.604	12241.03
517.972	12348.38
518.339	12446.45
518.706	12546.56
519.073	12378.88
519.44	12501.82
519.808	12613
520.175	12572.78
520.542	12655.26
520.909	12666.56
521.276	12643.28
521.643	12791.75
522.009	12778.42
522.376	12723.73
522.743	12799.89
523.11	12846.44
523.477	13021.13
523.843	13004.63
524.21	13098.19
524.577	13067.9
524.943	13102.48
525.31	13096.15
525.676	13224.74
526.043	13210.95
526.409	13177.73
526.776	13261.8
527.142	13193.78
527.508	13280.1
527.874	13271.29
528.241	13288.92
528.607	13242.59
528.973	13315.36
529.339	13272.19
529.705	13363.94
530.071	13396.26
530.437	13327.33
530.803	13342.25
531.169	13395.81
531.535	13325.53
531.901	13271.74
532.267	13388.8
532.632	13353.77
532.998	13311.29
533.364	13301.35
533.73	13284.4
534.095	13334.11
534.461	13359.65
534.826	13348.12
535.192	13312.42
535.557	13312.19
535.923	13338.18
536.288	13268.8
536.653	13217.05
537.019	13186.55
537.384	13198.52
537.749	13182.03
538.114	13142.48
538.479	12963.05
538.845	13067.45
539.21	12927.34
539.575	13026.32
539.94	13107.23
540.305	12999.88
540.67	13003.95
541.034	12989.04
541.399	12885.99
541.764	12903.62
542.129	12918.98
542.494	12825.65
542.858	12860.9
543.223	12803.05
543.587	12745.65
543.952	12702.72
544.316	12656.84
544.681	12605.77
545.045	12703.85
545.41	12655.03
545.774	12614.81
546.138	12551.53
546.503	12523.74
546.867	12499.56
547.231	12513.34
547.595	12374.14
547.959	12513.8
548.324	12359.9
548.688	12317.42
549.052	12303.41
549.416	12247.14
549.779	12272.45
550.143	12202.39
550.507	12237.42
550.871	12208.49
551.235	12148.83
551.599	12224.99
551.962	12203.29
552.326	12100.47
552.689	12217.53
553.053	12040.81
553.417	12040.59
553.78	12136.4
554.143	11987.26
554.507	11996.97
554.87	11952.45
555.234	12071.1
555.597	11974.15
555.96	12053.47
556.323	11960.82
556.686	11902.51
557.05	11977.54
557.413	11873.59
557.776	11798.56
558.139	11911.55
558.502	11839.69
558.865	11798.56
559.228	11929.18
559.59	11859.58
559.953	11893.47
560.316	11916.75
560.679	11899.8
561.041	11939.57
561.404	11929.18
561.767	11930.08
562.129	11932.79
562.492	11926.47
562.854	11954.26
563.217	11893.47
563.579	11923.75
563.941	11959.91
564.304	12032
564.666	11978.89
565.028	11952
565.39	12008.05
565.753	12099.79
566.115	12078.1
566.477	12063.19
566.839	12013.02
567.201	12139.57
567.563	12083.98
567.925	12149.51
568.287	12127.59
568.648	12206.01
569.01	12117.87
569.372	12148.38
569.734	12149.96
570.095	12251.66
570.457	12283.29
570.819	12267.25
571.18	12197.42
571.542	12260.69
571.903	12246.91
572.265	12278.1
572.626	12353.35
572.987	12277.19
573.349	12356.51
573.71	12354.48
574.071	12370.52
574.432	12363.29
574.794	12436.96
575.155	12436.06
575.516	12350.64
575.877	12354.25
576.238	12398.32
576.599	12437.87
576.96	12399.45
577.32	12389.05
577.681	12356.51
578.042	12435.15
578.403	12422.27
578.763	12434.93
579.124	12365.1
579.485	12480.8
579.845	12462.27
580.206	12442.16
580.566	12438.32
580.927	12458.66
581.287	12464.76
581.648	12351.77
582.008	12487.36
582.368	12445.55
582.728	12454.36
583.089	12435.15
583.449	12459.11
583.809	12395.38
584.169	12386.11
584.529	12349.28
584.889	12375.95
585.249	12401.03
585.609	12389.5
585.969	12374.14
586.329	12387.02
586.688	12421.37
587.048	12343.4
587.408	12315.16
587.768	12276.74
588.127	12248.72
588.487	12300.47
588.846	12385.89
589.206	12261.6
589.565	12311.54
589.925	12260.47
590.284	12221.6
590.643	12352.9
591.003	12290.3
591.362	12291.88
591.721	12285.33
592.08	12254.14
592.44	12315.83
592.799	12298.66
593.158	12309.51
593.517	12294.14
593.876	12242.16
594.235	12239.45
594.593	12239.68
594.952	12242.16
595.311	12183.41
595.67	12210.53
596.029	12306.57
596.387	12260.92
596.746	12181.83
597.104	12200.36
597.463	12170.98
597.822	12237.87
598.18	12140.25
598.538	12202.17
598.897	12188.83
599.255	12129.85
599.613	12267.7
599.972	12097.99
600.33	12213.24
600.688	12091.89
601.046	12218.44
601.404	12290.07
601.762	12195.16
602.12	12210.07
602.478	12256.85
602.836	12235.84
603.194	12170.75
603.552	12203.52
603.91	12167.36
604.268	12179.57
604.625	12141.6
604.983	12211.43
605.341	12201.04
605.698	12202.39
606.056	12278.77
606.413	12226.8
606.771	12216.63
607.128	12257.08
607.485	12253.01
607.843	12212.33
608.2	12274.48
608.557	12341.6
608.914	12299.34
609.272	12300.92
609.629	12241.03
609.986	12383.4
610.343	12319.68
610.7	12378.21
611.057	12391.31
611.414	12318.55
611.771	12329.62
612.127	12391.99
612.484	12390.86
612.841	12448.03
613.198	12421.37
613.554	12437.19
613.911	12435.61
614.267	12369.62
614.624	12394.7
614.98	12447.36
615.337	12451.88
615.693	12421.37
616.05	12433.12
616.406	12507.02
616.762	12548.37
617.118	12481.03
617.475	12448.03
617.831	12465.89
618.187	12525.32
618.543	12526.68
618.899	12569.16
619.255	12542.04
619.611	12644.64
619.967	12536.17
620.323	12587.01
620.678	12569.84
621.034	12516.06
621.39	12554.25
621.746	12469.73
622.101	12558.77
622.457	12515.6
622.812	12559.44
623.168	12545.43
623.523	12588.37
623.879	12604.87
624.234	12558.09
624.589	12515.15
624.945	12556.28
625.3	12569.61
625.655	12588.6
626.01	12610.97
626.365	12629.05
626.72	12553.34
627.075	12607.8
627.43	12597.86
627.785	12587.01
628.14	12564.64
628.495	12572.78
628.85	12602.61
629.205	12512.67
629.559	12613
629.914	12553.34
630.269	12578.2
630.623	12562.83
630.978	12494.59
631.332	12528.26
631.687	12451.65
632.041	12422.5
632.396	12516.96
632.75	12435.38
633.104	12387.47
633.459	12394.25
633.813	12369.17
634.167	12370.75
634.521	12353.35
634.875	12336.17
635.229	12369.62
635.583	12301.15
635.937	12315.16
636.291	12317.42
636.645	12246.01
636.999	12321.71
637.352	12367.81
637.706	12230.86
638.06	12292.78
638.413	12215.5
638.767	12196.97
639.121	12227.48
639.474	12111.09
639.828	12129.85
640.181	12140.47
640.534	12118.78
640.888	12114.48
641.241	12015.5
641.594	12056.18
641.947	12135.95
642.301	12141.6
642.654	12056.86
643.007	12014.15
643.36	12036.29
643.713	12026.35
644.066	12033.58
644.419	11989.97
644.771	11879.01
645.124	11903.87
645.477	11851.44
645.83	11740.48
646.182	11649.64
646.535	11673.14
646.888	11639.47
647.24	11619.36
647.593	11615.51
647.945	11640.37
648.298	11506.36
648.65	11533.48
649.002	11448.74
649.355	11626.36
649.707	11553.59
650.059	11603.54
650.411	11737.09
650.763	11850.54
651.115	11930.31
651.467	11898.9
651.819	11878.78
652.171	11884.43
652.523	11869.74
652.875	11812.34
653.227	11773.7
653.578	11871.78
653.93	11854.15
654.282	11758.33
654.633	11733.93
654.985	11819.58
655.337	11835.17
655.688	11829.97
656.039	11819.58
656.391	11728.51
656.742	11732.35
657.094	11875.85
657.445	11932.34
657.796	11857.32
658.147	11836.75
658.498	11854.38
658.849	11980.02
659.2	11823.64
659.551	11826.13
659.902	11896.18
660.253	11825.23
660.604	11834.94
660.955	11849.41
661.306	11889.4
661.656	11876.3
662.007	11838.11
662.358	11904.09
662.708	11873.13
663.059	11937.99
663.409	11878.11
663.76	11893.25
664.11	11820.48
664.461	11882.85
664.811	11900.25
665.161	11890.99
665.511	11843.3
665.862	11914.26
666.212	11923.3
666.562	11898.44
666.912	11869.29
667.262	11878.11
667.612	11840.59
667.962	11837.88
668.312	11913.36
668.662	11949.52
669.011	11855.73
669.361	11789.52
669.711	11828.62
670.06	11888.5
670.41	11815.96
670.76	11704.78
671.109	11787.71
671.459	11829.29
671.808	11762.63
672.157	11839.24
672.507	11753.36
672.856	11787.03
673.205	11785
673.554	11785.23
673.904	11785.9
674.253	11849.41
674.602	11695.96
674.951	11603.08
675.3	11528.51
675.649	11807.6
675.998	11759.01
676.346	11719.69
676.695	11719.01
677.044	11619.36
677.393	11670.65
677.741	11681.95
678.09	11639.47
678.438	11681.27
678.787	11638.79
679.135	11685.12
679.484	11491.9
679.832	11628.85
680.181	11450.32
680.529	11560.6
680.877	11485.57
681.225	11424.78
681.573	11567.61
681.922	11399.93
682.27	11401.28
682.618	11395.41
682.966	11406.03
683.314	11435.86
683.661	11340.04
684.009	11296.65
684.357	11328.74
684.705	11237.9
685.053	11292.36
685.4	11241.06
685.748	11168.97
686.095	11164
686.443	11148.63
686.79	11107.28
687.138	11190.89
687.485	11127.62
687.832	11060.95
688.18	11013.72
688.527	10998.35
688.874	11018.47
689.221	10939.83
689.568	11008.07
689.915	10878.13
690.262	10939.6
690.609	10826.38
690.956	10829.09
691.303	10784.8
691.65	10697.8
691.997	10752.94
692.344	10702.77
692.69	10624.81
693.037	10671.58
693.383	10583.68
693.73	10601.08
694.077	10594.98
694.423	10449.44
694.769	10490.12
695.116	10425.94
695.462	10451.7
695.808	10330.35
696.155	10275.66
696.501	10279.28
696.847	10279.5
697.193	10153.86
697.539	10199.05
697.885	10138.94
698.231	10135.1
698.577	10052.17
698.923	10008.78
699.269	9991.6
699.614	9944.6
699.96	9923.35
700.306	9857.82
700.651	9835.45
700.997	9856.46
701.342	9843.81
701.688	9802.23
702.033	9750.93
702.379	9749.35
702.724	9706.64
703.069	9730.59
703.415	9511.16
703.76	9608.33
704.105	9627.32
704.45	9569.92
704.795	9422.13
705.14	9451.05
705.485	9486.08
705.83	9455.57
706.175	9429.13
706.52	9462.12
706.865	9333.99
707.209	9284.95
707.554	9270.49
707.899	9302.58
708.243	9329.02
708.588	9232.98
708.932	9123.15
709.277	9231.85
709.621	9204.73
709.966	9096.03
710.31	9116.6
710.654	8985.3
710.998	9005.19
711.342	9024.85
711.687	9026.2
712.031	8949.14
712.375	8999.31
712.719	8976.71
713.063	8913.21
713.407	8948.24
713.75	8879.31
714.094	8851.52
714.438	8816.27
714.782	8912.53
715.125	8848.81
715.469	8912.31
715.812	8763.61
716.156	8733.56
716.499	8784.63
716.843	8781.01
717.186	8694.91
717.53	8726.32
717.873	8735.82
718.216	8747.34
718.559	8693.33
718.902	8604.29
719.246	8585.99
719.589	8634.12
719.932	8617.63
720.275	8606.33
720.617	8567.01
720.96	8622.82
721.303	8597.74
721.646	8559.32
721.989	8540.11
722.331	8571.07
722.674	8543.73
723.016	8503.28
723.359	8503.73
723.701	8519.78
724.044	8464.86
724.386	8447.69
724.729	8462.15
725.071	8452.89
725.413	8486.78
725.755	8449.72
726.097	8458.31
726.439	8417.63
726.782	8415.82
727.124	8461.92
727.465	8377.18
727.807	8362.49
728.149	8447.69
728.491	8348.26
728.833	8440.68
729.175	8351.64
729.516	8328.59
729.858	8361.59
730.199	8381.25
730.541	8385.77
730.882	8381.47
731.224	8388.25
731.565	8309.61
731.906	8277.97
732.248	8336.5
732.589	8293.57
732.93	8307.58
733.271	8367.69
733.612	8318.65
733.953	8307.8
734.294	8313.23
734.635	8332.21
734.976	8265.09
735.317	8362.94
735.658	8302.15
735.999	8323.17
736.339	8277.52
736.68	8312.55
737.021	8341.02
737.361	8290.18
737.702	8330.63
738.042	8307.13
738.383	8287.92
738.723	8353.23
739.063	8327.92
739.404	8364.3
739.744	8287.69
740.084	8357.29
740.424	8366.79
740.764	8355.71
741.104	8416.5
741.444	8380.8
741.784	8404.3
742.124	8434.35
742.464	8425.54
742.804	8447.91
743.143	8423.73
743.483	8482.49
743.823	8492.21
744.162	8479.1
744.502	8555.26
744.841	8510.28
745.181	8586.67
745.52	8540.57
745.86	8695.59
746.199	8711.41
746.538	8660.79
746.877	8696.95
747.216	8754.8
747.556	8759.32
747.895	8876.15
748.234	8894.68
748.573	8880.9
748.911	9008.8
749.25	9044.73
749.589	9053.32
749.928	9218.97
750.267	9248.12
750.605	9236.82
750.944	9340.09
751.283	9344.61
751.621	9471.39
751.96	9465.74
752.298	9689.46
752.636	9737.37
752.975	9743.47
753.313	9847.2
753.651	10035.67
753.989	10118.83
754.327	10141.88
754.666	10229.11
755.004	10398.14
755.342	10466.17
755.679	10677.69
756.017	10719.04
756.355	10853.5
756.693	10981.18
757.031	11077.67
757.368	11179.59
757.706	11380.72
758.044	11459.81
758.381	11629.75
758.719	11806.7
759.056	11896.86
759.394	12070.87
