Data from hue_50_FLMS001491_51.txt Node
Date: Mon Feb 06 15:10:31 GMT 2017
User: dcchb
Spectrometer: FLMS00149
Trigger mode: 0
Integration Time (sec): 2.000000E-2
Scans to average: 10
Electric dark correction enabled: true
Nonlinearity correction enabled: false
Boxcar width: 0
XAxis mode: Wavelengths
Number of Pixels in Spectrum: 2048
>>>>>Begin Spectral Data<<<<<
341.393	-13.15
341.776	-13.15
342.16	-13.15
342.543	-56.09
342.927	-72.58
343.31	-67.84
343.693	-91.34
344.077	-48.85
344.46	-68.52
344.843	-54.5
345.226	-18.12
345.61	-24.9
345.993	-12.7
346.376	3.8
346.759	-0.04
347.142	33.86
347.525	45.83
347.908	71.59
348.291	65.49
348.674	70.46
349.057	95.77
349.44	127.19
349.823	139.84
350.206	145.04
350.588	173.51
350.971	211.93
351.354	225.26
351.737	238.14
352.119	245.37
352.502	279.95
352.884	271.81
353.267	280.4
353.65	302.32
354.032	302.1
354.414	308.88
354.797	301.19
355.179	306.84
355.562	338.48
355.944	319.5
356.326	319.72
356.709	338.93
357.091	338.25
357.473	340.51
357.855	326.5
358.238	358.59
358.62	333.06
359.002	320.63
359.384	355.88
359.766	315.66
360.148	333.96
360.53	331.7
360.912	344.81
361.294	344.13
361.676	327.41
362.057	335.99
362.439	336.67
362.821	327.63
363.203	322.44
363.584	330.12
363.966	326.95
364.348	329.21
364.729	317.92
365.111	300.51
365.493	309.33
365.874	310.91
366.256	309.78
366.637	311.36
367.019	314.75
367.4	325.37
367.781	293.74
368.163	319.72
368.544	299.38
368.925	310.68
369.306	311.14
369.688	297.12
370.069	313.4
370.45	312.49
370.831	307.97
371.212	328.31
371.593	290.12
371.974	308.88
372.355	328.76
372.736	326.73
373.117	311.81
373.498	325.6
373.879	319.95
374.26	312.04
374.641	316.56
375.021	307.52
375.402	319.27
375.783	302.55
376.163	347.07
376.544	322.66
376.925	340.06
377.305	331.47
377.686	321.31
378.066	335.77
378.447	322.66
378.827	335.32
379.208	338.93
379.588	323.11
379.968	328.31
380.349	327.63
380.729	341.19
381.109	326.28
381.489	332.83
381.87	333.06
382.25	343
382.63	348.65
383.01	337.58
383.39	349.1
383.77	325.37
384.15	338.93
384.53	315.2
384.91	325.6
385.29	326.28
385.67	340.06
386.049	345.26
386.429	331.93
386.809	352.26
387.189	333.51
387.568	351.13
387.948	338.03
388.328	353.17
388.707	356.11
389.087	370.12
389.466	338.71
389.846	343.23
390.225	366.95
390.605	352.94
390.984	389.1
391.363	362.43
391.743	365.37
392.122	345.49
392.501	354.3
392.881	365.15
393.26	357.69
393.639	350.23
394.018	354.3
394.397	375.31
394.776	355.43
395.155	372.83
395.534	361.53
395.913	360.4
396.292	376.22
396.671	374.86
397.05	384.58
397.429	366.5
397.808	349.33
398.186	365.82
398.565	380.96
398.944	394.3
399.323	388.42
399.701	366.05
400.08	384.81
400.458	378.03
400.837	399.5
401.215	382.09
401.594	376.44
401.972	371.47
402.351	396.33
402.729	379.16
403.107	386.16
403.486	379.16
403.864	421.42
404.242	380.96
404.62	400.63
404.999	398.37
405.377	398.82
405.755	405.14
406.133	378.93
406.511	409.66
406.889	382.32
407.267	402.43
407.645	405.82
408.023	413.51
408.401	401.75
408.779	406.27
409.156	407.18
409.534	427.07
409.912	407.86
410.29	418.48
410.667	434.97
411.045	434.75
411.422	434.52
411.8	443.34
412.178	427.74
412.555	439.95
412.933	442.21
413.31	437.91
413.687	434.97
414.065	442.43
414.442	473.62
414.819	451.47
415.197	458.48
415.574	460.51
415.951	426.84
416.328	434.3
416.705	442.21
417.082	464.13
417.46	465.48
417.837	459.61
418.214	472.94
418.591	471.36
418.967	497.8
419.344	464.8
419.721	461.64
420.098	485.14
420.475	469.78
420.852	474.97
421.228	512.26
421.605	489.66
421.982	488.53
422.358	491.92
422.735	490.79
423.111	494.18
423.488	497.8
423.864	507.51
424.241	501.87
424.617	488.31
424.994	511.36
425.37	519.94
425.746	505.71
426.123	525.37
426.499	522.2
426.875	513.39
427.251	519.04
427.627	533.73
428.003	547.06
428.379	556.33
428.756	537.8
429.132	550.68
429.507	530.57
429.883	549.55
430.259	563.56
430.635	556.78
431.011	584.58
431.387	566.5
431.763	580.73
432.138	587.51
432.514	581.64
432.89	584.8
433.265	592.71
433.641	596.55
434.016	600.39
434.392	592.94
434.767	590.22
435.143	619.6
435.518	636.78
435.894	630.22
436.269	634.29
436.644	622.99
437.02	633.61
437.395	619.6
437.77	637.68
438.145	642.65
438.52	652.82
438.895	640.39
439.271	655.99
439.646	670.9
440.021	663.44
440.395	659.6
440.77	653.27
441.145	676.1
441.52	652.82
441.895	676.55
442.27	683.56
442.645	696.66
443.019	709.09
443.394	670
443.769	686.49
444.143	683.56
444.518	715.19
444.892	710.67
445.267	712.48
445.641	699.83
446.016	735.53
446.39	721.75
446.764	730.11
447.139	714.52
447.513	721.07
447.887	744.8
448.262	730.33
448.636	741.63
449.01	751.12
449.384	733.95
449.758	754.29
450.132	770.33
450.506	777.11
450.88	766.49
451.254	737.57
451.628	777.79
452.002	765.81
452.376	776.21
452.75	761.97
453.123	799.26
453.497	798.58
453.871	823.89
454.244	810.78
454.618	803.78
454.992	836.55
455.365	821.4
455.739	854.4
456.112	841.29
456.486	857.34
456.859	864.79
457.232	882.65
457.606	862.76
457.979	903.89
458.352	915.41
458.725	911.8
459.099	912.48
459.472	929.88
459.845	929.88
460.218	950.67
460.591	952.47
460.964	958.58
461.337	970.33
461.71	986.37
462.083	986.6
462.456	972.36
462.829	1004.9
463.201	1044.9
463.574	1025.24
463.947	1043.09
464.32	1055.98
464.692	1063.21
465.065	1079.7
465.438	1089.87
465.81	1114.96
466.183	1120.61
466.555	1173.49
466.928	1173.49
467.3	1168.74
467.672	1171
468.045	1228.85
468.417	1226.37
468.789	1245.57
469.161	1248.06
469.534	1261.62
469.906	1287.61
470.278	1305.69
470.65	1348.4
471.022	1364.89
471.394	1381.62
471.766	1419.13
472.138	1454.16
472.51	1462.29
472.882	1489.64
473.253	1523.99
473.625	1563.76
473.997	1595.62
474.369	1603.31
474.74	1655.06
475.112	1686.01
475.484	1715.84
475.855	1780.48
476.227	1807.59
476.598	1847.37
476.97	1911.77
477.341	1986.57
477.713	2000.81
478.084	2075.84
478.455	2106.79
478.827	2175.72
479.198	2234.93
479.569	2300.46
479.94	2364.42
480.311	2383.85
480.682	2451.64
481.053	2527.8
481.424	2602.6
481.795	2694.35
482.166	2771.64
482.537	2828.13
482.908	2913.78
483.279	2984.74
483.65	3104.51
484.021	3174.34
484.391	3265.86
484.762	3301.57
485.133	3403.94
485.503	3542.46
485.874	3667.43
486.244	3709.69
486.615	3838.05
486.985	3938.39
487.356	4060.87
487.726	4122.11
488.097	4321.43
488.467	4361.65
488.837	4524.81
489.207	4605.71
489.578	4694.98
489.948	4817.01
490.318	4941.07
490.688	5035.76
491.058	5175.19
491.428	5333.38
491.798	5421.51
492.168	5617.21
492.538	5711.45
492.908	5809.52
493.278	5932.46
493.648	6058.1
494.017	6218.78
494.387	6329.51
494.757	6426.46
495.126	6603.85
495.496	6638.88
495.866	6699.22
496.235	6892.66
496.605	7038.64
496.974	7116.15
497.344	7270.73
497.713	7359.99
498.082	7469.82
498.452	7660.32
498.821	7728.57
499.19	7826.42
499.559	7968.56
499.928	8068.67
500.298	8224.83
500.667	8295.56
501.036	8373.3
501.405	8556.79
501.774	8583.23
502.143	8745.26
502.512	8841.99
502.88	8919.05
503.249	9076.33
503.618	9107.74
503.987	9246.95
504.356	9303.67
504.724	9495.98
505.093	9542.08
505.462	9641.96
505.83	9733.04
506.199	9850.77
506.567	10024.55
506.936	10066.81
507.304	10270.87
507.672	10302.06
508.041	10460.93
508.409	10552.22
508.777	10551.77
509.145	10749.05
509.514	10827.92
509.882	10904.76
510.25	10966.45
510.618	11141.36
510.986	11141.81
511.354	11307.46
511.722	11423.84
512.09	11630.61
512.458	11535.47
512.826	11696.37
513.193	11811.62
513.561	11820.89
513.929	11964.61
514.297	12077.38
514.664	12160.77
515.032	12252.52
515.4	12404.38
515.767	12417.26
516.135	12550.14
516.502	12515.56
516.869	12756.91
517.237	12776.8
517.604	12799.62
517.972	12956.91
518.339	13082.55
518.706	13089.56
519.073	13135.21
519.44	13327.74
519.808	13454.52
520.175	13567.28
520.542	13684.34
520.909	13720.27
521.276	13690.22
521.643	13922.98
522.009	14017.44
522.376	14185.8
522.743	14217.44
523.11	14383.76
523.477	14537.2
523.843	14553.02
524.21	14778.1
524.577	14802.28
524.943	14913.69
525.31	15007.25
525.676	15115.27
526.043	15178.54
526.409	15255.83
526.776	15505.76
527.142	15495.82
527.508	15635.93
527.874	15774.23
528.241	15774.01
528.607	15887
528.973	16016.26
529.339	16031.63
529.705	16350.26
530.071	16336.03
530.437	16417.38
530.803	16526.3
531.169	16659.18
531.535	16647.88
531.901	16722
532.267	16770.36
532.632	16928.1
532.998	17055.33
533.364	17114.54
533.73	17103.01
534.095	17314.76
534.461	17244.25
534.826	17435.88
535.192	17413.74
535.557	17696.22
535.923	17617.57
536.288	17702.77
536.653	17820.73
537.019	17844.23
537.384	17971.46
537.749	18026.6
538.114	18063.89
538.479	18090.1
538.845	18149.76
539.21	18178.46
539.575	18321.74
539.94	18370.55
540.305	18493.03
540.67	18461.39
541.034	18547.04
541.399	18626.13
541.764	18706.36
542.129	18788.16
542.494	18825.68
542.858	18868.39
543.223	18884.43
543.587	19086.46
543.952	19024.54
544.316	19126.01
544.681	19142.28
545.045	19184.31
545.41	19233.12
545.774	19407.13
546.138	19316.96
546.503	19387.24
546.867	19474.47
547.231	19733.45
547.595	19779.1
547.959	19815.26
548.324	19896.38
548.688	19882.37
549.052	19963.05
549.416	19944.52
549.779	20077.17
550.143	20125.3
550.507	20257.73
550.871	20297.05
551.235	20376.82
551.599	20474.9
551.962	20532.07
552.326	20437.61
552.689	20694.33
553.053	20547.89
553.417	20583.82
553.78	20968.45
554.143	20830.82
554.507	20952.63
554.87	21032.17
555.234	21198.72
555.597	21165.95
555.96	21137.48
556.323	21226.74
556.686	21335.22
557.05	21558.71
557.413	21479.39
557.776	21627.41
558.139	21754.87
558.502	21848.87
558.865	21939.04
559.228	22101.75
559.59	22152.37
559.953	22101.52
560.316	22311.46
560.679	22242.76
561.041	22419.26
561.404	22579.48
561.767	22703.77
562.129	22597.33
562.492	22957.55
562.854	22826.93
563.217	22999.13
563.579	23000.93
563.941	23227.82
564.304	23306.46
564.666	23503.29
565.028	23411.32
565.39	23569.51
565.753	23657.87
566.115	23746.23
566.477	23875.71
566.839	23924.07
567.201	24054.24
567.563	24168.14
567.925	24197.97
568.287	24217.17
568.648	24276.83
569.01	24374.46
569.372	24708.46
569.734	24615.81
570.095	24729.7
570.457	24829.81
570.819	25018.73
571.18	24997.72
571.542	25197.49
571.903	25086.76
572.265	25301.89
572.626	25421.44
572.987	25492.17
573.349	25591.6
573.71	25588.89
574.071	25706.85
574.432	25748.66
574.794	26081.98
575.155	25969.22
575.516	26066.16
575.877	26078.37
576.238	26154.07
576.599	26215.54
576.96	26397.68
577.32	26337.8
577.681	26595.42
578.042	26745.02
578.403	26729.42
578.763	26795.86
579.124	26871.12
579.485	27047.16
579.845	27221.16
580.206	27206.93
580.566	27285.34
580.927	27453.7
581.287	27587.03
581.648	27499.12
582.008	27783.63
582.368	27712.45
582.728	27906.12
583.089	27960.58
583.449	28017.07
583.809	28138.88
584.169	28307.01
584.529	28234.02
584.889	28576.16
585.249	28438.76
585.609	28461.36
585.969	28757.85
586.329	28676.49
586.688	28859.99
587.048	28935.69
587.408	28923.04
587.768	29056.37
588.127	29128.68
588.487	29246.65
588.846	29613.87
589.206	29495.68
589.565	29485.28
589.925	29808.44
590.284	29764.82
590.643	29891.38
591.003	30189.22
591.362	30174.98
591.721	30086.4
592.08	30204.59
592.44	30505.37
592.799	30491.59
593.158	30548.08
593.517	30593.05
593.876	30758.02
594.235	30768.87
594.593	30861.52
594.952	31028.52
595.311	31050.67
595.67	31254.96
596.029	31403.88
596.387	31612.69
596.746	31576.3
597.104	31573.36
597.463	31709.41
597.822	31839.8
598.18	31764.32
598.538	31773.36
598.897	32121.37
599.255	31990.3
599.613	32439.56
599.972	32281.59
600.33	32339.45
600.688	32273.23
601.046	32579.89
601.404	32789.6
601.762	32798.42
602.12	32930.39
602.478	32942.82
602.836	32976.04
603.194	32897.85
603.552	32972.88
603.91	33084.96
604.268	33272.98
604.625	33050.39
604.983	33433.2
605.341	33400.21
605.698	33569.7
606.056	33642.24
606.413	33506.65
606.771	33706.64
607.128	33751.39
607.485	33664.16
607.843	33733.99
608.2	34033.19
608.557	34191.6
608.914	34078.16
609.272	34143.69
609.629	34464.59
609.986	34403.8
610.343	34409.45
610.7	34617.35
611.057	34638.59
611.414	34588.2
611.771	34757.01
612.127	34922.43
612.484	34854.86
612.841	35148.19
613.198	34938.47
613.554	35038.13
613.911	35259.82
614.267	35229.54
614.624	35261.4
614.98	35384.11
615.337	35563.09
615.693	35552.24
616.05	35503.88
616.406	35783.88
616.762	35676.99
617.118	35724.89
617.475	35848.51
617.831	35775.51
618.187	35864.33
618.543	36011.67
618.899	36192.68
619.255	36062.96
619.611	36093.02
619.967	36326.23
620.323	36255.73
620.678	36193.13
621.034	36145.67
621.39	36147.48
621.746	36281.49
622.101	36673.34
622.457	36327.14
622.812	36509.28
623.168	36629.5
623.523	36652.33
623.879	36643.06
624.234	36486.46
624.589	36586.11
624.945	36689.16
625.3	36817.52
625.655	36791.31
626.01	36815.49
626.365	36778.2
626.72	36765.54
627.075	36877.86
627.43	36832.89
627.785	36697.98
628.14	36758.09
628.495	36922.6
628.85	36991.75
629.205	36778.43
629.559	36872.43
629.914	36763.96
630.269	36991.3
630.623	36728.94
630.978	36729.39
631.332	36971.41
631.687	37003.73
632.041	36932.09
632.396	36929.38
632.75	36812.55
633.104	36778.43
633.459	36678.77
633.813	36823.62
634.167	36848.71
634.521	36739.33
634.875	36825.2
635.229	36805.32
635.583	36584.98
635.937	36659.33
636.291	36563.29
636.645	36571.65
636.999	36548.15
637.352	36672.89
637.706	36429.28
638.06	36630.86
638.413	36445.33
638.767	36406.01
639.121	36500.24
639.474	36311.77
639.828	36346.35
640.181	36441.03
640.534	36372.33
640.888	36250.76
641.241	36097.31
641.594	36396.06
641.947	36384.76
642.301	36230.87
642.654	36315.61
643.007	36200.14
643.36	36178.67
643.713	36122.85
644.066	36274.03
644.419	35996.07
644.771	35827.26
645.124	35563.54
645.477	35460.27
645.83	35278.58
646.182	35285.13
646.535	35078.58
646.888	35107.74
647.24	34905.03
647.593	35163.78
647.945	35065.7
648.298	34781.42
648.65	34809.21
649.002	34781.64
649.355	34895.99
649.707	34863
650.059	34995.87
650.411	35262.31
650.763	35352.93
651.115	35709.98
651.467	35471.79
651.819	35671.56
652.171	35471.57
652.523	35507.72
652.875	35543.43
653.227	35236.77
653.578	35572.36
653.93	35480.15
654.282	35380.95
654.633	35368.52
654.985	35412.81
655.337	35442.42
655.688	35383.89
656.039	35454.62
656.391	35115.64
656.742	35254.85
657.094	35284.23
657.445	35402.42
657.796	35294.4
658.147	35138.69
658.498	35220.27
658.849	35214.4
659.2	35231.8
659.551	35130.33
659.902	35277.9
660.253	35181.63
660.604	35272.93
660.955	34980.51
661.306	35275.87
661.656	35147.96
662.007	35201.29
662.358	35051.69
662.708	35139.37
663.059	35124.46
663.409	34948.19
663.76	35207.85
664.11	35119.94
664.461	35142.31
664.811	35083.78
665.161	34976.44
665.511	34990
665.862	35043.56
666.212	35104.12
666.562	35173.27
666.912	35109.54
667.262	35095.08
667.612	34973.73
667.962	34976.67
668.312	34897.35
668.662	35072.93
669.011	34942.54
669.361	34942.09
669.711	34889.66
670.06	34833.84
670.41	34879.04
670.76	34774.18
671.109	34847.85
671.459	34853.05
671.808	34609.22
672.157	34919.94
672.507	34695.32
672.856	34697.12
673.205	34618.71
673.554	34910.68
673.904	34689.89
674.253	34863.9
674.602	34821.64
674.951	34335.78
675.3	34110.47
675.649	34681.53
675.998	34544.81
676.346	34547.07
676.695	34737.35
677.044	34463.23
677.393	34519.05
677.741	34565.15
678.09	34453.97
678.438	34441.31
678.787	34518.82
679.135	34425.95
679.484	34337.13
679.832	34413.74
680.181	34216.91
680.529	34337.81
680.877	34146.18
681.225	34149.34
681.573	34467.75
681.922	34045.84
682.27	34016.69
682.618	33999.74
682.966	33891.04
683.314	34037.48
683.661	33895.34
684.009	33879.29
684.357	33732.18
684.705	33708.68
685.053	33744.16
685.4	33729.69
685.748	33543.26
686.095	33495.12
686.443	33362.92
686.79	33352.75
687.138	33306.88
687.485	33361.57
687.832	33248.57
688.18	33184.85
688.527	33136.26
688.874	33061.91
689.221	33002.25
689.568	32913.89
689.915	32801.58
690.262	32676.39
690.609	32768.14
690.956	32642.26
691.303	32608.37
691.65	32485.88
691.997	32497.41
692.344	32273.01
692.69	32281.59
693.037	32304.87
693.383	32087.25
693.73	32172.22
694.077	31941.04
694.423	31971.77
694.769	31835.28
695.116	31777.2
695.462	31694.72
695.808	31648.39
696.155	31687.49
696.501	31408.85
696.847	31397.55
697.193	31217.67
697.539	31383.54
697.885	31114.62
698.231	31031.68
698.577	31097.67
698.923	30926.83
699.269	30878.47
699.614	30711.69
699.96	30711.47
700.306	30682.54
700.651	30494.98
700.997	30466.5
701.342	30334.98
701.688	30422.66
702.033	30148.09
702.379	30300.4
702.724	30113.74
703.069	30159.62
703.415	29870.13
703.76	29907.19
704.105	29911.71
704.45	29800.3
704.795	29624.72
705.14	29623.59
705.485	29594.66
705.83	29517.15
706.175	29478.73
706.52	29315.12
706.865	29234.9
707.209	29222.69
707.554	29039.42
707.899	29210.26
708.243	29021.79
708.588	28928.91
708.932	28801.46
709.277	28864.74
709.621	28770.5
709.966	28518.76
710.31	28698.64
710.654	28416.16
710.998	28467.01
711.342	28536.16
711.687	28477.17
712.031	28353.79
712.375	28170.06
712.719	28297.74
713.063	28140.23
713.407	28236.05
713.75	28149.05
714.094	28190.18
714.438	27861.15
714.782	28025.21
715.125	27782.73
715.469	27846.68
715.812	27729.17
716.156	27585
716.499	27614.37
716.843	27519.46
717.186	27495.05
717.53	27575.5
717.873	27614.37
718.216	27586.12
718.559	27278.11
718.902	27265
719.246	27236.76
719.589	27192.24
719.932	27031.11
720.275	27018.46
720.617	26934.16
720.96	26959.7
721.303	26932.13
721.646	26975.29
721.989	26740.72
722.331	26913.15
722.674	26767.39
723.016	26832.7
723.359	26677.22
723.701	26679.26
724.044	26546.6
724.386	26368.08
724.729	26526.72
725.071	26469.32
725.413	26393.39
725.755	26422.99
726.097	26302.09
726.439	26200.85
726.782	26197.23
727.124	26266.84
727.465	26256.67
727.807	26063.45
728.149	26061.19
728.491	26105.49
728.833	26127.18
729.175	25976.22
729.516	25961.99
729.858	25976.68
730.199	25907.07
730.541	25863.01
730.882	25710.02
731.224	25912.5
731.565	25623.24
731.906	25573.52
732.248	25623.46
732.589	25583.92
732.93	25402.68
733.271	25541.66
733.612	25470.02
733.953	25557.25
734.294	25472.06
734.635	25418.5
734.976	25408.33
735.317	25230.93
735.658	25255.34
735.999	25279.97
736.339	25117.49
736.68	25244.04
737.021	25148.9
737.361	25026.64
737.702	25162.23
738.042	25028.45
738.383	24963.82
738.723	25043.37
739.063	24932.86
739.404	24924.5
739.744	25005.18
740.084	24676.37
740.424	24752.75
740.764	24696.71
741.104	24938.96
741.444	24607.67
741.784	24708.91
742.124	24628.46
742.464	24621.91
742.804	24557.73
743.143	24444.51
743.483	24544.85
743.823	24322.03
744.162	24318.87
744.502	24434.12
744.841	24267.34
745.181	24326.55
745.52	24132.43
745.86	24293.1
746.199	24270.51
746.538	24200.23
746.877	24278.19
747.216	24172.66
747.556	24092.66
747.895	24044.52
748.234	23952.1
748.573	24045.88
748.911	23934.24
749.25	23935.6
749.589	23861.48
749.928	23897.86
750.267	23815.15
750.605	23704.65
750.944	23707.13
751.283	23641.6
751.621	23698.77
751.96	23548.72
752.298	23447.02
752.636	23465.1
752.975	23364.99
753.313	23314.6
753.651	23389.17
753.989	23199.35
754.327	23206.13
754.666	23141.27
755.004	23207.93
755.342	23178.11
755.679	23069.18
756.017	22873.25
756.355	23029.86
756.693	22789.64
757.031	22872.58
