Data from hue_38_FLMS001491_00058.txt Node
Date: Tue Feb 07 17:31:42 GMT 2017
User: dcchb
Spectrometer: FLMS00149
Trigger mode: 0
Integration Time (sec): 2.000000E-2
Scans to average: 10
Electric dark correction enabled: true
Nonlinearity correction enabled: false
Boxcar width: 0
XAxis mode: Wavelengths
Number of Pixels in Spectrum: 2048
>>>>>Begin Spectral Data<<<<<
341.393	-4
341.776	-4
342.16	-4
342.543	-62.53
342.927	-69.98
343.31	-70.89
343.693	-82.19
344.077	-74.28
344.46	-44.67
344.843	-55.52
345.226	-23.43
345.61	-32.92
345.993	-19.14
346.376	-5.58
346.759	2.78
347.142	24.02
347.525	47.98
347.908	48.43
348.291	78.49
348.674	88.43
349.057	118.49
349.44	130.24
349.823	135.21
350.206	170.01
350.588	185.38
350.971	200.97
351.354	235.09
351.737	238.93
352.119	241.19
352.502	262.89
352.884	259.05
353.267	291.59
353.65	304.47
354.032	288.42
354.414	316.67
354.797	298.59
355.179	332.72
355.562	326.16
355.944	328.88
356.326	353.51
356.709	356.45
357.091	352.38
357.473	338.14
357.855	357.35
358.238	350.57
358.62	338.59
359.002	350.34
359.384	346.95
359.766	344.47
360.148	350.57
360.53	339.5
360.912	343.79
361.294	328.88
361.676	330.68
362.057	329.55
362.439	326.39
362.821	336.56
363.203	334.53
363.584	325.49
363.966	344.02
364.348	339.95
364.729	336.33
365.111	327.29
365.493	329.55
365.874	313.28
366.256	316.45
366.637	330.01
367.019	307.41
367.4	312.15
367.781	325.49
368.163	314.64
368.544	329.33
368.925	328.42
369.306	331.14
369.688	315.54
370.069	324.81
370.45	314.41
370.831	329.33
371.212	319.16
371.593	323.68
371.974	315.99
372.355	332.49
372.736	339.5
373.117	318.25
373.498	331.81
373.879	322.77
374.26	334.53
374.641	298.37
375.021	313.28
375.402	329.1
375.783	339.72
376.163	351.7
376.544	326.84
376.925	325.94
377.305	343.79
377.686	327.07
378.066	325.26
378.447	322.32
378.827	353.06
379.208	328.42
379.588	323.9
379.968	357.35
380.349	340.17
380.729	352.83
381.109	331.81
381.489	337.69
381.87	341.53
382.25	340.4
382.63	351.7
383.01	346.28
383.39	348.54
383.77	352.6
384.15	352.83
384.53	367.97
384.91	365.26
385.29	351.47
385.67	338.37
386.049	351.93
386.429	363.22
386.809	356.45
387.189	339.27
387.568	350.8
387.948	379.95
388.328	344.69
388.707	369.78
389.087	340.85
389.466	361.42
389.846	365.94
390.225	370.68
390.605	380.17
390.984	359.84
391.363	365.03
391.743	375.2
392.122	386.05
392.501	375.43
392.881	395.99
393.26	385.6
393.639	386.95
394.018	392.6
394.397	394.41
394.776	394.64
395.155	393.73
395.534	369.78
395.913	384.02
396.292	377.91
396.671	400.96
397.05	396.44
397.429	392.6
397.808	403.22
398.186	411.59
398.565	390.12
398.944	408.42
399.323	386.28
399.701	402.09
400.08	368.42
400.458	411.81
400.837	407.74
401.215	421.75
401.594	423.56
401.972	426.5
402.351	422.88
402.729	396.67
403.107	403.22
403.486	407.97
403.864	410.23
404.242	419.27
404.62	445.26
404.999	419.04
405.377	415.2
405.755	450.91
406.133	437.57
406.511	436.44
406.889	443.22
407.267	434.64
407.645	466.5
408.023	441.41
408.401	450
408.779	441.41
409.156	471.7
409.534	457.01
409.912	456.56
410.29	455.43
410.667	471.24
411.045	460.4
411.422	464.92
411.8	483.22
412.178	468.31
412.555	460.85
412.933	496.1
413.31	501.07
413.687	494.52
414.065	490.23
414.442	480.96
414.819	499.49
415.197	509.44
415.574	510.57
415.951	522.77
416.328	526.16
416.705	501.3
417.082	508.76
417.46	508.98
417.837	525.48
418.214	507.85
418.591	525.25
418.967	539.49
419.344	531.36
419.721	527.97
420.098	548.98
420.475	560.73
420.852	535.65
421.228	565.25
421.605	544.92
421.982	577
422.358	560.96
422.735	577.46
423.111	551.02
423.488	594.63
423.864	576.55
424.241	567.97
424.617	573.61
424.994	586.04
425.37	579.49
425.746	584.46
426.123	610.45
426.499	591.24
426.875	617
427.251	621.52
427.627	626.04
428.003	631.01
428.379	643.67
428.756	635.99
429.132	645.03
429.507	660.39
429.883	652.26
430.259	660.62
430.635	659.26
431.011	655.42
431.387	674.63
431.763	674.18
432.138	676.21
432.514	672.37
432.89	680.5
433.265	686.15
433.641	701.75
434.016	701.97
434.392	698.81
434.767	706.94
435.143	719.15
435.518	731.12
435.894	745.81
436.269	734.06
436.644	748.53
437.02	756.21
437.395	742.65
437.77	766.15
438.145	763.89
438.52	777.68
438.895	765.93
439.271	801.41
439.646	796.89
440.021	790.56
440.395	796.43
440.77	824.46
441.145	788.3
441.52	802.31
441.895	809.99
442.27	826.49
442.645	809.99
443.019	831.91
443.394	840.27
443.769	833.27
444.143	811.35
444.518	838.47
444.892	821.52
445.267	855.64
445.641	847.96
446.016	864.68
446.39	867.39
446.764	869.43
447.139	872.14
447.513	909.43
447.887	884.79
448.262	885.25
448.636	905.36
449.01	919.82
449.384	904
449.758	919.82
450.132	898.13
450.506	908.75
450.88	918.46
451.254	942.19
451.628	948.07
452.002	943.1
452.376	954.4
452.75	983.1
453.123	961.4
453.497	979.03
453.871	988.97
454.244	1028.52
454.618	995.75
454.992	1026.71
455.365	1035.75
455.739	1059.48
456.112	1056.31
456.486	1054.51
456.859	1082.53
457.232	1088.18
457.606	1095.41
457.979	1108.74
458.352	1134.05
458.725	1121.62
459.099	1153.49
459.472	1163.2
459.845	1148.97
460.218	1165.92
460.591	1216.76
460.964	1193.49
461.337	1223.32
461.71	1244.11
462.083	1247.5
462.456	1274.39
462.829	1273.26
463.201	1299.7
463.574	1275.07
463.947	1318.91
464.32	1326.36
464.692	1328.17
465.065	1351
465.438	1361.62
465.81	1380.6
466.183	1435.06
466.555	1465.12
466.928	1477.55
467.3	1463.99
467.672	1495.85
468.045	1531.56
468.417	1546.02
468.789	1554.61
469.161	1565
469.534	1619.92
469.906	1661.27
470.278	1649.52
470.65	1651.55
471.022	1708.73
471.394	1720.48
471.766	1783.75
472.138	1815.16
472.51	1847.25
472.882	1849.29
473.253	1870.76
473.625	1913.69
473.997	1963.41
474.369	1996.4
474.74	2034.37
475.112	2099.22
475.484	2126.12
475.855	2156.4
476.227	2196.85
476.598	2279.56
476.97	2290.18
477.341	2388.71
477.713	2421.48
478.084	2470.97
478.455	2519.33
478.827	2561.81
479.198	2689.27
479.569	2693.33
479.94	2789.38
480.311	2866.66
480.682	2924.97
481.053	3022.82
481.424	3083.83
481.795	3152.53
482.166	3225.97
482.537	3298.06
482.908	3408.34
483.279	3480.88
483.65	3546.19
484.021	3698.05
484.391	3754.1
484.762	3843.81
485.133	3900.53
485.503	3973.07
485.874	4051.94
486.244	4204.25
486.615	4308.66
486.985	4407.86
487.356	4480.86
487.726	4591.59
488.097	4674.52
488.467	4761.75
488.837	4908.19
489.207	5030.67
489.578	5137.79
489.948	5194.28
490.318	5337.56
490.688	5432.24
491.058	5506.82
491.428	5690.32
491.798	5780.71
492.168	5914.94
492.538	6034.04
492.908	6078.33
493.278	6229.51
493.648	6335.95
494.017	6422.27
494.387	6534.59
494.757	6665.43
495.126	6734.58
495.496	6832.89
495.866	6861.36
496.235	7051.18
496.605	7115.14
496.974	7254.34
497.344	7350.39
497.713	7407.79
498.082	7516.71
498.452	7668.57
498.821	7765.52
499.19	7803.03
499.559	7972.06
499.928	8009.8
500.298	8114.66
500.667	8155.56
501.036	8227.42
501.405	8401.21
501.774	8421.54
502.143	8442.33
502.512	8589.22
502.88	8713.06
503.249	8757.35
503.618	8827.86
503.987	8929.78
504.356	9045.48
504.724	9133.16
505.093	9117.35
505.462	9211.13
505.83	9307.62
506.199	9464.91
506.567	9583.55
506.936	9546.26
507.304	9684.11
507.672	9791.68
508.041	9733.37
508.409	9966.59
508.777	9954.16
509.145	10033.93
509.514	10129.97
509.882	10228.28
510.25	10219.69
510.618	10349.18
510.986	10368.61
511.354	10556.18
511.722	10638.43
512.09	10717.75
512.458	10696.06
512.826	10745.78
513.193	10843.18
513.561	10879.56
513.929	11039.78
514.297	11103.06
514.664	11160
515.032	11219.21
515.4	11263.96
515.767	11395.25
516.135	11500.79
516.502	11428.47
516.869	11601.8
517.237	11653.1
517.604	11608.13
517.972	11748.24
518.339	11843.38
518.706	11823.94
519.073	12006.31
519.44	11917.72
519.808	12239.3
520.175	12153.2
520.542	12335.79
520.909	12407.2
521.276	12377.82
521.643	12521.78
522.009	12609.23
522.376	12627.99
522.743	12591.15
523.11	12866.62
523.477	12981.42
523.843	13029.56
524.21	13081.76
524.577	13237.69
524.943	13364.24
525.31	13354.75
525.676	13479.72
526.043	13525.59
526.409	13600.62
526.776	13795.19
527.142	13777.79
527.508	13863.89
527.874	13944.11
528.241	14050.32
528.607	14029.53
528.973	14193.82
529.339	14192.24
529.705	14340.71
530.071	14503.64
530.437	14469.52
530.803	14620.48
531.169	14647.14
531.535	14592.68
531.901	14679.91
532.267	14810.08
532.632	14857.53
532.998	14959.45
533.364	15119.67
533.73	15083.29
534.095	15236.73
534.461	15309.5
534.826	15356.95
535.192	15439.66
535.557	15551.98
535.923	15590.4
536.288	15665.2
536.653	15724.18
537.019	15617.51
537.384	15714.91
537.749	15835.36
538.114	15923.95
538.479	15983.61
538.845	16010.05
539.21	15978.18
539.575	16097.05
539.94	16156.26
540.305	16229.93
540.67	16253.2
541.034	16221.79
541.399	16428.11
541.764	16393.54
542.129	16578.39
542.494	16581.33
542.858	16560.77
543.223	16616.58
543.587	16776.35
543.952	16801.66
544.316	16859.29
544.681	16789.23
545.045	17033.3
545.41	17000.75
545.774	17126.4
546.138	17137.7
546.503	17300.18
546.867	17369.78
547.231	17414.75
547.595	17472.15
547.959	17485.49
548.324	17505.15
548.688	17476
549.052	17710.79
549.416	17624.69
549.779	17804.57
550.143	17834.18
550.507	17891.13
550.871	17863.56
551.235	17990.33
551.599	18059.03
551.962	18039.37
552.326	18195.3
552.689	18237.56
553.053	18210.89
553.417	18296.54
553.78	18481.39
554.143	18459.7
554.507	18568.4
554.87	18620.37
555.234	18754.83
555.597	18623.54
555.96	18720.93
556.323	18888.61
556.686	18847.26
557.05	18962.06
557.413	19020.81
557.776	19063.07
558.139	19140.81
558.502	19207.93
558.865	19240.47
559.228	19434.36
559.59	19467.81
559.953	19412.89
560.316	19745.77
560.679	19689.95
561.041	19890.4
561.404	19871.64
561.767	20008.81
562.129	19907.12
562.492	20072.99
562.854	20131.29
563.217	20091.75
563.579	20143.72
563.941	20289.03
564.304	20377.84
564.666	20546.42
565.028	20573.31
565.39	20601.79
565.753	20725.18
566.115	20718.4
566.477	20926.53
566.839	20905.96
567.201	21015.79
567.563	21115.45
567.925	21268.89
568.287	21143.02
568.648	21417.13
569.01	21445.16
569.372	21554.98
569.734	21554.08
570.095	21736.45
570.457	21771.02
570.819	21831.81
571.18	21851.47
571.542	22028.64
571.903	22078.13
572.265	22181.18
572.626	22298.69
572.987	22383.21
573.349	22468.41
573.71	22556.99
574.071	22625.01
574.432	22705.69
574.794	22958.56
575.155	22921.05
575.516	22993.82
575.877	23147.03
576.238	23147.26
576.599	23393.58
576.96	23532.56
577.32	23610.07
577.681	23641.48
578.042	23838.77
578.403	23931.64
578.763	24083.73
579.124	24240.56
579.485	24459.99
579.845	24615.02
580.206	24648.24
580.566	24829.02
580.927	24937.27
581.287	25119.64
581.648	25193.76
582.008	25579.06
582.368	25675.33
582.728	25865.38
583.089	25936.56
583.449	26188.99
583.809	26393.95
584.169	26543.78
584.529	26656.32
584.889	27164.1
585.249	27104.89
585.609	27303.08
585.969	27552.11
586.329	27727.03
586.688	27966.57
587.048	28131.31
587.408	28296.73
587.768	28556.38
588.127	28674.57
588.487	28875.47
588.846	29274.33
589.206	29348.45
589.565	29436.58
589.925	29914.31
590.284	30121.99
590.643	30250.12
591.003	30599.49
591.362	30772.82
591.721	30929.2
592.08	31263.2
592.44	31401.28
592.799	31639.46
593.158	31803.3
593.517	32060.24
593.876	32297.3
594.235	32300.01
594.593	32597.18
594.952	32925.08
595.311	33106.32
595.67	33204.17
596.029	33790.37
596.387	33773.42
596.746	34150.81
597.104	34175.44
597.463	34336.57
597.822	34613.85
598.18	34918.7
598.538	35008.42
598.897	35354.17
599.255	35304
599.613	35884.1
599.972	35806.81
600.33	36016.52
600.688	36154.83
601.046	36422.62
601.404	36680.24
601.762	36764.08
602.12	37022.83
602.478	37187.34
602.836	37320.67
603.194	37313.89
603.552	37547.11
603.91	37613.77
604.268	37879.3
604.625	37893.99
604.983	38274.32
605.341	38184.83
605.698	38540.75
606.056	38622.11
606.413	38801.08
606.771	39084.24
607.128	39189.32
607.485	39184.35
607.843	39318.13
608.2	39619.59
608.557	39901.39
608.914	39938.23
609.272	40085.57
609.629	40112.01
609.986	40435.17
610.343	40356.52
610.7	40786.57
611.057	40857.75
611.414	40950.41
611.771	41003.96
612.127	41337.29
612.484	41266.56
612.841	41514.23
613.198	41454.8
613.554	41539.32
613.911	41763.72
614.267	41932.3
614.624	41943.15
614.98	42159.87
615.337	42378.62
615.693	42223.37
616.05	42353.76
616.406	42640.53
616.762	42620.42
617.118	42748.78
617.475	42727.99
617.831	42832.16
618.187	43139.95
618.543	43099.28
618.899	43368.87
619.255	43378.37
619.611	43339.5
619.967	43612.48
620.323	43717.11
620.678	43493.16
621.034	43615.19
621.39	43548.98
621.746	43603.44
622.101	44056.99
622.457	43821.52
622.812	44061.51
623.168	44102.64
623.523	44167.04
623.879	44397.1
624.234	44007.28
624.589	44226.48
624.945	44348.28
625.3	44277.55
625.655	44481.84
626.01	44413.59
626.365	44448.39
626.72	44577.66
627.075	44485
627.43	44583.53
627.785	44490.65
628.14	44781.94
628.495	44749.18
628.85	44659.69
629.205	44490.65
629.559	44736.52
629.914	44576.3
630.269	44680.93
630.623	44587.15
630.978	44595.96
631.332	44781.94
631.687	44722.74
632.041	44625.34
632.396	44697.88
632.75	44614.94
633.104	44870.3
633.459	44562.06
633.813	44767.93
634.167	44599.12
634.521	44665.11
634.875	44677.31
635.229	44848.61
635.583	44647.26
635.937	44564.77
636.291	44553.25
636.645	44729.74
636.999	44583.08
637.352	44788.5
637.706	44462.4
638.06	44727.03
638.413	44520.26
638.767	44460.14
639.121	44569.97
639.474	44392.58
639.828	44390.77
640.181	44307.61
640.534	44409.98
640.888	44285.46
641.241	44216.54
641.594	44320.49
641.947	44435.06
642.301	44300.37
642.654	44321.84
643.007	44313.48
643.36	44212.92
643.713	44049.99
644.066	44404.1
644.419	44110.32
644.771	43838.24
645.124	43434.63
645.477	43404.35
645.83	43249.33
646.182	43097.92
646.535	42960.75
646.888	43047.75
647.24	42779.74
647.593	43157.13
647.945	42952.84
648.298	42769.79
648.65	42715.33
649.002	42782.45
649.355	43005.49
649.707	42956.68
650.059	43047.3
650.411	43467.85
650.763	43555.08
651.115	43926.37
651.467	43724.8
651.819	43695.87
652.171	43766.15
652.523	43460.85
652.875	43648.19
653.227	43415.88
653.578	43722.31
653.93	43577.68
654.282	43426.05
654.633	43375.65
654.985	43439.83
655.337	43459.04
655.688	43472.37
656.039	43576.78
656.391	43257.01
656.742	43266.28
657.094	43321.19
657.445	43617
657.796	43321.42
658.147	43336.33
658.498	43422.21
658.849	43352.6
659.2	43363.68
659.551	43228.09
659.902	43304.92
660.253	43240.97
660.604	43433.28
660.955	43100.41
661.306	43242.1
661.656	43255.88
662.007	43238.03
662.358	43281.64
662.708	43306.5
663.059	43219.27
663.409	42857.25
663.76	43181.31
664.11	43253.62
664.461	43210.69
664.811	43241.65
665.161	43292.27
665.511	43168.2
665.862	43190.12
666.212	43133.4
666.562	43166.85
666.912	43080.29
667.262	43087.53
667.612	43069.45
667.962	43130.46
668.312	43135.66
668.662	43224.47
669.011	43107.41
669.361	43074.87
669.711	43087.98
670.06	43032.39
670.41	42953.07
670.76	42937.92
671.109	42944.93
671.459	43013.18
671.808	42880.75
672.157	42894.76
672.507	42802.34
672.856	42753.97
673.205	42917.36
673.554	42954.87
673.904	42779.28
674.253	43076.9
674.602	42810.7
674.951	42380.65
675.3	42181.33
675.649	42759.17
675.998	42710.59
676.346	42870.36
676.695	42859.51
677.044	42527.54
677.393	42647.54
677.741	42633.53
678.09	42509.91
678.438	42576.58
678.787	42477.37
679.135	42508.78
679.484	42400.09
679.832	42342.46
680.181	42270.37
680.529	42382.46
680.877	42168.91
681.225	42174.55
681.573	42393.53
681.922	42048.68
682.27	41985.86
682.618	42064.95
682.966	41941.34
683.314	41880.1
683.661	41745.41
684.009	41788.12
684.357	41644.63
684.705	41555.14
685.053	41614.8
685.4	41529.37
685.748	41434.91
686.095	41341.36
686.443	41183.39
686.79	41177.97
687.138	41295.93
687.485	41278.76
687.832	41145.43
688.18	41081.48
688.527	40929.62
688.874	40911.99
689.221	40850.3
689.568	40752.45
689.915	40815.95
690.262	40626.35
690.609	40587.7
690.956	40477.2
691.303	40375.51
691.65	40142.74
691.997	40222.74
692.344	39874.73
692.69	40015.52
693.037	39956.99
693.383	39608.97
693.73	39780.27
694.077	39540.5
694.423	39534.17
694.769	39348.41
695.116	39218.02
695.462	39322.88
695.808	39195.65
696.155	39259.83
696.501	38959.27
696.847	38969.67
697.193	38828.88
697.539	38741.42
697.885	38674.99
698.231	38507.31
698.577	38445.84
698.923	38431.15
699.269	38255.11
699.614	38165.39
699.96	38035.68
700.306	38049.47
700.651	37891.05
700.997	37725.18
701.342	37793.65
701.688	37617.84
702.033	37564.05
702.379	37509.37
702.724	37379.2
703.069	37485.41
703.415	37049.94
703.76	37151.86
704.105	37146.44
704.45	37097.85
704.795	36728.82
705.14	36717.75
705.485	36707.81
705.83	36429.17
706.175	36663.97
706.52	36468.94
706.865	36339.45
707.209	36228.5
707.554	36212
707.899	36305.56
708.243	36103.08
708.588	36036.19
708.932	35750.54
709.277	35720.49
709.621	35792.8
709.966	35514.62
710.31	35432.81
710.654	35393.04
710.998	35509.42
711.342	35499.7
711.687	35301.29
712.031	35139.94
712.375	35152.14
712.719	35153.72
713.063	35074.85
713.407	35126.38
713.75	34938.81
714.094	34887.51
714.438	34638.93
714.782	34802.09
715.125	34486.62
715.469	34680.74
715.812	34392.61
716.156	34275.33
716.499	34287.08
716.843	34306.29
717.186	34158.49
717.53	34266.74
717.873	34354.65
718.216	34022.9
718.559	33954.66
718.902	33737.94
719.246	33869.46
719.589	33653.2
719.932	33659.75
720.275	33635.57
720.617	33649.81
720.96	33519.19
721.303	33568.68
721.646	33613.42
721.989	33264.05
722.331	33343.6
722.674	33240.78
723.016	33317.84
723.359	33231.74
723.701	33233.32
724.044	33010.73
724.386	32940.67
724.729	33173.21
725.071	33052.31
725.413	33007.56
725.755	32910.84
726.097	32764.18
726.439	32680.57
726.782	32656.16
727.124	32823.16
727.465	32586.78
727.807	32526
728.149	32381.82
728.491	32482.83
728.833	32401.03
729.175	32189.73
729.516	32324.87
729.858	32246.91
730.199	32265.66
730.541	32226.12
730.882	32166.68
731.224	32355.15
731.565	31854.83
731.906	32034.03
732.248	31945.9
732.589	31792.23
732.93	31782.74
733.271	31716.07
733.612	31708.39
733.953	31750.87
734.294	31677.2
734.635	31534.83
734.976	31688.05
735.317	31533.7
735.658	31420.94
735.999	31457.77
736.339	31328.29
736.68	31444.67
737.021	31228.4
737.361	31183.43
737.702	31246.71
738.042	31187.27
738.383	31112.7
738.723	31113.38
739.063	31077.45
739.404	31096.43
739.744	30997.9
740.084	30837.9
740.424	30923.55
740.764	30858.24
741.104	30803.1
741.444	30740.73
741.784	30620.73
742.124	30599.49
742.464	30572.37
742.804	30473.17
743.143	30438.59
743.483	30519.27
743.823	30304.13
744.162	30351.14
744.502	30388.65
744.841	30295.55
745.181	30330.57
745.52	30209.9
745.86	30285.6
746.199	30277.24
746.538	30211.71
746.877	30128.54
747.216	30112.05
747.556	30050.81
747.895	30007.64
748.234	29932.39
748.573	29903.01
748.911	29858.95
749.25	29929.45
749.589	29675.9
749.928	29726.07
750.267	29715.22
750.605	29592.06
750.944	29485.62
751.283	29417.6
751.621	29439.07
751.96	29446.53
752.298	29272.52
752.636	29265.97
752.975	29140.32
753.313	29091.28
753.651	29197.04
753.989	29000.89
754.327	28990.72
754.666	28835.7
755.004	28946.65
755.342	28929.25
755.679	28994.34
756.017	28740.56
756.355	28741.01
756.693	28545.53
757.031	28625.98
