Data from hue_60_FLMS001491_46.txt Node
Date: Mon Feb 06 15:17:27 GMT 2017
User: dcchb
Spectrometer: FLMS00149
Trigger mode: 0
Integration Time (sec): 2.000000E-2
Scans to average: 10
Electric dark correction enabled: true
Nonlinearity correction enabled: false
Boxcar width: 0
XAxis mode: Wavelengths
Number of Pixels in Spectrum: 2048
>>>>>Begin Spectral Data<<<<<
341.393	-10.85
341.776	-10.85
342.16	-10.85
342.543	-35.25
342.927	-67.34
343.31	-57.63
343.693	-72.54
344.077	-60.34
344.46	-66.66
344.843	-43.39
345.226	-50.17
345.61	-29.15
345.993	-26.44
346.376	-9.27
346.759	17.85
347.142	22.6
347.525	48.59
347.908	57.63
348.291	70.05
348.674	79.55
349.057	119.32
349.44	119.77
349.823	141.01
350.206	164.97
350.588	192.09
350.971	222.14
351.354	218.07
351.737	226.89
352.119	239.99
352.502	271.63
352.884	268.69
353.267	284.29
353.65	278.86
354.032	308.47
354.414	299.65
354.797	331.74
355.179	299.88
355.562	321.8
355.944	329.26
356.326	351.4
356.709	327.9
357.091	330.39
357.473	339.88
357.855	330.16
358.238	356.83
358.62	342.82
359.002	331.06
359.384	334
359.766	316.38
360.148	361.35
360.53	338.52
360.912	359.31
361.294	339.88
361.676	329.26
362.057	327.45
362.439	341.91
362.821	333.32
363.203	339.65
363.584	338.3
363.966	332.87
364.348	332.19
364.729	336.94
365.111	331.74
365.493	316.83
365.874	334
366.256	318.41
366.637	306.43
367.019	320.9
367.4	327.45
367.781	292.42
368.163	296.94
368.544	306.21
368.925	300.33
369.306	322.93
369.688	322.25
370.069	318.18
370.45	314.12
370.831	305.98
371.212	330.16
371.593	300.33
371.974	317.51
372.355	332.87
372.736	319.99
373.117	313.89
373.498	306.43
373.879	300.33
374.26	307.34
374.641	305.08
375.021	306.66
375.402	327.45
375.783	318.41
376.163	317.96
376.544	312.53
376.925	304.4
377.305	317.28
377.686	325.42
378.066	317.28
378.447	330.39
378.827	336.71
379.208	341.01
379.588	322.25
379.968	341.69
380.349	325.42
380.729	317.96
381.109	314.12
381.489	339.2
381.87	319.09
382.25	341.69
382.63	325.87
383.01	329.71
383.39	339.65
383.77	334
384.15	316.38
384.53	308.92
384.91	350.05
385.29	339.65
385.67	340.33
386.049	336.26
386.429	334.91
386.809	347.79
387.189	343.27
387.568	343.04
387.948	353.21
388.328	350.95
388.707	354.79
389.087	350.27
389.466	379.88
389.846	342.14
390.225	336.71
390.605	352.76
390.984	355.24
391.363	328.58
391.743	367
392.122	344.62
392.501	348.01
392.881	368.13
393.26	362.93
393.639	358.41
394.018	360.67
394.397	346.66
394.776	351.18
395.155	347.56
395.534	361.12
395.913	351.4
396.292	374.91
396.671	364.51
397.05	359.09
397.429	366.54
397.808	364.96
398.186	374.91
398.565	359.99
398.944	374
399.323	382.59
399.701	392.53
400.08	367.45
400.458	375.58
400.837	382.14
401.215	396.83
401.594	379.2
401.972	388.92
402.351	384.17
402.729	388.92
403.107	409.71
403.486	387.11
403.864	388.46
404.242	414.9
404.62	391.85
404.999	409.48
405.377	382.14
405.755	398.18
406.133	392.08
406.511	386.66
406.889	407.22
407.267	393.44
407.645	386.66
408.023	409.25
408.401	427.11
408.779	419.88
409.156	410.16
409.534	394.79
409.912	421.91
410.29	417.84
410.667	430.05
411.045	438.41
411.422	426.88
411.8	442.02
412.178	408.8
412.555	433.43
412.933	422.59
413.31	439.31
413.687	441.57
414.065	466.65
414.442	449.25
414.819	445.86
415.197	469.37
415.574	453.55
415.951	469.37
416.328	454.23
416.705	476.37
417.082	456.49
417.46	449.03
417.837	475.02
418.214	483.15
418.591	464.85
418.967	472.53
419.344	479.08
419.721	485.18
420.098	494
420.475	489.48
420.852	494.45
421.228	481.12
421.605	495.35
421.982	482.93
422.358	499.87
422.735	488.8
423.111	517.95
423.488	486.09
423.864	508.01
424.241	511.85
424.617	517.95
424.994	504.39
425.37	488.12
425.746	531.06
426.123	517.27
426.499	488.35
426.875	520.89
427.251	522.47
427.627	524.05
428.003	550.27
428.379	529.25
428.756	552.08
429.132	565.86
429.507	547.78
429.883	543.94
430.259	575.8
430.635	566.31
431.011	566.31
431.387	559.99
431.763	572.64
432.138	586.65
432.514	569.02
432.89	584.84
433.265	582.81
433.641	582.13
434.016	595.46
434.392	605.63
434.767	619.64
435.143	625.07
435.518	617.38
435.894	629.36
436.269	629.36
436.644	637.95
437.02	629.36
437.395	641.79
437.77	644.73
438.145	665.52
438.52	643.37
438.895	650.15
439.271	653.09
439.646	644.28
440.021	638.4
440.395	651.96
440.77	653.77
441.145	677.27
441.52	685.18
441.895	686.31
442.27	690.6
442.645	679.76
443.019	689.93
443.394	694.67
443.769	684.95
444.143	692.41
444.518	683.82
444.892	714.11
445.267	697.61
445.641	722.69
446.016	724.27
446.39	737.83
446.764	731.73
447.139	742.35
447.513	751.62
447.887	725.18
448.262	749.13
448.636	746.65
449.01	753.2
449.384	765.4
449.758	774.67
450.132	773.54
450.506	759.75
450.88	767.21
451.254	800.66
451.628	781.22
452.002	785.97
452.376	776.02
452.75	783.03
453.123	809.92
453.497	795.46
453.871	813.31
454.244	810.37
454.618	848.57
454.992	844.95
455.365	825.06
455.739	872.29
456.112	880.88
456.486	872.97
456.859	877.49
457.232	889.24
457.606	882.46
457.979	899.64
458.352	922.24
458.725	909.81
459.099	917.49
459.472	961.1
459.845	943.25
460.218	965.4
460.591	970.82
460.964	943.03
461.337	998.17
461.71	1006.3
462.083	1016.7
462.456	1009.92
462.829	1020.54
463.201	1023.02
463.574	1016.47
463.947	1053.53
464.32	1084.72
464.692	1079.97
465.065	1105.96
465.438	1121.78
465.81	1123.36
466.183	1118.84
466.555	1192.06
466.928	1179.63
467.3	1187.31
467.672	1202.91
468.045	1245.84
468.417	1246.29
468.789	1246.97
469.161	1311.6
469.534	1308.89
469.906	1333.3
470.278	1345.28
470.65	1381.43
471.022	1408.78
471.394	1429.79
471.766	1454.43
472.138	1459.62
472.51	1500.53
472.882	1552.95
473.253	1590.69
473.625	1614.65
473.997	1649
474.369	1688.09
474.74	1717.47
475.112	1717.47
475.484	1797.01
475.855	1843.79
476.227	1891.02
476.598	1919.05
476.97	1963.79
477.341	2043.79
477.713	2078.59
478.084	2137.57
478.455	2198.36
478.827	2253.95
479.198	2351.8
479.569	2387.96
479.94	2492.59
480.311	2523.32
480.682	2589.31
481.053	2696.65
481.424	2776.2
481.795	2834.73
482.166	2916.08
482.537	3006.93
482.908	3081.05
483.279	3190.42
483.65	3281.5
484.021	3368.5
484.391	3493.92
484.762	3553.58
485.133	3643.75
485.503	3737.98
485.874	3891.65
486.244	3955.15
486.615	4067.92
486.985	4231.53
487.356	4354.91
487.726	4448.7
488.097	4619.77
488.467	4672.87
488.837	4859.53
489.207	4939.53
489.578	5110.37
489.948	5218.17
490.318	5372.51
490.688	5460.2
491.058	5619.97
491.428	5764.14
491.798	5950.58
492.168	6094.53
492.538	6178.37
492.908	6339.49
493.278	6480.96
493.648	6620.62
494.017	6786.04
494.387	6939.7
494.757	7061.28
495.126	7249.3
495.496	7304.67
495.866	7489.07
496.235	7626.69
496.605	7842.51
496.974	7908.27
497.344	8143.97
497.713	8192.55
498.082	8389.84
498.452	8561.36
498.821	8691.07
499.19	8814.01
499.559	8982.36
499.928	9074.34
500.298	9253.77
500.667	9387.32
501.036	9487.66
501.405	9679.52
501.774	9727.65
502.143	9891.49
502.512	10032.05
502.88	10233.18
503.249	10278.37
503.618	10429.56
503.987	10600.4
504.356	10757.01
504.724	10850.11
505.093	10997.22
505.462	11118.35
505.83	11254.39
506.199	11313.6
506.567	11610.09
506.936	11639.24
507.304	11884.43
507.672	11934.6
508.041	12026.58
508.409	12278.77
508.777	12298.66
509.145	12519.44
509.514	12602.38
509.882	12749.72
510.25	12798.76
510.618	12992.88
510.986	13092.09
511.354	13266.77
511.722	13389.93
512.09	13544.05
512.458	13622.92
512.826	13672.86
513.193	13939.29
513.561	14008.67
513.929	14133.87
514.297	14312.17
514.664	14431.94
515.032	14546.51
515.4	14687.75
515.767	14698.14
516.135	14879.83
516.502	14870.12
516.869	15209.54
517.237	15291.35
517.604	15343.55
517.972	15471.91
518.339	15612.92
518.706	15701.51
519.073	15820.15
519.44	15911.45
519.808	16220.14
520.175	16226.69
520.542	16473.01
520.909	16481.6
521.276	16590.3
521.643	16787.36
522.009	16898.31
522.376	17026.67
522.743	17173.33
523.11	17327.23
523.477	17482.7
523.843	17628.24
524.21	17841.79
524.577	18017.61
524.943	18147.32
525.31	18113.87
525.676	18451.49
526.043	18522
526.409	18612.39
526.776	18839.5
527.142	18887.19
527.508	18941.87
527.874	19212.6
528.241	19372.15
528.607	19403.78
528.973	19656.88
529.339	19675.41
529.705	19863.88
530.071	20025.91
530.437	20076.31
530.803	20166.93
531.169	20241.05
531.535	20360.37
531.901	20388.62
532.267	20507.03
532.632	20716.74
532.998	20852.33
533.364	20832.67
533.73	20984.98
534.095	21143.62
534.461	21233.57
534.826	21332.77
535.192	21339.78
535.557	21582.03
535.923	21551.07
536.288	21664.29
536.653	21756.04
537.019	21753.33
537.384	21972.53
537.749	22116.71
538.114	22052.75
538.479	22052.53
538.845	22253.43
539.21	22127.1
539.575	22390.82
539.94	22445.96
540.305	22617.26
540.67	22398.06
541.034	22497.71
541.399	22732.51
541.764	22822
542.129	22934.54
542.494	22845.28
542.858	23056.57
543.223	23113.74
543.587	23149.45
543.952	23078.94
544.316	23360.97
544.681	23374.07
545.045	23521.19
545.41	23565.26
545.774	23661.07
546.138	23626.5
546.503	23741.97
546.867	23735.42
547.231	23947.39
547.595	23904.91
547.959	24093.6
548.324	24090.21
548.688	24228.74
549.052	24319.81
549.416	24327.72
549.779	24388.74
550.143	24453.14
550.507	24706.69
550.871	24698.79
551.235	24620.37
551.599	24939.68
551.962	24907.37
552.326	25017.42
552.689	25180.58
553.053	25079.57
553.417	25106.91
553.78	25583.28
554.143	25406.11
554.507	25567.46
554.87	25715.93
555.234	25911.86
555.597	25880.9
555.96	25856.5
556.323	25979.2
556.686	26000.67
557.05	26279.99
557.413	26284.96
557.776	26411.73
558.139	26569.47
558.502	26614.44
558.865	26634.55
559.228	26900.76
559.59	26979.18
559.953	27049.23
560.316	27410.35
560.679	27296.23
561.041	27590.91
561.404	27662.78
561.767	27742.77
562.129	27743.9
562.492	28117
562.854	28041.3
563.217	28045.14
563.579	28252.82
563.941	28427.95
564.304	28418.46
564.666	28527.84
565.028	28697.32
565.39	28765.35
565.753	28939.8
566.115	29014.38
566.477	29189.06
566.839	29335.5
567.201	29388.83
567.563	29464.76
567.925	29711.76
568.287	29654.36
568.648	29747.47
569.01	29989.72
569.372	30127.57
569.734	30058.64
570.095	30227
570.457	30464.06
570.819	30515.81
571.18	30447.11
571.542	30663.6
571.903	30622.47
572.265	30756.93
572.626	30885.97
572.987	31086.41
573.349	31179.29
573.71	31145.85
574.071	31265.17
574.432	31331.15
574.794	31483.01
575.155	31678.72
575.516	31521.21
575.877	31750.13
576.238	31672.84
576.599	31848.2
576.96	31779.73
577.32	31856.11
577.681	32139.72
578.042	32044.13
578.403	32132.49
578.763	32240.06
579.124	32227.18
579.485	32335.87
579.845	32431.01
580.206	32358.02
580.566	32503.33
580.927	32407.74
581.287	32737.67
581.648	32497.45
582.008	32601.18
582.368	32612.25
582.728	32747.39
583.089	32600.5
583.449	32732.7
583.809	32791.68
584.169	32868.51
584.529	32776.09
584.889	32958.23
585.249	32803.21
585.609	32706.26
585.969	32989.64
586.329	32871.45
586.688	33038
587.048	32926.37
587.408	32783.09
587.768	32920.72
588.127	32891.34
588.487	32839.81
588.846	33105.12
589.206	32816.99
589.565	33046.14
589.925	33201.16
590.284	33074.38
590.643	33137.89
591.003	33215.85
591.362	33257.43
591.721	33291.55
592.08	33320.93
592.44	33295.62
592.799	33434.15
593.158	33282.29
593.517	33342.4
593.876	33402.51
594.235	33386.47
594.593	33411.32
594.952	33486.35
595.311	33318.45
595.67	33462.62
596.029	33643.86
596.387	33566.58
596.746	33700.58
597.104	33565.67
597.463	33475.73
597.822	33694.48
598.18	33525.9
598.538	33614.71
598.897	33747.81
599.255	33465.56
599.613	34092.89
599.972	33804.76
600.33	33873.46
600.688	33863.06
601.046	34042.04
601.404	34077.3
601.762	34130.85
602.12	34277.06
602.478	34178.08
602.836	34130.18
603.194	33962.95
603.552	34128.82
603.91	34089.05
604.268	34330.17
604.625	34260.79
604.983	34476.16
605.341	34303.5
605.698	34395.03
606.056	34453.11
606.413	34482.26
606.771	34581.92
607.128	34682.48
607.485	34578.75
607.843	34547.11
608.2	34795.47
608.557	34914.34
608.914	34892.87
609.272	34842.25
609.629	35024.16
609.986	35197.49
610.343	35048.8
610.7	35233.88
611.057	35231.84
611.414	35320.43
611.771	35288.79
612.127	35378.96
612.484	35480.42
612.841	35503.7
613.198	35438.84
613.554	35539.18
613.911	35625.05
614.267	35729.68
614.624	35663.7
614.98	35763.58
615.337	35901.43
615.693	35930.13
616.05	35941.43
616.406	36107.53
616.762	36016.45
617.118	35982.33
617.475	35997.92
617.831	36217.58
618.187	36217.58
618.543	36321.08
618.899	36408.76
619.255	36371.25
619.611	36403.56
619.967	36511.13
620.323	36603.56
620.678	36554.97
621.034	36477.23
621.39	36437.23
621.746	36399.04
622.101	36901.18
622.457	36576.67
622.812	36669.32
623.168	36827.73
623.523	36931.46
623.879	36968.52
624.234	36758.58
624.589	36854.85
624.945	37035.41
625.3	36974.85
625.655	36793.83
626.01	37016.43
626.365	36962.87
626.72	36861.18
627.075	37016.65
627.43	36864.12
627.785	36937.79
628.14	36838.58
628.495	36919.48
628.85	36886.04
629.205	36915.41
629.559	37053.26
629.914	36784.8
630.269	36891.69
630.623	36964.68
630.978	36721.75
631.332	36898.69
631.687	36888.3
632.041	36875.64
632.396	36865.02
632.75	36738.24
633.104	36927.39
633.459	36801.07
633.813	36823.21
634.167	36691.46
634.521	36692.59
634.875	36862.31
635.229	36638.58
635.583	36614.63
635.937	36650.11
636.291	36659.38
636.645	36655.76
636.999	36507.74
637.352	36694.85
637.706	36434.97
638.06	36589.77
638.413	36411.92
638.767	36432.49
639.121	36498.02
639.474	36281.31
639.828	36220.97
640.181	36276.11
640.534	36330.57
640.888	36169.44
641.241	36013.06
641.594	36132.16
641.947	36305.26
642.301	36139.39
642.654	36237.69
643.007	36130.35
643.36	36127.41
643.713	36134.64
644.066	36235.66
644.419	35936.91
644.771	35780.98
645.124	35406.53
645.477	35339.64
645.83	35296.25
646.182	35156.82
646.535	34856.48
646.888	35134.67
647.24	34862.13
647.593	35156.36
647.945	35155.91
648.298	34776.71
648.65	34834.11
649.002	34672.31
649.355	34792.08
649.707	34755.7
650.059	34900.78
650.411	35334.66
650.763	35408.11
651.115	35703.47
651.467	35689.68
651.819	35600.19
652.171	35466.64
652.523	35357.71
652.875	35445.4
653.227	35299.86
653.578	35474.77
653.93	35322.91
654.282	35373.31
654.633	35190.04
654.985	35195.23
655.337	35229.36
655.688	35245.4
656.039	35405.85
656.391	34973.77
656.742	35109.81
657.094	35268.45
657.445	35245.17
657.796	35096.48
658.147	35211.28
658.498	35025.97
658.849	35078.17
659.2	35042.24
659.551	35105.29
659.902	35137.83
660.253	35093.31
660.604	35166.08
660.955	34913.21
661.306	35077.27
661.656	35015.35
662.007	35082.47
662.358	34848.12
662.708	35039.98
663.059	35061.68
663.409	34849.25
663.76	34911.85
664.11	35152.97
664.461	35026.65
664.811	34981.45
665.161	35058.06
665.511	34963.15
665.862	34828.01
666.212	35034.33
666.562	34976.71
666.912	34939.87
667.262	34998.85
667.612	34825.52
667.962	34942.13
668.312	34706.88
668.662	35058.29
669.011	34804.51
669.361	34734.91
669.711	34813.1
670.06	34617.17
670.41	34687.45
670.76	34583.27
671.109	34838.86
671.459	34727.67
671.808	34661.91
672.157	34661.69
672.507	34490.62
672.856	34498.3
673.205	34555.93
673.554	34716.38
673.904	34564.51
674.253	34604.06
674.602	34568.13
674.951	34170.85
675.3	34045.66
675.649	34505.08
675.998	34369.94
676.346	34439.09
676.695	34607.9
677.044	34343.73
677.393	34473.67
677.741	34421.24
678.09	34382.15
678.438	34183.06
678.787	34352.09
679.135	34335.14
679.484	34133.57
679.832	34422.37
680.181	34082.72
680.529	34160.68
680.877	33911.65
681.225	34001.82
681.573	34168.14
681.922	33893.8
682.27	33765.21
682.618	33828.94
682.966	33749.62
683.314	33863.97
683.661	33590.08
684.009	33528.16
684.357	33562.51
684.705	33444.32
685.053	33526.35
685.4	33423.98
685.748	33277.09
686.095	33295.17
686.443	33142.86
686.79	33021.28
687.138	33262.85
687.485	33133.59
687.832	33003.88
688.18	33066.48
688.527	32765.92
688.874	32896.08
689.221	32899.02
689.568	32671.68
689.915	32695.64
690.262	32584.45
690.609	32549.43
690.956	32433.05
691.303	32386.04
691.65	32291.81
691.997	32153.96
692.344	32092.72
692.69	32140.85
693.037	32051.13
693.383	31828.09
693.73	31989.67
694.077	31806.85
694.423	31824.02
694.769	31609.56
695.116	31593.29
695.462	31576.57
695.808	31500.19
696.155	31467.2
696.501	31231.27
696.847	31306.3
697.193	31044.16
697.539	31139.07
697.885	30890.26
698.231	30912.18
698.577	30886.65
698.923	30692.75
699.269	30583.38
699.614	30544.28
699.96	30522.36
700.306	30563.94
700.651	30226.55
700.997	30263.16
701.342	30176.38
701.688	30118.53
702.033	30094.35
702.379	30002.6
702.724	29789.95
703.069	29911.08
703.415	29686.68
703.76	29658.2
704.105	29699.78
704.45	29501.37
704.795	29389.28
705.14	29349.51
705.485	29392.67
705.83	29142.96
706.175	29179.8
706.52	29211.21
706.865	29032.91
707.209	28952.46
707.554	28926.92
707.899	28941.39
708.243	28730.77
708.588	28795.18
708.932	28554.73
709.277	28598.34
709.621	28541.17
709.966	28352.7
710.31	28426.15
710.654	28208.52
710.998	28288.3
711.342	28331.46
711.687	28175.08
712.031	28027.06
712.375	27935.76
712.719	28062.31
713.063	27948.19
713.407	27982.32
713.75	27858.25
714.094	27837.91
714.438	27751.59
714.782	27711.14
715.125	27571.48
715.469	27744.81
715.812	27533.29
716.156	27280.19
716.499	27385.49
716.843	27439.5
717.186	27200.87
717.53	27340.07
717.873	27400.18
718.216	27277.25
718.559	27169.46
718.902	26990.48
719.246	26971.27
719.589	27049.01
719.932	26800.2
720.275	26899.18
720.617	26826.87
720.96	26710.03
721.303	26700.77
721.646	26759.3
721.989	26522.69
722.331	26727.43
722.674	26589.13
723.016	26697.38
723.359	26482.92
723.701	26444.05
724.044	26321.34
724.386	26194.57
724.729	26371.28
725.071	26260.55
725.413	26247.22
725.755	26173.1
726.097	26057.17
726.439	25960
726.782	25980.11
727.124	26068.02
727.465	25904.18
727.807	25943.72
728.149	25823.05
728.491	25779.66
728.833	25704.41
729.175	25666.67
729.516	25629.16
729.858	25575.15
730.199	25607.91
730.541	25660.34
730.882	25596.39
731.224	25577.86
731.565	25474.81
731.906	25415.15
732.248	25425.55
732.589	25321.82
732.93	25270.3
733.271	25321.37
733.612	25309.39
733.953	25411.31
734.294	25204.08
734.635	25077.08
734.976	25220.58
735.317	25028.95
735.658	25029.62
735.999	24996.86
736.339	25015.39
736.68	24981.26
737.021	24957.76
737.361	24771.1
737.702	24947.37
738.042	24819.46
738.383	24684.32
738.723	24825.11
739.063	24633.48
739.404	24715.06
739.744	24724.1
740.084	24544.89
740.424	24522.29
740.764	24521.84
741.104	24571.56
741.444	24439.81
741.784	24331.11
742.124	24463.76
742.464	24457.44
742.804	24276.42
743.143	24296.08
743.483	24270.32
743.823	24119.82
744.162	24186.26
744.502	24148.97
744.841	24043.66
745.181	24121.63
745.52	24022.19
745.86	24093.6
746.199	23963.21
746.538	23969.99
746.877	24021.29
747.216	23910.33
747.556	23922.76
747.895	23690.68
748.234	23671.24
748.573	23732.03
748.911	23708.76
749.25	23624.46
749.589	23537.46
749.928	23462.66
750.267	23552.6
750.605	23563.45
750.944	23459.04
751.283	23385.15
751.621	23411.59
751.96	23253.17
752.298	23238.26
752.636	23253.85
752.975	23203.46
753.313	23053.41
753.651	23146.06
753.989	23062.44
754.327	22993.97
754.666	22942
755.004	22904.71
755.342	22829.23
755.679	22807.31
756.017	22728.67
756.355	22721.44
756.693	22633.53
