Data from hue_190_FLMS001491_00097.txt Node
Date: Tue Feb 07 16:46:03 GMT 2017
User: dcchb
Spectrometer: FLMS00149
Trigger mode: 0
Integration Time (sec): 2.000000E-2
Scans to average: 10
Electric dark correction enabled: true
Nonlinearity correction enabled: false
Boxcar width: 0
XAxis mode: Wavelengths
Number of Pixels in Spectrum: 2048
>>>>>Begin Spectral Data<<<<<
341.393	-17.74
341.776	-17.74
342.16	-17.74
342.543	-36.5
342.927	-70.17
343.31	-77.4
343.693	-87.34
344.077	-68.81
344.46	-78.3
344.843	-49.15
345.226	-35.82
345.61	-41.02
345.993	-23.62
346.376	5.31
346.759	7.34
347.142	27
347.525	58.42
347.908	71.75
348.291	84.18
348.674	91.41
349.057	116.04
349.44	121.69
349.823	126.89
350.206	172.76
350.588	182.26
350.971	194.23
351.354	203.72
351.737	223.16
352.119	219.99
352.502	255.47
352.884	269.94
353.267	277.39
353.65	314.23
354.032	323.49
354.414	291.4
354.797	298.41
355.179	317.84
355.562	333.66
355.944	321.69
356.326	325.75
356.709	331.18
357.091	328.69
357.473	333.66
357.855	339.54
358.238	336.15
358.62	340.67
359.002	319.2
359.384	330.05
359.766	336.15
360.148	324.4
360.53	343.61
360.912	325.75
361.294	332.53
361.676	337.28
362.057	331.86
362.439	324.85
362.821	318.3
363.203	343.61
363.584	293.21
363.966	317.17
364.348	302.7
364.729	304.51
365.111	298.64
365.493	319.43
365.874	299.54
366.256	301.8
366.637	309.94
367.019	310.39
367.4	304.74
367.781	306.32
368.163	305.19
368.544	301.8
368.925	319.2
369.306	299.77
369.688	304.29
370.069	301.12
370.45	295.92
370.831	319.65
371.212	311.97
371.593	290.27
371.974	306.55
372.355	302.7
372.736	297.28
373.117	308.35
373.498	313.78
373.879	308.81
374.26	309.71
374.641	329.14
375.021	293.44
375.402	323.72
375.783	328.47
376.163	315.58
376.544	299.54
376.925	314.46
377.305	314.46
377.686	330.5
378.066	315.36
378.447	327.79
378.827	321.69
379.208	323.27
379.588	321.01
379.968	319.88
380.349	334.12
380.729	342.93
381.109	331.63
381.489	330.05
381.87	335.25
382.25	330.27
382.63	335.92
383.01	314.23
383.39	345.87
383.77	329.14
384.15	335.25
384.53	346.32
384.91	334.79
385.29	333.66
385.67	337.51
386.049	350.16
386.429	330.05
386.809	333.89
387.189	351.06
387.568	374.11
387.948	361.23
388.328	339.54
388.707	352.19
389.087	369.14
389.466	345.41
389.846	348.58
390.225	367.11
390.605	348.58
390.984	341.35
391.363	347.9
391.743	347.9
392.122	353.1
392.501	342.93
392.881	363.49
393.26	367.79
393.639	333.89
394.018	358.3
394.397	368.46
394.776	387.45
395.155	355.81
395.534	349.48
395.913	378.63
396.292	357.84
396.671	374.57
397.05	365.98
397.429	374.57
397.808	400.55
398.186	391.06
398.565	374.57
398.944	384.74
399.323	379.76
399.701	381.35
400.08	399.42
400.458	391.97
400.837	388.8
401.215	408.46
401.594	409.82
401.972	400.55
402.351	398.52
402.729	400.33
403.107	396.26
403.486	410.72
403.864	446.2
404.242	417.96
404.62	399.42
404.999	423.38
405.377	419.99
405.755	431.74
406.133	456.37
406.511	451.85
406.889	447.11
407.267	456.15
407.645	463.83
408.023	458.41
408.401	464.06
408.779	479.2
409.156	475.81
409.534	485.52
409.912	496.6
410.29	495.92
410.667	499.08
411.045	491.85
411.422	529.14
411.8	524.84
412.178	553.09
412.555	550.61
412.933	542.02
413.31	554.9
413.687	561.68
414.065	578.85
414.442	579.08
414.819	580.66
415.197	571.85
415.574	603.26
415.951	601
416.328	624.73
416.705	635.8
417.082	636.48
417.46	617.72
417.837	664.28
418.214	660.66
418.591	658.4
418.967	662.69
419.344	683.26
419.721	690.04
420.098	685.29
420.475	728
420.852	711.73
421.228	732.75
421.605	703.37
421.982	749.25
422.358	778.62
422.735	770.04
423.111	776.59
423.488	780.88
423.864	819.3
424.241	827.66
424.617	832.18
424.994	840.77
425.37	886.64
425.746	854.1
426.123	870.15
426.499	924.61
426.875	898.17
427.251	914.67
427.627	933.42
428.003	923.48
428.379	963.7
428.756	953.76
429.132	978.17
429.507	1006.19
429.883	1009.58
430.259	993.08
430.635	1022.68
431.011	1015.91
431.387	1032.63
431.763	1066.3
432.138	1078.5
432.514	1091.61
432.89	1096.36
433.265	1124.83
433.641	1143.36
434.016	1166.41
434.392	1182
434.767	1231.72
435.143	1224.71
435.518	1240.08
435.894	1283.02
436.269	1287.31
436.644	1327.31
437.02	1304.03
437.395	1328.89
437.77	1393.97
438.145	1379.29
438.52	1424.26
438.895	1431.71
439.271	1441.88
439.646	1473.75
440.021	1500.41
440.395	1486.4
440.77	1535.21
441.145	1534.31
441.52	1570.92
441.895	1559.17
442.27	1610.47
442.645	1603.01
443.019	1631.93
443.394	1661.09
443.769	1686.17
444.143	1677.13
444.518	1703.35
444.892	1685.49
445.267	1727.75
445.641	1763.68
446.016	1739.05
446.39	1813.62
446.764	1801.65
447.139	1784.7
447.513	1855.66
447.887	1834.42
448.262	1847.75
448.636	1856.11
449.01	1914.19
449.384	1908.76
449.758	1919.61
450.132	1928.2
450.506	1943.79
450.88	1978.37
451.254	1986.5
451.628	1988.76
452.002	2042.55
452.376	2047.52
452.75	2071.24
453.123	2099.72
453.497	2108.53
453.871	2110.57
454.244	2181.07
454.618	2187.17
454.992	2214.29
455.365	2223.78
455.739	2272.14
456.112	2296.78
456.486	2324.35
456.859	2328.64
457.232	2365.02
457.606	2373.84
457.979	2424.23
458.352	2471.01
458.725	2478.01
459.099	2495.87
459.472	2570.44
459.845	2595.52
460.218	2618.35
460.591	2636.88
460.964	2668.29
461.337	2704
461.71	2749.87
462.083	2778.35
462.456	2787.38
462.829	2797.33
463.201	2856.76
463.574	2889.75
463.947	2915.29
464.32	2981.5
464.692	2999.58
465.065	3054.5
465.438	3076.64
465.81	3121.61
466.183	3148.28
466.555	3202.06
466.928	3258.56
467.3	3255.39
467.672	3289.52
468.045	3398.89
468.417	3422.85
468.789	3442.28
469.161	3488.38
469.534	3535.16
469.906	3613.13
470.278	3607.02
470.65	3702.84
471.022	3761.37
471.394	3847.02
471.766	3840.24
472.138	3880.24
472.51	4001.36
472.882	4058.31
473.253	4090.4
473.625	4153.9
473.997	4249.49
474.369	4282.26
474.74	4350.06
475.112	4417.17
475.484	4451.97
475.855	4575.13
476.227	4591.4
476.598	4714.34
476.97	4737.16
477.341	4855.13
477.713	4944.39
478.084	4954.56
478.455	5137.38
478.827	5168.34
479.198	5305.74
479.569	5255.12
479.94	5430.48
480.311	5496.92
480.682	5682.45
481.053	5716.8
481.424	5812.39
481.795	5945.49
482.166	5985.94
482.537	6045.83
482.908	6210.12
483.279	6220.06
483.65	6349.55
484.021	6569.43
484.391	6572.82
484.762	6685.36
485.133	6721.07
485.503	6794.74
485.874	6906.15
486.244	6992.47
486.615	7137.78
486.985	7238.11
487.356	7329.19
487.726	7412.57
488.097	7536.64
488.467	7622.96
488.837	7720.81
489.207	7897.53
489.578	7962.84
489.948	7983.18
490.318	8130.29
490.688	8209.39
491.058	8276.28
491.428	8366.45
491.798	8402.15
492.168	8539.1
492.538	8628.36
492.908	8699.09
493.278	8819.09
493.648	8827.45
494.017	8895.02
494.387	9004.4
494.757	9035.81
495.126	9245.29
495.496	9199.87
495.866	9211.62
496.235	9283.71
496.605	9353.09
496.974	9457.94
497.344	9495.68
497.713	9561.9
498.082	9619.07
498.452	9683.93
498.821	9704.49
499.19	9736.58
499.559	9757.82
499.928	9851.38
500.298	9924.15
500.667	9917.37
501.036	9861.1
501.405	10057.93
501.774	10029
502.143	10083.69
502.512	10106.06
502.88	10214.99
503.249	10199.62
503.618	10196.68
503.987	10217.25
504.356	10296.79
504.724	10313.06
505.093	10415.21
505.462	10332.04
505.83	10414.3
506.199	10448.88
506.567	10576.78
506.936	10508.99
507.304	10582.43
507.672	10654.97
508.041	10613.62
508.409	10696.33
508.777	10708.98
509.145	10733.62
509.514	10745.59
509.882	10735.2
510.25	10735.42
510.618	10774.74
510.986	10858.81
511.354	10932.93
511.722	10909.88
512.09	10922.31
512.458	10801.64
512.826	10944.23
513.193	10970.22
513.561	10995.53
513.929	11061.07
514.297	11025.13
514.664	11095.64
515.032	11108.75
515.4	11123.66
515.767	11129.31
516.135	11168.41
516.502	11047.51
516.869	11196.88
517.237	11197.78
517.604	11111.69
517.972	11226.03
518.339	11238.24
518.706	11089.31
519.073	11246.14
519.44	11155.07
519.808	11311.45
520.175	11150.78
520.542	11262.87
520.909	11221.06
521.276	11270.33
521.643	11245.92
522.009	11294.51
522.376	11297.22
522.743	11328.4
523.11	11279.59
523.477	11388.74
523.843	11381.73
524.21	11436.2
524.577	11419.25
524.943	11433.71
525.31	11383.77
525.676	11400.94
526.043	11432.35
526.409	11474.84
526.776	11473.03
527.142	11412.47
527.508	11409.08
527.874	11406.14
528.241	11395.07
528.607	11354.16
528.973	11433.48
529.339	11359.59
529.705	11376.76
530.071	11377.21
530.437	11345.13
530.803	11360.49
531.169	11399.59
531.535	11296.77
531.901	11280.72
532.267	11216.32
532.632	11252.02
532.998	11180.38
533.364	11134.28
533.73	11195.98
534.095	11139.26
534.461	11130.89
534.826	11049.99
535.192	11031.69
535.557	11054.51
535.923	10926.83
536.288	10952.37
536.653	10881.41
537.019	10829.88
537.384	10720.06
537.749	10730.68
538.114	10690.68
538.479	10642.09
538.845	10618.59
539.21	10579.04
539.575	10540.85
539.94	10473.74
540.305	10428.54
540.67	10353.29
541.034	10346.51
541.399	10357.13
541.764	10280.07
542.129	10282.33
542.494	10267.19
542.858	10046.4
543.223	10084.82
543.587	10059.06
543.952	10046.63
544.316	9999.17
544.681	9841.66
545.045	9892.51
545.41	9861.1
545.774	9839.18
546.138	9780.65
546.503	9708.56
546.867	9611.61
547.231	9518.05
547.595	9515.79
547.959	9536.81
548.324	9442.12
548.688	9395.57
549.052	9342.47
549.416	9352.18
549.779	9226.54
550.143	9201.68
550.507	9216.59
550.871	9209.36
551.235	9091.4
551.599	9140.89
551.962	9051.4
552.326	8984.51
552.689	8982.93
553.053	8873.55
553.417	8778.87
553.78	8919.43
554.143	8796.04
554.507	8782.03
554.87	8696.61
555.234	8723.5
555.597	8543.84
555.96	8664.07
556.323	8635.37
556.686	8565.76
557.05	8455.48
557.413	8498.42
557.776	8474.01
558.139	8500
558.502	8440.12
558.865	8438.31
559.228	8417.52
559.59	8447.57
559.953	8350.85
560.316	8351.31
560.679	8370.74
561.041	8319.67
561.404	8293.68
561.767	8343.17
562.129	8255.04
562.492	8288.71
562.854	8218.65
563.217	8149.73
563.579	8156.28
563.941	8202.84
564.304	8205.55
564.666	8195.38
565.028	8177.75
565.39	8105.21
565.753	8123.29
566.115	8142.05
566.477	8145.89
566.839	8136.85
567.201	8132.55
567.563	8079.22
567.925	8165.55
568.287	8146.11
568.648	8116.51
569.01	8168.49
569.372	8153.34
569.734	8144.98
570.095	8139.56
570.457	8116.51
570.819	8145.66
571.18	8114.25
571.542	8182.5
571.903	8108.83
572.265	8074.25
572.626	8132.55
572.987	8084.19
573.349	8111.09
573.71	8134.81
574.071	8105.66
574.432	8166.68
574.794	8126.9
575.155	8199.22
575.516	8118.54
575.877	8125.32
576.238	8097.53
576.599	8138.88
576.96	8050.75
577.32	8046.91
577.681	8134.59
578.042	8112.89
578.403	8103.18
578.763	8083.74
579.124	8082.61
579.485	8064.53
579.845	8058.88
580.206	8123.97
580.566	7979.79
580.927	8017.3
581.287	8061.6
581.648	8061.37
582.008	8051.65
582.368	8041.03
582.728	8006.91
583.089	8013.91
583.449	7968.49
583.809	7968.94
584.169	7960.13
584.529	7901.37
584.889	8062.27
585.249	7940.7
585.609	7924.65
585.969	7956.29
586.329	7915.16
586.688	7925.55
587.048	7855.73
587.408	7948.15
587.768	7869.74
588.127	7806.24
588.487	7884.88
588.846	7895.05
589.206	7817.76
589.565	7891.2
589.925	7853.47
590.284	7789.06
590.643	7840.58
591.003	7902.96
591.362	7852.34
591.721	7852.11
592.08	7797.42
592.44	7834.71
592.799	7844.65
593.158	7813.24
593.517	7737.99
593.876	7714.03
594.235	7757.42
594.593	7708.38
594.952	7720.36
595.311	7656.41
595.67	7704.09
596.029	7707.25
596.387	7771.21
596.746	7777.08
597.104	7708.16
597.463	7656.86
597.822	7708.38
598.18	7666.13
598.538	7666.35
598.897	7639.91
599.255	7615.28
599.613	7712.68
599.972	7681.94
600.33	7657.31
600.688	7631.32
601.046	7679.01
601.404	7686.69
601.762	7634.26
602.12	7700.93
602.478	7627.71
602.836	7697.99
603.194	7620.48
603.552	7614.15
603.91	7576.86
604.268	7679.01
604.625	7643.53
604.983	7587.71
605.341	7614.38
605.698	7669.06
606.056	7661.83
606.413	7610.76
606.771	7621.38
607.128	7634.94
607.485	7586.58
607.843	7567.37
608.2	7662.28
608.557	7682.17
608.914	7633.58
609.272	7644.66
609.629	7658.44
609.986	7700.48
610.343	7639.91
610.7	7724.66
611.057	7666.35
611.414	7708.38
611.771	7684.88
612.127	7723.07
612.484	7661.38
612.841	7660.02
613.198	7655.05
613.554	7631.78
613.911	7740.02
614.267	7613.47
614.624	7727.14
614.98	7714.03
615.337	7742.06
615.693	7700.02
616.05	7642.62
616.406	7727.59
616.762	7749.29
617.118	7683.53
617.475	7647.6
617.831	7648.73
618.187	7719.46
618.543	7751.1
618.899	7773.24
619.255	7698.22
619.611	7742.73
619.967	7779.12
620.323	7805.56
620.678	7785.67
621.034	7730.76
621.39	7732.11
621.746	7687.14
622.101	7833.13
622.457	7687.14
622.812	7731.66
623.168	7762.39
623.523	7782.51
623.879	7776.18
624.234	7700.7
624.589	7736.41
624.945	7759.23
625.3	7801.49
625.655	7770.98
626.01	7791.32
626.365	7768.95
626.72	7710.42
627.075	7743.64
627.43	7716.29
627.785	7680.36
628.14	7742.06
628.495	7717.88
628.85	7677.2
629.205	7660.25
629.559	7729.63
629.914	7659.8
630.269	7695.5
630.623	7666.13
630.978	7615.51
631.332	7648.27
631.687	7676.52
632.041	7631.32
632.396	7608.5
632.75	7639.91
633.104	7629.74
633.459	7572.12
633.813	7588.16
634.167	7558.33
634.521	7564.21
634.875	7608.27
635.229	7566.24
635.583	7508.39
635.937	7535.96
636.291	7507.94
636.645	7477.88
636.999	7521.72
637.352	7459.35
637.706	7421.61
638.06	7490.54
638.413	7477.2
638.767	7499.12
639.121	7371.44
639.474	7420.48
639.828	7390.65
640.181	7377.55
640.534	7379.81
640.888	7395.85
641.241	7355.17
641.594	7418
641.947	7367.6
642.301	7357.43
642.654	7370.54
643.007	7396.75
643.36	7422.97
643.713	7401.05
644.066	7407.38
644.419	7386.36
644.771	7314.5
645.124	7193.82
645.477	7246.25
645.83	7204.9
646.182	7167.61
646.535	7116.08
646.888	7156.31
647.24	7111.56
647.593	7177.78
647.945	7140.94
648.298	7126.25
648.65	7053.71
649.002	7089.87
649.355	7117.44
649.707	7099.36
650.059	7146.14
650.411	7224.78
650.763	7267.49
651.115	7261.39
651.467	7284.22
651.819	7284.67
652.171	7291.67
652.523	7252.58
652.875	7269.75
653.227	7277.66
653.578	7272.92
653.93	7297.55
654.282	7280.83
654.633	7215.06
654.985	7192.24
655.337	7277.44
655.688	7280.83
656.039	7349.75
656.391	7279.24
656.742	7291.22
657.094	7271.11
657.445	7279.02
657.796	7270.66
658.147	7317.66
658.498	7301.16
658.849	7427.71
659.2	7274.72
659.551	7276.31
659.902	7296.64
660.253	7260.49
660.604	7340.03
660.955	7329.64
661.306	7299.81
661.656	7309.07
662.007	7352.69
662.358	7326.47
662.708	7283.09
663.059	7333.93
663.409	7259.36
663.76	7402.63
664.11	7357.21
664.461	7344.55
664.811	7363.99
665.161	7417.55
665.511	7310.88
665.862	7346.36
666.212	7370.31
666.562	7354.27
666.912	7370.31
667.262	7299.36
667.612	7320.15
667.962	7337.1
668.312	7376.64
668.662	7409.18
669.011	7376.19
669.361	7309.98
669.711	7331.9
670.06	7365.8
670.41	7301.39
670.76	7292.8
671.109	7299.58
671.459	7329.41
671.808	7385.46
672.157	7337.1
672.507	7305.91
672.856	7257.55
673.205	7320.82
673.554	7293.48
673.904	7299.58
674.253	7252.8
674.602	7272.69
674.951	7223.88
675.3	7160.38
675.649	7240.37
675.998	7282.18
676.346	7243.31
676.695	7272.46
677.044	7241.73
677.393	7238.79
677.741	7280.37
678.09	7204.9
678.438	7153.6
678.787	7209.19
679.135	7139.36
679.484	7180.04
679.832	7177.33
680.181	7161.05
680.529	7149.76
680.877	7120.38
681.225	7074.05
681.573	7164.67
681.922	7041.96
682.27	7011
682.618	7079.93
682.966	7041.06
683.314	7031.57
683.661	6980.27
684.009	7023.88
684.357	6981.62
684.705	6939.82
685.053	7023.21
685.4	6961.06
685.748	6947.5
686.095	6930.33
686.443	6900.04
686.79	6823.44
687.138	6875.64
687.485	6855.75
687.832	6817.11
688.18	6771.46
688.527	6789.99
688.874	6799.26
689.221	6729.43
689.568	6740.95
689.915	6742.31
690.262	6723.33
690.609	6705.93
690.956	6654.63
691.303	6681.29
691.65	6633.61
691.997	6644.23
692.344	6562.43
692.69	6549.32
693.037	6545.7
693.383	6503.44
693.73	6507.74
694.077	6510.68
694.423	6480.17
694.769	6452.37
695.116	6449.66
695.462	6431.13
695.808	6373.5
696.155	6360.85
696.501	6336.44
696.847	6328.53
697.193	6247.41
697.539	6257.12
697.885	6248.76
698.231	6256.45
698.577	6232.72
698.923	6191.14
699.269	6150.01
699.614	6120.63
699.96	6067.3
700.306	6110.91
700.651	6017.58
700.997	6071.14
701.342	6054.64
701.688	6043.57
702.033	5962.22
702.379	5973.97
702.724	5909.56
703.069	5923.35
703.415	5834.31
703.76	5902.56
704.105	5873.63
704.45	5826.17
704.795	5822.33
705.14	5770.58
705.485	5818.94
705.83	5743.24
706.175	5755.44
706.52	5749.34
706.865	5714.54
707.209	5665.05
707.554	5666.86
707.899	5664.37
708.243	5625.73
708.588	5613.3
708.932	5578.95
709.277	5630.93
709.621	5616.69
709.966	5573.98
710.31	5584.37
710.654	5474.77
710.998	5496.01
711.342	5527.88
711.687	5480.19
712.031	5458.05
712.375	5436.58
712.719	5471.61
713.063	5470.25
713.407	5443.13
713.75	5355.68
714.094	5426.41
714.438	5421.67
714.782	5408.33
715.125	5380.99
715.469	5376.24
715.812	5356.36
716.156	5316.81
716.499	5322.46
716.843	5340.76
717.186	5312.29
717.53	5320.65
717.873	5319.75
718.216	5248.79
718.559	5286.53
718.902	5268.68
719.246	5260.09
719.589	5283.14
719.932	5242.01
720.275	5263.7
720.617	5249.69
720.96	5227.77
721.303	5226.87
721.646	5182.35
721.989	5213.76
722.331	5230.94
722.674	5206.98
723.016	5243.14
723.359	5221.67
723.701	5178.28
724.044	5176.93
724.386	5173.08
724.729	5195
725.071	5141.67
725.413	5174.89
725.755	5177.15
726.097	5140.09
726.439	5139.41
726.782	5135.35
727.124	5193.42
727.465	5103.71
727.807	5165.63
728.149	5123.14
728.491	5112.07
728.833	5178.96
729.175	5123.14
729.516	5151.16
729.858	5136.25
730.199	5138.73
730.541	5120.88
730.882	5167.21
731.224	5129.24
731.565	5133.76
731.906	5143.25
732.248	5180.99
732.589	5161.56
732.93	5130.37
733.271	5129.24
733.612	5151.84
733.953	5152.29
734.294	5144.61
734.635	5096.93
734.976	5164.27
735.317	5122.69
735.658	5154.1
735.999	5152.75
736.339	5164.5
736.68	5179.19
737.021	5173.08
737.361	5185.74
737.702	5217.83
738.042	5138.06
738.383	5173.08
738.723	5176.02
739.063	5232.74
739.404	5240.2
739.744	5225.06
740.084	5196.13
740.424	5263.48
740.764	5251.27
741.104	5295.12
741.444	5307.32
741.784	5305.74
742.124	5338.5
742.464	5317.71
742.804	5335.79
743.143	5333.98
743.483	5348.45
743.823	5415.34
744.162	5385.06
744.502	5413.76
744.841	5477.48
745.181	5503.92
745.52	5531.94
745.86	5574.2
746.199	5545.96
746.538	5628.67
746.877	5651.26
747.216	5691.94
747.556	5651.94
747.895	5809.9
748.234	5810.13
748.573	5904.59
748.911	5895.55
749.25	5966.28
749.589	6010.35
749.928	6058.26
750.267	6173.74
750.605	6186.62
750.944	6273.39
751.283	6336.67
751.621	6427.06
751.96	6467.06
752.298	6594.06
752.636	6634.97
752.975	6751.8
753.313	6845.13
753.651	6923.32
753.989	7062.07
754.327	7113.82
754.666	7208.06
755.004	7354.72
755.342	7540.25
755.679	7626.81
756.017	7765.78
756.355	7921.49
756.693	8001.03
757.031	8133.23
757.368	8265.21
757.706	8412.1
758.044	8583.84
758.381	8740.22
758.719	8871.52
759.056	9038.97
759.394	9216.37
759.731	9270.6
760.068	9475.57
760.405	9645.96
760.743	9797.14
761.08	9970.02
761.417	10094.54
761.754	10303.8
762.091	10483.91
762.428	10581.76
762.765	10749.43
763.102	10945.14
763.438	11095.19
763.775	11195.98
764.112	11447.5
764.449	11647.72
764.785	11749.18
765.122	11897.43
765.458	12008.84
765.795	12209.96
766.131	12411.76
766.467	12514.13
