Data from hue_210_FLMS001491_00073.txt Node
Date: Tue Feb 07 16:41:40 GMT 2017
User: dcchb
Spectrometer: FLMS00149
Trigger mode: 0
Integration Time (sec): 2.000000E-2
Scans to average: 10
Electric dark correction enabled: true
Nonlinearity correction enabled: false
Boxcar width: 0
XAxis mode: Wavelengths
Number of Pixels in Spectrum: 2048
>>>>>Begin Spectral Data<<<<<
341.393	-20.06
341.776	-20.06
342.16	-20.06
342.543	-50.79
342.927	-89.43
343.31	-77.91
343.693	-78.13
344.077	-72.26
344.46	-58.93
344.843	-49.43
345.226	-34.07
345.61	-27.29
345.993	-11.24
346.376	7.97
346.759	10
347.142	16.33
347.525	32.6
347.908	56.33
348.291	90.45
348.674	92.71
349.057	102.88
349.44	125.02
349.823	133.16
350.206	167.06
350.588	194.63
350.971	224.23
351.354	238.02
351.737	225.81
352.119	244.8
352.502	250.9
352.884	273.5
353.267	288.64
353.65	285.92
354.032	304.23
354.414	296.32
354.797	295.19
355.179	327.05
355.562	309.65
355.944	289.09
356.326	315.3
356.709	321.86
357.091	326.38
357.473	344
357.855	333.83
358.238	355.53
358.62	315.98
359.002	332.7
359.384	335.19
359.766	336.77
360.148	346.26
360.53	330.67
360.912	313.95
361.294	304
361.676	306.94
362.057	346.49
362.439	318.24
362.821	332.7
363.203	313.04
363.584	330.67
363.966	313.49
364.348	329.31
364.729	319.14
365.111	311.46
365.493	315.3
365.874	328.41
366.256	325.25
366.637	332.48
367.019	299.71
367.4	311.23
367.781	313.72
368.163	307.39
368.544	311.46
368.925	321.86
369.306	327.05
369.688	336.09
370.069	313.49
370.45	321.4
370.831	305.36
371.212	318.69
371.593	314.62
371.974	307.62
372.355	299.03
372.736	306.94
373.117	335.64
373.498	304
373.879	299.71
374.26	313.95
374.641	303.55
375.021	300.16
375.402	311.23
375.783	312.36
376.163	308.52
376.544	336.32
376.925	324.34
377.305	312.82
377.686	324.34
378.066	309.43
378.447	328.41
378.827	337.45
379.208	327.28
379.588	331.57
379.968	316.43
380.349	342.65
380.729	322.99
381.109	347.17
381.489	345.81
381.87	342.19
382.25	326.83
382.63	325.92
383.01	319.6
383.39	329.09
383.77	358.47
384.15	337
384.53	358.69
384.91	345.58
385.29	339.26
385.67	343.32
386.049	366.83
386.429	356.66
386.809	365.92
387.189	356.21
387.568	363.66
387.948	361.18
388.328	370.44
388.707	353.04
389.087	360.72
389.466	361.18
389.846	367.05
390.225	370.44
390.605	372.02
390.984	369.31
391.363	368.41
391.743	386.49
392.122	382.87
392.501	374.06
392.881	368.63
393.26	380.84
393.639	389.2
394.018	386.49
394.397	378.35
394.776	371.8
395.155	378.35
395.534	386.71
395.913	376.77
396.292	392.14
396.671	391.23
397.05	401.18
397.429	395.53
397.808	394.4
398.186	392.36
398.565	402.53
398.944	405.92
399.323	385.13
399.701	387.62
400.08	386.49
400.458	423.55
400.837	435.07
401.215	414.73
401.594	414.28
401.972	436.88
402.351	411.57
402.729	456.77
403.107	434.62
403.486	425.36
403.864	426.94
404.242	443.43
404.62	437.33
404.999	447.5
405.377	446.15
405.755	444.11
406.133	460.16
406.511	472.13
406.889	472.59
407.267	483.43
407.645	503.55
408.023	488.18
408.401	502.64
408.779	495.41
409.156	508.52
409.534	513.26
409.912	527.27
410.29	528.86
410.667	528.86
411.045	553.26
411.422	566.37
411.8	525.92
412.178	556.88
412.555	580.61
412.933	600.49
413.31	587.84
413.687	619.7
414.065	636.88
414.442	625.12
414.819	629.87
415.197	656.76
415.574	644.79
415.951	663.32
416.328	681.39
416.705	694.5
417.082	667.16
417.46	686.14
417.837	689.08
418.214	671.45
418.591	725.91
418.967	728.4
419.344	742.86
419.721	747.16
420.098	758.23
420.475	752.58
420.852	804.33
421.228	774.27
421.605	803.43
421.982	795.29
422.358	825.12
422.735	826.93
423.111	848.17
423.488	872.35
423.864	870.77
424.241	879.13
424.617	923.65
424.994	909.41
425.37	939.47
425.746	970.65
426.123	985.34
426.499	985.57
426.875	986.7
427.251	1007.04
427.627	1034.15
428.003	1021.95
428.379	1038.22
428.756	1073.7
429.132	1078.22
429.507	1064.66
429.883	1077.77
430.259	1132.23
430.635	1110.31
431.011	1114.15
431.387	1167.03
431.763	1178.1
432.138	1173.81
432.514	1207.48
432.89	1232.34
433.265	1249.97
433.641	1270.76
434.016	1275.5
434.392	1325.67
434.767	1334.26
435.143	1324.99
435.518	1372.68
435.894	1411.32
436.269	1407.03
436.644	1447.25
437.02	1472.33
437.395	1465.55
437.77	1499.9
438.145	1506.46
438.52	1556.4
438.895	1595.95
439.271	1604.76
439.646	1655.15
440.021	1661.48
440.395	1661.48
440.77	1681.59
441.145	1713.46
441.52	1748.49
441.895	1748.71
442.27	1772.44
442.645	1775.15
443.019	1781.03
443.394	1803.62
443.769	1824.19
444.143	1836.17
444.518	1883.17
444.892	1916.84
445.267	1912.32
445.641	1927.01
446.016	1934.24
446.39	1936.5
446.764	1970.17
447.139	1962.72
447.513	1970.85
447.887	2014.24
448.262	1973.34
448.636	2038.19
449.01	2072.54
449.384	2078.19
449.758	2100.57
450.132	2105.09
450.506	2124.97
450.88	2145.99
451.254	2133.11
451.628	2186.67
452.002	2200.9
452.376	2216.5
452.75	2229.6
453.123	2230.05
453.497	2294.46
453.871	2292.43
454.244	2318.87
454.618	2419.2
454.992	2408.35
455.365	2380.56
455.739	2456.04
456.112	2471.63
456.486	2482.03
456.859	2503.49
457.232	2567.22
457.606	2522.48
457.979	2572.64
458.352	2592.98
458.725	2664.17
459.099	2651.06
459.472	2741.68
459.845	2736.48
460.218	2769.02
460.591	2778.51
460.964	2825.29
461.337	2884.73
461.71	2878.85
462.083	2934.67
462.456	2947.55
462.829	2956.36
463.201	3034.33
463.574	3034.33
463.947	3063.7
464.32	3151.61
464.692	3173.53
465.065	3175.57
465.438	3216.47
465.81	3240.88
466.183	3282.23
466.555	3354.54
466.928	3376.92
467.3	3327.2
467.672	3434.99
468.045	3482
468.417	3513.18
468.789	3528.33
469.161	3568.1
469.534	3617.59
469.906	3736.91
470.278	3656.46
470.65	3758.15
471.022	3841.54
471.394	3903
471.766	3901.87
472.138	3950.91
472.51	4038.59
472.882	4050.12
473.253	4099.16
473.625	4190.91
473.997	4246.72
474.369	4297.34
474.74	4327.85
475.112	4367.85
475.484	4393.39
475.855	4507.06
476.227	4519.94
476.598	4647.84
476.97	4679.03
477.341	4760.84
477.713	4823.43
478.084	4833.6
478.455	4986.37
478.827	4978
479.198	5151.79
479.569	5107.49
479.94	5266.81
480.311	5323.76
480.682	5417.32
481.053	5509.52
481.424	5603.52
481.795	5613.92
482.166	5731.88
482.537	5757.42
482.908	5871.09
483.279	5968.26
483.65	5981.59
484.021	6072.89
484.391	6158.76
484.762	6245.32
485.133	6294.81
485.503	6375.93
485.874	6517.17
486.244	6507.91
486.615	6635.36
486.985	6604.63
487.356	6784.96
487.726	6827.9
488.097	6985.18
488.467	6949.25
488.837	7064.96
489.207	7210.71
489.578	7208.45
489.948	7329.58
490.318	7397.38
490.688	7397.15
491.058	7408.68
491.428	7599.4
491.798	7595.34
492.168	7759.63
492.538	7726.18
492.908	7861.32
493.278	7952.84
493.648	7916.91
494.017	7994.2
494.387	8024.03
494.757	8085.72
495.126	8188.99
495.496	8191.48
495.866	8328.43
496.235	8317.13
496.605	8366.16
496.974	8407.29
497.344	8501.98
497.713	8472.38
498.082	8487.29
498.452	8589.66
498.821	8679.38
499.19	8684.12
499.559	8710.34
499.928	8724.12
500.298	8767.51
500.667	8842.54
501.036	8803.21
501.405	8952.36
501.774	8947.62
502.143	8954.4
502.512	8917.56
502.88	8996.66
503.249	9053.38
503.618	9043.21
503.987	9088.63
504.356	9055.86
504.724	9143.09
505.093	9120.95
505.462	9204.79
505.83	9146.93
506.199	9297.89
506.567	9301.96
506.936	9324.11
507.304	9366.36
507.672	9396.87
508.041	9383.31
508.409	9446.81
508.777	9477.1
509.145	9509.41
509.514	9485.46
509.882	9556.64
510.25	9550.31
510.618	9561.84
510.986	9547.15
511.354	9673.47
511.722	9653.14
512.09	9761.38
512.458	9675.06
512.826	9754.83
513.193	9730.65
513.561	9779.91
513.929	9840.02
514.297	9798.44
514.664	9901.27
515.032	9837.99
515.4	9827.82
515.767	9821.72
516.135	9891.77
516.502	9795.05
516.869	9925.45
517.237	9949.17
517.604	9881.6
517.972	9959.12
518.339	9959.34
518.706	9940.59
519.073	9946.46
519.44	10001.83
519.808	10057.19
520.175	10026.91
520.542	10046.12
520.909	10065.33
521.276	10006.57
521.643	10062.16
522.009	10132.45
522.376	10140.81
522.743	10098.1
523.11	10207.02
523.477	10196.85
523.843	10195.04
524.21	10223.06
524.577	10313.23
524.943	10217.87
525.31	10333.8
525.676	10321.82
526.043	10332.67
526.409	10315.94
526.776	10329.05
527.142	10299.45
527.508	10279.11
527.874	10299.9
528.241	10304.87
528.607	10399.78
528.973	10270.97
529.339	10309.84
529.705	10357.98
530.071	10308.71
530.437	10383.06
530.803	10403.17
531.169	10364.08
531.535	10275.04
531.901	10216.96
532.267	10275.27
532.632	10296.96
532.998	10229.62
533.364	10266.45
533.73	10246.11
534.095	10268.71
534.461	10239.56
534.826	10240.24
535.192	10166.34
535.557	10247.24
535.923	10158.66
536.288	10209.51
536.653	10180.58
537.019	10098.32
537.384	10023.3
537.749	10040.24
538.114	9955.27
538.479	10004.77
538.845	10026.91
539.21	9949.85
539.575	9967.7
539.94	9848.39
540.305	9911.43
540.67	9832.34
541.034	9892.68
541.399	9793.02
541.764	9767.26
542.129	9793.02
542.494	9751.89
542.858	9698.78
543.223	9750.08
543.587	9645.45
543.952	9645.23
544.316	9714.38
544.681	9573.82
545.045	9601.39
545.41	9596.19
545.774	9550.31
546.138	9518.22
546.503	9493.14
546.867	9414.27
547.231	9444.33
547.595	9428.96
547.959	9409.53
548.324	9361.62
548.688	9333.82
549.052	9319.13
549.416	9302.41
549.779	9245.01
550.143	9180.15
550.507	9282.07
550.871	9190.1
551.235	9125.69
551.599	9183.32
551.962	9154.39
552.326	9162.75
552.689	9023.77
553.053	9070.1
553.417	8960.95
553.78	9061.51
554.143	8999.59
554.507	8948.97
554.87	8933.61
555.234	8944.23
555.597	8921.4
555.96	8941.52
556.323	8863.1
556.686	8878.69
557.05	8897.9
557.413	8884.79
557.776	8869.65
558.139	8809.54
558.502	8817.9
558.865	8779.26
559.228	8825.81
559.59	8838.02
559.953	8865.81
560.316	8847.73
560.679	8831.91
561.041	8833.04
561.404	8849.77
561.767	8880.5
562.129	8778.13
562.492	8872.82
562.854	8794.4
563.217	8815.87
563.579	8824.23
563.941	8865.13
564.304	8839.37
564.666	8885.02
565.028	8812.25
565.39	8857.22
565.753	8898.81
566.115	8855.19
566.477	8906.49
566.839	8866.26
567.201	8941.29
567.563	8927.96
567.925	8895.87
568.287	8901.29
568.648	8929.31
569.01	8921.18
569.372	9006.6
569.734	8971.8
570.095	8995.3
570.457	8989.2
570.819	8959.59
571.18	9033.27
571.542	9021.06
571.903	8952.36
572.265	9039.82
572.626	9050.89
572.987	9107.61
573.349	9067.16
573.71	9082.53
574.071	9133.38
574.432	9165.01
574.794	9164.11
575.155	9101.96
575.516	9124.56
575.877	9152.58
576.238	9189.65
576.599	9179.48
576.96	9198.01
577.32	9240.04
577.681	9187.61
578.042	9234.62
578.403	9244.33
578.763	9206.14
579.124	9304.67
579.485	9275.07
579.845	9269.42
580.206	9252.92
580.566	9294.73
580.927	9333.37
581.287	9392.13
581.648	9274.39
582.008	9363.43
582.368	9387.15
582.728	9370.43
583.089	9367.27
583.449	9388.06
583.809	9379.02
584.169	9384.22
584.529	9322.07
584.889	9433.25
585.249	9346.48
585.609	9423.54
585.969	9479.58
586.329	9399.36
586.688	9431.22
587.048	9414.95
587.408	9420.83
587.768	9374.27
588.127	9475.74
588.487	9377.66
588.846	9466.25
589.206	9416.31
589.565	9406.81
589.925	9490.2
590.284	9445.23
590.643	9456.31
591.003	9512.8
591.362	9464.67
591.721	9554.16
592.08	9484.33
592.44	9499.92
592.799	9528.85
593.158	9517.77
593.517	9548.51
593.876	9543.53
594.235	9519.81
594.593	9466.93
594.952	9478.23
595.311	9407.94
595.67	9455.63
596.029	9442.75
596.387	9478.45
596.746	9594.61
597.104	9553.48
597.463	9464.89
597.822	9583.53
598.18	9506.7
598.538	9496.98
598.897	9591.67
599.255	9500.37
599.613	9639.35
599.972	9565.91
600.33	9584.89
600.688	9485
601.046	9557.32
601.404	9577.43
601.762	9565.23
602.12	9600.93
602.478	9592.35
602.836	9600.48
603.194	9499.69
603.552	9548.73
603.91	9555.74
604.268	9583.08
604.625	9559.81
604.983	9539.24
605.341	9575.4
605.698	9592.35
606.056	9633.02
606.413	9549.64
606.771	9659.92
607.128	9682.97
607.485	9579.47
607.843	9581.73
608.2	9665.34
608.557	9684.1
608.914	9639.13
609.272	9685.9
609.629	9652.91
609.986	9699.46
610.343	9670.76
610.7	9676.19
611.057	9736.75
611.414	9632.12
611.771	9646.81
612.127	9682.74
612.484	9724.32
612.841	9749.18
613.198	9744.43
613.554	9694.26
613.911	9766.81
614.267	9805
614.624	9724.32
614.98	9797.99
615.337	9765.22
615.693	9715.06
616.05	9756.18
616.406	9809.74
616.762	9803.19
617.118	9730.65
617.475	9837.54
617.831	9830.98
618.187	9877.99
618.543	9847.26
618.899	9885.67
619.255	9807.03
619.611	9804.54
619.967	9863.53
620.323	9918.89
620.678	9939
621.034	9853.58
621.39	9925.9
621.746	9855.16
622.101	9990.3
622.457	9917.76
622.812	9855.62
623.168	9887.25
623.523	9849.52
623.879	9939.46
624.234	9899.23
624.589	9819.91
624.945	9843.19
625.3	9895.16
625.655	9824.66
626.01	9899.91
626.365	9909.63
626.72	9942.39
627.075	9844.32
627.43	9874.37
627.785	9798.22
628.14	9845
628.495	9838.22
628.85	9794.6
629.205	9800.7
629.559	9809.74
629.914	9834.6
630.269	9846.13
630.623	9764.32
630.978	9754.38
631.332	9763.42
631.687	9789.86
632.041	9769.97
632.396	9816.07
632.75	9702.85
633.104	9781.04
633.459	9680.48
633.813	9690.88
634.167	9708.28
634.521	9679.58
634.875	9682.06
635.229	9685.23
635.583	9618.79
635.937	9634.83
636.291	9609.75
636.645	9651.33
636.999	9582.63
637.352	9629.63
637.706	9513.7
638.06	9538.11
638.413	9617.66
638.767	9595.96
639.121	9541.5
639.474	9513.7
639.828	9566.58
640.181	9543.99
640.534	9593.7
640.888	9511.9
641.241	9490.88
641.594	9439.58
641.947	9527.94
642.301	9490.43
642.654	9531.33
643.007	9404.55
643.36	9477.1
643.713	9422.41
644.066	9450.2
644.419	9426.7
644.771	9369.98
645.124	9283.88
645.477	9205.92
645.83	9179.7
646.182	9186.93
646.535	9154.62
646.888	9147.61
647.24	9148.74
647.593	9065.13
647.945	9096.09
648.298	9054.73
648.65	9085.47
649.002	9086.15
649.355	9146.03
649.707	9076.65
650.059	9141.96
650.411	9260.38
650.763	9235.97
651.115	9394.84
651.467	9305.12
651.819	9363.88
652.171	9303.09
652.523	9284.33
652.875	9320.04
653.227	9285.91
653.578	9330.88
653.93	9338.79
654.282	9265.12
654.633	9242.3
654.985	9271
655.337	9334.95
655.688	9309.19
656.039	9289.76
656.391	9241.4
656.742	9280.72
657.094	9264.9
657.445	9305.35
657.796	9253.82
658.147	9280.72
658.498	9311.68
658.849	9297.21
659.2	9306.93
659.551	9272.13
659.902	9326.82
660.253	9325.01
660.604	9343.99
660.955	9283.88
661.306	9411.33
661.656	9360.94
662.007	9290.21
662.358	9339.47
662.708	9340.83
663.059	9399.36
663.409	9269.87
663.76	9358.68
664.11	9390.54
664.461	9411.79
664.811	9382.41
665.161	9316.2
665.511	9356.87
665.862	9376.08
666.212	9362.97
666.562	9383.76
666.912	9339.02
667.262	9347.38
667.612	9320.72
667.962	9314.61
668.312	9372.47
668.662	9367.04
669.011	9327.27
669.361	9363.65
669.711	9299.25
670.06	9289.76
670.41	9290.89
670.76	9348.29
671.109	9348.06
671.459	9268.74
671.808	9355.52
672.157	9336.31
672.507	9272.36
672.856	9336.08
673.205	9300.38
673.554	9254.95
673.904	9343.31
674.253	9305.35
674.602	9269.87
674.951	9116.88
675.3	9101.51
675.649	9215.18
675.998	9163.88
676.346	9225.35
676.695	9248.63
677.044	9146.71
677.393	9201.62
677.741	9220.15
678.09	9125.69
678.438	9192.81
678.787	9218.8
679.135	9145.58
679.484	9082.3
679.832	9167.27
680.181	8997.79
680.529	9093.6
680.877	9027.84
681.225	8942.42
681.573	9077.78
681.922	8945.36
682.27	8980.16
682.618	8968.86
682.966	8966.6
683.314	8947.17
683.661	8904.23
684.009	8852.25
684.357	8892.03
684.705	8846.38
685.053	8776.55
685.4	8840.5
685.748	8830.33
686.095	8757.57
686.443	8741.52
686.79	8675.08
687.138	8754.4
687.485	8780.84
687.832	8685.93
688.18	8718.47
688.527	8663.56
688.874	8715.53
689.221	8610.45
689.568	8558.7
689.915	8595.31
690.262	8530
690.609	8557.57
690.956	8533.62
691.303	8433.28
691.65	8467.18
691.997	8374.07
692.344	8391.7
692.69	8359.84
693.037	8356.9
693.383	8252.27
693.73	8267.41
694.077	8181.54
694.423	8279.84
694.769	8200.07
695.116	8214.53
695.462	8123.23
695.808	8112.61
696.155	8188.99
696.501	8076.91
696.847	8088.43
697.193	8026.06
697.539	7993.52
697.885	7927.53
698.231	7874.88
698.577	7920.07
698.923	7889.11
699.269	7851.6
699.614	7793.3
699.96	7768.89
700.306	7769.57
700.651	7743.58
700.997	7718.05
701.342	7689.57
701.688	7600.31
702.033	7677.59
702.379	7653.64
702.724	7581.33
703.069	7612.74
703.415	7478.96
703.76	7549.91
704.105	7470.82
704.45	7423.82
704.795	7365.51
705.14	7318.06
705.485	7342.69
705.83	7344.72
706.175	7329.36
706.52	7217.49
706.865	7246.19
707.209	7237.15
707.554	7241.45
707.899	7217.27
708.243	7201.68
708.588	7196.03
708.932	7121.23
709.277	7012.3
709.621	7116.03
709.966	7066.76
710.31	7066.99
710.654	7032.41
710.998	7016.14
711.342	7034.67
711.687	7032.64
712.031	6927.33
712.375	6963.04
712.719	6981.12
713.063	6965.52
713.407	6969.36
713.75	6929.14
714.094	6891.63
714.438	6902.02
714.782	6922.81
715.125	6862.25
715.469	6852.76
715.812	6813.66
716.156	6780.67
716.499	6786.54
716.843	6806.66
717.186	6746.09
717.53	6821.8
717.873	6765.98
718.216	6789.03
718.559	6749.26
718.902	6693.89
719.246	6752.2
719.589	6745.42
719.932	6706.55
720.275	6658.86
720.617	6641.01
720.96	6682.37
721.303	6653.44
721.646	6622.03
721.989	6597.85
722.331	6610.96
722.674	6653.44
723.016	6697.73
723.359	6613.44
723.701	6627.9
724.044	6620.22
724.386	6568.7
724.729	6626.1
725.071	6582.93
725.413	6625.42
725.755	6565.31
726.097	6553.78
726.439	6545.2
726.782	6511.3
727.124	6544.29
727.465	6549.49
727.807	6553.78
728.149	6541.81
728.491	6564.18
728.833	6539.09
729.175	6502.48
729.516	6591.97
729.858	6561.69
730.199	6488.25
730.541	6483.95
730.882	6585.87
731.224	6522.14
731.565	6493.67
731.906	6554.91
732.248	6546.33
732.589	6464.75
732.93	6458.87
733.271	6559.21
733.612	6515.82
733.953	6521.69
734.294	6510.39
734.635	6532.77
734.976	6488.7
735.317	6516.95
735.658	6520.79
735.999	6502.71
736.339	6504.52
736.68	6561.69
737.021	6591.75
737.361	6542.71
737.702	6569.6
738.042	6504.29
738.383	6528.02
738.723	6497.06
739.063	6527.12
739.404	6572.77
739.744	6563.73
740.084	6535.93
740.424	6585.42
740.764	6548.81
741.104	6608.24
741.444	6629.94
741.784	6638.53
742.124	6665.42
742.464	6626.32
742.804	6598.98
743.143	6666.32
743.483	6662.93
743.823	6728.24
744.162	6707
744.502	6754.68
744.841	6844.4
745.181	6842.14
745.52	6861.12
745.86	6876.49
746.199	6865.64
746.538	6891.4
746.877	6993.77
747.216	7069.93
747.556	7067.22
747.895	7123.03
748.234	7158.29
748.573	7200.77
748.911	7265.63
749.25	7225.4
749.589	7321.22
749.928	7419.97
750.267	7465.4
750.605	7568.22
750.944	7616.13
751.283	7650.93
751.621	7758.95
751.96	7858.38
752.298	7897.25
752.636	7978.6
752.975	8056.12
753.313	8184.7
753.651	8329.78
753.989	8344.24
754.327	8424.02
754.666	8554.86
755.004	8734.74
755.342	8866.26
755.679	8924.79
756.017	9012.47
756.355	9196.42
756.693	9303.99
757.031	9485.23
757.368	9597.77
757.706	9759.35
758.044	9917.76
758.381	10097.42
758.719	10169.51
759.056	10407.01
759.394	10492.89
759.731	10596.39
760.068	10773.11
760.405	10918.87
760.743	11092.65
761.08	11332.64
761.417	11501.9
761.754	11640.65
762.091	11799.07
762.428	12062.56
762.765	12101.21
763.102	12280.19
763.438	12523.79
763.775	12674.75
764.112	12837.69
764.449	13087.62
764.785	13152.25
765.122	13298.01
765.458	13471.34
765.795	13613.94
766.131	13779.36
766.467	13919.01
766.804	14159.68
767.14	14326.69
767.476	14457.53
767.812	14444.65
768.148	14724.64
