Data from hue_240_FLMS001491_00002.txt Node
Date: Tue Feb 07 16:34:58 GMT 2017
User: dcchb
Spectrometer: FLMS00149
Trigger mode: 0
Integration Time (sec): 2.000000E-2
Scans to average: 10
Electric dark correction enabled: true
Nonlinearity correction enabled: false
Boxcar width: 0
XAxis mode: Wavelengths
Number of Pixels in Spectrum: 2048
>>>>>Begin Spectral Data<<<<<
341.393	-8.36
341.776	-8.36
342.16	-8.36
342.543	-50.62
342.927	-78.42
343.31	-55.37
343.693	-64.41
344.077	-92.2
344.46	-68.02
344.843	-73.22
345.226	-36.38
345.61	-18.53
345.993	-18.76
346.376	-7.01
346.759	16.27
347.142	31.19
347.525	48.36
347.908	54.91
348.291	70.73
348.674	94.46
349.057	117.96
349.44	144.4
349.823	148.47
350.206	149.83
350.588	194.57
350.971	195.93
351.354	218.75
351.737	237.06
352.119	245.19
352.502	261.01
352.884	277.96
353.267	275.92
353.65	303.04
354.032	283.16
354.414	293.1
354.797	296.49
355.179	308.24
355.562	323.83
355.944	337.84
356.326	331.06
356.709	333.32
357.091	331.29
357.473	345.98
357.855	361.12
358.238	338.3
358.62	354.57
359.002	314.57
359.384	334.91
359.766	347.79
360.148	320.9
360.53	339.88
360.912	333.32
361.294	341.46
361.676	343.49
362.057	322.25
362.439	317.51
362.821	331.74
363.203	312.08
363.584	325.64
363.966	313.21
364.348	310.27
364.729	322.03
365.111	296.94
365.493	319.31
365.874	324.06
366.256	325.64
366.637	298.98
367.019	318.18
367.4	305.08
367.781	307.11
368.163	307.34
368.544	310.95
368.925	316.38
369.306	316.38
369.688	300.33
370.069	287
370.45	312.08
370.831	313.21
371.212	323.16
371.593	312.99
371.974	310.05
372.355	307.79
372.736	310.5
373.117	305.08
373.498	311.86
373.879	321.8
374.26	308.47
374.641	313.44
375.021	307.34
375.402	305.08
375.783	293.1
376.163	312.31
376.544	331.29
376.925	334.91
377.305	333.78
377.686	316.83
378.066	300.33
378.447	310.95
378.827	313.89
379.208	306.66
379.588	325.87
379.968	316.83
380.349	331.74
380.729	332.19
381.109	335.58
381.489	318.18
381.87	338.07
382.25	324.96
382.63	311.63
383.01	340.1
383.39	342.59
383.77	350.5
384.15	336.71
384.53	331.74
384.91	344.4
385.29	345.53
385.67	341.01
386.049	328.13
386.429	341.01
386.809	354.11
387.189	356.83
387.568	338.97
387.948	359.76
388.328	362.7
388.707	354.11
389.087	360.22
389.466	359.09
389.846	351.18
390.225	378.75
390.605	361.8
390.984	376.26
391.363	352.31
391.743	365.19
392.122	354.34
392.501	358.63
392.881	356.15
393.26	368.58
393.639	378.52
394.018	360.89
394.397	384.62
394.776	376.49
395.155	371.06
395.534	366.32
395.913	389.37
396.292	373.55
396.671	390.05
397.05	389.82
397.429	390.95
397.808	391.4
398.186	399.76
398.565	384.62
398.944	386.88
399.323	384.4
399.701	380.78
400.08	396.6
400.458	420.1
400.837	423.04
401.215	409.93
401.594	415.13
401.972	428.92
402.351	412.42
402.729	406.09
403.107	429.14
403.486	425.98
403.864	425.53
404.242	421.01
404.62	421.01
404.999	425.98
405.377	440.21
405.755	438.63
406.133	449.71
406.511	443.38
406.889	469.59
407.267	472.76
407.645	466.88
408.023	461.68
408.401	473.43
408.779	462.81
409.156	491.96
409.534	484.73
409.912	500.33
410.29	489.48
410.667	499.2
411.045	507.11
411.422	511.4
411.8	514.34
412.178	512.53
412.555	541.45
412.933	541
413.31	545.52
413.687	543.94
414.065	554.11
414.442	545.3
414.819	552.75
415.197	576.93
415.574	594.33
415.951	577.61
416.328	595.92
416.705	574.67
417.082	605.63
417.46	608.8
417.837	614.22
418.214	609.7
418.591	624.84
418.967	643.6
419.344	623.71
419.721	640.66
420.098	661.45
420.475	650.83
420.852	645.63
421.228	673.43
421.605	682.02
421.982	692.19
422.358	691.96
422.735	690.83
423.111	692.19
423.488	741
423.864	733.77
424.241	761.11
424.617	753.88
424.994	786.19
425.37	759.3
425.746	773.99
426.123	795.69
426.499	784.16
426.875	784.39
427.251	813.54
427.627	846.53
428.003	829.81
428.379	863.93
428.756	863.71
429.132	831.62
429.507	859.41
429.883	896.7
430.259	897.15
430.635	910.26
431.011	894.67
431.387	947.77
431.763	956.13
432.138	962.69
432.514	954.33
432.89	971.95
433.265	982.12
433.641	991.61
434.016	1007.66
434.392	1035.45
434.767	1039.07
435.143	1062.12
435.518	1060.09
435.894	1074.32
436.269	1084.94
436.644	1112.51
437.02	1077.94
437.395	1129.46
437.77	1151.16
438.145	1174.66
438.52	1169.23
438.895	1180.31
439.271	1174.43
439.646	1224.83
440.021	1239.06
440.395	1242.68
440.77	1247.2
441.145	1249.23
441.52	1272.73
441.895	1347.08
442.27	1308.44
442.645	1302.56
443.019	1360.87
443.394	1340.3
443.769	1377.36
444.143	1359.96
444.518	1361.55
444.892	1392.96
445.267	1392.51
445.641	1446.52
446.016	1418.95
446.39	1441.32
446.764	1447.19
447.139	1435.67
447.513	1455.55
447.887	1425.95
448.262	1413.75
448.636	1454.43
449.01	1490.36
449.384	1504.37
449.758	1511.6
450.132	1526.74
450.506	1522.67
450.88	1554.76
451.254	1558.15
451.628	1604.7
452.002	1571.71
452.376	1607.64
452.75	1597.25
453.123	1619.17
453.497	1643.8
453.871	1637.02
454.244	1693.29
454.618	1697.13
454.992	1716.79
455.365	1749.11
455.739	1768.32
456.112	1740.52
456.486	1761.99
456.859	1775.09
457.232	1823.45
457.606	1848.31
457.979	1846.51
458.352	1842.44
458.725	1883.11
459.099	1914.75
459.472	1925.15
459.845	1967.63
460.218	1969.44
460.591	1987.52
460.964	1962.21
461.337	1998.14
461.71	2029.78
462.083	2071.36
462.456	2108.42
462.829	2075.43
463.201	2109.1
463.574	2122.2
463.947	2177.34
464.32	2221.64
464.692	2225.7
465.065	2217.34
465.438	2284.91
465.81	2333.05
466.183	2314.06
466.555	2333.95
466.928	2340.73
467.3	2352.48
467.672	2378.24
468.045	2443.33
468.417	2469.54
468.789	2469.54
469.161	2521.52
469.534	2560.61
469.906	2600.38
470.278	2608.52
470.65	2648.52
471.022	2658.91
471.394	2707.05
471.766	2724.67
472.138	2743.2
472.51	2826.14
472.882	2828.85
473.253	2873.37
473.625	2924.22
473.997	2975.06
474.369	2981.16
474.74	2996.76
475.112	3026.36
475.484	3048.96
475.855	3141.61
476.227	3142.97
476.598	3228.84
476.97	3283.98
477.341	3308.84
477.713	3367.82
478.084	3377.76
478.455	3445.56
478.827	3481.72
479.198	3605.55
479.569	3561.04
479.94	3636.29
480.311	3664.31
480.682	3702.73
481.053	3803.52
481.424	3843.97
481.795	3928.94
482.166	3959.9
482.537	3995.15
482.908	4052.55
483.279	4065.2
483.65	4149.5
484.021	4258.65
484.391	4260.23
484.762	4274.24
485.133	4306.78
485.503	4361.47
485.874	4474.68
486.244	4462.93
486.615	4551.97
486.985	4625.42
487.356	4689.14
487.726	4700.22
488.097	4798.52
488.467	4809.37
488.837	4906.31
489.207	4982.47
489.578	4984.05
489.948	5056.36
490.318	5080.54
490.688	5137.72
491.058	5143.14
491.428	5276.7
491.798	5259.75
492.168	5365.28
492.538	5337.94
492.908	5402.8
493.278	5468.1
493.648	5495.9
494.017	5544.49
494.387	5595.56
494.757	5605.05
495.126	5690.47
495.496	5652.51
495.866	5710.58
496.235	5729.57
496.605	5828.1
496.974	5791.94
497.344	5832.16
497.713	5888.43
498.082	5883.69
498.452	5958.26
498.821	5960.07
499.19	6017.92
499.559	6078.94
499.928	6085.26
500.298	6104.02
500.667	6172.72
501.036	6146.51
501.405	6218.37
501.774	6198.93
502.143	6217.46
502.512	6247.97
502.88	6238.71
503.249	6270.12
503.618	6352.83
503.987	6372.04
504.356	6342.21
504.724	6387.85
505.093	6376.33
505.462	6386.72
505.83	6470.11
506.199	6468.98
506.567	6533.16
506.936	6496.78
507.304	6586.95
507.672	6639.83
508.041	6603.67
508.409	6639.6
508.777	6653.16
509.145	6755.3
509.514	6741.07
509.882	6737
510.25	6741.52
510.618	6790.1
510.986	6818.35
511.354	6817.67
511.722	6834.62
512.09	6920.04
512.458	6860.61
512.826	6967.27
513.193	6930.21
513.561	6935.64
513.929	6954.85
514.297	7027.61
514.664	7011.34
515.032	7008.18
515.4	7073.26
515.767	7052.92
516.135	7043.2
516.502	7051.34
516.869	7150.32
517.237	7121.39
517.604	7116.42
517.972	7165.24
518.339	7128.63
518.706	7155.74
519.073	7185.35
519.44	7215.86
519.808	7226.7
520.175	7241.39
520.542	7275.74
520.909	7238
521.276	7294.05
521.643	7335.4
522.009	7336.98
522.376	7374.5
522.743	7379.47
523.11	7429.41
523.477	7469.63
523.843	7517.09
524.21	7501.05
524.577	7519.12
524.943	7487.49
525.31	7552.34
525.676	7588.95
526.043	7662.17
526.409	7599.35
526.776	7663.98
527.142	7656.97
527.508	7703.75
527.874	7703.75
528.241	7680.25
528.607	7739.68
528.973	7768.38
529.339	7679.57
529.705	7807.7
530.071	7750.76
530.437	7715.05
530.803	7842.28
531.169	7824.65
531.535	7795.28
531.901	7796.18
532.267	7830.98
532.632	7842.73
532.998	7843.64
533.364	7863.97
533.73	7865.78
534.095	7864.88
534.461	7853.35
534.826	7841.15
535.192	7840.47
535.557	7889.51
535.923	7850.19
536.288	7851.77
536.653	7893.8
537.019	7886.8
537.384	7794.37
537.749	7855.84
538.114	7809.51
538.479	7816.97
538.845	7859.45
539.21	7802.96
539.575	7808.38
539.94	7802.73
540.305	7831.21
540.67	7833.47
541.034	7828.49
541.399	7791.89
541.764	7786.01
542.129	7776.97
542.494	7784.43
542.858	7794.82
543.223	7762.96
543.587	7748.5
543.952	7735.84
544.316	7766.58
544.681	7746.01
545.045	7723.64
545.41	7731.32
545.774	7732.68
546.138	7684.77
546.503	7761.6
546.867	7672.11
547.231	7749.63
547.595	7720.47
547.959	7712.57
548.324	7648.39
548.688	7722.51
549.052	7723.64
549.416	7677.54
549.779	7636.41
550.143	7659.46
550.507	7669.63
550.871	7664.21
551.235	7668.05
551.599	7653.36
551.962	7631.66
552.326	7650.87
552.689	7717.54
553.053	7605.22
553.417	7674.37
553.78	7672.34
554.143	7614.26
554.507	7584.43
554.87	7624.21
555.234	7674.6
555.597	7643.19
555.96	7674.15
556.323	7625.11
556.686	7654.26
557.05	7738.33
557.413	7706.24
557.776	7644.77
558.139	7707.82
558.502	7699.46
558.865	7685.9
559.228	7817.2
559.59	7748.5
559.953	7785.11
560.316	7813.13
560.679	7800.92
561.041	7780.81
561.404	7814.94
561.767	7912.56
562.129	7806.8
562.492	7872.79
562.854	7859
563.217	7844.09
563.579	7892.67
563.941	7929.51
564.304	7888.38
564.666	7922.28
565.028	7994.82
565.39	7991.88
565.753	7979
566.115	8040.69
566.477	8011.99
566.839	8022.39
567.201	8064.42
567.563	8065.1
567.925	8101.26
568.287	8092.89
568.648	8064.87
569.01	8140.12
569.372	8172.44
569.734	8145.32
570.095	8169.95
570.457	8199.56
570.819	8195.26
571.18	8230.07
571.542	8290.4
571.903	8345.09
572.265	8300.8
572.626	8320.91
572.987	8322.27
573.349	8286.79
573.71	8329.05
574.071	8378.76
574.432	8368.37
574.794	8504.18
575.155	8493.56
575.516	8432.09
575.877	8430.29
576.238	8468.93
576.599	8550.06
576.96	8595.48
577.32	8587.34
577.681	8578.31
578.042	8573.79
578.403	8529.49
578.763	8659.89
579.124	8603.16
579.485	8633.45
579.845	8640.45
580.206	8708.7
580.566	8635.93
580.927	8676.61
581.287	8731.07
581.648	8774.01
582.008	8826.43
582.368	8824.85
582.728	8815.36
583.089	8831.86
583.449	8751.41
583.809	8810.39
584.169	8811.29
584.529	8831.41
584.889	8834.34
585.249	8788.47
585.609	8750.73
585.969	8839.99
586.329	8951.18
586.688	8876.83
587.048	8824.63
587.408	8917.73
587.768	8914.12
588.127	8919.77
588.487	8869.6
588.846	8937.62
589.206	8909.82
589.565	8897.17
589.925	8972.19
590.284	8962.7
590.643	8994.34
591.003	9066.43
591.362	9015.58
591.721	9040.21
592.08	9036.82
592.44	9071.4
592.799	9035.24
593.158	9001.57
593.517	8988.46
593.876	9039.08
594.235	9055.58
594.593	9089.48
594.952	9124.73
595.311	9113.88
595.67	9098.29
596.029	9115.01
596.387	9180.1
596.746	9170.83
597.104	9092.19
597.463	9165.41
597.822	9186.88
598.18	9141.91
598.538	9117.5
598.897	9206.31
599.255	9150.04
599.613	9260.55
599.972	9166.09
600.33	9241.56
600.688	9224.16
601.046	9213.32
601.404	9224.84
601.762	9235.69
602.12	9292.19
602.478	9265.07
602.836	9291.73
603.194	9263.03
603.552	9162.47
603.91	9174.67
604.268	9273.2
604.625	9223.03
604.983	9286.31
605.341	9198.63
605.698	9269.59
606.056	9255.35
606.413	9232.75
606.771	9347.55
607.128	9319.98
607.485	9315.24
607.843	9287.44
608.2	9377.15
608.557	9378.06
608.914	9341.9
609.272	9429.81
609.629	9331.05
609.986	9430.94
610.343	9388.23
610.7	9427.55
611.057	9378.06
611.414	9395.01
611.771	9486.76
612.127	9447.21
612.484	9425.29
612.841	9460.99
613.198	9449.24
613.554	9468.68
613.911	9445.4
614.267	9490.15
614.624	9519.07
614.98	9502.12
615.337	9554.78
615.693	9509.35
616.05	9533.08
616.406	9536.02
616.762	9606.3
617.118	9504.16
617.475	9557.26
617.831	9566.3
618.187	9576.25
618.543	9533.99
618.899	9635.45
619.255	9580.77
619.611	9573.99
619.967	9669.8
620.323	9695.11
620.678	9623.7
621.034	9649.69
621.39	9640.42
621.746	9595.91
622.101	9722.46
622.457	9629.35
622.812	9616.24
623.168	9624.15
623.523	9661.44
623.879	9742.79
624.234	9609.01
624.589	9679.97
624.945	9639.97
625.3	9646.75
625.655	9675
626.01	9686.3
626.365	9646.98
626.72	9581.67
627.075	9607.43
627.43	9590.93
627.785	9555.91
628.14	9630.03
628.495	9557.71
628.85	9546.64
629.205	9574.44
629.559	9639.75
629.914	9600.2
630.269	9540.77
630.623	9529.69
630.978	9534.44
631.332	9541.9
631.687	9533.76
632.041	9510.03
632.396	9574.44
632.75	9524.95
633.104	9476.14
633.459	9489.92
633.813	9492.86
634.167	9397.49
634.521	9469.81
634.875	9511.84
635.229	9503.03
635.583	9403.59
635.937	9403.59
636.291	9377.15
636.645	9366.31
636.999	9321.79
637.352	9393.43
637.706	9389.81
638.06	9356.82
638.413	9361.34
638.767	9367.66
639.121	9314.78
639.474	9324.05
639.828	9305.97
640.181	9274.78
640.534	9348.23
640.888	9290.15
641.241	9253.09
641.594	9243.6
641.947	9262.13
642.301	9193.66
642.654	9276.14
643.007	9250.15
643.36	9176.93
643.713	9170.61
644.066	9206.76
644.419	9174.67
644.771	9117.5
645.124	8999.54
645.477	8993.21
645.83	8974.91
646.182	8928.13
646.535	8862.59
646.888	8951.18
647.24	8925.19
647.593	8949.6
647.945	8916.6
648.298	8849.26
648.65	8843.16
649.002	8800.67
649.355	8869.15
649.707	8847.23
650.059	8941.91
650.411	9004.51
650.763	9003.83
651.115	9066.43
651.467	9031.85
651.819	9102.13
652.171	9077.73
652.523	9057.61
652.875	9089.25
653.227	8988.92
653.578	9081.12
653.93	9024.85
654.282	9047.9
654.633	8979.42
654.985	9005.64
655.337	9025.98
655.688	8953.21
656.039	9080.89
656.391	8956.83
656.742	8936.94
657.094	9012.64
657.445	8996.37
657.796	8923.83
658.147	8998.41
658.498	9001.57
658.849	9035.92
659.2	9015.13
659.551	8938.75
659.902	8995.02
660.253	8990.5
660.604	9027.79
660.955	8919.77
661.306	9094
661.656	8959.54
662.007	8969.03
662.358	8995.47
662.708	9021.01
663.059	8999.76
663.409	8961.57
663.76	9045.86
664.11	8982.36
664.461	8997.28
664.811	9051.06
665.161	8987.56
665.511	8999.99
665.862	9002.93
666.212	9002.93
666.562	9023.94
666.912	9027.56
667.262	9017.62
667.612	8994.79
667.962	9012.42
668.312	8985.98
668.662	9061.23
669.011	8986.88
669.361	8908.24
669.711	8987.79
670.06	8951.63
670.41	8943.95
670.76	8944.85
671.109	8977.84
671.459	8953.44
671.808	8959.09
672.157	8932.65
672.507	8881.8
672.856	8903.95
673.205	8866.21
673.554	8964.96
673.904	8828.24
674.253	8859.88
674.602	8860.11
674.951	8793.22
675.3	8725.87
675.649	8888.13
675.998	8901.01
676.346	8878.86
676.695	8881.8
677.044	8822.82
677.393	8840.22
677.741	8823.72
678.09	8775.81
678.438	8856.72
678.787	8799.77
679.135	8839.99
679.484	8693.33
679.832	8769.03
680.181	8720
680.529	8790.28
680.877	8717.51
681.225	8654.24
681.573	8715.93
681.922	8644.29
682.27	8612.65
682.618	8684.29
682.966	8626.44
683.314	8680.45
683.661	8591.64
684.009	8549.61
684.357	8546.67
684.705	8538.98
685.053	8524.3
685.4	8545.54
685.748	8487.01
686.095	8425.77
686.443	8398.88
686.79	8416.05
687.138	8448.37
687.485	8422.83
687.832	8404.98
688.18	8383.28
688.527	8356.84
688.874	8327.24
689.221	8277.07
689.568	8295.38
689.915	8239.33
690.262	8256.51
690.609	8228.71
690.956	8235.72
691.303	8163.85
691.65	8137.64
691.997	8173.8
692.344	8124.31
692.69	8052.22
693.037	8066.91
693.383	7998.43
693.73	7998.43
694.077	7957.98
694.423	7986.68
694.769	7931.09
695.116	7884.09
695.462	7844.09
695.808	7891.32
696.155	7886.35
696.501	7785.56
696.847	7817.65
697.193	7701.94
697.539	7790.3
697.885	7693.13
698.231	7666.47
698.577	7616.07
698.923	7645.9
699.269	7572.91
699.614	7553.25
699.96	7522.29
700.306	7539.24
700.651	7549.86
700.997	7491.55
701.342	7488.16
701.688	7411.33
702.033	7395.06
702.379	7379.69
702.724	7352.8
703.069	7416.98
703.415	7272.58
703.76	7333.59
704.105	7319.36
704.45	7281.16
704.795	7231
705.14	7207.72
705.485	7201.84
705.83	7119.13
706.175	7175.63
706.52	7158.91
706.865	7098.12
707.209	7118.91
707.554	7038.68
707.899	7073.49
708.243	7021.96
708.588	7014.5
708.932	6949.87
709.277	6976.31
709.621	6960.04
709.966	6899.71
710.31	6920.72
710.654	6874.17
710.998	6922.76
711.342	6912.59
711.687	6849.09
712.031	6857.22
712.375	6802.08
712.719	6871.23
713.063	6797.79
713.407	6807.28
713.75	6805.7
714.094	6746.49
714.438	6697
714.782	6752.14
715.125	6692.25
715.469	6762.53
715.812	6674.85
716.156	6684.34
716.499	6643.22
716.843	6614.06
717.186	6678.47
717.53	6641.18
717.873	6642.99
718.216	6612.71
718.559	6614.06
718.902	6558.02
719.246	6569.54
719.589	6597.34
719.932	6608.87
720.275	6532.71
720.617	6566.38
720.96	6547.85
721.303	6537.23
721.646	6571.8
721.989	6560.73
722.331	6499.49
722.674	6501.07
723.016	6524.12
723.359	6505.59
723.701	6526.61
724.044	6497
724.386	6410.45
724.729	6485.71
725.071	6455.65
725.413	6509.66
725.755	6442.99
726.097	6425.59
726.439	6384.01
726.782	6391.02
727.124	6437.8
727.465	6399.61
727.807	6355.31
728.149	6388.76
728.491	6356.44
728.833	6445.03
729.175	6345.6
729.516	6360.74
729.858	6365.26
730.199	6364.35
730.541	6349.21
730.882	6367.52
731.224	6383.33
731.565	6334.75
731.906	6332.26
732.248	6356.22
732.589	6384.69
732.93	6314.18
733.271	6375.2
733.612	6318.7
733.953	6327.07
734.294	6295.43
734.635	6313.51
734.976	6354.86
735.317	6348.76
735.658	6314.18
735.999	6294.3
736.339	6320.51
736.68	6353.96
737.021	6326.84
737.361	6301.08
737.702	6327.29
738.042	6336.78
738.383	6308.53
738.723	6339.72
739.063	6352.83
739.404	6413.39
739.744	6400.74
740.084	6341.3
740.424	6348.76
740.764	6334.3
741.104	6382.21
741.444	6376.56
741.784	6406.39
742.124	6400.51
742.464	6396.44
742.804	6377.69
743.143	6405.03
743.483	6435.09
743.823	6408.19
744.162	6427.85
744.502	6476.21
744.841	6434.63
745.181	6520.51
745.52	6531.81
745.86	6549.21
746.199	6517.57
746.538	6516.21
746.877	6626.27
747.216	6647.96
747.556	6591.24
747.895	6667.4
748.234	6662.42
748.573	6675.76
748.911	6750.33
749.25	6795.98
749.589	6817.22
749.928	6841.85
750.267	6898.58
750.605	6953.94
750.944	6974.05
751.283	7024.67
751.621	7158.46
751.96	7083.2
752.298	7177.44
752.636	7209.75
752.975	7293.37
753.313	7368.17
753.651	7388.51
753.989	7401.16
754.327	7531.78
754.666	7557.54
755.004	7684.32
755.342	7755.28
755.679	7863.75
756.017	7875.05
756.355	7930.86
756.693	8015.83
757.031	8176.51
757.368	8217.41
757.706	8282.27
758.044	8413.11
758.381	8480.45
758.719	8601.81
759.056	8669.38
759.394	8718.64
759.731	8786.66
760.068	8932.42
760.405	9001.35
760.743	9123.38
761.08	9214.45
761.417	9341.9
761.754	9378.74
762.091	9518.85
762.428	9620.76
762.765	9644.27
763.102	9805.17
763.438	9942.79
763.775	9914.99
764.112	10083.58
764.449	10214.87
764.785	10196.34
765.122	10365.6
765.458	10477.69
765.795	10480.63
766.131	10608.99
766.467	10706.16
766.804	10750
767.14	10796.55
767.476	10897.79
767.812	10954.97
768.148	11066.83
768.485	11142.76
768.821	11194.06
769.157	11226.82
769.492	11301.17
