Data from hue_80_FLMS001491_99.txt Node
Date: Mon Feb 06 15:24:05 GMT 2017
User: dcchb
Spectrometer: FLMS00149
Trigger mode: 0
Integration Time (sec): 2.000000E-2
Scans to average: 10
Electric dark correction enabled: true
Nonlinearity correction enabled: false
Boxcar width: 0
XAxis mode: Wavelengths
Number of Pixels in Spectrum: 2048
>>>>>Begin Spectral Data<<<<<
341.393	-15.85
341.776	-15.85
342.16	-15.85
342.543	-60.82
342.927	-76.64
343.31	-72.79
343.693	-64.89
344.077	-55.62
344.46	-53.13
344.843	-54.26
345.226	-34.6
345.61	-39.58
345.993	-28.73
346.376	2.23
346.759	5.85
347.142	30.03
347.525	49.46
347.908	56.69
348.291	67.31
348.674	82.68
349.057	109.35
349.44	127.65
349.823	140.76
350.206	157.26
350.588	180.08
350.971	207.42
351.354	230.93
351.737	242.45
352.119	243.36
352.502	267.08
352.884	267.54
353.267	266.63
353.65	270.7
354.032	300.3
354.414	295.56
354.797	305.5
355.179	310.92
355.562	317.48
355.944	322.22
356.326	338.49
356.709	320.87
357.091	332.17
357.473	329.45
357.855	338.49
358.238	338.49
358.62	352.28
359.002	350.02
359.384	313.18
359.766	344.14
360.148	352.73
360.53	358.83
360.912	320.19
361.294	320.87
361.676	335.33
362.057	330.58
362.439	320.42
362.821	345.05
363.203	310.7
363.584	323.58
363.966	338.95
364.348	306.18
364.729	331.94
365.111	300.53
365.493	330.13
365.874	313.41
366.256	317.03
366.637	319.29
367.019	313.64
367.4	312.73
367.781	324.71
368.163	300.3
368.544	317.93
368.925	316.57
369.306	319.74
369.688	319.06
370.069	298.49
370.45	295.33
370.831	299.85
371.212	324.48
371.593	309.34
371.974	300.3
372.355	314.54
372.736	303.01
373.117	295.56
373.498	309.34
373.879	321.55
374.26	312.05
374.641	290.59
375.021	322.45
375.402	314.54
375.783	319.51
376.163	314.77
376.544	322.68
376.925	332.62
377.305	323.35
377.686	323.81
378.066	316.35
378.447	332.84
378.827	319.74
379.208	319.51
379.588	335.78
379.968	345.5
380.349	324.26
380.729	323.35
381.109	312.96
381.489	324.48
381.87	348.89
382.25	343.24
382.63	350.7
383.01	363.35
383.39	350.47
383.77	362.45
384.15	359.51
384.53	336.91
384.91	341.43
385.29	331.49
385.67	346.86
386.049	359.74
386.429	338.72
386.809	340.53
387.189	364.03
387.568	345.5
387.948	351.6
388.328	346.4
388.707	362
389.087	371.49
389.466	366.74
389.846	366.97
390.225	362
390.605	369.91
390.984	369
391.363	365.39
391.743	367.65
392.122	381.2
392.501	371.04
392.881	387.53
393.26	356.57
393.639	374.43
394.018	380.75
394.397	376.91
394.776	380.3
395.155	398.38
395.534	382.79
395.913	390.24
396.292	377.36
396.671	380.3
397.05	406.74
397.429	397.02
397.808	401.54
398.186	398.38
398.565	431.37
398.944	389.79
399.323	402.22
399.701	402.67
400.08	382.56
400.458	397.93
400.837	397.7
401.215	413.29
401.594	412.16
401.972	404.03
402.351	411.49
402.729	398.83
403.107	416.01
403.486	414.65
403.864	405.61
404.242	413.75
404.62	413.07
404.999	416.23
405.377	431.6
405.755	423.46
406.133	440.41
406.511	429.34
406.889	446.29
407.267	453.07
407.645	424.82
408.023	440.19
408.401	440.41
408.779	437.02
409.156	444.03
409.534	444.93
409.912	443.35
410.29	465.72
410.667	445.84
411.045	465.95
411.422	458.72
411.8	463.01
412.178	479.28
412.555	484.25
412.933	478.15
413.31	465.04
413.687	491.26
414.065	481.99
414.442	500.3
414.819	490.13
415.197	508.43
415.574	519.05
415.951	509.11
416.328	512.5
416.705	496.91
417.082	508.21
417.46	520.18
417.837	536.23
418.214	539.84
418.591	539.39
418.967	537.58
419.344	538.04
419.721	539.62
420.098	535.78
420.475	547.3
420.852	580.75
421.228	528.77
421.605	556.79
421.982	560.41
422.358	554.08
422.735	539.84
423.111	574.87
423.488	579.39
423.864	567.64
424.241	590.46
424.617	579.17
424.994	596.34
425.37	561.54
425.746	603.12
426.123	587.3
426.499	569.67
426.875	598.83
427.251	595.44
427.627	610.8
428.003	630.01
428.379	624.81
428.756	626.4
429.132	635.66
429.507	631.37
429.883	647.86
430.259	654.19
430.635	648.77
431.011	667.52
431.387	676.34
431.763	684.93
432.138	675.21
432.514	686.51
432.89	701.42
433.265	691.48
433.641	715.66
434.016	709.33
434.392	712.95
434.767	719.73
435.143	723.12
435.518	732.38
435.894	741.42
436.269	761.76
436.644	729.67
437.02	744.81
437.395	754.75
437.77	766.05
438.145	787.3
438.52	783
438.895	777.35
439.271	771.48
439.646	801.98
440.021	794.3
440.395	819.61
440.77	795.88
441.145	800.4
441.52	816.45
441.895	841.08
442.27	799.5
442.645	841.53
443.019	853.51
443.394	846.5
443.769	857.12
444.143	844.92
444.518	892.15
444.892	872.04
445.267	874.53
445.641	863.23
446.016	886.28
446.39	901.87
446.764	884.92
447.139	880.17
447.513	896.45
447.887	895.54
448.262	926.05
448.636	935.09
449.01	942.32
449.384	935.54
449.758	932.15
450.132	958.36
450.506	940.74
450.88	958.14
451.254	971.25
451.628	990
452.002	981.64
452.376	994.97
452.75	993.17
453.123	992.71
453.497	1014.63
453.871	1037.01
454.244	1020.96
454.618	1057.57
454.992	1044.69
455.365	1058.02
455.739	1065.03
456.112	1079.72
456.486	1101.86
456.859	1082.43
457.232	1136.21
457.606	1137.34
457.979	1095.54
458.352	1156.1
458.725	1156.55
459.099	1190.9
459.472	1203.56
459.845	1206.04
460.218	1237.68
460.591	1250.56
460.964	1274.74
461.337	1252.37
461.71	1273.61
462.083	1308.19
462.456	1312.93
462.829	1335.3
463.201	1350.22
463.574	1362.87
463.947	1375.75
464.32	1391.57
464.692	1434.28
465.065	1432.25
465.438	1451.01
465.81	1463.44
466.183	1501.18
466.555	1528.29
466.928	1549.76
467.3	1536.43
467.672	1567.16
468.045	1592.25
468.417	1592.7
468.789	1652.13
469.161	1655.75
469.534	1668.18
469.906	1709.53
470.278	1779.59
470.65	1797.21
471.022	1832.69
471.394	1853.26
471.766	1888.74
472.138	1913.14
472.51	1981.39
472.882	2002.86
473.253	1988.85
473.625	2072.23
473.997	2111.55
474.369	2173.47
474.74	2194.04
475.112	2223.87
475.484	2295.73
475.855	2339.12
476.227	2408.27
476.598	2475.39
476.97	2472
477.341	2599.68
477.713	2617.08
478.084	2658.21
478.455	2767.13
478.827	2835.15
479.198	2893.91
479.569	2985.43
479.94	3062.49
480.311	3172.54
480.682	3198.98
481.053	3325.08
481.424	3436.27
481.795	3487.11
482.166	3587.67
482.537	3684.85
482.908	3762.58
483.279	3860.21
483.65	3947.89
484.021	4085.06
484.391	4188.56
484.762	4269.69
485.133	4358.05
485.503	4455.45
485.874	4593.3
486.244	4716.91
486.615	4827.87
486.985	4955.32
487.356	5114.87
487.726	5199.61
488.097	5339.27
488.467	5447.51
488.837	5632.82
489.207	5718.47
489.578	5944.22
489.948	5980.38
490.318	6143.31
490.688	6216.98
491.058	6453.14
491.428	6523.42
491.798	6671.21
492.168	6904.2
492.538	7013.12
492.908	7127.69
493.278	7322.04
493.648	7376.95
494.017	7620.79
494.387	7738.75
494.757	7849.93
495.126	7994.11
495.496	8050.38
495.866	8279.98
496.235	8419.19
496.605	8518.39
496.974	8648.33
497.344	8761.55
497.713	8903.92
498.082	9050.81
498.452	9192.27
498.821	9301.42
499.19	9416.9
499.559	9541.19
499.928	9688.98
500.298	9792.03
500.667	9991.57
501.036	9953.83
501.405	10164.22
501.774	10216.43
502.143	10383.65
502.512	10418.91
502.88	10663.19
503.249	10690.54
503.618	10836.75
503.987	10937.54
504.356	11079.91
504.724	11151.32
505.093	11277.64
505.462	11338.43
505.83	11402.38
506.199	11558.99
506.567	11689.38
506.936	11769.15
507.304	11947.91
507.672	12010.28
508.041	12155.13
508.409	12277.39
508.777	12377.05
509.145	12418.85
509.514	12523.94
509.882	12584.95
510.25	12686.42
510.618	12788.34
510.986	12822.69
511.354	12935
511.722	13125.5
512.09	13261.77
512.458	13224.48
512.826	13325.95
513.193	13406.17
513.561	13504.48
513.929	13556.23
514.297	13679.16
514.664	13737.01
515.032	13808.42
515.4	13944.01
515.767	13999.38
516.135	14027.4
516.502	14043.22
516.869	14246.38
517.237	14342.19
517.604	14266.26
517.972	14426.49
518.339	14426.94
518.706	14617.67
519.073	14614.95
519.44	14702.18
519.808	14803.42
520.175	14840.26
520.542	14963.65
520.909	15070.31
521.276	14952.8
521.643	15189.63
522.009	15350.98
522.376	15342.17
522.743	15390.75
523.11	15583.06
523.477	15616.96
523.843	15652.44
524.21	15817.41
524.577	15940.8
524.943	15907.35
525.31	15981.47
525.676	16085.88
526.043	16199.77
526.409	16208.81
526.776	16330.84
527.142	16341.01
527.508	16448.13
527.874	16548.46
528.241	16515.24
528.607	16536.03
528.973	16667.56
529.339	16586.88
529.705	16736.03
530.071	16849.47
530.437	16891.73
530.803	16986.87
531.169	17058.05
531.535	16924.05
531.901	16891.05
532.267	17059.41
532.632	17104.61
532.998	17040.2
533.364	17202.91
533.73	17178.05
534.095	17221.89
534.461	17267.99
534.826	17317.26
535.192	17329.23
535.557	17415.56
535.923	17326.97
536.288	17341.44
536.653	17439.06
537.019	17325.62
537.384	17361.32
537.749	17464.37
538.114	17364.94
538.479	17457.14
538.845	17568.1
539.21	17426.41
539.575	17420.08
539.94	17453.75
540.305	17501.21
540.67	17571.49
541.034	17509.79
541.399	17550.7
541.764	17482
542.129	17580.3
542.494	17461.43
542.858	17558.15
543.223	17536.69
543.587	17508.66
543.952	17420.98
544.316	17555.44
544.681	17545.5
545.045	17536.01
545.41	17570.36
545.774	17506.18
546.138	17511.15
546.503	17546.86
546.867	17507.31
547.231	17528.32
547.595	17555.44
547.959	17531.94
548.324	17488.33
548.688	17509.79
549.052	17476.35
549.416	17529.45
549.779	17514.31
550.143	17474.54
550.507	17513.64
550.871	17631.15
551.235	17456.69
551.599	17590.47
551.962	17599.51
552.326	17572.39
552.689	17569.23
553.053	17493.3
553.417	17564.93
553.78	17613.29
554.143	17521.54
554.507	17614.2
554.87	17564.71
555.234	17701.88
555.597	17643.58
555.96	17594.99
556.323	17674.99
556.686	17603.8
557.05	17709.56
557.413	17773.74
557.776	17736.68
558.139	17700.98
558.502	17678.38
558.865	17718.38
559.228	17867.98
559.59	17784.14
559.953	17799.5
560.316	17940.07
560.679	17990.23
561.041	18089.67
561.404	18093.51
561.767	18112.04
562.129	18070.01
562.492	18227.52
562.854	18110.23
563.217	18101.42
563.579	18211.24
563.941	18241.98
564.304	18299.6
564.666	18354.07
565.028	18332.6
565.39	18501.18
565.753	18455.76
566.115	18542.08
566.477	18517.22
566.839	18618.24
567.201	18633.15
567.563	18639.26
567.925	18627.73
568.287	18729.87
568.648	18652.36
569.01	18771.23
569.372	18869.98
569.734	18766.48
570.095	18921.51
570.457	18879.93
570.819	18932.58
571.18	18923.77
571.542	19115.18
571.903	19002.41
572.265	19035.86
572.626	19056.87
572.987	19130.32
573.349	19123.31
573.71	19180.71
574.071	19176.87
574.432	19279.92
574.794	19386.13
575.155	19255.51
575.516	19152.69
575.877	19299.13
576.238	19397.65
576.599	19433.81
576.96	19299.8
577.32	19449.63
577.681	19485.11
578.042	19509.06
578.403	19447.37
578.763	19439.91
579.124	19495.28
579.485	19558.78
579.845	19634.71
580.206	19468.16
580.566	19536.41
580.927	19470.87
581.287	19534.83
581.648	19405.34
582.008	19581.15
582.368	19490.08
582.728	19484.66
583.089	19509.29
583.449	19364.89
583.809	19556.97
584.169	19459.8
584.529	19432.46
584.889	19561.49
585.249	19432.46
585.609	19399.69
585.969	19550.42
586.329	19403.98
586.688	19427.03
587.048	19496.86
587.408	19391.1
587.768	19389.52
588.127	19436.52
588.487	19444.43
588.846	19571.89
589.206	19422.29
589.565	19411.66
589.925	19483.98
590.284	19379.58
590.643	19481.04
591.003	19391.33
591.362	19459.12
591.721	19444.66
592.08	19456.64
592.44	19493.24
592.799	19432.91
593.158	19359.01
593.517	19415.05
593.876	19385.22
594.235	19406.24
594.593	19326.92
594.952	19392.46
595.311	19230.65
595.67	19364.66
596.029	19472.91
596.387	19422.06
596.746	19491.89
597.104	19374.83
597.463	19393.36
597.822	19422.74
598.18	19398.78
598.538	19371.21
598.897	19478.1
599.255	19303.19
599.613	19528.05
599.972	19437.65
600.33	19404.21
600.688	19459.57
601.046	19464.54
601.404	19512
601.762	19491.89
602.12	19626.12
602.478	19535.5
602.836	19530.98
603.194	19316.07
603.552	19497.31
603.91	19345.23
604.268	19421.38
604.625	19363.98
604.983	19521.94
605.341	19406.92
605.698	19552.23
606.056	19448.73
606.413	19510.19
606.771	19577.31
607.128	19550.19
607.485	19399.01
607.843	19461.61
608.2	19580.02
608.557	19576.41
608.914	19598.1
609.272	19716.97
609.629	19652.34
609.986	19743.18
610.343	19706.35
610.7	19765.33
611.057	19783.63
611.414	19806.91
611.771	19818.43
612.127	19826.12
612.484	19864.08
612.841	19940.01
613.198	19779.56
613.554	19791.09
613.911	19924.65
614.267	19895.49
614.624	19834.03
614.98	19899.11
615.337	20030.41
615.693	19948.6
616.05	19897.98
616.406	20068.6
616.762	20100.46
617.118	20046.22
617.475	20080.57
617.831	20093.68
618.187	20043.29
618.543	20040.8
618.899	20181.59
619.255	20161.25
619.611	20126.45
619.967	20272.21
620.323	20311.75
620.678	20184.07
621.034	20120.35
621.39	20078.99
621.746	20142.49
622.101	20381.36
622.457	20123.06
622.812	20167.13
623.168	20320.34
623.523	20298.2
623.879	20348.82
624.234	20152.66
624.589	20190.4
624.945	20167.8
625.3	20229.95
625.655	20304.3
626.01	20274.24
626.365	20218.42
626.72	20248.48
627.075	20262.72
627.43	20263.39
627.785	20073.57
628.14	20316.05
628.495	20188.37
628.85	20176.39
629.205	20070.18
629.559	20262.26
629.914	20102.95
630.269	20257.07
630.623	20293.22
630.978	20151.08
631.332	20214.58
631.687	20141.59
632.041	20000.58
632.396	20162.61
632.75	19995.38
633.104	20149.72
633.459	20093.23
633.813	20021.14
634.167	20041.03
634.521	19929.39
634.875	19982.72
635.229	20007.58
635.583	19943.63
635.937	19858.21
636.291	19865.89
636.645	19845.78
636.999	19804.42
637.352	19812.78
637.706	19710.19
638.06	19771.66
638.413	19711.54
638.767	19726.01
639.121	19774.14
639.474	19572.34
639.828	19623.18
640.181	19809.39
640.534	19782.05
640.888	19548.16
641.241	19487.82
641.594	19529.63
641.947	19590.42
642.301	19502.74
642.654	19587.48
643.007	19573.92
643.36	19526.69
643.713	19557.88
644.066	19586.35
644.419	19434.04
644.771	19331.67
645.124	19213.93
645.477	19189.75
645.83	18994.27
646.182	18891
646.535	18834.96
646.888	18897.55
647.24	18806.03
647.593	18913.82
647.945	18889.19
648.298	18802.42
648.65	18825.92
649.002	18634.96
649.355	18789.08
649.707	18780.04
650.059	18849.42
650.411	19022.97
650.763	19076.98
651.115	19325.34
651.467	19301.16
651.819	19200.82
652.171	19271.56
652.523	19157.43
652.875	19190.2
653.227	19119.47
653.578	19220.71
653.93	19142.97
654.282	19125.57
654.633	19068.62
654.985	19239.01
655.337	19247.83
655.688	19245.12
656.039	19265.23
656.391	19177.77
656.742	19159.69
657.094	19107.27
657.445	19160.15
657.796	19188.17
658.147	19154.27
658.498	19158.56
658.849	19142.29
659.2	19146.59
659.551	19112.46
659.902	19256.19
660.253	19222.29
660.604	19257.77
660.955	19169.19
661.306	19270.65
661.656	19192.24
662.007	19197.66
662.358	19245.12
662.708	19206.25
663.059	19145.68
663.409	19140.71
663.76	19290.09
664.11	19175.29
664.461	19222.29
664.811	19205.34
665.161	19170.77
665.511	19210.99
665.862	19187.49
666.212	19262.29
666.562	19267.26
666.912	19251.22
667.262	19192.01
667.612	19220.94
667.962	19198.56
668.312	19165.57
668.662	19362.17
669.011	19264.78
669.361	19239.47
669.711	19140.94
670.06	19287.6
670.41	19102.97
670.76	19168.06
671.109	19222.74
671.459	19259.58
671.808	19108.62
672.157	19184.55
672.507	18992.92
672.856	19091.22
673.205	19114.72
673.554	19137.1
673.904	19056.19
674.253	19115.85
674.602	19013.03
674.951	18799.93
675.3	18671.12
675.649	19064.78
675.998	18920.15
676.346	18923.32
676.695	18925.12
677.044	18840.61
677.393	18825.69
677.741	18874.5
678.09	18868.85
678.438	18780.72
678.787	18783.21
679.135	18780.04
679.484	18696.88
679.832	18732.13
680.181	18721.97
680.529	18738.01
680.877	18740.27
681.225	18587.73
681.573	18748.41
681.922	18549.99
682.27	18505.7
682.618	18528.98
682.966	18414.18
683.314	18466.83
683.661	18482.42
684.009	18318.36
684.357	18295.76
684.705	18241.53
685.053	18214.86
685.4	18204.46
685.748	18190.23
686.095	18163.56
686.443	18022.77
686.79	18126.95
687.138	17973.74
687.485	18127.18
687.832	17957.92
688.18	17948.65
688.527	17834.31
688.874	17849.22
689.221	17876.79
689.568	17773.74
689.915	17670.02
690.262	17670.92
690.609	17670.02
690.956	17507.99
691.303	17552.28
691.65	17528.32
691.997	17431.38
692.344	17330.82
692.69	17320.87
693.037	17365.16
693.383	17128.11
693.73	17208.11
694.077	17062.35
694.423	17093.53
694.769	17045.63
695.116	17080.43
695.462	16966.53
695.808	16855.12
696.155	16780.32
696.501	16707.78
696.847	16687.67
697.193	16611.29
697.539	16565.41
697.885	16424.4
698.231	16355.25
698.577	16536.49
698.923	16338.07
699.269	16210.62
699.614	16183.05
699.96	16247.91
700.306	16143.05
700.651	16127.46
700.997	16036.61
701.342	15969.27
701.688	15960.91
702.033	15947.58
702.379	15838.65
702.724	15788.26
703.069	15856.05
703.415	15678.66
703.76	15633.23
704.105	15574.7
704.45	15594.59
704.795	15432.11
705.14	15507.13
705.485	15412.9
705.83	15354.14
706.175	15363.41
706.52	15231.44
706.865	15206.58
707.209	15252.68
707.554	15033.25
707.899	15091.55
708.243	15047.94
708.588	15042.29
708.932	14949.18
709.277	14946.47
709.621	14914.61
709.966	14738.79
710.31	14806.14
710.654	14726.36
710.998	14764.56
711.342	14715.29
711.687	14738.12
712.031	14586.48
712.375	14606.37
712.719	14511.23
713.063	14480.27
713.407	14463.32
713.75	14476.2
714.094	14532.02
714.438	14367.05
714.782	14451.34
715.125	14278.92
715.469	14425.36
715.812	14206.83
716.156	14271.01
716.499	14157.57
716.843	14262.2
717.186	14137
717.53	14207.06
717.873	14152.82
718.216	14144.23
718.559	14061.75
718.902	13952.37
719.246	14098.36
719.589	13940.62
719.932	13964.12
720.275	13984.46
720.617	13932.94
720.96	13879.38
721.303	13924.13
721.646	13916.89
721.989	13842.55
722.331	13850.68
722.674	13828.99
723.016	13810
723.359	13744.02
723.701	13801.19
724.044	13695.88
724.386	13700.85
724.729	13686.84
725.071	13695.88
725.413	13726.39
725.755	13725.49
726.097	13590.57
726.439	13648.43
726.782	13617.69
727.124	13674.87
727.465	13597.13
727.807	13622.44
728.149	13566.85
728.491	13526.4
728.833	13538.15
729.175	13534.53
729.516	13503.35
729.858	13522.78
730.199	13517.36
730.541	13543.8
730.882	13484.14
731.224	13486.17
731.565	13482.1
731.906	13469.9
732.248	13523.01
732.589	13352.62
732.93	13379.05
733.271	13400.75
733.612	13485.04
733.953	13397.13
734.294	13434.65
734.635	13320.3
734.976	13480.75
735.317	13360.52
735.658	13316.01
735.999	13385.38
736.339	13318.94
736.68	13410.24
737.021	13424.48
737.361	13390.58
737.702	13436.23
738.042	13335.67
738.383	13362.78
738.723	13407.75
739.063	13337.02
739.404	13382.22
739.744	13389
740.084	13430.58
740.424	13365.72
740.764	13354.2
741.104	13451.6
741.444	13461.99
741.784	13494.08
742.124	13465.83
742.464	13459.73
742.804	13447.98
743.143	13454.99
743.483	13489.11
743.823	13527.07
744.162	13533.18
744.502	13538.6
744.841	13654.75
745.181	13695.43
745.52	13708.09
745.86	13735.2
746.199	13631.03
746.538	13782.89
746.877	13829.89
747.216	13842.77
747.556	13825.82
747.895	13915.99
748.234	13870.12
748.573	13915.54
748.911	14056.78
749.25	14066.49
749.589	14172.71
749.928	14157.57
750.267	14189.66
750.605	14296.32
750.944	14411.12
751.283	14414.73
751.621	14571.11
751.96	14445.69
752.298	14577.67
752.636	14736.53
752.975	14740.6
753.313	14837.77
753.651	14987.15
753.989	15032.8
754.327	15139.91
754.666	15181.04
755.004	15382.84
755.342	15411.09
755.679	15532.22
756.017	15652.44
756.355	15717.52
