Data from hue_290_FLMS001491_00037.txt Node
Date: Tue Feb 07 15:52:40 GMT 2017
User: dcchb
Spectrometer: FLMS00149
Trigger mode: 0
Integration Time (sec): 2.000000E-2
Scans to average: 10
Electric dark correction enabled: true
Nonlinearity correction enabled: false
Boxcar width: 0
XAxis mode: Wavelengths
Number of Pixels in Spectrum: 2048
>>>>>Begin Spectral Data<<<<<
341.393	-20.27
341.776	-20.27
342.16	-20.27
342.543	-47.61
342.927	-55.52
343.31	-66.82
343.693	-78.57
344.077	-84.45
344.46	-52.13
344.843	-44.22
345.226	-42.19
345.61	-27.95
345.993	-11.45
346.376	-5.13
346.759	10.69
347.142	16.12
347.525	48.88
347.908	49.56
348.291	75.55
348.674	102.67
349.057	109.45
349.44	139.5
349.823	143.8
350.206	166.39
350.588	186.73
350.971	185.6
351.354	218.82
351.737	225.15
352.119	241.65
352.502	282.1
352.884	258.37
353.267	292.49
353.65	307.63
354.032	318.48
354.414	308.99
354.797	301.53
355.179	314.41
355.562	306.05
355.944	323.9
356.326	325.94
356.709	341.53
357.091	345.37
357.473	339.27
357.855	341.53
358.238	334.53
358.62	342.21
359.002	346.05
359.384	325.71
359.766	320.06
360.148	330.46
360.53	320.51
360.912	338.59
361.294	352.38
361.676	338.37
362.057	321.19
362.439	337.69
362.821	325.26
363.203	332.04
363.584	323.23
363.966	328.42
364.348	311.7
364.729	329.78
365.111	299.5
365.493	325.26
365.874	315.77
366.256	314.64
366.637	307.41
367.019	302.66
367.4	310.12
367.781	304.47
368.163	327.75
368.544	323.9
368.925	314.86
369.306	305.15
369.688	317.58
370.069	327.97
370.45	329.78
370.831	299.05
371.212	303.34
371.593	323.68
371.974	310.12
372.355	310.12
372.736	325.49
373.117	323.45
373.498	323.68
373.879	293.4
374.26	305.6
374.641	311.25
375.021	286.39
375.402	322.77
375.783	313.73
376.163	321.64
376.544	318.48
376.925	305.83
377.305	330.91
377.686	332.27
378.066	322.32
378.447	340.4
378.827	326.16
379.208	320.97
379.588	321.19
379.968	328.88
380.349	339.72
380.729	338.59
381.109	315.09
381.489	338.37
381.87	339.04
382.25	353.96
382.63	343.34
383.01	344.69
383.39	346.5
383.77	320.51
384.15	334.75
384.53	343.56
384.91	323.45
385.29	348.31
385.67	342.43
386.049	358.71
386.429	345.15
386.809	356.67
387.189	325.71
387.568	344.47
387.948	369.55
388.328	344.92
388.707	365.48
389.087	358.71
389.466	341.53
389.846	364.81
390.225	352.15
390.605	372.04
390.984	359.38
391.363	361.42
391.743	357.8
392.122	372.72
392.501	349.89
392.881	377.69
393.26	361.87
393.639	372.49
394.018	374.52
394.397	350.8
394.776	381.53
395.155	395.77
395.534	385.6
395.913	390.34
396.292	398.48
396.671	384.92
397.05	376.78
397.429	394.64
397.808	394.41
398.186	391.7
398.565	402.09
398.944	407.07
399.323	391.47
399.701	408.42
400.08	423.34
400.458	410.23
400.837	407.52
401.215	413.17
401.594	419.49
401.972	435.77
402.351	441.19
402.729	432.38
403.107	411.36
403.486	437.57
403.864	429.89
404.242	423.79
404.62	447.52
404.999	464.92
405.377	443.9
405.755	438.7
406.133	455.65
406.511	431.25
406.889	462.21
407.267	458.82
407.645	466.27
408.023	447.52
408.401	477.35
408.779	492.49
409.156	478.25
409.534	517.8
409.912	509.66
410.29	509.21
410.667	514.41
411.045	529.1
411.422	523.9
411.8	524.8
412.178	542.2
412.555	559.38
412.933	534.29
413.31	544.92
413.687	555.76
414.065	577
414.442	575.2
414.819	588.53
415.197	598.02
415.574	607.06
415.951	584.24
416.328	602.31
416.705	644.12
417.082	614.74
417.46	635.08
417.837	658.36
418.214	648.19
418.591	671.01
418.967	644.35
419.344	666.27
419.721	678.24
420.098	692.93
420.475	709.66
420.852	720.28
421.228	702.43
421.605	716.89
421.982	715.98
422.358	747.4
422.735	763.44
423.111	754.63
423.488	756.89
423.864	757.79
424.241	799.37
424.617	812.03
424.994	797.79
425.37	811.57
425.746	811.12
426.123	829.2
426.499	853.38
426.875	869.43
427.251	840.73
427.627	877.34
428.003	864.23
428.379	887.05
428.756	906.71
429.132	915.3
429.507	947.39
429.883	940.16
430.259	955.3
430.635	924.11
431.011	943.32
431.387	987.39
431.763	1008.86
432.138	983.32
432.514	980.84
432.89	1015.19
433.265	1047.05
433.641	1075.3
434.016	1036.43
434.392	1070.55
434.767	1098.12
435.143	1096.09
435.518	1116.65
435.894	1117.33
436.269	1156.88
436.644	1142.87
437.02	1158.01
437.395	1156.65
437.77	1181.73
438.145	1198.23
438.52	1198.46
438.895	1211.56
439.271	1247.5
439.646	1228.96
440.021	1272.58
440.395	1268.06
440.77	1266.7
441.145	1224.45
441.52	1294.5
441.895	1302.64
442.27	1295.86
442.645	1304.44
443.019	1322.75
443.394	1313.48
443.769	1333.37
444.143	1324.1
444.518	1361.16
444.892	1322.97
445.267	1345.57
445.641	1366.59
446.016	1356.42
446.39	1383.54
446.764	1352.13
447.139	1363.2
447.513	1376.76
447.887	1442.97
448.262	1410.2
448.636	1419.02
449.01	1405.46
449.384	1429.41
449.758	1439.81
450.132	1441.61
450.506	1434.61
450.88	1437.32
451.254	1464.66
451.628	1446.81
452.002	1501.5
452.376	1495.62
452.75	1510.31
453.123	1517.32
453.497	1536.53
453.871	1544.89
454.244	1537.21
454.618	1571.1
454.992	1574.72
455.365	1581.95
455.739	1586.92
456.112	1603.19
456.486	1609.52
456.859	1625.56
457.232	1660.59
457.606	1628.73
457.979	1676.86
458.352	1718.44
458.725	1715.05
459.099	1682.96
459.472	1715.73
459.845	1744.21
460.218	1737.88
460.591	1757.99
460.964	1812.68
461.337	1803.41
461.71	1818.55
462.083	1832.56
462.456	1809.74
462.829	1841.15
463.201	1864.88
463.574	1867.14
463.947	1900.13
464.32	1967.48
464.692	1931.32
465.065	1934.26
465.438	1946.69
465.81	1997.08
466.183	1972.67
466.555	2011.77
466.928	2044.76
467.3	2011.54
467.672	2038.89
468.045	2084.31
468.417	2093.35
468.789	2128.15
469.161	2146.68
469.534	2186.23
469.906	2184.87
470.278	2188.49
470.65	2216.96
471.022	2251.31
471.394	2267.81
471.766	2273.91
472.138	2284.08
472.51	2362.95
472.882	2371.99
473.253	2405.21
473.625	2388.26
473.997	2427.8
474.369	2473.23
474.74	2514.81
475.112	2501.93
475.484	2514.35
475.855	2544.18
476.227	2550.74
476.598	2627.8
476.97	2628.02
477.341	2703.28
477.713	2722.03
478.084	2689.49
478.455	2753.22
478.827	2777.4
479.198	2841.13
479.569	2849.94
479.94	2911.18
480.311	2914.12
480.682	2983.72
481.053	2995.25
481.424	3091.06
481.795	3076.6
482.166	3153.66
482.537	3143.26
482.908	3172.87
483.279	3201.79
483.65	3218.52
484.021	3294.9
484.391	3305.75
484.762	3353.65
485.133	3361.11
485.503	3387.33
485.874	3453.31
486.244	3430.49
486.615	3562.24
486.985	3516.59
487.356	3557.27
487.726	3590.94
488.097	3660.09
488.467	3658.05
488.837	3657.83
489.207	3704.38
489.578	3765.62
489.948	3787.32
490.318	3844.72
490.688	3822.12
491.058	3878.84
491.428	3953.64
491.798	3964.49
492.168	4007.2
492.538	4046.97
492.908	4073.64
493.278	4094.65
493.648	4118.61
494.017	4152.5
494.387	4165.16
494.757	4221.88
495.126	4193.86
495.496	4234.31
495.866	4286.29
496.235	4286.29
496.605	4335.32
496.974	4300.97
497.344	4364.7
497.713	4384.59
498.082	4408.77
498.452	4398.83
498.821	4367.41
499.19	4470.69
499.559	4493.06
499.928	4519.27
500.298	4519.27
500.667	4546.17
501.036	4513.17
501.405	4582.77
501.774	4572.83
502.143	4585.03
502.512	4635.43
502.88	4632.94
503.249	4674.52
503.618	4697.35
503.987	4690.79
504.356	4721.98
504.724	4752.71
505.093	4776.67
505.462	4726.05
505.83	4756.56
506.199	4775.76
506.567	4867.51
506.936	4813.05
507.304	4782.77
507.672	4875.65
508.041	4927.4
508.409	4899.6
508.777	4943.44
509.145	4923.56
509.514	4952.93
509.882	4977.57
510.25	4978.02
510.618	5008.98
510.986	4957.23
511.354	5042.2
511.722	5051.69
512.09	5071.12
512.458	5045.81
512.826	5112.93
513.193	5138.47
513.561	5090.56
513.929	5108.86
514.297	5187.73
514.664	5199.48
515.032	5193.15
515.4	5208.75
515.767	5218.01
516.135	5242.42
516.502	5205.58
516.869	5284
517.237	5258.46
517.604	5288.07
517.972	5316.32
518.339	5340.72
518.706	5332.36
519.073	5340.04
519.44	5363.09
519.808	5380.04
520.175	5360.83
520.542	5421.85
520.909	5480.38
521.276	5435.41
521.643	5444.9
522.009	5440.38
522.376	5509.53
522.743	5521.73
523.11	5554.5
523.477	5624.56
523.843	5580.94
524.21	5643.76
524.577	5669.53
524.943	5662.29
525.31	5694.16
525.676	5705.01
526.043	5736.64
526.409	5801.05
526.776	5819.58
527.142	5820.26
527.508	5833.36
527.874	5899.8
528.241	5924.43
528.607	5915.85
528.973	5988.16
529.339	5965.56
529.705	6028.39
530.071	6022.74
530.437	6028.84
530.803	6104.32
531.169	6102.28
531.535	6095.5
531.901	6107.48
532.267	6095.5
532.632	6137.08
532.998	6191.09
533.364	6248.72
533.73	6209.4
534.095	6263.63
534.461	6248.27
534.826	6335.5
535.192	6286.01
535.557	6291.66
535.923	6291.2
536.288	6319.68
536.653	6375.27
537.019	6391.99
537.384	6460.92
537.749	6411.65
538.114	6379.34
538.479	6494.36
538.845	6502.05
539.21	6480.35
539.575	6448.04
539.94	6491.65
540.305	6548.6
540.67	6567.13
541.034	6554.02
541.399	6584.3
541.764	6648.03
542.129	6609.39
542.494	6652.1
542.858	6669.27
543.223	6650.07
543.587	6646.68
543.952	6644.42
544.316	6710.18
544.681	6729.39
545.045	6783.62
545.41	6793.79
545.774	6781.59
546.138	6813
546.503	6804.86
546.867	6809.84
547.231	6868.36
547.595	6867.46
547.959	6923.73
548.324	6933.67
548.688	6930.28
549.052	6939.1
549.416	6900.23
549.779	6943.16
550.143	6945.65
550.507	7047.57
550.871	7026.78
551.235	6964.41
551.599	7036.27
551.962	7026.78
552.326	6995.59
552.689	7058.87
553.053	7069.72
553.417	7129.83
553.78	7140.45
554.143	7092.31
554.507	7147.23
554.87	7173.89
555.234	7238.98
555.597	7176.61
555.96	7197.17
556.323	7240.33
556.686	7189.03
557.05	7333.21
557.413	7314.23
557.776	7341.12
558.139	7415.69
558.502	7334.12
558.865	7353.55
559.228	7399.88
559.59	7366.66
559.953	7419.99
560.316	7502.7
560.679	7513.55
561.041	7483.26
561.404	7473.32
561.767	7563.94
562.129	7487.78
562.492	7616.37
562.854	7596.26
563.217	7624.5
563.579	7678.96
563.941	7692.75
564.304	7680.32
564.666	7778.17
565.028	7765.74
565.39	7745.18
565.753	7778.17
566.115	7806.19
566.477	7806.42
566.839	7797.15
567.201	7889.13
567.563	7941.1
567.925	7953.76
568.287	7918.28
568.648	7981.33
569.01	8013.42
569.372	8035.57
569.734	8058.84
570.095	8133.64
570.457	8159.63
570.819	8108.56
571.18	8094.55
571.542	8222.91
571.903	8238.27
572.265	8286.63
572.626	8298.38
572.987	8273.53
573.349	8367.99
573.71	8389
574.071	8495.89
574.432	8493.18
574.794	8588.32
575.155	8511.26
575.516	8546.29
575.877	8622.89
576.238	8715.55
576.599	8701.76
576.96	8730.69
577.32	8781.99
577.681	8825.83
578.042	8899.27
578.403	8949.67
578.763	9038.48
579.124	9062.66
579.485	9163.22
579.845	9148.3
580.206	9144.69
580.566	9386.04
580.927	9369.32
581.287	9496.77
581.648	9526.37
582.008	9651.34
582.368	9668.06
582.728	9794.16
583.089	9894.05
583.449	9970.66
583.809	10001.39
584.169	10110.99
584.529	10255.62
584.889	10423.53
585.249	10459.91
585.609	10501.72
585.969	10710.75
586.329	10700.81
586.688	10857.86
587.048	11013.79
587.408	11081.14
587.768	11231.87
588.127	11284.52
588.487	11408.13
588.846	11668.92
589.206	11695.13
589.565	11804.73
589.925	12043.6
590.284	12083.82
590.643	12282.46
591.003	12420.08
591.362	12630.92
591.721	12667.99
592.08	12834.54
592.44	12974.42
592.799	13127.41
593.158	13189.33
593.517	13397.46
593.876	13449.89
594.235	13597.91
594.593	13675.19
594.952	13833.15
595.311	13948.86
595.67	14103.43
596.029	14361.73
596.387	14545
596.746	14745.9
597.104	14706.35
597.463	14795.84
597.822	15036.51
598.18	15073.57
598.538	15173
598.897	15370.51
599.255	15353.57
599.613	15639.89
599.972	15625.87
600.33	15812.54
600.688	15911.29
601.046	16065.18
601.404	16272.64
601.762	16396.25
602.12	16536.58
602.478	16624.94
602.836	16700.65
603.194	16740.65
603.552	16779.52
603.91	16921.89
604.268	17031.94
604.625	17054.31
604.983	17170.01
605.341	17189.22
605.698	17505.6
606.056	17558.7
606.413	17542.89
606.771	17661.53
607.128	17766.61
607.485	17762.77
607.843	17755.54
608.2	18069.43
608.557	18136.77
608.914	18268.06
609.272	18280.27
609.629	18339.02
609.986	18681.16
610.343	18537.66
610.7	18754.15
611.057	18726.13
611.414	18652.24
611.771	18854.49
612.127	19035.28
612.484	19064.43
612.841	19036.41
613.198	19142.62
613.554	19202.96
613.911	19326.57
614.267	19281.15
614.624	19399.79
614.98	19440.92
615.337	19519.78
615.693	19575.6
616.05	19590.06
616.406	19718.65
616.762	19741.92
617.118	19762.49
617.475	19738.53
617.831	19872.54
618.187	19993.44
618.543	20012.88
618.899	20093.33
619.255	20116.83
619.611	20119.77
619.967	20300.55
620.323	20334
620.678	20297.16
621.034	20248.35
621.39	20338.74
621.746	20217.84
622.101	20544.39
622.457	20447.67
622.812	20536.93
623.168	20502.58
623.523	20578.51
623.879	20762.91
624.234	20553.2
624.589	20693.76
624.945	20675.91
625.3	20673.43
625.655	20762.91
626.01	20792.29
626.365	20772.41
626.72	20812.4
627.075	20741.67
627.43	20797.04
627.785	20690.37
628.14	20808.34
628.495	20838.62
628.85	20836.36
629.205	20780.32
629.559	20874.32
629.914	20886.3
630.269	20846.08
630.623	20721.33
630.978	20817.83
631.332	20912.74
631.687	20905.74
632.041	20829.35
632.396	20900.76
632.75	20741.9
633.104	20865.51
633.459	20698.28
633.813	20811.95
634.167	20759.3
634.521	20715.68
634.875	20756.14
635.229	20785.74
635.583	20702.35
635.937	20704.38
636.291	20654.44
636.645	20757.94
636.999	20671.17
637.352	20647.21
637.706	20589.59
638.06	20698.96
638.413	20703.93
638.767	20628.91
639.121	20644.27
639.474	20533.32
639.828	20594.56
640.181	20658.28
640.534	20689.92
640.888	20624.61
641.241	20514.33
641.594	20594.78
641.947	20678.85
642.301	20601.79
642.654	20569.25
643.007	20594.56
643.36	20515.01
643.713	20523.6
644.066	20618.51
644.419	20458.29
644.771	20345.52
645.124	20181.69
645.477	20148.02
645.83	20023.27
646.182	19973.1
646.535	19989.15
646.888	19957.51
647.24	19826.22
647.593	20046.55
647.945	19867.12
648.298	19792.77
648.65	19822.15
649.002	19829.38
649.355	19891.75
649.707	19901.47
650.059	19917.06
650.411	20225.3
650.763	20159.77
651.115	20411.74
651.467	20472.3
651.819	20421.23
652.171	20315.24
652.523	20272.98
652.875	20236.6
653.227	20176.04
653.578	20271.63
653.93	20523.6
654.282	20297.16
654.633	20269.14
654.985	20282.93
655.337	20300.55
655.688	20445.18
656.039	20327.22
656.391	20241.57
656.742	20411.51
657.094	20357.5
657.445	20456.71
657.796	20392.75
658.147	20394.56
658.498	20292.64
658.849	20391.17
659.2	20350.5
659.551	20251.52
659.902	20400.21
660.253	20342.13
660.604	20377.61
660.955	20338.97
661.306	20381
661.656	20341.68
662.007	20402.7
662.358	20379.87
662.708	20400.21
663.059	20284.06
663.409	20286.77
663.76	20471.4
664.11	20545.29
664.461	20554.78
664.811	20507.1
665.161	20467.33
665.511	20441.79
665.862	20432.53
666.212	20513.88
666.562	20592.3
666.912	20402.02
667.262	20422.13
667.612	20464.17
667.962	20461.23
668.312	20485.86
668.662	20425.97
669.011	20432.53
669.361	20385.75
669.711	20430.27
670.06	20380.33
670.41	20355.47
670.76	20389.37
671.109	20324.51
671.459	20390.27
671.808	20428.01
672.157	20413.09
672.507	20202.48
672.856	20308.01
673.205	20258.07
673.554	20323.6
673.904	20295.58
674.253	20367.44
674.602	20329.71
674.951	19992.77
675.3	19894.46
675.649	20241.35
675.998	20173.55
676.346	20202.25
676.695	20351.85
677.044	20105.53
677.393	20129.48
677.741	20251.97
678.09	20102.14
678.438	20058.53
678.787	20176.94
679.135	20032.54
679.484	20040.9
679.832	19981.01
680.181	19922.03
680.529	20022.37
680.877	19978.3
681.225	19926.78
681.573	19975.36
681.922	19787.57
682.27	19796.39
682.618	19812.88
682.966	19780.57
683.314	19764.3
683.661	19651.08
684.009	19543.96
684.357	19594.36
684.705	19569.05
685.053	19553.91
685.4	19459.45
685.748	19413.12
686.095	19365.44
686.443	19375.38
686.79	19282.73
687.138	19360.92
687.485	19354.82
687.832	19250.41
688.18	19202.28
688.527	19139
688.874	19173.58
689.221	19135.39
689.568	19009.29
689.915	18952.57
690.262	18927.71
690.609	18820.59
690.956	18699.69
691.303	18751.22
691.65	18798.45
691.997	18652.69
692.344	18506.48
692.69	18497.21
693.037	18459.92
693.383	18446.14
693.73	18465.12
694.077	18265.81
694.423	18334.28
694.769	18273.49
695.116	18224.9
695.462	18186.49
695.808	18062.87
696.155	18063.1
696.501	18002.31
696.847	17943.55
697.193	17793.05
697.539	17762.32
697.885	17787.4
698.231	17635.54
698.577	17730.45
698.923	17581.3
699.269	17433.74
699.614	17400.74
699.96	17326.85
700.306	17388.77
700.651	17189.9
700.997	17176.34
701.342	17192.84
701.688	17084.14
702.033	16973.86
702.379	17005.27
702.724	17010.92
703.069	16956.46
703.415	16751.27
703.76	16758.95
704.105	16788.1
704.45	16719.18
704.795	16586.53
705.14	16602.57
705.485	16504.27
705.83	16465.85
706.175	16483.93
706.52	16469.24
706.865	16289.59
707.209	16253.88
707.554	16201.68
707.899	16285.07
708.243	16174.33
708.588	16207.1
708.932	16106.54
709.277	16051.17
709.621	15991.06
709.966	15920.56
710.31	15943.61
710.654	15856.15
710.998	15816.6
711.342	15833.1
711.687	15817.73
712.031	15670.62
712.375	15634.69
712.719	15630.62
713.063	15618.87
713.407	15655.7
713.75	15530.74
714.094	15546.55
714.438	15470.85
714.782	15505.65
715.125	15416.61
715.469	15357.86
715.812	15347.92
716.156	15268.37
716.499	15242.16
716.843	15278.09
717.186	15205.09
717.53	15214.36
717.873	15268.82
718.216	15218.43
718.559	15146.34
718.902	15062.05
719.246	15123.29
719.589	15109.28
719.932	14977.3
720.275	14982.73
720.617	15046.23
720.96	14926.91
721.303	15015.27
721.646	15043.74
721.989	14906.8
722.331	15003.29
722.674	14956.74
723.016	14919.45
723.359	14946.12
723.701	14995.38
724.044	14857.53
724.386	14723.98
724.729	14837.65
725.071	14761.04
725.413	14751.1
725.755	14754.26
726.097	14741.15
726.439	14689.18
726.782	14612.79
727.124	14712
727.465	14582.06
727.807	14655.05
728.149	14633.58
728.491	14588.39
728.833	14640.59
729.175	14565.34
729.516	14616.41
729.858	14489.86
730.199	14584.32
730.541	14483.76
730.882	14502.51
731.224	14501.61
731.565	14562.4
731.906	14565.34
732.248	14462.06
732.589	14488.5
732.93	14391.56
733.271	14501.16
733.612	14453.48
733.953	14464.32
734.294	14460.71
734.635	14464.1
734.976	14502.29
735.317	14422.97
735.658	14381.39
735.999	14395.62
736.339	14457.09
736.68	14516.3
737.021	14353.59
737.361	14397.21
737.702	14408.28
738.042	14450.09
738.383	14314.27
738.723	14456.19
739.063	14381.61
739.404	14428.17
739.744	14397.21
740.084	14396.3
740.424	14496.19
740.764	14422.06
741.104	14534.6
741.444	14407.83
741.784	14491.67
742.124	14507.03
742.464	14376.64
742.804	14541.84
743.143	14561.95
743.483	14587.26
743.823	14515.17
744.162	14545
744.502	14611.66
744.841	14573.47
745.181	14665
745.52	14686.92
745.86	14811.21
746.199	14754.48
746.538	14834.71
746.877	14915.38
747.216	14904.31
747.556	14947.25
747.895	14970.75
748.234	14959.23
748.573	14986.8
748.911	15133.01
749.25	15133.23
749.589	15177.07
749.928	15307.69
750.267	15348.37
750.605	15332.32
750.944	15365.99
751.283	15459.1
751.621	15590.4
751.96	15519.21
752.298	15653.9
752.636	15778.86
752.975	15784.74
753.313	15830.61
753.651	16126.65
753.989	16058.86
754.327	16206.88
754.666	16176.59
755.004	16359.87
755.342	16475.34
755.679	16523.7
756.017	16585.62
756.355	16819.52
756.693	16861.1
757.031	17012.5
757.368	17012.28
757.706	17135.44
758.044	17216.12
758.381	17349.22
758.719	17391.25
759.056	17568.42
759.394	17550.34
759.731	17590.12
