Data from hue_220_FLMS001491_00044.txt Node
Date: Tue Feb 07 16:39:31 GMT 2017
User: dcchb
Spectrometer: FLMS00149
Trigger mode: 0
Integration Time (sec): 2.000000E-2
Scans to average: 10
Electric dark correction enabled: true
Nonlinearity correction enabled: false
Boxcar width: 0
XAxis mode: Wavelengths
Number of Pixels in Spectrum: 2048
>>>>>Begin Spectral Data<<<<<
341.393	10.07
341.776	10.07
342.16	10.07
342.543	-77.61
342.927	-56.59
343.31	-63.15
343.693	-70.38
344.077	-75.35
344.46	-78.97
344.843	-62.47
345.226	-46.43
345.61	-34.22
345.993	-4.84
346.376	-7.56
346.759	20.24
347.142	26.57
347.525	50.75
347.908	81.48
348.291	65.89
348.674	86.23
349.057	112.21
349.44	139.33
349.823	140.69
350.206	178.43
350.588	199.22
350.971	214.81
351.354	210.52
351.737	246
352.119	239.22
352.502	253
352.884	259.1
353.267	275.6
353.65	292.1
354.032	280.35
354.414	305.88
354.797	307.01
355.179	337.07
355.562	314.92
355.944	332.77
356.326	331.64
356.709	357.63
357.091	324.41
357.473	325.99
357.855	339.78
358.238	337.52
358.62	337.07
359.002	336.16
359.384	359.89
359.766	340.01
360.148	343.39
360.53	344.52
360.912	338.65
361.294	322.38
361.676	331.64
362.057	332.1
362.439	318.31
362.821	344.98
363.203	312.44
363.584	337.52
363.966	337.75
364.348	314.7
364.729	325.54
365.111	318.99
365.493	342.49
365.874	323.06
366.256	338.88
366.637	326.9
367.019	297.75
367.4	315.6
367.781	323.96
368.163	327.12
368.544	337.75
368.925	300.68
369.306	313.79
369.688	336.16
370.069	320.8
370.45	293.23
370.831	304.75
371.212	320.34
371.593	300.46
371.974	304.98
372.355	307.46
372.736	311.08
373.117	308.59
373.498	316.73
373.879	327.58
374.26	317.63
374.641	314.7
375.021	296.39
375.402	304.3
375.783	320.8
376.163	328.48
376.544	336.84
376.925	308.37
377.305	333
377.686	325.77
378.066	339.78
378.447	333
378.827	338.88
379.208	341.59
379.588	334.58
379.968	355.37
380.349	342.94
380.729	356.95
381.109	326.67
381.489	333.68
381.87	344.75
382.25	340.68
382.63	321.47
383.01	337.52
383.39	342.27
383.77	336.16
384.15	341.59
384.53	358.54
384.91	354.47
385.29	368.7
385.67	344.98
386.049	355.15
386.429	350.17
386.809	373
387.189	356.28
387.568	358.54
387.948	351.98
388.328	378.2
388.707	356.73
389.087	375.48
389.466	373.68
389.846	357.41
390.225	362.15
390.605	369.38
390.984	369.38
391.363	376.61
391.743	388.14
392.122	370.06
392.501	367.12
392.881	383.39
393.26	400.79
393.639	376.61
394.018	387.91
394.397	383.62
394.776	392.89
395.155	368.03
395.534	398.53
395.913	391.3
396.292	389.5
396.671	388.59
397.05	384.3
397.429	393.34
397.808	398.76
398.186	395.82
398.565	406.67
398.944	403.05
399.323	417.07
399.701	415.03
400.08	422.94
400.458	423.39
400.837	405.54
401.215	427.91
401.594	412.32
401.972	429.49
402.351	427.69
402.729	447.57
403.107	434.92
403.486	467.46
403.864	437.18
404.242	443.28
404.62	441.92
404.999	449.38
405.377	484.86
405.755	481.24
406.133	470.85
406.511	471.75
406.889	475.82
407.267	468.14
407.645	486.89
408.023	499.77
408.401	497.74
408.779	487.8
409.156	543.84
409.534	520.79
409.912	509.27
410.29	515.37
410.667	534.58
411.045	537.06
411.422	564.18
411.8	550.62
412.178	568.25
412.555	578.87
412.933	580.22
413.31	603.5
413.687	618.87
414.065	603.95
414.442	645.31
414.819	650.51
415.197	644.18
415.574	636.95
415.951	669.71
416.328	657.28
416.705	673.78
417.082	685.31
417.46	679.66
417.837	692.54
418.214	701.8
418.591	696.15
418.967	722.59
419.344	735.25
419.721	764.85
420.098	747
420.475	750.84
420.852	778.64
421.228	753.33
421.605	765.76
421.982	812.54
422.358	798.07
422.735	833.78
423.111	837.17
423.488	875.58
423.864	869.03
424.241	884.4
424.617	903.15
424.994	921.91
425.37	935.02
425.746	947.22
426.123	933.21
426.499	931.85
426.875	968.92
427.251	976.15
427.627	991.29
428.003	1008.91
428.379	1024.28
428.756	1048.91
429.132	1067.9
429.507	1075.81
429.883	1067.22
430.259	1088.91
430.635	1086.65
431.011	1125.75
431.387	1143.83
431.763	1155.58
432.138	1167.55
432.514	1204.39
432.89	1193.32
433.265	1224.95
433.641	1225.86
434.016	1258.63
434.392	1296.82
434.767	1313.09
435.143	1311.28
435.518	1347.44
435.894	1369.81
436.269	1384.27
436.644	1409.13
437.02	1452.52
437.395	1449.35
437.77	1491.61
438.145	1511.73
438.52	1515.34
438.895	1567.54
439.271	1562.35
439.646	1608.45
440.021	1615.68
440.395	1615.68
440.77	1644.38
441.145	1636.47
441.52	1680.53
441.895	1699.29
442.27	1707.88
442.645	1728.9
443.019	1748.78
443.394	1740.87
443.769	1784.04
444.143	1819.06
444.518	1828.1
444.892	1808.22
445.267	1843.24
445.641	1823.36
446.016	1877.37
446.39	1873.98
446.764	1908.78
447.139	1912.85
447.513	1932.28
447.887	1931.83
448.262	1923.92
448.636	1937.7
449.01	1988.55
449.384	1989.23
449.758	2009.34
450.132	2049.11
450.506	2053.86
450.88	2038.49
451.254	2053.18
451.628	2100.86
452.002	2104.48
452.376	2122.78
452.75	2140.18
453.123	2158.04
453.497	2205.94
453.871	2207.75
454.244	2245.04
454.618	2256.34
454.992	2291.14
455.365	2285.94
455.739	2319.61
456.112	2329.56
456.486	2406.62
456.859	2428.09
457.232	2450.46
457.606	2448.65
457.979	2472.15
458.352	2517.12
458.725	2553.28
459.099	2562.55
459.472	2633.28
459.845	2621.98
460.218	2675.31
460.591	2628.76
460.964	2691.58
461.337	2754.18
461.71	2792.37
462.083	2792.6
462.456	2801.18
462.829	2830.11
463.201	2912.37
463.574	2904.23
463.947	2935.19
464.32	2995.3
464.692	2955.53
465.065	3017
465.438	3075.07
465.81	3108.75
466.183	3132.93
466.555	3186.26
466.928	3179.93
467.3	3219.03
467.672	3247.5
468.045	3371.79
468.417	3321.4
468.789	3359.59
469.161	3380.38
469.534	3437.1
469.906	3482.97
470.278	3511.67
470.65	3561.16
471.022	3614.72
471.394	3647.04
471.766	3689.07
472.138	3761.61
472.51	3821.72
472.882	3847.03
473.253	3924.54
473.625	3933.81
473.997	4017.65
474.369	3997.54
474.74	4094.93
475.112	4138.55
475.484	4198.66
475.855	4318.43
476.227	4273.24
476.598	4408.37
476.97	4436.17
477.341	4561.36
477.713	4568.59
478.084	4604.3
478.455	4699.89
478.827	4742.83
479.198	4876.61
479.569	4852.65
479.94	4996.61
480.311	5030.5
480.682	5126.55
481.053	5206.09
481.424	5270.72
481.795	5331.06
482.166	5375.58
482.537	5415.8
482.908	5543.26
483.279	5559.98
483.65	5671.84
484.021	5743.93
484.391	5773.53
484.762	5859.41
485.133	5892.18
485.503	5957.26
485.874	6069.35
486.244	6093.98
486.615	6236.12
486.985	6280.87
487.356	6343.24
487.726	6401.31
488.097	6538.49
488.467	6577.36
488.837	6674.75
489.207	6748.65
489.578	6813.73
489.948	6898.7
490.318	6939.15
490.688	6941.41
491.058	6993.16
491.428	7102.77
491.798	7174.4
492.168	7326.49
492.538	7288.3
492.908	7344.11
493.278	7407.39
493.648	7474.05
494.017	7513.83
494.387	7582.07
494.757	7596.76
495.126	7724.22
495.496	7737.55
495.866	7798.57
496.235	7836.76
496.605	7858.45
496.974	7914.95
497.344	8050.08
497.713	8049.18
498.082	8039.92
498.452	8137.99
498.821	8081.95
499.19	8059.58
499.559	8185.22
499.928	8209.85
500.298	8266.8
500.667	8359.91
501.036	8247.37
501.405	8376.86
501.774	8349.74
502.143	8470.64
502.512	8372.11
502.88	8538.89
503.249	8462.96
503.618	8528.72
503.987	8543.41
504.356	8596.06
504.724	8611.65
505.093	8595.83
505.462	8685.55
505.83	8676.96
506.199	8678.99
506.567	8840.8
506.936	8810.52
507.304	8867.01
507.672	8927.58
508.041	8976.61
508.409	9003.05
508.777	8998.08
509.145	9015.03
509.514	9023.39
509.882	9033.34
510.25	9014.13
510.618	9076.72
510.986	9029.27
511.354	9137.97
511.722	9200.56
512.09	9211.18
512.458	9197.85
512.826	9234.01
513.193	9269.94
513.561	9250.51
513.929	9308.58
514.297	9319.66
514.664	9338.41
515.032	9334.8
515.4	9447.11
515.767	9402.82
516.135	9434.68
516.502	9321.46
516.869	9430.39
517.237	9485.98
517.604	9417.28
517.972	9489.6
518.339	9454.34
518.706	9462.03
519.073	9471.97
519.44	9485.98
519.808	9536.15
520.175	9538.18
520.542	9659.31
520.909	9576.37
521.276	9529.37
521.643	9637.61
522.009	9664.96
522.376	9666.77
522.743	9627.67
523.11	9690.72
523.477	9748.12
523.843	9707.22
524.21	9787.44
524.577	9796.93
524.943	9848
525.31	9890.26
525.676	9850.26
526.043	9839.87
526.409	9823.15
526.776	9951.5
527.142	9905.4
527.508	9931.17
527.874	9967.32
528.241	9935.91
528.607	9972.52
528.973	9997.6
529.339	9924.61
529.705	10035.57
530.071	10062.24
530.437	9983.14
530.803	10050.94
531.169	10059.52
531.535	9953.76
531.901	9974.55
532.267	10005.29
532.632	10051.39
532.998	10019.98
533.364	9980.2
533.73	9970.03
534.095	9989.02
534.461	10050.26
534.826	9989.47
535.192	9978.17
535.557	10065.4
535.923	9956.93
536.288	9960.77
536.653	9980.66
537.019	9864.73
537.384	9900.88
537.749	9878.06
538.114	9849.81
538.479	9882.58
538.845	9858.4
539.21	9784.28
539.575	9867.44
539.94	9843.94
540.305	9819.98
540.67	9693.88
541.034	9764.62
541.399	9722.58
541.764	9760.32
542.129	9727.1
542.494	9688.46
542.858	9756.25
543.223	9653.21
543.587	9719.87
543.952	9646.88
544.316	9638.97
544.681	9580.67
545.045	9622.47
545.41	9603.72
545.774	9593.1
546.138	9642.36
546.503	9559.42
546.867	9510.61
547.231	9584.51
547.595	9521.01
547.959	9543.83
548.324	9479.2
548.688	9465.64
549.052	9429.71
549.416	9358.75
549.779	9334.57
550.143	9440.33
550.507	9388.58
550.871	9283.05
551.235	9347.9
551.599	9343.38
551.962	9342.25
552.326	9317.62
552.689	9344.51
553.053	9279.88
553.417	9291.63
553.78	9337.51
554.143	9281.69
554.507	9280.79
554.87	9242.14
555.234	9301.58
555.597	9198.08
555.96	9234.46
556.323	9212.54
556.686	9150.85
557.05	9235.36
557.413	9257.51
557.776	9212.54
558.139	9202.37
558.502	9244.63
558.865	9141.13
559.228	9232.65
559.59	9252.31
559.953	9159.21
560.316	9261.8
560.679	9233.1
561.041	9241.01
561.404	9255.7
561.767	9259.32
562.129	9231.97
562.492	9256.83
562.854	9272.65
563.217	9280.34
563.579	9235.14
563.941	9220.22
564.304	9272.65
564.666	9275.59
565.028	9270.39
565.39	9264.74
565.753	9340.67
566.115	9354.46
566.477	9350.16
566.839	9392.87
567.201	9409.15
567.563	9411.86
567.925	9375.7
568.287	9454.57
568.648	9461.8
569.01	9506.32
569.372	9511.06
569.734	9539.31
570.095	9515.81
570.457	9538.18
570.819	9463.61
571.18	9546.09
571.542	9524.4
571.903	9588.12
572.265	9641.91
572.626	9664.28
572.987	9613.43
573.349	9663.38
573.71	9643.26
574.071	9651.4
574.432	9714.22
574.794	9809.81
575.155	9744.5
575.516	9749.25
575.877	9740.44
576.238	9789.47
576.599	9813.43
576.96	9883.71
577.32	9873.31
577.681	9897.04
578.042	9846.2
578.403	9885.97
578.763	9913.76
579.124	9926.65
579.485	9918.74
579.845	10074.21
580.206	9968.68
580.566	9994.67
580.927	9993.99
581.287	10084.16
581.648	9986.98
582.008	10131.39
582.368	10129.8
582.728	10207.54
583.089	10132.74
583.449	10142.91
583.809	10042.12
584.169	10183.59
584.529	10153.08
584.889	10273.76
585.249	10155.57
585.609	10202.8
585.969	10276.47
586.329	10210.93
586.688	10327.54
587.048	10324.38
587.408	10280.76
587.768	10323.47
588.127	10292.29
588.487	10316.69
588.846	10381.1
589.206	10337.26
589.565	10316.69
589.925	10362.79
590.284	10367.31
590.643	10433.3
591.003	10401.66
591.362	10526.86
591.721	10408.89
592.08	10441.21
592.44	10405.05
592.799	10459.74
593.158	10505.61
593.517	10459.51
593.876	10468.55
594.235	10484.15
594.593	10499.29
594.952	10530.92
595.311	10556.91
595.67	10539.51
596.029	10547.19
596.387	10607.53
596.746	10551.49
597.104	10578.61
597.463	10520.08
597.822	10640.07
598.18	10506.29
598.538	10540.41
598.897	10556.23
599.255	10574.31
599.613	10678.72
599.972	10690.69
600.33	10574.54
600.688	10594.42
601.046	10716.91
601.404	10697.02
601.762	10709.22
602.12	10716.91
602.478	10712.16
602.836	10733.4
603.194	10671.03
603.552	10695.89
603.91	10617.7
604.268	10685.95
604.625	10623.8
604.983	10723.69
605.341	10675.78
605.698	10746.06
606.056	10714.42
606.413	10716.23
606.771	10797.81
607.128	10795.55
607.485	10761.43
607.843	10819.96
608.2	10775.66
608.557	10830.8
608.914	10777.24
609.272	10859.05
609.629	10884.81
609.986	10904.25
610.343	10810.46
610.7	10890.01
611.057	10880.52
611.414	10937.69
611.771	10901.54
612.127	10916.9
612.484	10999.84
612.841	11002.55
613.198	10983.12
613.554	10899.95
613.911	10925.26
614.267	11000.29
614.624	11021.98
614.98	11057.24
615.337	10999.16
615.693	11040.74
616.05	11050.68
616.406	11106.05
616.762	11064.47
617.118	11003.45
617.475	11099.27
617.831	11100.4
618.187	11105.6
618.543	11125.03
618.899	11152.6
619.255	11170.68
619.611	11171.58
619.967	11151.7
620.323	11191.47
620.678	11134.52
621.034	11115.09
621.39	11155.99
621.746	11053.4
622.101	11223.33
622.457	11113.51
622.812	11106.73
623.168	11171.13
623.523	11190.57
623.879	11225.37
624.234	11125.48
624.589	11167.52
624.945	11108.31
625.3	11192.6
625.655	11191.47
626.01	11214.75
626.365	11115.77
626.72	11100.17
627.075	11123.45
627.43	11141.98
627.785	11146.05
628.14	11146.05
628.495	11138.82
628.85	11158.7
629.205	11078.93
629.559	11162.09
629.914	11097.01
630.269	11115.32
630.623	11147.86
630.978	11069.44
631.332	11087.07
631.687	11072.15
632.041	11028.54
632.396	10998.71
632.75	10958.94
633.104	10958.71
633.459	11007.75
633.813	10947.41
634.167	10948.54
634.521	10963.91
634.875	10947.18
635.229	10941.31
635.583	10937.92
635.937	10808.88
636.291	10840.52
636.645	10884.36
636.999	10849.79
637.352	10895.43
637.706	10841.2
638.06	10937.92
638.413	10777.47
638.767	10778.15
639.121	10816.79
639.474	10719.62
639.828	10786.96
640.181	10719.62
640.534	10807.75
640.888	10720.52
641.241	10708.55
641.594	10736.79
641.947	10778.37
642.301	10645.27
642.654	10709.68
643.007	10732.95
643.36	10636.91
643.713	10624.48
644.066	10690.47
644.419	10645.5
644.771	10571.37
645.124	10546.52
645.477	10537.48
645.83	10403.02
646.182	10408.44
646.535	10219.29
646.888	10359.63
647.24	10239.41
647.593	10305.17
647.945	10349.23
648.298	10186.07
648.65	10204.15
649.002	10205.28
649.355	10284.6
649.707	10281.44
650.059	10325.73
650.411	10461.77
650.763	10483.24
651.115	10598.94
651.467	10507.2
651.819	10516.91
652.171	10589.23
652.523	10537.03
652.875	10504.48
653.227	10477.59
653.578	10568.66
653.93	10503.13
654.282	10412.51
654.633	10502.9
654.985	10467.2
655.337	10556.23
655.688	10563.92
656.039	10493.86
656.391	10473.75
656.742	10494.99
657.094	10527.31
657.445	10552.62
657.796	10506.74
658.147	10465.39
658.498	10473.3
658.849	10586.29
659.2	10528.44
659.551	10454.32
659.902	10485.5
660.253	10485.73
660.604	10519.4
660.955	10480.76
661.306	10558.49
661.656	10522.79
662.007	10514.65
662.358	10567.76
662.708	10554.65
663.059	10535.9
663.409	10538.61
663.76	10606.4
664.11	10537.48
664.461	10568.21
664.811	10593.29
665.161	10574.54
665.511	10465.39
665.862	10484.37
666.212	10619.73
666.562	10552.62
666.912	10575.44
667.262	10596.91
667.612	10496.57
667.962	10513.97
668.312	10567.53
668.662	10559.17
669.011	10534.99
669.361	10477.37
669.711	10512.39
670.06	10529.34
670.41	10467.87
670.76	10467.65
671.109	10487.76
671.459	10549.23
671.808	10460.19
672.157	10518.04
672.507	10469
672.856	10395.33
673.205	10490.02
673.554	10430.14
673.904	10409.34
674.253	10463.13
674.602	10410.47
674.951	10290.25
675.3	10228.56
675.649	10408.44
675.998	10385.84
676.346	10363.92
676.695	10429.46
677.044	10270.37
677.393	10301.1
677.741	10329.57
678.09	10323.47
678.438	10309.01
678.787	10324.38
679.135	10262.46
679.484	10184.04
679.832	10311.72
680.181	10163.7
680.529	10245.96
680.877	10225.39
681.225	10104.72
681.573	10179.29
681.922	10178.16
682.27	10171.84
682.618	10076.92
682.966	10106.08
683.314	10106.75
683.661	10070.14
684.009	9986.98
684.357	9992.86
684.705	9983.82
685.053	10056.36
685.4	9956.93
685.748	9895.23
686.095	9937.27
686.443	9873.09
686.79	9880.09
687.138	9929.58
687.485	9823.15
687.832	9845.97
688.18	9796.03
688.527	9749.02
688.874	9692.3
689.221	9704.5
689.568	9727.1
689.915	9634.9
690.262	9598.29
690.609	9562.59
690.956	9486.43
691.303	9557.39
691.65	9471.29
691.997	9479.65
692.344	9404.17
692.69	9408.92
693.037	9361.91
693.383	9269.49
693.73	9346.1
694.077	9263.84
694.423	9259.32
694.769	9212.09
695.116	9221.81
695.462	9233.56
695.808	9195.59
696.155	9161.47
696.501	9122.15
696.847	9048.7
697.193	9022.04
697.539	9070.62
697.885	9005.54
698.231	8888.48
698.577	8965.09
698.923	8892.32
699.269	8851.42
699.614	8811.65
699.96	8798.54
700.306	8789.95
700.651	8800.57
700.997	8681.48
701.342	8646.23
701.688	8602.39
702.033	8648.71
702.379	8620.69
702.724	8524.65
703.069	8576.62
703.415	8504.08
703.76	8484.2
704.105	8483.75
704.45	8441.94
704.795	8316.52
705.14	8366.01
705.485	8350.87
705.83	8259.57
706.175	8329.17
706.52	8267.25
706.865	8247.59
707.209	8236.07
707.554	8203.53
707.899	8170.31
708.243	8144.32
708.588	8145.9
708.932	8055.06
709.277	8025.45
709.621	8020.93
709.966	7974.38
710.31	8039.24
710.654	7923.31
710.998	7947.04
711.342	7926.47
711.687	7898.45
712.031	7867.26
712.375	7801.5
712.719	7832.92
713.063	7785.46
713.407	7846.25
713.75	7801.73
714.094	7800.15
714.438	7720.83
714.782	7793.82
715.125	7817.77
715.469	7764.89
715.812	7747.72
716.156	7732.13
716.499	7665.91
716.843	7670.89
717.186	7691
717.53	7630.89
717.873	7672.47
718.216	7659.13
718.559	7544.56
718.902	7577.1
719.246	7616.2
719.589	7568.52
719.932	7568.06
720.275	7581.4
720.617	7548.4
720.96	7499.14
721.303	7514.96
721.646	7506.14
721.989	7493.94
722.331	7550.44
722.674	7466.6
723.016	7473.6
723.359	7467.5
723.701	7478.12
724.044	7389.31
724.386	7423.21
724.729	7469.31
725.071	7444.68
725.413	7457.33
725.755	7426.6
726.097	7382.98
726.439	7367.62
726.782	7415.07
727.124	7436.32
727.465	7361.29
727.807	7351.8
728.149	7343.44
728.491	7315.41
728.833	7335.98
729.175	7293.27
729.516	7375.07
729.858	7337.56
730.199	7337.11
730.541	7403.32
730.882	7318.13
731.224	7324.45
731.565	7321.29
731.906	7357.67
732.248	7272.03
732.589	7324
732.93	7288.75
733.271	7299.14
733.612	7321.29
733.953	7293.72
734.294	7310.44
734.635	7297.56
734.976	7291.23
735.317	7316.54
735.658	7313.16
735.999	7309.54
736.339	7324.23
736.68	7365.81
737.021	7349.09
737.361	7308.64
737.702	7343.66
738.042	7367.84
738.383	7357.22
738.723	7310.67
739.063	7370.55
739.404	7388.18
739.744	7420.95
740.084	7413.72
740.424	7440.16
740.764	7437.22
741.104	7463.43
741.444	7369.42
741.784	7493.72
742.124	7441.97
742.464	7463.66
742.804	7490.78
743.143	7490.78
743.483	7559.02
743.823	7522.64
744.162	7524.68
744.502	7616.88
744.841	7574.39
745.181	7638.34
745.52	7653.94
745.86	7720.83
746.199	7734.61
746.538	7776.19
746.877	7822.07
747.216	7835.85
747.556	7880.82
747.895	7977.32
748.234	7951.1
748.573	7987.71
748.911	8089.18
749.25	8149.97
749.589	8176.41
749.928	8222.96
750.267	8287.14
750.605	8340.25
750.944	8430.64
751.283	8517.19
751.621	8561.26
751.96	8659.79
752.298	8721.93
752.636	8868.37
752.975	8935.94
753.313	9011.87
753.651	9145.65
753.989	9223.61
754.327	9285.76
754.666	9363.5
755.004	9547.67
755.342	9742.02
755.679	9833.54
756.017	9873.54
756.355	10057.04
756.693	10191.95
757.031	10325.96
757.368	10371.38
757.706	10636.01
758.044	10724.14
758.381	10861.99
758.719	11078.25
759.056	11248.64
759.394	11297.46
759.731	11435.76
760.068	11600.95
760.405	11709.2
760.743	11917.33
761.08	12142.86
761.417	12330.42
761.754	12409.74
762.091	12689.06
762.428	12777.19
762.765	12902.16
763.102	13159.56
