Data from hue_24_FLMS001491_00054.txt Node
Date: Tue Feb 07 17:12:27 GMT 2017
User: dcchb
Spectrometer: FLMS00149
Trigger mode: 0
Integration Time (sec): 2.000000E-2
Scans to average: 10
Electric dark correction enabled: true
Nonlinearity correction enabled: false
Boxcar width: 0
XAxis mode: Wavelengths
Number of Pixels in Spectrum: 2048
>>>>>Begin Spectral Data<<<<<
341.393	-12.87
341.776	-12.87
342.16	-12.87
342.543	-41.34
342.927	-68.68
343.31	-71.85
343.693	-66.42
344.077	-70.27
344.46	-89.93
344.843	-42.7
345.226	-44.73
345.61	-32.98
345.993	0.92
346.376	-13.32
346.759	7.47
347.142	40.47
347.525	28.71
347.908	62.61
348.291	85.44
348.674	96.96
349.057	109.62
349.44	128.15
349.823	150.97
350.206	194.81
350.588	199.56
350.971	217.41
351.354	245.21
351.737	235.94
352.119	261.02
352.502	267.35
352.884	288.82
353.267	284.07
353.65	291.76
354.032	325.88
354.414	306.67
354.797	294.92
355.179	326.56
355.562	318.42
355.944	331.76
356.326	341.25
356.709	312.55
357.091	332.21
357.473	340.34
357.855	344.64
358.238	349.61
358.62	336.5
359.002	351.19
359.384	367.01
359.766	352.32
360.148	348.25
360.53	364.07
360.912	330.85
361.294	339.89
361.676	340.34
362.057	322.72
362.439	323.17
362.821	342.6
363.203	334.47
363.584	350.97
363.966	341.25
364.348	312.55
364.729	314.81
365.111	320.91
365.493	306.9
365.874	327.69
366.256	319.55
366.637	316.16
367.019	317.52
367.4	324.3
367.781	302.61
368.163	312.32
368.544	308.48
368.925	306.67
369.306	319.78
369.688	313.45
370.069	327.46
370.45	329.5
370.831	311.42
371.212	334.47
371.593	324.98
371.974	332.89
372.355	341.7
372.736	308.93
373.117	309.16
373.498	330.4
373.879	336.05
374.26	331.98
374.641	315.03
375.021	349.61
375.402	341.02
375.783	333.79
376.163	332.21
376.544	339.67
376.925	322.27
377.305	324.07
377.686	327.46
378.066	348.93
378.447	327.24
378.827	345.99
379.208	360.91
379.588	332.43
379.968	351.19
380.349	351.42
380.729	333.11
381.109	328.37
381.489	354.58
381.87	345.77
382.25	348.93
382.63	344.19
383.01	342.6
383.39	347.58
383.77	361.13
384.15	350.06
384.53	340.57
384.91	360.23
385.29	349.61
385.67	357.07
386.049	363.39
386.429	372.43
386.809	367.46
387.189	340.34
387.568	375.37
387.948	351.87
388.328	357.29
388.707	361.59
389.087	361.36
389.466	349.61
389.846	356.16
390.225	363.39
390.605	379.44
390.984	383.73
391.363	392.32
391.743	365.65
392.122	380.34
392.501	372.66
392.881	379.44
393.26	396.39
393.639	374.24
394.018	376.73
394.397	376.05
394.776	373.11
395.155	379.67
395.534	379.67
395.913	377.18
396.292	395.71
396.671	374.47
397.05	380.34
397.429	388.25
397.808	366.11
398.186	394.58
398.565	380.8
398.944	390.51
399.323	385.99
399.701	403.62
400.08	390.74
400.458	396.16
400.837	387.12
401.215	400.68
401.594	410.62
401.972	400.23
402.351	409.95
402.729	400
403.107	422.83
403.486	387.57
403.864	384.18
404.242	408.59
404.62	424.18
404.999	411.53
405.377	423.96
405.755	435.48
406.133	420.57
406.511	417.4
406.889	396.16
407.267	430.74
407.645	428.03
408.023	432.32
408.401	422.38
408.779	430.51
409.156	449.49
409.534	444.75
409.912	424.41
410.29	458.76
410.667	438.65
411.045	465.31
411.422	444.75
411.8	448.59
412.178	442.94
412.555	459.89
412.933	450.62
413.31	443.62
413.687	461.02
414.065	483.62
414.442	475.93
414.819	458.53
415.197	459.21
415.574	474.35
415.951	481.13
416.328	492.66
416.705	483.39
417.082	502.37
417.46	489.94
417.837	494.69
418.214	483.39
418.591	477.52
418.967	496.95
419.344	511.87
419.721	524.29
420.098	514.8
420.475	515.93
420.852	510.96
421.228	514.12
421.605	501.92
421.982	501.47
422.358	527.01
422.735	519.55
423.111	530.4
423.488	505.31
423.864	538.98
424.241	552.77
424.617	564.97
424.994	545.08
425.37	553.67
425.746	543.73
426.123	560
426.499	554.58
426.875	560.68
427.251	578.53
427.627	582.6
428.003	560.23
428.379	578.3
428.756	578.53
429.132	568.81
429.507	591.41
429.883	588.02
430.259	600.68
430.635	603.16
431.011	590.28
431.387	605.65
431.763	618.3
432.138	618.75
432.514	610.39
432.89	625.53
433.265	641.13
433.641	634.57
434.016	645.42
434.392	639.09
434.767	639.09
435.143	657.4
435.518	660.34
435.894	671.63
436.269	659.88
436.644	671.41
437.02	671.63
437.395	687
437.77	690.62
438.145	699.66
438.52	711.63
438.895	685.65
439.271	677.96
439.646	719.54
440.021	718.41
440.395	721.8
440.77	684.52
441.145	718.19
441.52	733.78
441.895	727.9
442.27	739.88
442.645	740.56
443.019	728.58
443.394	736.49
443.769	772.88
444.143	767.9
444.518	749.6
444.892	729.71
445.267	746.66
445.641	787.79
446.016	757.28
446.39	754.8
446.764	761.35
447.139	755.25
447.513	784.63
447.887	788.47
448.262	764.97
448.636	762.93
449.01	798.41
449.384	811.97
449.758	797.51
450.132	808.58
450.506	814
450.88	814.46
451.254	816.49
451.628	830.05
452.002	836.38
452.376	847
452.75	865.53
453.123	864.85
453.497	885.41
453.871	884.28
454.244	877.28
454.618	890.39
454.992	907.33
455.365	885.64
455.739	901.23
456.112	884.96
456.486	912.76
456.859	942.36
457.232	905.3
457.606	926.09
457.979	950.72
458.352	982.36
458.725	965.64
459.099	991.4
459.472	1011.29
459.845	1000.44
460.218	1019.87
460.591	1010.84
460.964	985.52
461.337	1015.58
461.71	1046.77
462.083	1070.04
462.456	1076.82
462.829	1074.79
463.201	1073.88
463.574	1086.77
463.947	1093.77
464.32	1132.41
464.692	1126.31
465.065	1122.24
465.438	1139.87
465.81	1169.02
466.183	1157.72
466.555	1208.8
466.928	1233.2
467.3	1219.42
467.672	1237.5
468.045	1257.38
468.417	1249.25
468.789	1266.42
469.161	1260.55
469.534	1319.08
469.906	1306.42
470.278	1344.16
470.65	1347.1
471.022	1358.62
471.394	1360.66
471.766	1411.5
472.138	1384.84
472.51	1434.33
472.882	1465.51
473.253	1511.39
473.625	1499.86
473.997	1525.62
474.369	1550.93
474.74	1560.88
475.112	1591.38
475.484	1611.95
475.855	1665.73
476.227	1649.46
476.598	1684.49
476.97	1722
477.341	1785.28
477.713	1820.76
478.084	1785.96
478.455	1863.02
478.827	1874.77
479.198	1949.12
479.569	1950.47
479.94	1992.96
480.311	2021.66
480.682	2074.54
481.053	2111.37
481.424	2115.66
481.795	2187.98
482.166	2215.1
482.537	2249.22
482.908	2302.78
483.279	2330.12
483.65	2404.47
484.021	2452.83
484.391	2454.41
484.762	2484.69
485.133	2517.69
485.503	2595.88
485.874	2616.22
486.244	2659.15
486.615	2720.85
486.985	2732.37
487.356	2811.24
487.726	2846.72
488.097	2912.71
488.467	2946.6
488.837	2975.98
489.207	3052.59
489.578	3091.01
489.948	3110.89
490.318	3160.83
490.688	3191.12
491.058	3244.67
491.428	3288.29
491.798	3379.59
492.168	3381.17
492.538	3422.75
492.908	3464.56
493.278	3544.1
493.648	3528.51
494.017	3588.62
494.387	3608.96
494.757	3665.68
495.126	3715.17
495.496	3724.44
495.866	3768.73
496.235	3824.55
496.605	3846.01
496.974	3881.95
497.344	3923.3
497.713	3945.45
498.082	3973.02
498.452	4044.43
498.821	4025.45
499.19	4055.5
499.559	4112
499.928	4161.71
500.298	4177.08
500.667	4195.38
501.036	4231.77
501.405	4277.19
501.774	4281.03
502.143	4305.21
502.512	4343.18
502.88	4334.59
503.249	4384.53
503.618	4379.79
503.987	4452.78
504.356	4462.72
504.724	4495.26
505.093	4488.71
505.462	4516.73
505.83	4517.41
506.199	4568.26
506.567	4666.56
506.936	4668.37
507.304	4663.17
507.672	4701.59
508.041	4726.44
508.409	4751.98
508.777	4782.04
509.145	4827.01
509.514	4794.24
509.882	4807.35
510.25	4880.11
510.618	4869.04
510.986	4904.97
511.354	4955.59
511.722	4977.06
512.09	5006.21
512.458	4963.5
512.826	5070.84
513.193	5059.09
513.561	5056.38
513.929	5137.51
514.297	5109.03
514.664	5139.09
515.032	5200.33
515.4	5198.52
515.767	5228.58
516.135	5234.45
516.502	5233.55
516.869	5338.63
517.237	5308.12
517.604	5296.82
517.972	5364.39
518.339	5374.56
518.706	5399.87
519.073	5383.83
519.44	5421.34
519.808	5422.7
520.175	5424.96
520.542	5447.78
520.909	5526.87
521.276	5550.6
521.643	5554.9
522.009	5618.62
522.376	5596.48
522.743	5629.7
523.11	5681.22
523.477	5747.21
523.843	5746.76
524.21	5816.58
524.577	5840.09
524.943	5836.02
525.31	5848
525.676	5909.01
526.043	5970.03
526.409	5939.29
526.776	6042.34
527.142	6045.05
527.508	6073.75
527.874	6169.57
528.241	6141.32
528.607	6131.6
528.973	6223.81
529.339	6194.2
529.705	6262.9
530.071	6313.07
530.437	6299.28
530.803	6404.59
531.169	6372.95
531.535	6386.96
531.901	6436
532.267	6436.68
532.632	6493.63
532.998	6471.03
533.364	6603
533.73	6574.53
534.095	6604.36
534.461	6640.29
534.826	6652.95
535.192	6639.39
535.557	6719.61
535.923	6753.06
536.288	6770.91
536.653	6758.25
537.019	6804.81
537.384	6806.16
537.749	6880.51
538.114	6911.24
538.479	6908.99
538.845	6921.64
539.21	6892.71
539.575	6968.87
539.94	6965.03
540.305	7080.51
540.67	7032.15
541.034	7080.28
541.399	7105.82
541.764	7112.6
542.129	7190.79
542.494	7163.89
542.858	7221.75
543.223	7214.97
543.587	7262.42
543.952	7244.34
544.316	7333.61
544.681	7352.82
545.045	7351.46
545.41	7351.23
545.774	7443.21
546.138	7386.71
546.503	7492.92
546.867	7455.64
547.231	7534.73
547.595	7588.74
547.959	7597.55
548.324	7655.18
548.688	7655.86
549.052	7651.79
549.416	7660.83
549.779	7666.71
550.143	7735.63
550.507	7819.24
550.871	7802.52
551.235	7829.19
551.599	7931.11
551.962	7903.08
552.326	7892.46
552.689	7974.04
553.053	7886.36
553.417	7950.54
553.78	8042.74
554.143	7995.28
554.507	8106.69
554.87	8097.65
555.234	8164.09
555.597	8139.01
555.96	8224.88
556.323	8185.79
556.686	8252.68
557.05	8287.71
557.413	8291.55
557.776	8379.91
558.139	8367.93
558.502	8422.62
558.865	8382.39
559.228	8467.59
559.59	8487.7
559.953	8468.72
560.316	8579.22
560.679	8590.52
561.041	8622.16
561.404	8619.67
561.767	8656.51
562.129	8597.75
562.492	8719.56
562.854	8774.25
563.217	8739.45
563.579	8756.62
563.941	8857.86
564.304	8944.86
564.666	8985.77
565.028	8913.23
565.39	8955.71
565.753	9038.19
566.115	9098.76
566.477	9029.38
566.839	9121.81
567.201	9149.83
567.563	9127.01
567.925	9185.31
568.287	9212.43
568.648	9257.85
569.01	9236.61
569.372	9385.3
569.734	9280.67
570.095	9425.75
570.457	9433.89
570.819	9449.03
571.18	9437.73
571.542	9585.3
571.903	9592.08
572.265	9628.91
572.626	9696.48
572.987	9709.36
573.349	9768.34
573.71	9868.23
574.071	9856.25
574.432	9926.08
574.794	10015.12
575.155	10001.11
575.516	10090.14
575.877	10134.21
576.238	10200.2
576.599	10321.32
576.96	10426.63
577.32	10457.82
577.681	10529.23
578.042	10605.16
578.403	10635.89
578.763	10799.96
579.124	10820.75
579.485	10947.97
579.845	11177.8
580.206	11119.72
580.566	11292.37
580.927	11327.85
581.287	11471.58
581.648	11610.56
582.008	11719.93
582.368	11822.98
582.728	11956.76
583.089	12148.17
583.449	12227.04
583.809	12489.86
584.169	12645.78
584.529	12716.74
584.889	13053.68
585.249	13170.74
585.609	13283.73
585.969	13566.66
586.329	13727.11
586.688	13964.84
587.048	14137.5
587.408	14417.49
587.768	14596.69
588.127	14819.74
588.487	14961.43
588.846	15354.64
589.206	15405.94
589.565	15834.17
589.925	16040.04
590.284	16236.65
590.643	16583.08
591.003	16842.74
591.362	17199.56
591.721	17385.55
592.08	17630.29
592.44	17984.85
592.799	18215.81
593.158	18580.09
593.517	18789.35
593.876	19090.13
594.235	19389.79
594.593	19733.28
594.952	20022.09
595.311	20207.62
595.67	20670.66
596.029	21040.59
596.387	21246.24
596.746	21706.56
597.104	21908.14
597.463	22209.15
597.822	22541.12
598.18	22820.66
598.538	23065.17
598.897	23533.41
599.255	23641.2
599.613	24226.5
599.972	24483.66
600.33	24732.7
600.688	24925.46
601.046	25318.9
601.404	25767.92
601.762	25938.09
602.12	26318.64
602.478	26602.03
602.836	26806.54
603.194	27105.06
603.552	27486.75
603.91	27624.37
604.268	28106.85
604.625	28252.38
604.983	28633.16
605.341	28707.73
605.698	29160.15
606.056	29395.85
606.413	29662.96
606.771	30032.9
607.128	30257.52
607.485	30243.06
607.843	30723.05
608.2	31033.77
608.557	31390.6
608.914	31530.48
609.272	31792.85
609.629	32085.72
609.986	32290.24
610.343	32372.72
610.7	32881.64
611.057	32933.39
611.414	33072.36
611.771	33255.86
612.127	33748.51
612.484	33899.24
612.841	34103.98
613.198	34226.68
613.554	34360.92
613.911	34602.27
614.267	34802.04
614.624	34899.89
614.98	35176.26
615.337	35437.95
615.693	35562.02
616.05	35728.57
616.406	36066.41
616.762	36069.8
617.118	36228.44
617.475	36438.38
617.831	36606.06
618.187	36751.59
618.543	36947.29
618.899	37229.77
619.255	37277.68
619.611	37395.64
619.967	37653.49
620.323	37792.24
620.678	37715.41
621.034	37898.68
621.39	37901.16
621.746	37943.2
622.101	38565.33
622.457	38350.87
622.812	38577.53
623.168	38732.1
623.523	38743.4
623.879	38947.69
624.234	38729.62
624.589	39044.19
624.945	39036.73
625.3	39272.2
625.655	39310.84
626.01	39521.91
626.365	39456.15
626.72	39566.43
627.075	39521.69
627.43	39652.76
627.785	39609.59
628.14	39805.3
628.495	39751.51
628.85	39879.87
629.205	39763.04
629.559	40084.84
629.914	39875.58
630.269	40018.85
630.623	39962.13
630.978	40092.07
631.332	40264.04
631.687	40352.4
632.041	40162.35
632.396	40201.67
632.75	40175.68
633.104	40286.19
633.459	40096.13
633.813	40165.96
634.167	40309.46
634.521	40290.25
634.875	40298.84
635.229	40263.36
635.583	40192.63
635.937	40243.25
636.291	40376.58
636.645	40286.86
636.999	40062.92
637.352	40287.09
637.706	40189.01
638.06	40365.96
638.413	40351.27
638.767	40125.96
639.121	40210.71
639.474	40077.83
639.828	40142.46
640.181	40211.84
640.534	40256.13
640.888	40153.99
641.241	40052.07
641.594	40165.51
641.947	40315.11
642.301	40257.26
642.654	40243.02
643.007	40330.71
643.36	40144.5
643.713	40141.33
644.066	40268.56
644.419	39986.53
644.771	39896.37
645.124	39531.63
645.477	39524.17
645.83	39116.5
646.182	39183.62
646.535	38961.93
646.888	39181.13
647.24	38880.8
647.593	39166.22
647.945	39069.95
648.298	38872.89
648.65	38846.22
649.002	38679.45
649.355	38920.35
649.707	38822.72
650.059	39140.23
650.411	39468.58
650.763	39517.85
651.115	40001.45
651.467	39689.37
651.819	39899.76
652.171	39762.36
652.523	39718.74
652.875	39709.48
653.227	39552.42
653.578	39796.26
653.93	39680.33
654.282	39631.06
654.633	39443.5
654.985	39563.27
655.337	39636.94
655.688	39594.45
656.039	39833.32
656.391	39430.84
656.742	39486.89
657.094	39467.45
657.445	39680.33
657.796	39536.83
658.147	39306.55
658.498	39442.59
658.849	39638.52
659.2	39385.87
659.551	39387.45
659.902	39516.72
660.253	39479.65
660.604	39429.49
660.955	39324.86
661.306	39485.3
661.656	39377.74
662.007	39452.54
662.358	39438.3
662.708	39547.9
663.059	39400.56
663.409	39123.51
663.76	39535.02
664.11	39424.06
664.461	39377.06
664.811	39226.78
665.161	39543.38
665.511	39332.54
665.862	39250.96
666.212	39430.84
666.562	39456.6
666.912	39267
667.262	39264.52
667.612	39259.32
667.962	39422.48
668.312	39267.23
668.662	39409.37
669.011	39309.94
669.361	39245.76
669.711	39322.6
670.06	39232.43
670.41	39225.88
670.76	39069.27
671.109	39280.11
671.459	39166.67
671.808	39081.02
672.157	39239.21
672.507	38931.42
672.856	39067.46
673.205	39026.11
673.554	39212.77
673.904	39012.32
674.253	39287.34
674.602	39163.96
674.951	38593.8
675.3	38337.31
675.649	38866.34
675.998	38869.05
676.346	38850.07
676.695	38984.75
677.044	38707.92
677.393	38911.08
677.741	38967.35
678.09	38831.54
678.438	38690.75
678.787	38797.41
679.135	38907.01
679.484	38549.96
679.832	38682.61
680.181	38603.07
680.529	38572.56
680.877	38494.6
681.225	38372.56
681.573	38714.02
681.922	38338.89
682.27	38375.95
682.618	38280.14
682.966	38148.16
683.314	38296.63
683.661	38145
684.009	38046.25
684.357	37982.29
684.705	37911.11
685.053	37989.98
685.4	37835.63
685.748	37776.87
686.095	37827.04
686.443	37674.96
686.79	37522.19
687.138	37643.09
687.485	37547.05
687.832	37432.02
688.18	37500.05
688.527	37251.46
688.874	37185.48
689.221	37166.49
689.568	37105.25
689.915	36984.58
690.262	36960.4
690.609	36856.45
690.956	36774.87
691.303	36661.65
691.65	36533.52
691.997	36514.08
692.344	36422.79
692.69	36376.23
693.037	36309.79
693.383	36080.42
693.73	36176.46
694.077	36017.82
694.423	35958.16
694.769	35938.05
695.116	35817.83
695.462	35691.96
695.808	35716.36
696.155	35808.79
696.501	35239.54
696.847	35355.92
697.193	35130.16
697.539	35244.96
697.885	35089.26
698.231	35040.22
698.577	34950.51
698.923	34945.08
699.269	34741.47
699.614	34698.76
699.96	34564.76
700.306	34566.34
700.651	34472.78
700.997	34394.82
701.342	34198.89
701.688	34259
702.033	34083.86
702.379	34192.79
702.724	34007.03
703.069	34067.82
703.415	33768.84
703.76	33807.03
704.105	33780.37
704.45	33722.74
704.795	33475.07
705.14	33343.77
705.485	33287.27
705.83	33147.17
706.175	33281.62
706.52	33145.81
706.865	33106.04
707.209	33096.09
707.554	32826.04
707.899	33028.52
708.243	32819.49
708.588	32644.13
708.932	32481.42
709.277	32480.97
709.621	32515.32
709.966	32250.24
710.31	32426.51
710.654	32026.52
710.998	32270.35
711.342	32078.94
711.687	31982
712.031	32001.43
712.375	31754.43
712.719	31833.75
713.063	31810.93
713.407	31883.24
713.75	31608
714.094	31583.82
714.438	31428.79
714.782	31580.88
715.125	31408.68
715.469	31494.1
715.812	31274.22
716.156	31266.76
716.499	31215.69
716.843	31199.65
717.186	31025.19
717.53	31160.55
717.873	31019.54
718.216	31058.86
718.559	30876.26
718.902	30758.08
719.246	30681.02
719.589	30725.08
719.932	30529.83
720.275	30500.91
720.617	30396.73
720.96	30493.22
721.303	30390.85
721.646	30411.64
721.989	30312.21
722.331	30350.4
722.674	30196.96
723.016	30209.62
723.359	30124.19
723.701	30162.84
724.044	29985.21
724.386	29844.2
724.729	30101.6
725.071	29887.14
725.413	29887.82
725.755	29756.29
726.097	29570.31
726.439	29676.75
726.782	29582.06
727.124	29688.95
727.465	29542.74
727.807	29542.97
728.149	29468.84
728.491	29473.14
728.833	29478.79
729.175	29314.05
729.516	29194.05
729.858	29360.37
730.199	29346.59
730.541	29219.13
730.882	29072.02
731.224	29155.18
731.565	28931.46
731.906	29084.22
732.248	29055.75
732.589	28915.86
732.93	28848.3
733.271	28735.08
733.612	28867.96
733.953	28752.7
734.294	28658.02
734.635	28591.58
734.976	28738.02
735.317	28554.97
735.658	28642.42
735.999	28501.41
736.339	28518.59
736.68	28507.51
737.021	28534.18
737.361	28388.42
737.702	28394.3
738.042	28289.21
738.383	28369.44
738.723	28331.7
739.063	28153.17
739.404	28392.94
739.744	28088.32
740.084	28157.24
740.424	28177.8
740.764	28032.05
741.104	28088.32
741.444	28042.89
741.784	27891.48
742.124	27895.1
742.464	27817.81
742.804	27818.94
743.143	27743.69
743.483	27939.84
743.823	27707.53
744.162	27699.4
744.502	27695.78
744.841	27525.17
745.181	27641.1
745.52	27470.48
745.86	27557.71
746.199	27483.36
746.538	27474.09
746.877	27488.56
747.216	27479.29
747.556	27322.69
747.895	27378.28
748.234	27246.53
748.573	27224.84
748.911	27248.34
749.25	27231.84
749.589	27211.73
749.928	27123.37
750.267	27209.92
750.605	27106.65
750.944	27054.67
751.283	27091.05
751.621	27012.19
751.96	26851.74
752.298	26894.45
752.636	26736.49
752.975	26729.93
753.313	26623.95
753.651	26665.98
753.989	26509.15
754.327	26531.75
754.666	26562.93
755.004	26452.2
755.342	26508.7
755.679	26485.65
756.017	26163.62
756.355	26310.96
756.693	26173.11
757.031	26220.34
757.368	26000.46
757.706	25975.6
758.044	25880.69
758.381	26052.21
758.719	25848.83
759.056	25875.94
759.394	25822.16
759.731	25618.32
760.068	25670.75
760.405	25495.16
