Data from hue_100_FLMS001491_00096.txt Node
Date: Tue Feb 07 17:03:54 GMT 2017
User: dcchb
Spectrometer: FLMS00149
Trigger mode: 0
Integration Time (sec): 2.000000E-2
Scans to average: 10
Electric dark correction enabled: true
Nonlinearity correction enabled: false
Boxcar width: 0
XAxis mode: Wavelengths
Number of Pixels in Spectrum: 2048
>>>>>Begin Spectral Data<<<<<
341.393	-17.03
341.776	-17.03
342.16	-17.03
342.543	-71.72
342.927	-73.3
343.31	-68.56
343.693	-78.95
344.077	-50.93
344.46	-55.68
344.843	-35.79
345.226	-40.54
345.61	-23.13
345.993	-36.69
346.376	-5.06
346.759	22.29
347.142	29.74
347.525	38.11
347.908	46.69
348.291	73.13
348.674	82.85
349.057	102.51
349.44	124.66
349.823	155.17
350.206	171.66
350.588	209.63
350.971	198.78
351.354	212.57
351.737	243.3
352.119	233.13
352.502	257.76
352.884	262.28
353.267	275.39
353.65	319
354.032	312.68
354.414	313.58
354.797	313.35
355.179	336.4
355.562	323.97
355.944	332.34
356.326	325.33
356.709	346.57
357.091	342.05
357.473	343.64
357.855	333.92
358.238	345.22
358.62	334.37
359.002	347.02
359.384	350.87
359.766	329.62
360.148	324.65
360.53	337.08
360.912	338.89
361.294	313.58
361.676	322.39
362.057	334.6
362.439	336.4
362.821	332.34
363.203	342.28
363.584	332.34
363.966	309.06
364.348	310.87
364.729	326.46
365.111	339.34
365.493	327.36
365.874	312.9
366.256	311.77
366.637	322.62
367.019	329.17
367.4	331.66
367.781	306.12
368.163	351.77
368.544	288.04
368.925	314.71
369.306	319.23
369.688	325.56
370.069	326.01
370.45	328.72
370.831	290.76
371.212	314.94
371.593	300.92
371.974	329.85
372.355	313.81
372.736	328.72
373.117	321.26
373.498	331.21
373.879	324.65
374.26	314.48
374.641	326.69
375.021	321.49
375.402	332.11
375.783	320.36
376.163	362.17
376.544	333.01
376.925	335.95
377.305	336.63
377.686	320.36
378.066	319.45
378.447	328.04
378.827	334.82
379.208	342.51
379.588	352.67
379.968	332.34
380.349	335.5
380.729	348.15
381.109	312.45
381.489	350.64
381.87	344.54
382.25	331.21
382.63	366.46
383.01	367.82
383.39	335.27
383.77	365.1
384.15	348.38
384.53	351.54
384.91	361.94
385.29	373.92
385.67	381.15
386.049	366.01
386.429	371.2
386.809	379.11
387.189	379.57
387.568	358.78
387.948	363.52
388.328	384.76
388.707	367.14
389.087	367.82
389.466	373.69
389.846	372.56
390.225	397.19
390.605	373.46
390.984	403.97
391.363	359
391.743	399.9
392.122	389.06
392.501	379.11
392.881	392.22
393.26	400.36
393.639	368.95
394.018	391.09
394.397	408.04
394.776	412.56
395.155	384.31
395.534	402.16
395.913	391.09
396.292	415.5
396.671	392
397.05	404.2
397.429	396.97
397.808	406.91
398.186	403.97
398.565	419.34
398.944	407.36
399.323	418.21
399.701	418.21
400.08	406.46
400.458	398.1
400.837	412.79
401.215	408.94
401.594	429.28
401.972	427.7
402.351	421.83
402.729	428.83
403.107	418.21
403.486	428.83
403.864	420.24
404.242	432.22
404.62	435.61
404.999	445.78
405.377	443.75
405.755	453.24
406.133	469.96
406.511	432.67
406.889	447.14
407.267	430.19
407.645	457.98
408.023	461.15
408.401	464.08
408.779	448.04
409.156	471.32
409.534	490.52
409.912	477.64
410.29	467.7
410.667	487.81
411.045	490.75
411.422	495.27
411.8	474.71
412.178	505.66
412.555	508.83
412.933	498.43
413.31	509.51
413.687	523.52
414.065	536.4
414.442	505.44
414.819	536.17
415.197	536.17
415.574	529.62
415.951	507.47
416.328	538.21
416.705	547.7
417.082	526.91
417.46	562.39
417.837	549.28
418.214	539.34
418.591	540.92
418.967	554.02
419.344	549.51
419.721	579.79
420.098	572.1
420.475	573.46
420.852	554.48
421.228	599
421.605	578.66
421.982	583.18
422.358	610.97
422.735	603.74
423.111	595.61
423.488	589.96
423.864	594.93
424.241	608.49
424.617	613.91
424.994	610.52
425.37	615.94
425.746	610.75
426.123	629.28
426.499	625.66
426.875	637.86
427.251	639.67
427.627	656.4
428.003	652.55
428.379	651.2
428.756	662.04
429.132	672.44
429.507	673.12
429.883	700.24
430.259	706.56
430.635	706.11
431.011	697.07
431.387	719.22
431.763	716.51
432.138	714.25
432.514	747.69
432.89	731.65
433.265	754.02
433.641	763.06
434.016	756.05
434.392	775.71
434.767	760.8
435.143	786.34
435.518	773.68
435.894	785.88
436.269	786.11
436.644	777.52
437.02	809.16
437.395	814.81
437.77	819.1
438.145	806.45
438.52	835.37
438.895	843.73
439.271	841.48
439.646	860.01
440.021	864.07
440.395	874.47
440.77	860.01
441.145	883.28
441.52	887.58
441.895	883.96
442.27	918.76
442.645	894.81
443.019	907.46
443.394	907.91
443.769	928.48
444.143	933.9
444.518	906.78
444.892	946.11
445.267	968.25
445.641	955.6
446.016	944.98
446.39	954.01
446.764	974.13
447.139	966.9
447.513	972.77
447.887	980
448.262	974.8
448.636	993.79
449.01	989.72
449.384	997.18
449.758	1028.59
450.132	1019.55
450.506	1045.09
450.88	1045.76
451.254	1052.99
451.628	1053.45
452.002	1070.4
452.376	1082.15
452.75	1078.08
453.123	1077.4
453.497	1114.91
453.871	1114.46
454.244	1129.6
454.618	1126.44
454.992	1183.16
455.365	1159.43
455.739	1186.55
456.112	1228.36
456.486	1201.47
456.859	1211.86
457.232	1229.04
457.606	1252.54
457.979	1246.44
458.352	1266.32
458.725	1280.79
459.099	1323.72
459.472	1322.82
459.845	1349.26
460.218	1339.32
460.591	1356.49
460.964	1356.49
461.337	1404.85
461.71	1414.34
462.083	1436.49
462.456	1469.48
462.829	1460.89
463.201	1511.29
463.574	1507.67
463.947	1535.69
464.32	1556.48
464.692	1571.4
465.065	1570.5
465.438	1599.65
465.81	1663.6
466.183	1659.31
466.555	1687.78
466.928	1676.48
467.3	1744.95
467.672	1737.27
468.045	1796.7
468.417	1795.8
468.789	1839.19
469.161	1842.13
469.534	1898.62
469.906	1932.52
470.278	1945.63
470.65	2013.42
471.022	2025.17
471.394	2053.87
471.766	2137.03
472.138	2148.79
472.51	2170.71
472.882	2221.33
473.253	2312.62
473.625	2312.4
473.997	2378.61
474.369	2416.8
474.74	2472.62
475.112	2516.23
475.484	2579.06
475.855	2640.07
476.227	2664.7
476.598	2780.18
476.97	2835.77
477.341	2932.49
477.713	2985.37
478.084	2966.39
478.455	3125.26
478.827	3227.85
479.198	3302.88
479.569	3319.83
479.94	3465.36
480.311	3517.79
480.682	3639.37
481.053	3718.46
481.424	3848.63
481.795	3915.97
482.166	4010.21
482.537	4102.63
482.908	4188.51
483.279	4325.45
483.65	4441.83
484.021	4556.41
484.391	4682.96
484.762	4773.12
485.133	4860.8
485.503	4973.57
485.874	5167.24
486.244	5252.21
486.615	5397.97
486.985	5521.35
487.356	5705.3
487.726	5774.9
488.097	6006.76
488.467	6051.96
488.837	6260.09
489.207	6351.84
489.578	6507.77
489.948	6658.27
490.318	6875.89
490.688	6905.5
491.058	7124.25
491.428	7233.4
491.798	7339.61
492.168	7596.1
492.538	7657.57
492.908	7865.47
493.278	7977.78
493.648	8103.21
494.017	8284.9
494.387	8442.18
494.757	8516.75
495.126	8721.72
495.496	8834.26
495.866	8976.4
496.235	9060.92
496.605	9253.01
496.974	9317.41
497.344	9506.33
497.713	9583.62
498.082	9715.37
498.452	9937.96
498.821	9932.31
499.19	10130.27
499.559	10170.04
499.928	10336.59
500.298	10424.95
500.667	10618.62
501.036	10685.96
501.405	10746.53
501.774	10776.13
502.143	10935.22
502.512	11014.99
502.88	11129.11
503.249	11206.63
503.618	11333.18
503.987	11483
504.356	11523.45
504.724	11606.62
505.093	11674.86
505.462	11790.11
505.83	11951.47
506.199	11991.69
506.567	12139.26
506.936	12110.11
507.304	12335.41
507.672	12384.45
508.041	12454.5
508.409	12603.88
508.777	12661.05
509.145	12769.75
509.514	12713.93
509.882	12859.01
510.25	12926.36
510.618	12977.2
510.986	13002.51
511.354	13075.05
511.722	13244.31
512.09	13354.14
512.458	13292.67
512.826	13350.52
513.193	13460.58
513.561	13511.88
513.929	13603.63
514.297	13637.97
514.664	13730.85
515.032	13752.32
515.4	13880
515.767	13916.16
516.135	13947.12
516.502	13890.17
516.869	14054.69
517.237	14105.99
517.604	14094.69
517.972	14154.57
518.339	14155.25
518.706	14148.02
519.073	14312.53
519.44	14283.38
519.808	14376.03
520.175	14346.66
520.542	14542.13
520.909	14591.62
521.276	14446.77
521.643	14663.03
522.009	14655.8
522.376	14701.68
522.743	14802.01
523.11	14860.99
523.477	14952.52
523.843	15013.76
524.21	15100.54
524.577	15073.64
524.943	15089.46
525.31	15151.83
525.676	15306.41
526.043	15311.6
526.409	15327.87
526.776	15385.27
527.142	15337.14
527.508	15397.25
527.874	15404.93
528.241	15449.68
528.607	15446.06
528.973	15527.19
529.339	15410.36
529.705	15580.75
530.071	15740.97
530.437	15650.58
530.803	15807.64
531.169	15736.45
531.535	15587.3
531.901	15700.07
532.267	15626.17
532.632	15693.97
532.998	15782.33
533.364	15705.49
533.73	15689.9
534.095	15805.38
534.461	15713.17
534.826	15693.29
535.192	15743.91
535.557	15752.95
535.923	15617.36
536.288	15695.32
536.653	15786.17
537.019	15612.39
537.384	15674.98
537.749	15600.86
538.114	15583.69
538.479	15558.15
538.845	15545.27
539.21	15525.83
539.575	15544.82
539.94	15453.52
540.305	15515.44
540.67	15496.91
541.034	15439.51
541.399	15379.62
541.764	15405.16
542.129	15436.8
542.494	15312.06
542.858	15438.38
543.223	15342.79
543.587	15345.95
543.952	15281.32
544.316	15269.34
544.681	15179.86
545.045	15224.37
545.41	15268.67
545.774	15208.1
546.138	15141.89
546.503	15101.21
546.867	14995.68
547.231	15018.73
547.595	14972.4
547.959	15086.52
548.324	14972.63
548.688	14948.22
549.052	15001.55
549.416	14924.95
549.779	14867.32
550.143	14933.76
550.507	14892.41
550.871	14880.2
551.235	14746.65
551.599	14799.07
551.962	14816.47
552.326	14771.73
552.689	14827.77
553.053	14682.92
553.417	14744.16
553.78	14841.78
554.143	14626.65
554.507	14719.75
554.87	14738.06
555.234	14736.02
555.597	14619.19
555.96	14767.89
556.323	14695.57
556.686	14564.73
557.05	14640.43
557.413	14696.25
557.776	14666.2
558.139	14604.28
558.502	14524.28
558.865	14621.68
559.228	14649.93
559.59	14599.08
559.953	14618.29
560.316	14780.77
560.679	14677.27
561.041	14726.53
561.404	14670.26
561.767	14718.62
562.129	14741.45
562.492	14758.4
562.854	14783.48
563.217	14678.85
563.579	14702.13
563.941	14770.15
564.304	14770.37
564.666	14833.2
565.028	14892.18
565.39	14886.53
565.753	14915.46
566.115	14947.32
566.477	14915.91
566.839	14929.47
567.201	15042.23
567.563	15009.46
567.925	15075
568.287	14973.76
568.648	14955.91
569.01	15040.65
569.372	15163.13
569.734	14962.01
570.095	15023.25
570.457	15193.64
570.819	15194.32
571.18	15125.62
571.542	15154.55
571.903	15156.35
572.265	15208.33
572.626	15236.58
572.987	15226.18
573.349	15168.33
573.71	15332.39
574.071	15283.58
574.432	15236.58
574.794	15368.55
575.155	15371.26
575.516	15369.91
575.877	15338.72
576.238	15384.6
576.599	15372.84
576.96	15353.64
577.32	15333.75
577.681	15452.84
578.042	15397.25
578.403	15431.15
578.763	15378.49
579.124	15352.51
579.485	15403.58
579.845	15560.18
580.206	15433.63
580.566	15452.39
580.927	15462.79
581.287	15473.18
581.648	15470.69
582.008	15434.09
582.368	15378.95
582.728	15497.36
583.089	15410.58
583.449	15484.25
583.809	15358.16
584.169	15352.51
584.529	15340.75
584.889	15492.84
585.249	15348.44
585.609	15250.59
585.969	15395.89
586.329	15382.79
586.688	15266.63
587.048	15357.7
587.408	15250.14
587.768	15220.76
588.127	15225.5
588.487	15236.12
588.846	15325.39
589.206	15188.44
589.565	15301.43
589.925	15245.39
590.284	15277.03
590.643	15267.76
591.003	15238.38
591.362	15237.48
591.721	15250.14
592.08	15120.65
592.44	15300.53
592.799	15267.31
593.158	15235.22
593.517	15286.97
593.876	15220.53
594.235	15137.14
594.593	15104.38
594.952	15079.07
595.311	15086.3
595.67	15224.15
596.029	15252.17
596.387	15251.94
596.746	15247.2
597.104	15175.56
597.463	15088.11
597.822	15142.12
598.18	15081.1
598.538	15104.83
598.897	15253.53
599.255	15029.35
599.613	15219.4
599.972	15136.92
600.33	15257.59
600.688	15036.81
601.046	15109.8
601.404	15232.06
601.762	15275.22
602.12	15249.23
602.478	15256.46
602.836	15133.53
603.194	15027.09
603.552	15111.83
603.91	15024.6
604.268	15105.28
604.625	15093.3
604.983	15174.88
605.341	15036.58
605.698	15199.29
606.056	15225.73
606.413	15197.26
606.771	15137.37
607.128	15272.51
607.485	15119.74
607.843	15136.69
608.2	15173.75
608.557	15312.51
608.914	15135.79
609.272	15310.02
609.629	15233.64
609.986	15443.8
610.343	15241.1
610.7	15415.78
611.057	15305.05
611.414	15276.35
611.771	15163.81
612.127	15398.83
612.484	15233.41
612.841	15399.51
613.198	15298.5
613.554	15329.46
613.911	15443.8
614.267	15377.82
614.624	15386.63
614.98	15395.44
615.337	15440.19
615.693	15426.18
616.05	15471.82
616.406	15579.39
616.762	15528.09
617.118	15494.88
617.475	15511.6
617.831	15592.5
618.187	15583.01
618.543	15608.54
618.899	15691.25
619.255	15576.91
619.611	15596.57
619.967	15653.51
620.323	15710.24
620.678	15630.92
621.034	15615.78
621.39	15568.55
621.746	15527.64
622.101	15745.26
622.457	15578.49
622.812	15573.74
623.168	15648.32
623.523	15688.32
623.879	15666.85
624.234	15567.42
624.589	15577.13
624.945	15577.81
625.3	15654.19
625.655	15643.57
626.01	15623.46
626.365	15583.91
626.72	15533.74
627.075	15574.42
627.43	15556.34
627.785	15607.87
628.14	15607.64
628.495	15558.83
628.85	15553.63
629.205	15565.38
629.559	15601.99
629.914	15515.67
630.269	15527.19
630.623	15496.91
630.978	15488.1
631.332	15494.65
631.687	15519.51
632.041	15391.6
632.396	15499.17
632.75	15463.92
633.104	15514.99
633.459	15297.59
633.813	15327.42
634.167	15337.14
634.521	15387.99
634.875	15435.22
635.229	15350.47
635.583	15257.37
635.937	15205.62
636.291	15262.56
636.645	15333.3
636.999	15214.66
637.352	15281.1
637.706	15130.36
638.06	15225.05
638.413	15148.22
638.767	15110.93
639.121	15103.25
639.474	15149.35
639.828	15133.3
640.181	15102.79
640.534	15143.92
640.888	14979.41
641.241	14946.87
641.594	15001.55
641.947	15003.59
642.301	14943.25
642.654	15044.72
643.007	14974.66
643.36	14946.87
643.713	14915.68
644.066	14904.16
644.419	14813.09
644.771	14825.29
645.124	14637.72
645.477	14697.83
645.83	14506.2
646.182	14465.52
646.535	14511.62
646.888	14492.87
647.24	14388.01
647.593	14441.34
647.945	14434.79
648.298	14373.32
648.65	14399.76
649.002	14367.45
649.355	14419.88
649.707	14358.63
650.059	14512.53
650.411	14712.97
650.763	14684.73
651.115	14806.76
651.467	14766.76
651.819	14785.52
652.171	14700.55
652.523	14689.7
652.875	14678.17
653.227	14654.9
653.578	14754.33
653.93	14745.74
654.282	14659.87
654.633	14698.96
654.985	14675.91
655.337	14724.73
655.688	14707.1
656.039	14830.94
656.391	14629.59
656.742	14678.85
657.094	14750.26
657.445	14803.59
657.796	14715.91
658.147	14723.37
658.498	14774.44
658.849	14743.48
659.2	14764.27
659.551	14750.26
659.902	14780.54
660.253	14748.23
660.604	14758.17
660.955	14701
661.306	14737.61
661.656	14807.44
662.007	14762.46
662.358	14848.11
662.708	14741.9
663.059	14866.64
663.409	14776.48
663.76	14773.76
664.11	14823.71
664.461	14773.99
664.811	14795.23
665.161	14839.75
665.511	14825.74
665.862	14761.34
666.212	14777.61
666.562	14776.48
666.912	14762.24
667.262	14784.39
667.612	14743.03
667.962	14783.48
668.312	14788.45
668.662	14822.12
669.011	14803.37
669.361	14725.4
669.711	14778.28
670.06	14671.39
670.41	14734.9
670.76	14682.69
671.109	14724.73
671.459	14710.71
671.808	14699.19
672.157	14746.42
672.507	14642.02
672.856	14642.47
673.205	14622.13
673.554	14670.72
673.904	14552.98
674.253	14733.99
674.602	14671.62
674.951	14403.15
675.3	14340.33
675.649	14569.48
675.998	14569.02
676.346	14576.71
676.695	14620.55
677.044	14439.99
677.393	14552.3
677.741	14589.36
678.09	14517.5
678.438	14518.18
678.787	14436.6
679.135	14425.52
679.484	14272.31
679.832	14326.32
680.181	14370.16
680.529	14344.17
680.877	14247.68
681.225	14260.56
681.573	14330.84
681.922	14267.34
682.27	14204.29
682.618	14184.63
682.966	14163.61
683.314	14184.4
683.661	14145.53
684.009	14080.45
684.357	14009.49
684.705	14021.92
685.053	14058.75
685.4	13985.99
685.748	13884.97
686.095	13866.44
686.443	13747.8
686.79	13848.82
687.138	13852.21
687.485	13856.27
687.832	13759.33
688.18	13705.77
688.527	13678.2
688.874	13653.57
689.221	13611.08
689.568	13586.22
689.915	13560.01
690.262	13627.35
690.609	13499
690.956	13470.3
691.303	13438.88
691.65	13335.16
691.997	13331.09
692.344	13223.3
692.69	13252.45
693.037	13226.69
693.383	13115.95
693.73	13169.51
694.077	13077.99
694.423	13023.75
694.769	13021.72
695.116	12962.29
695.462	12951.89
695.808	12937.88
696.155	12906.69
696.501	12820.37
696.847	12790.31
697.193	12662.41
697.539	12672.12
697.885	12525.24
698.231	12543.77
698.577	12504.22
698.923	12479.59
699.269	12366.82
699.614	12314.62
699.96	12322.76
700.306	12317.78
700.651	12236.88
700.997	12222.64
701.342	12207.28
701.688	12159.14
702.033	12079.15
702.379	12085.47
702.724	12021.75
703.069	11986.49
703.415	11890.9
703.76	11882.09
704.105	11839.15
704.45	11885.93
704.795	11789.66
705.14	11691.36
705.485	11707.4
705.83	11678.48
706.175	11646.84
706.52	11641.64
706.865	11612.94
707.209	11564.58
707.554	11473.06
707.899	11557.8
708.243	11470.35
708.588	11394.64
708.932	11351.26
709.277	11335.21
709.621	11279.39
709.966	11275.78
710.31	11231.26
710.654	11134.09
710.998	11140.64
711.342	11125.5
711.687	11091.15
712.031	11014.77
712.375	11066.97
712.719	11069.91
713.063	11011.15
713.407	11023.81
713.75	11000.08
714.094	11007.76
714.438	10952.85
714.782	10960.98
715.125	10942
715.469	10882.79
715.812	10840.53
716.156	10770.93
716.499	10803.7
716.843	10828.56
717.186	10712.85
717.53	10899.52
717.873	10810.48
718.216	10758.28
718.559	10677.6
718.902	10601.22
719.246	10655.45
719.589	10641.22
719.932	10591.95
720.275	10612.52
720.617	10583.59
720.96	10577.04
721.303	10587.43
721.646	10530.03
721.989	10485.06
722.331	10557.6
722.674	10465.85
723.016	10483.71
723.359	10462.69
723.701	10513.76
724.044	10433.54
724.386	10406.65
724.729	10474.89
725.071	10466.08
725.413	10467.89
725.755	10459.08
726.097	10410.94
726.439	10374.78
726.782	10343.82
727.124	10383.6
727.465	10317.61
727.807	10347.67
728.149	10271.51
728.491	10279.42
728.833	10265.18
729.175	10193.77
729.516	10309.02
729.858	10274.9
730.199	10320.1
730.541	10298.4
730.882	10222.02
731.224	10310.15
731.565	10230.15
731.906	10249.14
732.248	10266.31
732.589	10252.75
732.93	10138.18
733.271	10269.02
733.612	10270.38
733.953	10301.11
734.294	10160.55
734.635	10237.61
734.976	10177.05
735.317	10174.34
735.658	10188.12
735.999	10186.09
736.339	10130.95
736.68	10259.08
737.021	10165.75
737.361	10229.02
737.702	10208.69
738.042	10219.08
738.383	10231.51
738.723	10215.69
739.063	10250.04
739.404	10252.3
739.744	10251.85
740.084	10235.13
740.424	10324.39
740.764	10288.46
741.104	10364.84
741.444	10278.29
741.784	10338.17
742.124	10331.17
742.464	10400.77
742.804	10364.61
743.143	10433.31
743.483	10426.76
743.823	10404.16
744.162	10424.05
744.502	10477.38
744.841	10462.47
745.181	10544.5
745.52	10537.94
745.86	10568
746.199	10559.41
746.538	10619.52
746.877	10755.34
747.216	10823.59
747.556	10843.92
747.895	10922.79
748.234	10822.23
748.573	10956.46
748.911	11045.95
749.25	11044.6
749.589	11150.13
749.928	11254.76
750.267	11314.65
750.605	11381.31
750.944	11437.58
751.283	11354.87
751.621	11592.15
751.96	11660.63
752.298	11735.2
752.636	11864.24
752.975	11805.71
753.313	11957.34
753.651	12166.38
753.989	12201.4
754.327	12311.68
754.666	12393.94
755.004	12484.78
755.342	12676.87
755.679	12858.79
756.017	12923.42
756.355	13064.66
