Data from hue_24_FLMS001491_00089.txt Node
Date: Tue Feb 07 17:12:53 GMT 2017
User: dcchb
Spectrometer: FLMS00149
Trigger mode: 0
Integration Time (sec): 2.000000E-2
Scans to average: 10
Electric dark correction enabled: true
Nonlinearity correction enabled: false
Boxcar width: 0
XAxis mode: Wavelengths
Number of Pixels in Spectrum: 2048
>>>>>Begin Spectral Data<<<<<
341.393	-20.97
341.776	-20.97
342.16	-20.97
342.543	-70.01
342.927	-70.69
343.31	-72.72
343.693	-73.85
344.077	-54.87
344.46	-44.02
344.843	-40.86
345.226	-46.28
345.61	-34.08
345.993	-31.37
346.376	-7.87
346.759	3.21
347.142	30.1
347.525	53.6
347.908	52.92
348.291	77.78
348.674	100.38
349.057	87.95
349.44	97.44
349.823	129.3
350.206	155.07
350.588	210.88
350.971	204.56
351.354	213.37
351.737	250.88
352.119	262.86
352.502	242.3
352.884	268.28
353.267	273.03
353.65	279.81
354.032	297.44
354.414	325.46
354.797	319.58
355.179	320.71
355.562	316.42
355.944	339.02
356.326	323.65
356.709	322.07
357.091	356.87
357.473	331.56
357.855	355.06
358.238	329.07
358.62	330.66
359.002	353.03
359.384	341.05
359.766	342.18
360.148	342.86
360.53	346.7
360.912	345.34
361.294	337.89
361.676	326.59
362.057	329.98
362.439	335.17
362.821	325.46
363.203	322.75
363.584	323.42
363.966	319.58
364.348	328.62
364.729	328.85
365.111	307.6
365.493	328.85
365.874	326.59
366.256	317.32
366.637	297.66
367.019	291.11
367.4	310.77
367.781	311.22
368.163	319.36
368.544	318.45
368.925	334.27
369.306	333.59
369.688	297.89
370.069	336.98
370.45	320.03
370.831	313.25
371.212	298.11
371.593	318.68
371.974	340.37
372.355	336.3
372.736	336.3
373.117	338.56
373.498	296.76
373.879	329.3
374.26	305.12
374.641	320.26
375.021	341.28
375.402	324.33
375.783	327.49
376.163	341.73
376.544	332.01
376.925	348.51
377.305	334.95
377.686	331.11
378.066	322.52
378.447	316.42
378.827	304.67
379.208	300.6
379.588	340.37
379.968	323.65
380.349	334.5
380.729	338.79
381.109	342.18
381.489	340.82
381.87	327.49
382.25	318
382.63	335.4
383.01	341.73
383.39	348.28
383.77	336.98
384.15	355.29
384.53	346.25
384.91	333.14
385.29	359.13
385.67	349.41
386.049	355.29
386.429	328.4
386.809	332.69
387.189	357.32
387.568	347.83
387.948	365.68
388.328	349.86
388.707	358.9
389.087	342.41
389.466	351.22
389.846	390.99
390.225	361.16
390.605	374.5
390.984	368.85
391.363	383.08
391.743	378.34
392.122	359.58
392.501	380.15
392.881	395.74
393.26	374.95
393.639	399.81
394.018	376.98
394.397	384.21
394.776	390.99
395.155	374.72
395.534	396.19
395.913	395.96
396.292	358.45
396.671	372.24
397.05	390.77
397.429	387.6
397.808	379.69
398.186	401.84
398.565	393.93
398.944	394.83
399.323	389.18
399.701	407.04
400.08	405.23
400.458	414.72
400.837	382.18
401.215	422.86
401.594	394.16
401.972	404.33
402.351	414.72
402.729	406.13
403.107	401.61
403.486	417.21
403.864	416.53
404.242	419.47
404.62	409.98
404.999	421.73
405.377	429.18
405.755	451.78
406.133	444.1
406.511	446.36
406.889	431.22
407.267	452.69
407.645	455.62
408.023	441.61
408.401	406.81
408.779	443.65
409.156	466.02
409.534	459.69
409.912	450.88
410.29	453.82
410.667	452.46
411.045	470.31
411.422	462.86
411.8	462.63
412.178	475.96
412.555	482.06
412.933	466.47
413.31	498.79
413.687	482.52
414.065	480.26
414.442	490.2
414.819	480.03
415.197	517.77
415.574	508.96
415.951	526.81
416.328	489.97
416.705	503.31
417.082	538.11
417.46	513.48
417.837	527.49
418.214	515.28
418.591	519.35
418.967	525.68
419.344	532.46
419.721	528.39
420.098	534.04
420.475	519.12
420.852	553.93
421.228	547.6
421.605	547.6
421.982	547.37
422.358	545.79
422.735	559.12
423.111	548.05
423.488	539.69
423.864	572
424.241	573.36
424.617	561.61
424.994	565.68
425.37	569.07
425.746	582.63
426.123	570.2
426.499	576.52
426.875	594.38
427.251	578.56
427.627	578.11
428.003	595.73
428.379	611.33
428.756	607.26
429.132	603.64
429.507	636.86
429.883	631.89
430.259	635.73
430.635	640.03
431.011	623.98
431.387	642.51
431.763	640.7
432.138	674.6
432.514	645.45
432.89	668.73
433.265	687.03
433.641	679.12
434.016	685
434.392	700.59
434.767	703.07
435.143	672.12
435.518	699.91
435.894	689.52
436.269	714.6
436.644	720.7
437.02	727.48
437.395	735.62
437.77	741.94
438.145	748.27
438.52	739.46
438.895	775.62
439.271	746.46
439.646	759.34
440.021	756.86
440.395	789.17
440.77	793.47
441.145	765.67
441.52	812
441.895	773.13
442.27	784.2
442.645	777.42
443.019	828.5
443.394	807.03
443.769	807.03
444.143	823.98
444.518	848.83
444.892	814.03
445.267	828.5
445.641	849.96
446.016	832.56
446.39	846.12
446.764	855.84
447.139	854.48
447.513	847.03
447.887	858.78
448.262	895.61
448.636	849.06
449.01	871.66
449.384	901.04
449.758	880.25
450.132	906.23
450.506	885.44
450.88	919.11
451.254	898.32
451.628	913.69
452.002	930.41
452.376	936.06
452.75	953.01
453.123	957.98
453.497	946.01
453.871	952.11
454.244	980.36
454.618	978.55
454.992	1004.31
455.365	1022.16
455.739	1026
456.112	1028.94
456.486	1035.04
456.859	1025.78
457.232	1054.25
457.606	1070.75
457.979	1069.39
458.352	1084.53
458.725	1084.08
459.099	1087.02
459.472	1111.65
459.845	1114.36
460.218	1140.35
460.591	1154.59
460.964	1141.26
461.337	1175.6
461.71	1184.64
462.083	1203.17
462.456	1188.94
462.829	1210.86
463.201	1245.89
463.574	1245.89
463.947	1249.28
464.32	1284.3
464.692	1289.27
465.065	1300.12
465.438	1308.48
465.81	1313.45
466.183	1353.45
466.555	1361.36
466.928	1362.04
467.3	1373.11
467.672	1391.64
468.045	1436.39
468.417	1455.37
468.789	1463.05
469.161	1467.8
469.534	1501.02
469.906	1497.63
470.278	1510.96
470.65	1537.4
471.022	1571.98
471.394	1620.11
471.766	1607.68
472.138	1630.28
472.51	1634.35
472.882	1692.2
473.253	1718.19
473.625	1736.72
473.997	1747.57
474.369	1797.06
474.74	1789.83
475.112	1827.56
475.484	1851.97
475.855	1923.61
476.227	1942.82
476.598	2008.13
476.97	1996.37
477.341	2050.38
477.713	2075.02
478.084	2058.97
478.455	2147.1
478.827	2184.17
479.198	2225.29
479.569	2280.89
479.94	2318.85
480.311	2352.52
480.682	2400.66
481.053	2435.23
481.424	2510.94
481.795	2524.04
482.166	2587.32
482.537	2591.39
482.908	2665.96
483.279	2688.79
483.65	2740.54
484.021	2833.87
484.391	2856.46
484.762	2885.62
485.133	2952.28
485.503	2984.82
485.874	3022.79
486.244	3078.61
486.615	3149.34
486.985	3186.63
487.356	3282.67
487.726	3306.62
488.097	3375.32
488.467	3390.91
488.837	3470.69
489.207	3478.14
489.578	3543.68
489.948	3593.17
490.318	3645.37
490.688	3711.58
491.058	3735.99
491.428	3819.38
491.798	3863.44
492.168	3914.74
492.538	4004.46
492.908	4008.07
493.278	4072.7
493.648	4070.9
494.017	4139.37
494.387	4184.11
494.757	4215.52
495.126	4288.52
495.496	4255.07
495.866	4342.98
496.235	4361.28
496.605	4415.52
496.974	4503.88
497.344	4476.99
497.713	4542.75
498.082	4552.69
498.452	4679.69
498.821	4629.75
499.19	4671.56
499.559	4714.95
499.928	4736.19
500.298	4781.16
500.667	4852.57
501.036	4861.38
501.405	4886.02
501.774	4890.76
502.143	4951.1
502.512	4972.79
502.88	5026.8
503.249	5042.62
503.618	5133.01
503.987	5115.84
504.356	5114.94
504.724	5131.21
505.093	5189.51
505.462	5193.13
505.83	5247.14
506.199	5260.92
506.567	5308.15
506.936	5373.69
507.304	5360.35
507.672	5386.12
508.041	5430.18
508.409	5480.35
508.777	5564.87
509.145	5565.55
509.514	5583.62
509.882	5590.63
510.25	5631.76
510.618	5660.46
510.986	5687.12
511.354	5669.72
511.722	5660.68
512.09	5751.3
512.458	5779.33
512.826	5802.38
513.193	5792.43
513.561	5831.75
513.929	5887.12
514.297	5944.74
514.664	5942.26
515.032	5963.73
515.4	5980.9
515.767	6015.93
516.135	6097.06
516.502	6019.55
516.869	6133.89
517.237	6161.01
517.604	6178.64
517.972	6201.46
518.339	6163.27
518.706	6234.45
519.073	6269.48
519.44	6287.79
519.808	6364.85
520.175	6285.98
520.542	6388.8
520.909	6376.6
521.276	6363.72
521.643	6449.59
522.009	6490.49
522.376	6525.07
522.743	6566.42
523.11	6615.69
523.477	6691.39
523.843	6661.11
524.21	6718.51
524.577	6768.9
524.943	6790.37
525.31	6819.07
525.676	6911.5
526.043	6947.88
526.409	7009.58
526.776	7044.6
527.142	7026.52
527.508	7105.17
527.874	7170.7
528.241	7177.03
528.607	7177.48
528.973	7195.33
529.339	7249.57
529.705	7306.74
530.071	7369.79
530.437	7418.15
530.803	7445.95
531.169	7461.09
531.535	7443.46
531.901	7462.22
532.267	7559.84
532.632	7601.88
532.998	7602.1
533.364	7622.67
533.73	7764.58
534.095	7711.25
534.461	7707.64
534.826	7828.76
535.192	7825.83
535.557	7901.53
535.923	7863.34
536.288	7903.56
536.653	7947.86
537.019	7929.55
537.384	7964.35
537.749	8004.35
538.114	8110.11
538.479	8118.7
538.845	8175.19
539.21	8058.14
539.575	8100.62
539.94	8148.53
540.305	8266.72
540.67	8243.67
541.034	8280.73
541.399	8347.39
541.764	8310.33
542.129	8368.86
542.494	8408.86
542.858	8529.54
543.223	8445.7
543.587	8525.92
543.952	8540.61
544.316	8537.22
544.681	8576.77
545.045	8682.53
545.41	8678.91
545.774	8624.45
546.138	8769.3
546.503	8727.27
546.867	8742.41
547.231	8854.05
547.595	8906.02
547.959	8888.85
548.324	8891.33
548.688	8905.34
549.052	8955.97
549.416	9017.88
549.779	8980.82
550.143	9025.34
550.507	9120.71
550.871	9137.88
551.235	9153.25
551.599	9180.82
551.962	9215.39
552.326	9201.83
552.689	9256.07
553.053	9255.39
553.417	9304.88
553.78	9441.38
554.143	9362.96
554.507	9430.3
554.87	9541.49
555.234	9572.9
555.597	9455.39
555.96	9493.58
556.323	9580.58
556.686	9599.56
557.05	9641.14
557.413	9721.37
557.776	9722.72
558.139	9727.02
558.502	9709.84
558.865	9765.89
559.228	9843.85
559.59	9864.19
559.953	9961.14
560.316	9979.67
560.679	9956.16
561.041	10107.12
561.404	10052.21
561.767	10115.48
562.129	10036.39
562.492	10173.56
562.854	10188.48
563.217	10214.24
563.579	10206.55
563.941	10331.97
564.304	10319.77
564.666	10400.22
565.028	10422.59
565.39	10374.23
565.753	10487.22
566.115	10572.87
566.477	10567.67
566.839	10588.01
567.201	10683.38
567.563	10596.6
567.925	10743.71
568.287	10743.04
568.648	10781.91
569.01	10908.23
569.372	10969.02
569.734	10958.17
570.095	10941
570.457	10936.48
570.819	11003.82
571.18	11115
571.542	11143.7
571.903	11105.06
572.265	11221.22
572.626	11316.58
572.987	11372.17
573.349	11365.39
573.71	11450.81
574.071	11535.33
574.432	11467.31
574.794	11678.83
575.155	11666.4
575.516	11638.15
575.877	11716.12
576.238	11839.73
576.599	11943.68
576.96	11977.13
577.32	12055.77
577.681	12173.73
578.042	12239.95
578.403	12265.03
578.763	12456.21
579.124	12479.26
579.485	12633.61
579.845	12659.6
580.206	12827.28
580.566	12920.15
580.927	13021.62
581.287	13292.35
581.648	13285.12
582.008	13476.3
582.368	13643.75
582.728	13773.92
583.089	13836.06
583.449	14032.22
583.809	14145.43
584.169	14351.53
584.529	14486.89
584.889	14787.22
585.249	14819.09
585.609	15034.68
585.969	15353.09
586.329	15453.65
586.688	15698.16
587.048	15928.44
587.408	16118.71
587.768	16240.97
588.127	16615.65
588.487	16843.44
588.846	17165.24
589.206	17360.94
589.565	17577.66
589.925	17896.07
590.284	18009.29
590.643	18289.05
591.003	18641.81
591.362	18953.89
591.721	19116.38
592.08	19498.51
592.44	19757.26
592.799	20102.56
593.158	20335.55
593.517	20625.94
593.876	20905.26
594.235	21191.8
594.593	21598.57
594.952	21924.44
595.311	22147.93
595.67	22478.1
596.029	22965.09
596.387	23163.05
596.746	23589.93
597.104	23734.11
597.463	24031.73
597.822	24407.99
598.18	24628.77
598.538	24823.8
598.897	25376.55
599.255	25353.5
599.613	26117.1
599.972	26160.94
600.33	26499.91
600.688	26660.58
601.046	27174.92
601.404	27580.79
601.762	27704.62
602.12	28131.51
602.478	28476.58
602.836	28855.78
603.194	28924.25
603.552	29264.36
603.91	29363.11
604.268	29839.71
604.625	29967.16
604.983	30538.67
605.341	30536.64
605.698	30876.07
606.056	31231.54
606.413	31530.29
606.771	31709.94
607.128	32126.88
607.485	32136.37
607.843	32447.32
608.2	32803.02
608.557	33143.8
608.914	33329.11
609.272	33606.62
609.629	33826.5
609.986	34132.25
610.343	34128.41
610.7	34610.21
611.057	34814.49
611.414	35017.88
611.771	35304.2
612.127	35381.48
612.484	35686.34
612.841	35878.87
613.198	35890.17
613.554	36192.54
613.911	36663.49
614.267	36799.75
614.624	36836.14
614.98	36973.08
615.337	37442.67
615.693	37512.5
616.05	37565.61
616.406	37982.32
616.762	37981.87
617.118	38101.19
617.475	38199.04
617.831	38511.57
618.187	38531.23
618.543	38826.59
618.899	39188.39
619.255	39113.14
619.611	39239.91
619.967	39643.97
620.323	39607.59
620.678	39582.5
621.034	39561.26
621.39	39903.17
621.746	39850.75
622.101	40448.47
622.457	40193.79
622.812	40411.64
623.168	40557.85
623.523	40715.58
623.879	40996.03
624.234	40756.48
624.589	40871.51
624.945	40955.8
625.3	41097.04
625.655	41150.15
626.01	41266.98
626.365	41424.72
626.72	41336.58
627.075	41399.41
627.43	41483.92
627.785	41299.3
628.14	41660.42
628.495	41655.44
628.85	41868.32
629.205	41672.17
629.559	42096.34
629.914	41673.07
630.269	41922.1
630.623	41853.86
630.978	41880.52
631.332	42151.93
631.687	42144.02
632.041	42108.09
632.396	42099.27
632.75	42115.55
633.104	42220.63
633.459	41922.78
633.813	42129.33
634.167	42172.94
634.521	42122.55
634.875	42361.41
635.229	42254.3
635.583	42014.08
635.937	42213.85
636.291	42110.8
636.645	42161.19
636.999	42119.61
637.352	42319.61
637.706	42122.32
638.06	42246.62
638.413	42301.98
638.767	42024.25
639.121	42171.81
639.474	42111.48
639.828	42095.43
640.181	42223.34
640.534	42113.74
640.888	42082.55
641.241	41987.41
641.594	41967.53
641.947	42111.7
642.301	41912.61
642.654	42024.93
643.007	42097.47
643.36	41966.85
643.713	41961.2
644.066	42212.49
644.419	41835.55
644.771	41686.4
645.124	41379.75
645.477	41270.37
645.83	41081
646.182	40917.84
646.535	40906.99
646.888	40922.13
647.24	40714.68
647.593	40993.54
647.945	40943.6
648.298	40823.83
648.65	40782.92
649.002	40690.5
649.355	40973.65
649.707	40819.53
650.059	41011.17
650.411	41368.9
650.763	41432.4
651.115	41730.47
651.467	41658.61
651.819	41596.91
652.171	41568.89
652.523	41518.5
652.875	41530.48
653.227	41379.07
653.578	41673.75
653.93	41454.32
654.282	41447.99
654.633	41281.44
654.985	41445.05
655.337	41495.67
655.688	41579.29
656.039	41619.06
656.391	41191.28
656.742	41411.83
657.094	41464.49
657.445	41572.73
657.796	41441.89
658.147	41384.94
658.498	41330.03
658.849	41521.89
659.2	41247.32
659.551	41101.33
659.902	41363.7
660.253	41288.45
660.604	41404.6
660.955	41228.34
661.306	41438.27
661.656	41324.83
662.007	41251.16
662.358	41257.71
662.708	41286.87
663.059	41295.45
663.409	40941.34
663.76	41288.9
664.11	41281.44
664.461	41398.5
664.811	41313.76
665.161	41385.17
665.511	41159.41
665.862	41236.92
666.212	41330.03
666.562	41370.25
666.912	41277.83
667.262	41062.92
667.612	41287.09
667.962	41172.75
668.312	41148.79
668.662	41170.71
669.011	41096.14
669.361	41054.56
669.711	41057.27
670.06	41029.7
670.41	40952.19
670.76	41074.22
671.109	41154.67
671.459	40973.2
671.808	40916.93
672.157	41025.63
672.507	40820.66
672.856	40965.07
673.205	40848.23
673.554	40966.65
673.904	40836.03
674.253	41058.17
674.602	41010.26
674.951	40438.75
675.3	40200.12
675.649	40900.89
675.998	40859.53
676.346	40813.21
676.695	40761.68
677.044	40657.28
677.393	40758.74
677.741	40731.63
678.09	40813.66
678.438	40545.64
678.787	40634.23
679.135	40685.75
679.484	40369.15
679.832	40508.13
680.181	40334.12
680.529	40382.48
680.877	40358.53
681.225	40289.6
681.573	40455.25
681.922	40231.98
682.27	39974.81
682.618	40127.8
682.966	39940.46
683.314	40014.81
683.661	39897.75
684.009	39795.83
684.357	39726
684.705	39743.86
685.053	39780.92
685.4	39672.45
685.748	39465.22
686.095	39515.61
686.443	39394.94
686.79	39312.46
687.138	39357.88
687.485	39488.72
687.832	39287.6
688.18	39329.86
688.527	39079.24
688.874	39031.56
689.221	38882.64
689.568	38888.06
689.915	38806.03
690.262	38887.83
690.609	38803.09
690.956	38573.72
691.303	38668.4
691.65	38337.57
691.997	38428.41
692.344	38253.73
692.69	38195.2
693.037	38085.59
693.383	37814.87
693.73	38039.27
694.077	37764.93
694.423	37762.21
694.769	37693.97
695.116	37574.87
695.462	37524.03
695.808	37395.67
696.155	37383.92
696.501	37181.21
696.847	37060.99
697.193	36868.68
697.539	37114.09
697.885	36678.63
698.231	36606.99
698.577	36718.17
698.923	36590.04
699.269	36439.76
699.614	36387.56
699.96	36237.96
700.306	36309.6
700.651	36109.15
700.997	35915.93
701.342	35831.87
701.688	35905.31
702.033	35802.26
702.379	35735.6
702.724	35605.21
703.069	35786.22
703.415	35273.24
703.76	35411.77
704.105	35384.65
704.45	35370.19
704.795	35135.84
705.14	34952.12
705.485	34898.11
705.83	34875.96
706.175	35019.69
706.52	34958.67
706.865	34674.38
707.209	34679.13
707.554	34474.62
707.899	34719.13
708.243	34507.61
708.588	34328.86
708.932	34198.47
709.277	34198.92
709.621	34173.38
709.966	34032.59
710.31	34061.52
710.654	33638.25
710.998	33812.49
711.342	33752.83
711.687	33651.81
712.031	33537.92
712.375	33496.79
712.719	33515.09
713.063	33459.28
713.407	33532.72
713.75	33198.94
714.094	33280.07
714.438	33172.96
714.782	33124.37
715.125	32958.27
715.469	32989.46
715.812	32756.02
716.156	32684.61
716.499	32699.75
716.843	32725.51
717.186	32532.97
717.53	32581.33
717.873	32753.53
718.216	32620.2
718.559	32583.59
718.902	32215.69
719.246	32336.37
719.589	32120.1
719.932	32067.22
720.275	32177.5
720.617	32034.45
720.96	32018.86
721.303	31942.93
721.646	31939.32
721.989	31788.13
722.331	31941.8
722.674	31698.64
723.016	31823.39
723.359	31703.62
723.701	31677.63
724.044	31534.13
724.386	31396.96
724.729	31514.47
725.071	31502.94
725.413	31439.22
725.755	31383.62
726.097	31270.63
726.439	31121.48
726.782	31146.79
727.124	31288.03
727.465	31057.98
727.807	31057.08
728.149	30948.16
728.491	30842.62
728.833	30916.74
729.175	30680.59
729.516	30653.02
729.858	30666.58
730.199	30832.9
730.541	30613.93
730.882	30726.92
731.224	30614.6
731.565	30470.2
731.906	30395.4
732.248	30595.85
732.589	30385.68
732.93	30258.91
733.271	30290.09
733.612	30214.84
733.953	30239.25
734.294	30152.92
734.635	30056.43
734.976	30060.49
735.317	29932.14
735.658	30014.17
735.999	30002.64
736.339	29874.74
736.68	30044.45
737.021	29818.24
737.361	29856.21
737.702	29935.53
738.042	29782.08
738.383	29660.51
738.723	29711.35
739.063	29592.94
739.404	29729.66
739.744	29566.95
740.084	29445.14
740.424	29535.54
740.764	29516.33
741.104	29510.23
741.444	29369.89
741.784	29288.99
742.124	29353.17
742.464	29317.46
742.804	29185.94
743.143	29237.47
743.483	29164.47
743.823	29070.01
744.162	29103.01
744.502	29142.33
744.841	29041.54
745.181	29144.59
745.52	28922.22
745.86	28975.55
746.199	28858.94
746.538	28848.32
746.877	28963.8
747.216	28927.87
747.556	28817.82
747.895	28857.36
748.234	28602.23
748.573	28573.3
748.911	28505.73
749.25	28657.37
749.589	28471.38
749.928	28516.35
750.267	28494.21
750.605	28362.23
750.944	28442.46
751.283	28265.74
751.621	28294.21
751.96	28152.52
752.298	28238.4
752.636	28142.58
752.975	28082.47
753.313	27998.4
753.651	28072.98
753.989	27863.04
754.327	27827.11
754.666	27668.24
755.004	27726.54
755.342	27769.48
755.679	27732.42
756.017	27488.59
756.355	27676.15
756.693	27463.28
757.031	27519.09
757.368	27324.75
757.706	27337.18
758.044	27322.49
758.381	27192.32
758.719	27133.11
759.056	27119.1
759.394	27065.32
