Data from hue_26_FLMS001491_00066.txt Node
Date: Tue Feb 07 17:14:21 GMT 2017
User: dcchb
Spectrometer: FLMS00149
Trigger mode: 0
Integration Time (sec): 2.000000E-2
Scans to average: 10
Electric dark correction enabled: true
Nonlinearity correction enabled: false
Boxcar width: 0
XAxis mode: Wavelengths
Number of Pixels in Spectrum: 2048
>>>>>Begin Spectral Data<<<<<
341.393	-18.01
341.776	-18.01
342.16	-18.01
342.543	-61.4
342.927	-53.26
343.31	-82.41
343.693	-57.78
344.077	-62.53
344.46	-63.88
344.843	-73.83
345.226	-36.99
345.61	-51
345.993	-43.32
346.376	6.62
346.759	7.75
347.142	47.98
347.525	47.08
347.908	74.64
348.291	71.26
348.674	90.46
349.057	125.94
349.44	113.29
349.823	154.42
350.206	167.75
350.588	219.27
350.971	220.63
351.354	233.74
351.737	243.68
352.119	249.56
352.502	291.36
352.884	278.93
353.267	291.36
353.65	295.43
354.032	309.44
354.414	323.9
354.797	313.96
355.179	337.69
355.562	343.56
355.944	349.21
356.326	334.53
356.709	351.93
357.091	348.54
357.473	346.05
357.855	345.37
358.238	354.19
358.62	356.45
359.002	366.39
359.384	335.66
359.766	373.85
360.148	360.29
360.53	339.5
360.912	348.76
361.294	344.92
361.676	331.59
362.057	330.91
362.439	331.14
362.821	334.07
363.203	335.88
363.584	336.56
363.966	345.15
364.348	314.19
364.729	341.76
365.111	337.46
365.493	322.1
365.874	339.72
366.256	313.96
366.637	322.1
367.019	330.46
367.4	340.17
367.781	327.29
368.163	331.59
368.544	330.68
368.925	319.38
369.306	345.15
369.688	320.97
370.069	327.97
370.45	312.6
370.831	349.21
371.212	322.1
371.593	316.9
371.974	335.88
372.355	323.9
372.736	341.3
373.117	329.78
373.498	336.78
373.879	337.01
374.26	318.93
374.641	317.35
375.021	339.04
375.402	340.17
375.783	332.72
376.163	349.67
376.544	361.87
376.925	338.14
377.305	331.59
377.686	325.94
378.066	335.66
378.447	339.5
378.827	348.54
379.208	342.43
379.588	364.81
379.968	355.09
380.349	332.94
380.729	347.18
381.109	343.11
381.489	337.91
381.87	366.39
382.25	388.08
382.63	351.25
383.01	346.28
383.39	375.43
383.77	355.32
384.15	352.15
384.53	362.32
384.91	360.74
385.29	384.69
385.67	366.61
386.049	385.37
386.429	351.93
386.809	370
387.189	360.29
387.568	370.23
387.948	377.01
388.328	365.48
388.707	360.29
389.087	365.26
389.466	381.76
389.846	384.69
390.225	387.63
390.605	379.04
390.984	412.94
391.363	374.07
391.743	372.49
392.122	395.54
392.501	374.3
392.881	400.06
393.26	390.12
393.639	407.29
394.018	396.67
394.397	397.57
394.776	403.9
395.155	419.72
395.534	401.19
395.913	390.34
396.292	403
396.671	416.1
397.05	422.21
397.429	433.96
397.808	434.41
398.186	425.82
398.565	431.92
398.944	424.92
399.323	427.4
399.701	420.85
400.08	425.14
400.458	455.43
400.837	461.75
401.215	453.39
401.594	427.63
401.972	440.74
402.351	435.09
402.729	438.25
403.107	457.69
403.486	452.04
403.864	438.93
404.242	456.56
404.62	456.1
404.999	469.21
405.377	457.23
405.755	467.18
406.133	453.62
406.511	475.54
406.889	489.78
407.267	494.07
407.645	474.41
408.023	464.01
408.401	490.68
408.779	503.56
409.156	498.81
409.534	488.42
409.912	498.36
410.29	500.62
410.667	497.01
411.045	499.27
411.422	530.45
411.8	508.31
412.178	506.95
412.555	525.03
412.933	543.79
413.31	545.59
413.687	527.74
414.065	535.42
414.442	544.01
414.819	559.38
415.197	560.06
415.574	561.64
415.951	557.12
416.328	559.15
416.705	572.48
417.082	587.85
417.46	568.64
417.837	586.72
418.214	596.44
418.591	572.26
418.967	578.13
419.344	571.36
419.721	586.72
420.098	606.61
420.475	601.64
420.852	611.13
421.228	623.11
421.605	600.96
421.982	607.96
422.358	619.94
422.735	609.09
423.111	642.77
423.488	635.31
423.864	645.93
424.241	652.71
424.617	644.12
424.994	655.87
425.37	674.86
425.746	635.53
426.123	671.01
426.499	687.51
426.875	659.49
427.251	656.78
427.627	701.75
428.003	694.29
428.379	701.97
428.756	715.53
429.132	680.73
429.507	711.69
429.883	720.73
430.259	725.93
430.635	708.3
431.011	728.64
431.387	734.51
431.763	758.02
432.138	772.71
432.514	746.72
432.89	780.39
433.265	780.16
433.641	792.37
434.016	770.22
434.392	785.36
434.767	831.24
435.143	815.42
435.518	824.23
435.894	821.97
436.269	834.85
436.644	832.14
437.02	831.46
437.395	844.34
437.77	848.18
438.145	882.99
438.52	861.06
438.895	886.6
439.271	878.01
439.646	887.28
440.021	885.02
440.395	900.16
440.77	897.22
441.145	915.07
441.52	934.96
441.895	925.24
442.27	918.24
442.645	916.88
443.019	942.87
443.394	933.38
443.769	948.29
444.143	934.96
444.518	982.19
444.892	969.76
445.267	965.47
445.641	978.58
446.016	983.77
446.39	960.5
446.764	983.1
447.139	992.13
447.513	1008.41
447.887	996.2
448.262	1012.25
448.636	1009.76
449.01	1033.26
449.384	1043.88
449.758	1035.52
450.132	1036.88
450.506	1032.36
450.88	1050.44
451.254	1082.98
451.628	1100.83
452.002	1084.11
452.376	1101.74
452.75	1096.99
453.123	1094.05
453.497	1141.51
453.871	1147.61
454.244	1137.22
454.618	1164.33
454.992	1134.05
455.365	1171.34
455.739	1181.06
456.112	1215.86
456.486	1224.67
456.859	1238.46
457.232	1241.62
457.606	1239.81
457.979	1251.11
458.352	1265.57
458.725	1282.07
459.099	1302.18
459.472	1327.49
459.845	1335.4
460.218	1345.35
460.591	1379.7
460.964	1370.2
461.337	1401.62
461.71	1390.77
462.083	1421.5
462.456	1403.2
462.829	1437.55
463.201	1459.47
463.574	1458.79
463.947	1469.41
464.32	1528.17
464.692	1524.55
465.065	1517.77
465.438	1553.02
465.81	1581.72
466.183	1577.43
466.555	1636.64
466.928	1617.43
467.3	1648.39
467.672	1649.29
468.045	1689.97
468.417	1703.75
468.789	1734.04
469.161	1722.06
469.534	1754.83
469.906	1794.15
470.278	1822.62
470.65	1859.23
471.022	1866.91
471.394	1934.48
471.766	1934.03
472.138	1948.27
472.51	2015.84
472.882	2001.15
473.253	2061.94
473.625	2060.13
473.997	2090.64
474.369	2137.42
474.74	2153.69
475.112	2223.29
475.484	2242.27
475.855	2305.09
476.227	2314.81
476.598	2356.84
476.97	2418.76
477.341	2445.2
477.713	2505.32
478.084	2519.78
478.455	2589.61
478.827	2603.84
479.198	2658.08
479.569	2693.56
479.94	2772.65
480.311	2780.11
480.682	2863.27
481.053	2926.77
481.424	3014.45
481.795	3007.45
482.166	3037.28
482.537	3160.21
482.908	3194.56
483.279	3237.73
483.65	3309.36
484.021	3347.78
484.391	3424.39
484.762	3450.6
485.133	3482.24
485.503	3545.51
485.874	3661.22
486.244	3683.82
486.615	3787.32
486.985	3832.29
487.356	3943.02
487.726	3906.41
488.097	4030.47
488.467	4031.6
488.837	4135.78
489.207	4239.06
489.578	4244.7
489.948	4327.19
490.318	4389.33
490.688	4406.96
491.058	4501.65
491.428	4576.45
491.798	4643.11
492.168	4708.65
492.538	4744.35
492.908	4801.53
493.278	4934.4
493.648	4929.21
494.017	4915.2
494.387	5044.46
494.757	5058.47
495.126	5148.64
495.496	5154.51
495.866	5224.11
496.235	5233.15
496.605	5289.42
496.974	5389.08
497.344	5420.27
497.713	5444.22
498.082	5481.28
498.452	5513.82
498.821	5566.48
499.19	5577.78
499.559	5662.29
499.928	5709.07
500.298	5740.94
500.667	5784.1
501.036	5812.12
501.405	5861.84
501.774	5877.43
502.143	5950.42
502.512	6001.95
502.88	5989.97
503.249	6007.37
503.618	6076.07
503.987	6123.53
504.356	6195.61
504.724	6236.06
505.093	6302.73
505.462	6226.8
505.83	6275.84
506.199	6320.36
506.567	6398.55
506.936	6387.02
507.304	6523.06
507.672	6479.22
508.041	6558.32
508.409	6631.31
508.777	6642.83
509.145	6641.7
509.514	6683.06
509.882	6738.65
510.25	6727.58
510.618	6823.39
510.986	6856.84
511.354	6860.46
511.722	6911.53
512.09	7006.21
512.458	6951.07
512.826	6944.07
513.193	7016.61
513.561	7090.96
513.929	7100.45
514.297	7203.5
514.664	7228.81
515.032	7232.42
515.4	7312.65
515.767	7304.96
516.135	7347.22
516.502	7255.7
516.869	7423.6
517.237	7462.7
517.604	7411.63
517.972	7531.62
518.339	7588.12
518.706	7558.52
519.073	7586.99
519.44	7638.29
519.808	7705.63
520.175	7658.85
520.542	7782.69
520.909	7821.33
521.276	7827.21
521.643	7902.01
522.009	7965.51
522.376	7983.82
522.743	8025.62
523.11	8072.17
523.477	8144.72
523.843	8169.57
524.21	8282.79
524.577	8323.47
524.943	8356.69
525.31	8403.69
525.676	8423.35
526.043	8545.83
526.409	8534.31
526.776	8548.55
527.142	8552.39
527.508	8645.27
527.874	8729.56
528.241	8786.28
528.607	8748.54
528.973	8864.47
529.339	8888.65
529.705	8963.9
530.071	9028.99
530.437	9047.29
530.803	9138.59
531.169	9174.07
531.535	9131.58
531.901	9223.56
532.267	9217.91
532.632	9293.16
532.998	9364.8
533.364	9393.95
533.73	9428.98
534.095	9490.67
534.461	9537.9
534.826	9584
535.192	9572.02
535.557	9661.06
535.923	9636.2
536.288	9699.02
536.653	9749.19
537.019	9739.25
537.384	9808.4
537.749	9897.89
538.114	9894.05
538.479	9930.2
538.845	9871.22
539.21	9988.96
539.575	10075.06
539.94	10040.94
540.305	10110.99
540.67	10126.58
541.034	10072.8
541.399	10220.59
541.764	10289.74
542.129	10348.95
542.494	10428.5
542.858	10343.3
543.223	10444.09
543.587	10471.89
543.952	10504.43
544.316	10501.94
544.681	10559.34
545.045	10588.72
545.41	10666
545.774	10705.78
546.138	10776.96
546.503	10770.18
546.867	10884.3
547.231	10909.16
547.595	10929.27
547.959	10966.79
548.324	10979.22
548.688	10999.1
549.052	11023.74
549.416	11070.74
549.779	11059.21
550.143	11145.09
550.507	11261.24
550.871	11278.19
551.235	11307.57
551.599	11394.12
551.962	11345.08
552.326	11396.38
552.689	11412.43
553.053	11388.02
553.417	11400.9
553.78	11649.03
554.143	11481.12
554.507	11633.89
554.87	11634.11
555.234	11736.94
555.597	11592.08
555.96	11715.24
556.323	11812.19
556.686	11736.49
557.05	11920.66
557.413	12004.05
557.776	12068
558.139	12032.97
558.502	12074.56
558.865	12196.59
559.228	12322.68
559.59	12221.22
559.953	12256.47
560.316	12415.34
560.679	12304.61
561.041	12509.57
561.404	12464.38
561.767	12599.29
562.129	12489.23
562.492	12663.47
562.854	12588.21
563.217	12627.99
563.579	12705.5
563.941	12736.68
564.304	12843.8
564.666	12862.78
565.028	12884.03
565.39	12912.05
565.753	13030.91
566.115	13022.78
566.477	13157.69
566.839	13133.06
567.201	13292.38
567.563	13289.44
567.925	13380.28
568.287	13385.03
568.648	13505.48
569.01	13439.72
569.372	13491.92
569.734	13437.01
570.095	13618.24
570.457	13666.38
570.819	13787.5
571.18	13772.36
571.542	13887.16
571.903	13881.97
572.265	13983.21
572.626	14011.45
572.987	14100.49
573.349	14241.96
573.71	14188.17
574.071	14318.79
574.432	14379.58
574.794	14477.43
575.155	14492.12
575.516	14545
575.877	14690.31
576.238	14690.31
576.599	14902.73
576.96	14916.06
577.32	14923.29
577.681	15141.59
578.042	15276.05
578.403	15281.48
578.763	15386.11
579.124	15534.58
579.485	15663.16
579.845	15824.74
580.206	15911.74
580.566	15982.02
580.927	16152.64
581.287	16298.17
581.648	16362.58
582.008	16674.43
582.368	16657.03
582.728	16989
583.089	17035.78
583.449	17246.62
583.809	17457.69
584.169	17598.48
584.529	17731.81
584.889	18153.49
585.249	18196.43
585.609	18322.07
585.969	18640.71
586.329	18816.07
586.688	19129.51
587.048	19357.75
587.408	19630.97
587.768	19665.77
588.127	19905.31
588.487	20323.38
588.846	20687.66
589.206	20862.35
589.565	21118.61
589.925	21580.29
590.284	21727.41
590.643	21963.33
591.003	22324.23
591.362	22701.62
591.721	22916.53
592.08	23314.26
592.44	23644.42
592.799	23905.2
593.158	24247.57
593.517	24505.19
593.876	24894.33
594.235	25205.28
594.593	25495.67
594.952	25907.86
595.311	26107.41
595.67	26528.41
596.029	27044.11
596.387	27281.61
596.746	27680.7
597.104	27880.24
597.463	28185.77
597.822	28626.21
598.18	28907.79
598.538	29143.71
598.897	29659.86
599.255	29754.54
599.613	30510.91
599.972	30515.2
600.33	31018.46
600.688	31189.53
601.046	31567.15
601.404	32160.81
601.762	32276.51
602.12	32763.95
602.478	33017.28
602.836	33354
603.194	33475.8
603.552	33873.98
603.91	34019.52
604.268	34441.65
604.625	34605.94
604.983	35040.05
605.341	35353.94
605.698	35684.1
606.056	36046.35
606.413	36264.2
606.771	36518.88
607.128	36846.33
607.485	36985.31
607.843	37364.29
608.2	37765.63
608.557	37978.06
608.914	38166.98
609.272	38540.3
609.629	38762.89
609.986	39238.36
610.343	39215.76
610.7	39773.04
611.057	39655.98
611.414	40007.38
611.771	40253.7
612.127	40615.05
612.484	40727.36
612.841	41029.05
613.198	41085.77
613.554	41237.63
613.911	41698.18
614.267	41867.44
614.624	41945.18
614.98	42064.95
615.337	42581.32
615.693	42597.14
616.05	42756.91
616.406	42994.87
616.762	43075.1
617.118	43262.21
617.475	43439.15
617.831	43639.38
618.187	43899.26
618.543	43960.04
618.899	44317.55
619.255	44347.15
619.611	44388.28
619.967	44662.4
620.323	44835.5
620.678	44840.25
621.034	44847.03
621.39	44938.1
621.746	45081.6
622.101	45631.19
622.457	45486.56
622.812	45468.03
623.168	45746.44
623.523	45775.82
623.879	46039.09
624.234	45838.41
624.589	46051.06
624.945	46073.89
625.3	46161.57
625.655	46327.21
626.01	46398.17
626.365	46505.74
626.72	46565.85
627.075	46570.15
627.43	46583.48
627.785	46584.61
628.14	46757.49
628.495	46887.88
628.85	46810.82
629.205	46803.81
629.559	46944.37
629.914	46834.55
630.269	46978.04
630.623	46971.49
630.978	47012.62
631.332	47046.52
631.687	47044.94
632.041	47058.04
632.396	47212.84
632.75	47118.83
633.104	47161.32
633.459	47057.82
633.813	47085.16
634.167	47082
634.521	47129.23
634.875	47221.65
635.229	47112.96
635.583	47031.83
635.937	47155.21
636.291	47096.91
636.645	47137.59
636.999	47095.1
637.352	47145.5
637.706	46993.41
638.06	47192.73
638.413	47183.01
638.767	47114.76
639.121	47282.67
639.474	47027.76
639.828	47049.45
640.181	47072.28
640.534	47122.22
640.888	47051.71
641.241	46806.52
641.594	46931.94
641.947	47146.63
642.301	46955.67
642.654	47113.86
643.007	47037.25
643.36	46804.49
643.713	46988.67
644.066	47143.92
644.419	46847.2
644.771	46548.9
645.124	46162.7
645.477	46165.64
645.83	45920.22
646.182	45804.06
646.535	45678.64
646.888	45937.85
647.24	45633
647.593	45885.64
647.945	45836.83
648.298	45551.87
648.65	45429.38
649.002	45425.77
649.355	45781.92
649.707	45587.12
650.059	45639.1
650.411	46305.52
650.763	46311.17
651.115	46660.76
651.467	46479.3
651.819	46471.62
652.171	46406.31
652.523	46353.65
652.875	46331.51
653.227	46162.92
653.578	46436.82
653.93	46340.77
654.282	46335.35
654.633	46200.89
654.985	46331.28
655.337	46293.09
655.688	46282.02
656.039	46557.72
656.391	45989.14
656.742	46051.52
657.094	46154.34
657.445	46366.31
657.796	46370.38
658.147	46254.9
658.498	46257.39
658.849	46210.16
659.2	46151.4
659.551	46102.36
659.902	46258.29
660.253	45960.9
660.604	46169.25
660.955	46008.58
661.306	46061.68
661.656	45933.55
662.007	46014.45
662.358	46124.51
662.708	46079.76
663.059	46024.4
663.409	45744.63
663.76	45996.6
664.11	46018.97
664.461	46047.67
664.811	46096.26
665.161	45990.95
665.511	45777.17
665.862	45886.55
666.212	46011.52
666.562	45984.17
666.912	45899.88
667.262	45878.19
667.612	45973.78
667.962	46017.62
668.312	45927.9
668.662	46122.02
669.011	45871.41
669.361	45832.31
669.711	45823.5
670.06	45789.15
670.41	45837.74
670.76	45712.77
671.109	45830.96
671.459	45764.74
671.808	45756.61
672.157	45865.76
672.507	45668.25
672.856	45584.41
673.205	45625.31
673.554	45757.96
673.904	45586.44
674.253	45706.89
674.602	45628.02
674.951	45112.56
675.3	44793.92
675.649	45594.13
675.998	45439.78
676.346	45630.96
676.695	45580.57
677.044	45308.94
677.393	45423.74
677.741	45502.15
678.09	45244.98
678.438	45277.52
678.787	45255.15
679.135	45392.55
679.484	45186.23
679.832	45221.93
680.181	44920.25
680.529	45173.12
680.877	44902.84
681.225	45021.03
681.573	45158.43
681.922	44947.36
682.27	44862.39
682.618	44818.55
682.966	44689.97
683.314	44858.55
683.661	44718.89
684.009	44416.08
684.357	44390.77
684.705	44309.19
685.053	44430.31
685.4	44334.5
685.748	44082.75
686.095	44186.25
686.443	43955.3
686.79	44007.28
687.138	44132.7
687.485	43938.12
687.832	43767.96
688.18	43817.68
688.527	43712.37
688.874	43565.93
689.221	43523.67
689.568	43424.69
689.915	43363
690.262	43316.9
690.609	43198.71
690.956	42985.38
691.303	43054.08
691.65	42869.45
691.997	43045.27
692.344	42594.88
692.69	42675.33
693.037	42604.37
693.383	42385.85
693.73	42459.52
694.077	42264.27
694.423	42258.85
694.769	42103.6
695.116	42083.94
695.462	42112.18
695.808	41786.54
696.155	41855.47
696.501	41611.18
696.847	41657.51
697.193	41427.91
697.539	41518.98
697.885	41154.47
698.231	41093.23
698.577	41304.52
698.923	41221.81
699.269	40919.9
699.614	40673.58
699.96	40557.65
700.306	40575.95
700.651	40434.49
700.997	40302.06
701.342	40196.3
701.688	40181.39
702.033	40158.11
702.379	40090.99
702.724	40007.61
703.069	40091.45
703.415	39692.36
703.76	39695.52
704.105	39631.34
704.45	39493.04
704.795	39296.66
705.14	39196.78
705.485	39122.21
705.83	38987.75
706.175	39130.57
706.52	39050.8
706.865	38863
707.209	38808.99
707.554	38673.18
707.899	38723.12
708.243	38468.21
708.588	38283.13
708.932	38146.86
709.277	38203.36
709.621	38237.94
709.966	37963.82
710.31	38011.05
710.654	37756.14
710.998	37711.62
711.342	37879.53
711.687	37666.42
712.031	37528.58
712.375	37467.33
712.719	37428.92
713.063	37413.55
713.407	37575.35
713.75	37240.9
714.094	37171.52
714.438	37074.8
714.782	37052.43
715.125	36875.71
715.469	37022.6
715.812	36770.63
716.156	36554.14
716.499	36524.31
716.843	36648.15
717.186	36326.8
717.53	36738.09
717.873	36738.77
718.216	36454.25
718.559	36462.39
718.902	36142.4
719.246	36296.29
719.589	36088.61
719.932	35983.31
720.275	35954.15
720.617	35827.6
720.96	35902.4
721.303	35821.95
721.646	35783.31
721.989	35573.15
722.331	35687.27
722.674	35593.94
723.016	35574.5
723.359	35471.45
723.701	35446.14
724.044	35355.75
724.386	35172.48
724.729	35398.01
725.071	35329.31
725.413	35226.94
725.755	35149.88
726.097	34967.74
726.439	34847.29
726.782	34821.53
727.124	34974.07
727.465	34676.22
727.807	34726.84
728.149	34638.93
728.491	34722.32
728.833	34681.42
729.175	34452.95
729.516	34413.86
729.858	34458.37
730.199	34487.75
730.541	34466.96
730.882	34298.6
731.224	34390.58
731.565	34212.96
731.906	34231.71
732.248	34191.49
732.589	33965.96
732.93	33893.19
733.271	33927.77
733.612	33920.99
733.953	33954.43
734.294	33753.08
734.635	33747.43
734.976	33784.27
735.317	33653.65
735.658	33652.75
735.999	33444.61
736.339	33573.65
736.68	33599.87
737.021	33509.47
737.361	33361.23
737.702	33382.24
738.042	33276.71
738.383	33320.55
738.723	33439.64
739.063	33118.75
739.404	33368.68
739.744	33082.82
740.084	32954.91
740.424	33121.01
740.764	32977.51
741.104	33085.08
741.444	32984.29
741.784	32774.58
742.124	32842.14
742.464	32721.7
742.804	32619.78
743.143	32505.66
743.483	32578.42
743.823	32427.24
744.162	32422.72
744.502	32481.25
744.841	32353.57
745.181	32423.4
745.52	32340.92
745.86	32380.24
746.199	32134.82
746.538	32200.58
746.877	32210.98
747.216	32164.42
747.556	32035.16
747.895	32118.1
748.234	32009.62
748.573	31973.92
748.911	31949.74
749.25	31837.43
749.589	31733.7
749.928	31739.35
750.267	31901.83
750.605	31730.54
750.944	31619.58
751.283	31563.53
751.621	31715.17
751.96	31441.5
752.298	31398.12
752.636	31425.01
752.975	31254.62
753.313	31165.35
753.651	31415.06
753.989	31003.32
754.327	31161.51
754.666	30843.78
755.004	31079.48
755.342	30981.63
755.679	30921.97
756.017	30769.66
756.355	30841.52
756.693	30537.12
757.031	30600.17
757.368	30529.21
757.706	30388.65
758.044	30237.02
