Data from hue_38_FLMS001491_00056.txt Node
Date: Tue Feb 07 17:31:41 GMT 2017
User: dcchb
Spectrometer: FLMS00149
Trigger mode: 0
Integration Time (sec): 2.000000E-2
Scans to average: 10
Electric dark correction enabled: true
Nonlinearity correction enabled: false
Boxcar width: 0
XAxis mode: Wavelengths
Number of Pixels in Spectrum: 2048
>>>>>Begin Spectral Data<<<<<
341.393	4.68
341.776	4.68
342.16	4.68
342.543	-73.97
342.927	-40.97
343.31	-69.9
343.693	-76.23
344.077	-55.89
344.46	-67.64
344.843	-50.24
345.226	-46.17
345.61	-23.35
345.993	-3.91
346.376	3.77
346.759	-3.01
347.142	8.29
347.525	34.28
347.908	56.43
348.291	75.63
348.674	108.85
349.057	109.08
349.44	135.97
349.823	141.62
350.206	152.69
350.588	210.32
350.971	235.86
351.354	229.75
351.737	248.96
352.119	249.87
352.502	276.53
352.884	281.05
353.267	290.32
353.65	305.68
354.032	300.49
354.414	308.85
354.797	335.51
355.179	335.29
355.562	321.28
355.944	315.63
356.326	345.91
356.709	342.97
357.091	353.82
357.473	364.89
357.855	360.37
358.238	337.32
358.62	355.4
359.002	359.92
359.384	340.94
359.766	337.77
360.148	349.98
360.53	350.65
360.912	345.01
361.294	367.83
361.676	339.58
362.057	341.39
362.439	352.46
362.821	325.34
363.203	338.9
363.584	328.06
363.966	355.85
364.348	326.7
364.729	324.67
365.111	337.1
365.493	325.57
365.874	328.51
366.256	330.99
366.637	324.21
367.019	316.76
367.4	323.08
367.781	295.51
368.163	304.55
368.544	313.59
368.925	314.72
369.306	337.1
369.688	299.36
370.069	329.64
370.45	324.89
370.831	333.93
371.212	313.37
371.593	305.23
371.974	318.11
372.355	338.68
372.736	309.07
373.117	324.67
373.498	322.86
373.879	326.93
374.26	316.98
374.641	304.33
375.021	320.82
375.402	343.42
375.783	338.23
376.163	320.6
376.544	327.15
376.925	315.85
377.305	356.76
377.686	336.19
378.066	312.46
378.447	338.9
378.827	339.81
379.208	321.95
379.588	336.64
379.968	343.2
380.349	349.3
380.729	358.34
381.109	351.78
381.489	344.55
381.87	345.23
382.25	322.86
382.63	342.07
383.01	359.24
383.39	342.29
383.77	358.56
384.15	367.83
384.53	349.07
384.91	348.39
385.29	365.8
385.67	361.05
386.049	370.09
386.429	346.36
386.809	364.89
387.189	361.95
387.568	366.47
387.948	373.25
388.328	361.28
388.707	378.45
389.087	370.54
389.466	354.27
389.846	371.22
390.225	373.25
390.605	360.15
390.984	367.15
391.363	375.96
391.743	370.99
392.122	388.85
392.501	373.25
392.881	385.91
393.26	380.71
393.639	382.52
394.018	365.8
394.397	393.59
394.776	378.22
395.155	391.56
395.534	382.29
395.913	390.2
396.292	395.17
396.671	379.35
397.05	412.35
397.429	440.6
397.808	392.91
398.186	404.44
398.565	404.44
398.944	406.25
399.323	392.69
399.701	415.29
400.08	388.17
400.458	405.34
400.837	413.48
401.215	400.82
401.594	422.52
401.972	403.76
402.351	428.62
402.729	418.68
403.107	408.73
403.486	427.04
403.864	437.88
404.242	420.03
404.62	424.78
404.999	439.47
405.377	430.65
405.755	450.76
406.133	441.05
406.511	429.07
406.889	443.76
407.267	434.95
407.645	434.27
408.023	451.89
408.401	437.43
408.779	441.05
409.156	450.99
409.534	454.15
409.912	445.12
410.29	462.97
410.667	480.59
411.045	459.35
411.422	456.41
411.8	463.87
412.178	468.39
412.555	485.79
412.933	497.09
413.31	474.72
413.687	501.84
414.065	492.35
414.442	495.06
414.819	519.46
415.197	496.41
415.574	503.19
415.951	512.68
416.328	511.55
416.705	506.81
417.082	538.67
417.46	538.22
417.837	539.12
418.214	535.51
418.591	530.31
418.967	531.21
419.344	565.11
419.721	529.41
420.098	554.94
420.475	550.88
420.852	549.07
421.228	558.33
421.605	553.14
421.982	558.33
422.358	582.74
422.735	574.83
423.111	577.99
423.488	562.17
423.864	576.19
424.241	607.37
424.617	586.35
424.994	585.68
425.37	603.53
425.746	606.02
426.123	596.3
426.499	608.73
426.875	621.16
427.251	631.1
427.627	616.64
428.003	647.14
428.379	611.21
428.756	635.62
429.132	644.66
429.507	632
429.883	625
430.259	675.84
430.635	640.36
431.011	663.41
431.387	681.72
431.763	697.54
432.138	682.4
432.514	678.78
432.89	698.44
433.265	714.94
433.641	736.41
434.016	716.07
434.392	718.33
434.767	715.62
435.143	742.73
435.518	731.21
435.894	727.37
436.269	722.85
436.644	742.06
437.02	743.41
437.395	758.1
437.77	774.6
438.145	781.15
438.52	789.06
438.895	786.58
439.271	763.3
439.646	798.55
440.021	783.86
440.395	800.36
440.77	820.47
441.145	791.77
441.52	811.66
441.895	813.24
442.27	821.15
442.645	831.77
443.019	818.44
443.394	830.19
443.769	839
444.143	850.08
444.518	833.81
444.892	831.09
445.267	822.28
445.641	873.13
446.016	872.22
446.39	876.06
446.764	885.1
447.139	848.49
447.513	870.19
447.887	894.82
448.262	909.74
448.636	897.53
449.01	907.7
449.384	895.5
449.758	923.29
450.132	950.86
450.506	945.44
450.88	946.12
451.254	952.45
451.628	944.99
452.002	967.14
452.376	947.7
452.75	954.48
453.123	960.58
453.497	1008.49
453.871	993.35
454.244	1017.3
454.618	1019.56
454.992	1025.21
455.365	1081.71
455.739	1040.81
456.112	1068.6
456.486	1070.41
456.859	1067.25
457.232	1069.96
457.606	1110.63
457.979	1114.48
458.352	1141.37
458.725	1138.66
459.099	1136.4
459.472	1176.62
459.845	1179.56
460.218	1172.1
460.591	1182.95
460.964	1204.42
461.337	1216.85
461.71	1234.93
462.083	1239.22
462.456	1267.01
462.829	1262.95
463.201	1294.13
463.574	1292.32
463.947	1321.02
464.32	1376.62
464.692	1344.53
465.065	1380.46
465.438	1368.03
465.81	1389.27
466.183	1398.99
466.555	1473.34
466.928	1456.61
467.3	1453.68
467.672	1493.22
468.045	1552.2
468.417	1544.3
468.789	1556.5
469.161	1583.62
469.534	1598.53
469.906	1660.45
470.278	1670.85
470.65	1674.46
471.022	1728.25
471.394	1742.93
471.766	1749.04
472.138	1803.5
472.51	1841.91
472.882	1871.29
473.253	1913.33
473.625	1935.7
473.997	1947
474.369	2025.64
474.74	2047.33
475.112	2105.18
475.484	2150.83
475.855	2203.71
476.227	2203.49
476.598	2267.21
476.97	2299.98
477.341	2389.7
477.713	2438.74
478.084	2473.08
478.455	2544.5
478.827	2587.43
479.198	2697.26
479.569	2709.24
479.94	2784.49
480.311	2874.66
480.682	2951.72
481.053	3029.68
481.424	3098.6
481.795	3162.11
482.166	3202.78
482.537	3302.67
482.908	3417.24
483.279	3471.93
483.65	3579.95
484.021	3668.08
484.391	3744.69
484.762	3835.99
485.133	3877.79
485.503	3989.88
485.874	4104.91
486.244	4185.13
486.615	4317.33
486.985	4395.29
487.356	4510.09
487.726	4602.52
488.097	4699.01
488.467	4771.1
488.837	4935.17
489.207	5023.75
489.578	5116.86
489.948	5204.54
490.318	5353.01
490.688	5397.08
491.058	5545.32
491.428	5672.77
491.798	5807.46
492.168	5943.28
492.538	6004.07
492.908	6092.2
493.278	6282.25
493.648	6299.65
494.017	6468.46
494.387	6532.19
494.757	6629.13
495.126	6761.11
495.496	6826.87
495.866	6891.5
496.235	7007.2
496.605	7153.41
496.974	7219.63
497.344	7328.78
497.713	7351.15
498.082	7485.83
498.452	7731.03
498.821	7786.39
499.19	7789.56
499.559	7923.56
499.928	7995.65
500.298	8160.39
500.667	8262.76
501.036	8248.75
501.405	8364
501.774	8443.55
502.143	8465.92
502.512	8642.87
502.88	8742.3
503.249	8766.93
503.618	8881.96
503.987	8922.41
504.356	9076.98
504.724	9086.02
505.093	9133.25
505.462	9199.46
505.83	9252.79
506.199	9450.08
506.567	9573.91
506.936	9599.68
507.304	9692.33
507.672	9757.86
508.041	9879.44
508.409	9940.68
508.777	10037.86
509.145	10104.97
509.514	10124.18
509.882	10207.12
510.25	10269.72
510.618	10420.9
510.986	10356.72
511.354	10551.97
511.722	10561.46
512.09	10772.75
512.458	10743.15
512.826	10823.83
513.193	10845.97
513.561	10862.02
513.929	11028.34
514.297	11098.85
514.664	11127.55
515.032	11331.38
515.4	11323.02
515.767	11397.14
516.135	11489.8
516.502	11447.54
516.869	11603.92
517.237	11693.18
517.604	11610.47
517.972	11747.64
518.339	11781.99
518.706	11879.62
519.073	11958.94
519.44	12048.2
519.808	12151.47
520.175	12170.68
520.542	12250
520.909	12379.04
521.276	12430.79
521.643	12496.32
522.009	12667.39
522.376	12685.02
522.743	12691.35
523.11	12812.47
523.477	12945.58
523.843	13008.17
524.21	13158.23
524.577	13271.22
524.943	13223.76
525.31	13396.19
525.676	13537.88
526.043	13552.12
526.409	13581.27
526.776	13783.75
527.142	13779.68
527.508	13851.77
527.874	14001.14
528.241	14000.24
528.607	14110.97
528.973	14190.97
529.339	14257.86
529.705	14319.55
530.071	14448.82
530.437	14505.08
530.803	14612.65
531.169	14701.92
531.535	14657.4
531.901	14697.4
532.267	14860.56
532.632	14956.15
532.998	14934.68
533.364	15115.24
533.73	15075.24
534.095	15173.09
534.461	15279.75
534.826	15355.46
535.192	15356.14
535.557	15557.26
535.923	15495.12
536.288	15610.82
536.653	15722.23
537.019	15689.01
537.384	15730.59
537.749	15814.43
538.114	15804.49
538.479	15974.65
538.845	16114.99
539.21	16027.08
539.575	16084.48
539.94	16199.96
540.305	16283.8
540.67	16264.81
541.034	16294.64
541.399	16483.34
541.764	16402.44
542.129	16525.37
542.494	16601.07
542.858	16686.5
543.223	16618.7
543.587	16749.32
543.952	16824.35
544.316	16921.74
544.681	16941.86
545.045	16932.82
545.41	17064.79
545.774	17173.72
546.138	17274.28
546.503	17297.1
546.867	17222.53
547.231	17497.1
547.595	17466.59
547.959	17590.43
548.324	17573.25
548.688	17578.22
549.052	17661.16
549.416	17689.18
549.779	17702.74
550.143	17871.32
550.507	17865.9
550.871	17954.94
551.235	17955.39
551.599	18171.65
551.962	18107.48
552.326	18163.29
552.689	18287.81
553.053	18253.91
553.417	18357.64
553.78	18569.84
554.143	18476.96
554.507	18579.78
554.87	18604.64
555.234	18863.16
555.597	18689.61
555.96	18827.91
556.323	18828.59
556.686	18916.04
557.05	19051.41
557.413	18975.48
557.776	19137.28
558.139	19311.06
558.502	19315.58
558.865	19322.81
559.228	19492.75
559.59	19453.2
559.953	19483.48
560.316	19755.79
560.679	19734.55
561.041	19816.81
561.404	19881.89
561.767	20018.84
562.129	19968.9
562.492	20260.87
562.854	20143.58
563.217	20198.04
563.579	20144.94
563.941	20325.27
564.304	20480.52
564.666	20573.4
565.028	20512.61
565.39	20722.1
565.753	20725.49
566.115	20853.84
566.477	20899.49
566.839	20962.32
567.201	21074.63
567.563	21118.24
567.925	21226.72
568.287	21257.68
568.648	21411.12
569.01	21336.09
569.372	21632.35
569.734	21546.93
570.095	21713.48
570.457	21770.88
570.819	21850.2
571.18	21942.4
571.542	22037.09
571.903	22120.93
572.265	22275.95
572.626	22329.74
572.987	22340.81
573.349	22419.45
573.71	22603.4
574.071	22628.03
574.432	22803.17
574.794	22938.08
575.155	23000.23
575.516	22863.51
575.877	23117.97
576.238	23337.17
576.599	23366.09
576.96	23489.03
577.32	23572.64
577.681	23717.5
578.042	23874.56
578.403	23977.83
578.763	24133.08
579.124	24284.26
579.485	24514.09
579.845	24619.85
580.206	24639.28
580.566	24792.72
580.927	24909.33
581.287	25206.72
581.648	25273.16
582.008	25458.47
582.368	25678.35
582.728	25844.9
583.089	25993.14
583.449	26084.89
583.809	26399.24
584.169	26596.97
584.529	26740.02
584.889	27020.69
585.249	27220.46
585.609	27253.68
585.969	27572.09
586.329	27697.51
586.688	28008.01
587.048	28135.46
587.408	28405.28
587.768	28490.03
588.127	28692.28
588.487	28915.1
588.846	29342.21
589.206	29385.15
589.565	29552.15
589.925	29824.68
590.284	30075.3
590.643	30215.63
591.003	30685.68
591.362	30764.54
591.721	30965.67
592.08	31204.08
592.44	31437.97
592.799	31700.79
593.158	31865.53
593.517	32004.29
593.876	32322.24
594.235	32213.55
594.593	32624.16
594.952	33004.49
595.311	32849.69
595.67	33452.84
596.029	33698.48
596.387	33857.12
596.746	34075.64
597.104	34158.13
597.463	34431.79
597.822	34682.18
598.18	34838.34
598.538	34898.9
598.897	35339.57
599.255	35298.89
599.613	35885.77
599.972	35901.36
600.33	36140
600.688	36093.67
601.046	36460.21
601.404	36603.26
601.762	36815.23
602.12	36972.52
602.478	37186.52
602.836	37413.41
603.194	37313.98
603.552	37647.53
603.91	37657.92
604.268	37938.37
604.625	37962.77
604.983	38324.35
605.341	38066.95
605.698	38549.42
606.056	38710.32
606.413	38884.1
606.771	39130.88
607.128	39284.77
607.485	39113.25
607.843	39439.34
608.2	39759.79
608.557	39828.03
608.914	39794.36
609.272	40105.09
609.629	40155.48
609.986	40516.15
610.343	40411.75
610.7	40706.43
611.057	40674.79
611.414	40847.22
611.771	41071.84
612.127	41192.29
612.484	41257.38
612.841	41513.64
613.198	41567.88
613.554	41564.03
613.911	41739.85
614.267	41955.89
614.624	41998.15
614.98	42050.35
615.337	42293.05
615.693	42390.45
616.05	42542.99
616.406	42655.76
616.762	42674.74
617.118	42736.88
617.475	42750.67
617.831	42774.85
618.187	42992.47
618.543	43168.96
618.899	43384.55
619.255	43298.9
619.611	43255.97
619.967	43581.61
620.323	43566.47
620.678	43561.5
621.034	43599.69
621.39	43573.7
621.746	43710.64
622.101	44295.04
622.457	43899.11
622.812	43948.6
623.168	44146.57
623.523	44209.39
623.879	44299.78
624.234	44064.99
624.589	44213.91
624.945	44456.16
625.3	44359.89
625.655	44475.82
626.01	44531.41
626.365	44520.57
626.72	44451.64
627.075	44547.91
627.43	44700.9
627.785	44669.94
628.14	44641.47
628.495	44678.98
628.85	44678.08
629.205	44507.69
629.559	44844.85
629.914	44648.47
630.269	44725.99
630.623	44699.55
630.978	44634.46
631.332	44785.87
631.687	44955.58
632.041	44709.94
632.396	44721.01
632.75	44669.49
633.104	44738.41
633.459	44709.94
633.813	44709.49
634.167	44714.91
634.521	44792.2
634.875	44875.81
635.229	44755.36
635.583	44656.83
635.937	44566.89
636.291	44530.51
636.645	44699.32
636.999	44517.18
637.352	44632.88
637.706	44452.77
638.06	44655.03
638.413	44512.88
638.767	44544.75
639.121	44536.84
639.474	44390.85
639.828	44486.9
640.181	44514.69
640.534	44465.2
640.888	44325.09
641.241	44201.48
641.594	44393.56
641.947	44377.52
642.301	44227.47
642.654	44350.4
643.007	44369.61
643.36	44125.1
643.713	44164.42
644.066	44331.19
644.419	44037.64
644.771	43867.7
645.124	43499.58
645.477	43486.02
645.83	43357.43
646.182	43133.03
646.535	43015.07
646.888	43121.73
647.24	42835.41
647.593	43060.94
647.945	43044.22
648.298	42843.77
648.65	42868.86
649.002	42820.95
649.355	42889.88
649.707	42792.02
650.059	42883.55
650.411	43500.93
650.763	43553.36
651.115	43902.73
651.467	43826.35
651.819	43768.72
652.171	43721.94
652.523	43587.26
652.875	43651.21
653.227	43561.95
653.578	43782.28
653.93	43690.98
654.282	43474.49
654.633	43328.73
654.985	43536.64
655.337	43352.24
655.688	43470.2
656.039	43727.37
656.391	43288.28
656.742	43472.23
657.094	43457.32
657.445	43623.19
657.796	43357.66
658.147	43341.61
658.498	43275.4
658.849	43332.58
659.2	43341.61
659.551	43279.02
659.902	43414.38
660.253	43258
660.604	43396.3
660.955	43160.83
661.306	43215.29
661.656	43235.4
662.007	43228.4
662.358	43321.05
662.708	43125.35
663.059	43174.61
663.409	42964.68
663.76	43343.87
664.11	43202.64
664.461	43142.98
664.811	43129.87
665.161	43161.73
665.511	43023.2
665.862	42996.76
666.212	43162.86
666.562	43097.78
666.912	43216.87
667.262	43137.33
667.612	43208.74
667.962	43184.78
668.312	43201.28
668.662	43275.63
669.011	43171.45
669.361	43135.97
669.711	43018.23
670.06	42937.11
670.41	42980.72
670.76	42859.37
671.109	43156.08
671.459	42935.07
671.808	42801.52
672.157	43063.88
672.507	42809.88
672.856	42794.51
673.205	42963.77
673.554	43030.89
673.904	42653.95
674.253	43021.17
674.602	42817.79
674.951	42323.11
675.3	42215.99
675.649	42806.49
675.998	42649.88
676.346	42709.31
676.695	42860.5
677.044	42549.09
677.393	42610.56
677.741	42718.58
678.09	42627.74
678.438	42571.24
678.787	42510.22
679.135	42587.28
679.484	42328.76
679.832	42556.1
680.181	42190.91
680.529	42360.62
680.877	42179.39
681.225	42145.26
681.573	42430.45
681.922	42122.66
682.27	42057.35
682.618	41938.71
682.966	41892.39
683.314	41920.18
683.661	41793.63
684.009	41621.66
684.357	41670.92
684.705	41486.3
685.053	41630.25
685.4	41547.76
685.748	41451.49
686.095	41257.15
686.443	41301.89
686.79	41208.56
687.138	41318.84
687.485	41358.16
687.832	41085.85
688.18	41215.79
688.527	40964.95
688.874	40947.1
689.221	40848.8
689.568	40755.69
689.915	40771.51
690.262	40724.73
690.609	40487.68
690.956	40396.83
691.303	40388.02
691.65	40251.07
691.997	40290.62
692.344	39961.36
692.69	40009.27
693.037	39872.1
693.383	39586.69
693.73	39583.75
694.077	39524.31
694.423	39490.19
694.769	39383.07
695.116	39416.97
695.462	39383.98
695.808	39167.71
696.155	39207.94
696.501	38901.05
696.847	38906.48
697.193	38830.55
697.539	38898.12
697.885	38588.07
698.231	38586.03
698.577	38617.67
698.923	38471.23
699.269	38388.75
699.614	38234.4
699.96	38177.91
700.306	38035.99
700.651	38001.19
700.997	37724.14
701.342	37805.71
701.688	37749.67
702.033	37578.83
702.379	37381.55
702.724	37440.07
703.069	37538.83
703.415	36997.6
703.76	37017.94
704.105	37134.09
704.45	37019.52
704.795	36837.38
705.14	36723.71
705.485	36713.77
705.83	36543.6
706.175	36662.24
706.52	36435.81
706.865	36462.02
707.209	36351.97
707.554	36288.24
707.899	36218.86
708.243	36118.75
708.588	36060
708.932	35775.94
709.277	35844.18
709.621	35895.26
709.966	35685.09
710.31	35564.64
710.654	35257.99
710.998	35403.07
711.342	35487.36
711.687	35353.8
712.031	35164.88
712.375	35114.26
712.719	35205.33
713.063	35121.94
713.407	35072.45
713.75	34878.56
714.094	34982.06
714.438	34664.1
714.782	34665.46
715.125	34488.29
715.469	34736.64
715.812	34435.63
716.156	34390.89
716.499	34192.48
716.843	34356.31
717.186	34129.88
717.53	34232.25
717.873	34298.46
718.216	34014.85
718.559	33920.39
718.902	33689.44
719.246	33951.58
719.589	33608.09
719.932	33598.37
720.275	33626.39
720.617	33505.49
720.96	33505.26
721.303	33410.12
721.646	33644.92
721.989	33391.37
722.331	33390.46
722.674	33222.33
723.016	33393.18
723.359	33060.08
723.701	33247.64
724.044	33116.35
724.386	32846.3
724.729	32994.99
725.071	33041.32
725.413	32946.41
725.755	32835.9
726.097	32798.16
726.439	32643.36
726.782	32710.93
727.124	32812.17
727.465	32593.65
727.807	32616.7
728.149	32478.62
728.491	32508.91
728.833	32435.46
729.175	32379.87
729.516	32282.47
729.858	32167.9
730.199	32227.78
730.541	32192.08
730.882	32206.09
731.224	32268.01
731.565	31890.84
731.906	32101.23
732.248	31967.9
732.589	31836.83
732.93	31741.24
733.271	31722.94
733.612	31837.74
733.953	31861.92
734.294	31663.05
734.635	31696.27
734.976	31732.43
735.317	31382.83
735.658	31524.07
735.999	31441.14
736.339	31301.71
736.68	31461.48
737.021	31324.3
737.361	31188.26
737.702	31286.56
738.042	31063.07
738.383	31138.32
738.723	31135.38
739.063	30962.51
739.404	31170.18
739.744	30906.69
740.084	30774.04
740.424	30838.67
740.764	30779.69
741.104	31060.36
741.444	30790.53
741.784	30652.46
742.124	30744.88
742.464	30672.34
742.804	30493.14
743.143	30584.44
743.483	30545.34
743.823	30407.49
744.162	30375.85
744.502	30431.9
744.841	30235.52
745.181	30374.72
745.52	30233.71
745.86	30344.22
746.199	30198.68
746.538	30103.32
746.877	30297.66
747.216	30114.39
747.556	30025.35
747.895	30134.05
748.234	29994.62
748.573	29859.71
748.911	29876.43
749.25	29770.67
749.589	29626.27
749.928	29690.67
750.267	29705.59
750.605	29653.84
750.944	29566.16
751.283	29455.65
751.621	29539.27
751.96	29292.27
752.298	29308.76
752.636	29211.14
752.975	29325.49
753.313	29079.62
753.651	29218.82
753.989	29010.92
754.327	28990.35
754.666	28885.72
755.004	28874.42
755.342	29029.67
755.679	28834.88
756.017	28711.72
756.355	28702.9
756.693	28633.98
