Data from hue_290_FLMS001491_00082.txt Node
Date: Tue Feb 07 15:53:23 GMT 2017
User: dcchb
Spectrometer: FLMS00149
Trigger mode: 0
Integration Time (sec): 2.000000E-2
Scans to average: 10
Electric dark correction enabled: true
Nonlinearity correction enabled: false
Boxcar width: 0
XAxis mode: Wavelengths
Number of Pixels in Spectrum: 2048
>>>>>Begin Spectral Data<<<<<
341.393	-17.94
341.776	-17.94
342.16	-17.94
342.543	-49.35
342.927	-54.77
343.31	-75.34
343.693	-42.12
344.077	-48.9
344.46	-64.72
344.843	-40.99
345.226	-47.99
345.61	-43.25
345.993	-22.68
346.376	-9.8
346.759	19.58
347.142	29.97
347.525	37.43
347.908	60.7
348.291	69.07
348.674	80.59
349.057	98.44
349.44	138.22
349.823	147.03
350.206	149.97
350.588	193.58
350.971	209.85
351.354	242.17
351.737	225.67
352.119	254.82
352.502	242.62
352.884	294.82
353.267	273.58
353.65	261.6
354.032	301.15
354.414	319.23
354.797	297.08
355.179	301.38
355.562	309.29
355.944	316.97
356.326	309.96
356.709	320.13
357.091	330.53
357.473	311.09
357.855	341.6
358.238	337.99
358.62	339.34
359.002	348.61
359.384	332.56
359.766	331.66
360.148	318.55
360.53	331.43
360.912	304.09
361.294	340.7
361.676	311.55
362.057	321.71
362.439	318.1
362.821	305.44
363.203	323.75
363.584	319.68
363.966	315.84
364.348	323.07
364.729	339.79
365.111	342.96
365.493	317.2
365.874	312
366.256	312.45
366.637	309.74
367.019	307.48
367.4	323.3
367.781	325.33
368.163	304.99
368.544	301.6
368.925	298.89
369.306	322.17
369.688	320.81
370.069	298.66
370.45	310.42
370.831	306.35
371.212	319.23
371.593	322.84
371.974	306.12
372.355	281.94
372.736	309.74
373.117	307.93
373.498	326.69
373.879	299.57
374.26	284.43
374.641	298.89
375.021	318.78
375.402	321.26
375.783	337.53
376.163	303.86
376.544	327.36
376.925	316.74
377.305	316.97
377.686	314.94
378.066	345.44
378.447	321.04
378.827	331.21
379.208	316.74
379.588	324.2
379.968	335.05
380.349	342.28
380.729	321.49
381.109	334.37
381.489	334.82
381.87	335.27
382.25	330.53
382.63	332.11
383.01	336.4
383.39	345.89
383.77	326.01
384.15	347.25
384.53	329.85
384.91	353.58
385.29	361.49
385.67	332.11
386.049	360.36
386.429	348.61
386.809	341.15
387.189	365.1
387.568	351.32
387.948	363.3
388.328	332.79
388.707	365.78
389.087	338.89
389.466	363.97
389.846	337.31
390.225	358.55
390.605	360.81
390.984	350.19
391.363	363.97
391.743	363.3
392.122	365.78
392.501	396.29
392.881	393.8
393.26	386.8
393.639	373.92
394.018	406.68
394.397	382.28
394.776	386.12
395.155	382.73
395.534	389.28
395.913	375.05
396.292	388.61
396.671	377.53
397.05	392.67
397.429	372.33
397.808	409.4
398.186	395.84
398.565	397.42
398.944	386.35
399.323	396.97
399.701	417.53
400.08	404.2
400.458	409.62
400.837	414.59
401.215	406.46
401.594	434.03
401.972	440.81
402.351	405.55
402.729	427.47
403.107	421.6
403.486	429.28
403.864	437.64
404.242	427.7
404.62	424.76
404.999	443.29
405.377	455.95
405.755	441.94
406.133	469.73
406.511	450.52
406.889	462.05
407.267	475.83
407.645	460.24
408.023	469.28
408.401	478.32
408.779	504.31
409.156	498.66
409.534	495.72
409.912	505.21
410.29	502.05
410.667	540.01
411.045	523.07
411.422	528.04
411.8	547.47
412.178	563.29
412.555	553.8
412.933	560.35
413.31	561.93
413.687	600.35
414.065	559.9
414.442	601.26
414.819	606.9
415.197	575.95
415.574	605.32
415.951	607.58
416.328	625.89
416.705	639.67
417.082	657.75
417.46	651.65
417.837	636.96
418.214	643.97
418.591	650.97
418.967	647.13
419.344	685.32
419.721	684.42
420.098	689.39
420.475	711.76
420.852	719.44
421.228	736.85
421.605	741.59
421.982	737.07
422.358	755.15
422.735	782.27
423.111	732.33
423.488	770.74
423.864	781.82
424.241	817.29
424.617	811.42
424.994	806.22
425.37	820.23
425.746	812.55
426.123	839.22
426.499	855.26
426.875	868.82
427.251	867.46
427.627	881.02
428.003	887.58
428.379	867.01
428.756	892.32
429.132	913.11
429.507	933.68
429.883	928.25
430.259	964.41
430.635	961.47
431.011	946.33
431.387	991.3
431.763	1000.79
432.138	996.5
432.514	1013.22
432.89	1055.25
433.265	1011.41
433.641	1036.05
434.016	1065.42
434.392	1083.28
434.767	1114.69
435.143	1110.17
435.518	1115.59
435.894	1107.68
436.269	1160.34
436.644	1156.04
437.02	1193.1
437.395	1151.75
437.77	1168.92
438.145	1201.01
438.52	1210.96
438.895	1226.32
439.271	1225.19
439.646	1297.28
440.021	1258.64
440.395	1270.84
440.77	1295.47
441.145	1296.83
441.52	1321.01
441.895	1303.16
442.27	1331.18
442.645	1317.85
443.019	1333.67
443.394	1357.17
443.769	1355.59
444.143	1330.73
444.518	1352.2
444.892	1379.99
445.267	1380.67
445.641	1363.95
446.016	1382.25
446.39	1390.39
446.764	1411.86
447.139	1381.12
447.513	1416.15
447.887	1436.26
448.262	1438.3
448.636	1453.89
449.01	1443.95
449.384	1482.14
449.758	1444.4
450.132	1486.88
450.506	1464.74
450.88	1506.32
451.254	1491.63
451.628	1503.38
452.002	1528.24
452.376	1535.92
452.75	1518.52
453.123	1536.6
453.497	1547.22
453.871	1542.02
454.244	1585.41
454.618	1572.08
454.992	1595.35
455.365	1605.97
455.739	1660.44
456.112	1626.54
456.486	1631.28
456.859	1654.34
457.232	1674
457.606	1658.63
457.979	1706.54
458.352	1711.96
458.725	1755.12
459.099	1771.17
459.472	1746.54
459.845	1779.98
460.218	1788.57
460.591	1817.72
460.964	1808.91
461.337	1843.71
461.71	1887.32
462.083	1866.98
462.456	1839.87
462.829	1876.93
463.201	1927.1
463.574	1902.46
463.947	1943.14
464.32	1942.92
464.692	1975.91
465.065	1979.3
465.438	2011.61
465.81	2060.2
466.183	2021.33
466.555	2070.82
466.928	2087.77
467.3	2082.12
467.672	2116.7
468.045	2148.11
468.417	2127.54
468.789	2145.17
469.161	2165.28
469.534	2210.93
469.906	2230.82
470.278	2224.26
470.65	2240.08
471.022	2289.12
471.394	2320.76
471.766	2303.36
472.138	2362.11
472.51	2401.21
472.882	2400.98
473.253	2435.56
473.625	2442.79
473.997	2495.89
474.369	2509.23
474.74	2512.39
475.112	2567.08
475.484	2583.58
475.855	2616.12
476.227	2606.63
476.598	2722.78
476.97	2677.36
477.341	2727.08
477.713	2786.06
478.084	2810.01
478.455	2838.48
478.827	2851.14
479.198	2921.87
479.569	2931.59
479.94	2995.54
480.311	3005.26
480.682	3063.79
481.053	3105.37
481.424	3151.24
481.795	3143.79
482.166	3176.33
482.537	3217.46
482.908	3250.45
483.279	3278.25
483.65	3307.17
484.021	3366.38
484.391	3393.95
484.762	3452.03
485.133	3419.26
485.503	3438.69
485.874	3533.38
486.244	3551.23
486.615	3579.71
486.985	3646.83
487.356	3685.92
487.726	3715.52
488.097	3752.36
488.467	3735.64
488.837	3781.74
489.207	3828.97
489.578	3914.39
489.948	3910.77
490.318	3958.68
490.688	3954.39
491.058	3982.18
491.428	4041.16
491.798	4089.98
492.168	4121.61
492.538	4160.26
492.908	4178.56
493.278	4211.78
493.648	4228.5
494.017	4297.66
494.387	4281.84
494.757	4327.49
495.126	4334.72
495.496	4360.03
495.866	4423.98
496.235	4418.1
496.605	4442.74
496.974	4464.66
497.344	4508.05
497.713	4525.22
498.082	4555.05
498.452	4582.85
498.821	4601.15
499.19	4613.13
499.559	4630.98
499.928	4696.74
500.298	4667.14
500.667	4739.9
501.036	4681.37
501.405	4763.41
501.774	4746.46
502.143	4782.39
502.512	4752.33
502.88	4821.94
503.249	4806.57
503.618	4817.87
503.987	4783.74
504.356	4874.59
504.724	4836.4
505.093	4870.3
505.462	4884.31
505.83	4897.19
506.199	4961.14
506.567	5039.1
506.936	4936.28
507.304	5036.39
507.672	5027.35
508.041	5052.66
508.409	5105.09
508.777	5099.44
509.145	5177.18
509.514	5160.91
509.882	5196.84
510.25	5172.43
510.618	5171.53
510.986	5167.24
511.354	5269.61
511.722	5233.22
512.09	5298.53
512.458	5263.73
512.826	5320.91
513.193	5347.35
513.561	5289.95
513.929	5309.38
514.297	5354.35
514.664	5423.73
515.032	5424.63
515.4	5446.78
515.767	5457.85
516.135	5490.62
516.502	5417.63
516.869	5503.27
517.237	5493.33
517.604	5453.56
517.972	5499.21
518.339	5520
518.706	5571.52
519.073	5541.24
519.44	5609.71
519.808	5620.78
520.175	5574.23
520.542	5658.07
520.909	5680.22
521.276	5665.75
521.643	5759.76
522.009	5805.19
522.376	5762.25
522.743	5747.56
523.11	5795.02
523.477	5779.88
523.843	5885.64
524.21	5863.26
524.577	5924.96
524.943	5920.44
525.31	5955.46
525.676	6007.67
526.043	6049.02
526.409	6060.32
526.776	6080.21
527.142	6078.85
527.508	6101.22
527.874	6165.18
528.241	6154.33
528.607	6182.35
528.973	6192.07
529.339	6195.68
529.705	6293.99
530.071	6270.26
530.437	6343.48
530.803	6375.79
531.169	6365.62
531.535	6411.05
531.901	6371.5
532.267	6425.06
532.632	6467.54
532.998	6463.47
533.364	6501.44
533.73	6538.05
534.095	6581.21
534.461	6578.27
534.826	6544.15
535.192	6579.18
535.557	6684.71
535.923	6593.64
536.288	6723.81
536.653	6686.52
537.019	6652.17
537.384	6668.44
537.749	6742.79
538.114	6725.61
538.479	6712.96
538.845	6801.54
539.21	6721.09
539.575	6808.1
539.94	6823.46
540.305	6846.97
540.67	6841.32
541.034	6891.26
541.399	6852.62
541.764	6917.7
542.129	6961.77
542.494	7051.48
542.858	7009.22
543.223	7040.41
543.587	7064.36
543.952	7008.77
544.316	7034.76
544.681	7056.45
545.045	7064.81
545.41	7116.34
545.774	7125.83
546.138	7146.17
546.503	7178.71
546.867	7087.64
547.231	7220.97
547.595	7187.3
547.959	7252.83
548.324	7271.81
548.688	7226.62
549.052	7328.08
549.416	7265.49
549.779	7304.13
550.143	7331.7
550.507	7390.91
550.871	7385.26
551.235	7408.99
551.599	7400.17
551.962	7399.49
552.326	7415.54
552.689	7453.5
553.053	7386.84
553.417	7410.12
553.78	7566.04
554.143	7539.6
554.507	7501.19
554.87	7569.66
555.234	7640.17
555.597	7610.11
555.96	7597.23
556.323	7652.37
556.686	7674.29
557.05	7674.52
557.413	7718.13
557.776	7718.81
558.139	7761.52
558.502	7750.9
558.865	7761.29
559.228	7793.61
559.59	7772.59
559.953	7843.1
560.316	7853.95
560.679	7893.49
561.041	7898.01
561.404	7944.11
561.767	7961.74
562.129	7965.81
562.492	8064.11
562.854	7977.11
563.217	8009.42
563.579	8032.25
563.941	8092.81
564.304	8111.79
564.666	8079.7
565.028	8143.88
565.39	8179.81
565.753	8205.12
566.115	8243.09
566.477	8313.14
566.839	8283.99
567.201	8359.92
567.563	8288.06
567.925	8359.47
568.287	8418
568.648	8437.43
569.01	8446.92
569.372	8500.26
569.734	8482.86
570.095	8531.67
570.457	8538.67
570.819	8605.34
571.18	8618.67
571.542	8666.58
571.903	8687.6
572.265	8680.59
572.626	8763.07
572.987	8785.67
573.349	8762.85
573.71	8832.9
574.071	8860.93
574.432	8918.55
574.794	8990.64
575.155	9022.73
575.516	9034.03
575.877	9094.37
576.238	9141.6
576.599	9179.11
576.96	9312.89
577.32	9269.28
577.681	9306.56
578.042	9426.79
578.403	9473.56
578.763	9479.44
579.124	9548.36
579.485	9646.67
579.845	9759.66
580.206	9703.61
580.566	9843.05
580.927	9897.06
581.287	9946.32
581.648	9976.38
582.008	10102.93
582.368	10224.51
582.728	10284.39
583.089	10378.85
583.449	10387.21
583.809	10466.76
584.169	10617.49
584.529	10687.54
584.889	10811.61
585.249	10892.06
585.609	10963.69
585.969	11113.3
586.329	11184.25
586.688	11325.04
587.048	11470.35
587.408	11579.27
587.768	11704.47
588.127	11818.59
588.487	11891.35
588.846	12191.69
589.206	12125.7
589.565	12311.46
589.925	12437.78
590.284	12534.5
590.643	12667.38
591.003	12852.68
591.362	13014.71
591.721	13028.5
592.08	13204.09
592.44	13399.11
592.799	13516.85
593.158	13581.25
593.517	13711.65
593.876	13931.53
594.235	14084.74
594.593	14142.59
594.952	14321.8
595.311	14428.91
595.67	14534
596.029	14755.91
596.387	14953.87
596.746	15086.07
597.104	15112.06
597.463	15149.57
597.822	15301.43
598.18	15432.5
598.538	15508.43
598.897	15781.2
599.255	15827.07
599.613	16088.98
599.972	16117.23
600.33	16152.48
600.688	16243.78
601.046	16407.39
601.404	16613.49
601.762	16547.05
602.12	16848.29
602.478	16889.19
602.836	16993.14
603.194	16994.5
603.552	17072.46
603.91	17277.43
604.268	17356.97
604.625	17362.4
604.983	17575.5
605.341	17605.33
605.698	17676.96
606.056	17890.07
606.413	17961.93
606.771	17979.33
607.128	18183.84
607.485	18157.4
607.843	18255.93
608.2	18384.52
608.557	18565.08
608.914	18535.93
609.272	18676.49
609.629	18790.38
609.986	18911.28
610.343	18846.43
610.7	18998.74
611.057	19102.92
611.414	19071.28
611.771	19152.86
612.127	19290.71
612.484	19393.53
612.841	19431.95
613.198	19455
613.554	19430.36
613.911	19617.48
614.267	19508.55
614.624	19589.46
614.98	19718.72
615.337	19779.96
615.693	19791.49
616.05	19869.22
616.406	19979.95
616.762	19972.05
617.118	20021.99
617.475	20099.05
617.831	20076
618.187	20171.14
618.543	20324.35
618.899	20361.87
619.255	20415.42
619.611	20384.46
619.967	20502.2
620.323	20614.06
620.678	20494.97
621.034	20546.04
621.39	20578.13
621.746	20590.33
622.101	20800.5
622.457	20732.93
622.812	20674.63
623.168	20869.2
623.523	20797.56
623.879	20900.16
624.234	20744
624.589	20819.48
624.945	20954.39
625.3	20925.69
625.655	20910.1
626.01	20952.58
626.365	21035.07
626.72	20972.7
627.075	21011.11
627.43	20999.59
627.785	21009.31
628.14	21080.26
628.495	21163.88
628.85	21049.76
629.205	21053.6
629.559	21131.56
629.914	20998.69
630.269	21003.43
630.623	20960.49
630.978	20987.39
631.332	21041.17
631.687	21103.09
632.041	21064.67
632.396	21035.97
632.75	21023.54
633.104	21014.05
633.459	20926.6
633.813	20889.76
634.167	20939.48
634.521	21015.18
634.875	21086.59
635.229	20959.59
635.583	20909.65
635.937	20898.35
636.291	20948.29
636.645	20900.83
636.999	20828.29
637.352	20894.51
637.706	20863.1
638.06	20939.93
638.413	20785.13
638.767	20882.98
639.121	20907.16
639.474	20820.38
639.828	20790.33
640.181	20801.85
640.534	20869.87
640.888	20731.12
641.241	20672.82
641.594	20769.09
641.947	20907.84
642.301	20777.67
642.654	20727.28
643.007	20713.72
643.36	20664
643.713	20748.07
644.066	20726.15
644.419	20648.64
644.771	20591.92
645.124	20357.8
645.477	20285.26
645.83	20145.37
646.182	20070.35
646.535	20042.78
646.888	20231.93
647.24	20017.02
647.593	20088.88
647.945	20106.51
648.298	19983.8
648.65	20003.91
649.002	19947.19
649.355	20035.55
649.707	20061.76
650.059	20197.8
650.411	20436.67
650.763	20363
651.115	20583.1
651.467	20571.58
651.819	20519.83
652.171	20577
652.523	20499.04
652.875	20507.4
653.227	20408.87
653.578	20652.48
653.93	20618.13
654.282	20379.27
654.633	20439.38
654.985	20508.3
655.337	20524.57
655.688	20450.68
656.039	20585.81
656.391	20488.87
656.742	20482.31
657.094	20434.41
657.445	20436.44
657.796	20483.22
658.147	20536.55
658.498	20518.92
658.849	20446.61
659.2	20502.65
659.551	20390.79
659.902	20480.51
660.253	20460.17
660.604	20648.64
660.955	20471.69
661.306	20464.69
661.656	20493.84
662.007	20542.88
662.358	20546.95
662.708	20556.66
663.059	20584.91
663.409	20480.73
663.76	20604.8
664.11	20557.57
664.461	20619.03
664.811	20503.33
665.161	20651.12
665.511	20455.42
665.862	20611.35
666.212	20568.19
666.562	20738.35
666.912	20608.64
667.262	20669.43
667.612	20537.68
667.962	20654.29
668.312	20557.34
668.662	20655.42
669.011	20520.51
669.361	20575.42
669.711	20592.14
670.06	20460.39
670.41	20455.42
670.76	20541.3
671.109	20519.38
671.459	20434.86
671.808	20382.43
672.157	20515.08
672.507	20275.77
672.856	20386.72
673.205	20430.11
673.554	20485.7
673.904	20431.69
674.253	20484.8
674.602	20450
674.951	20143.57
675.3	19923.46
675.649	20402.54
675.998	20378.14
676.346	20287.97
676.695	20421.07
677.044	20235.32
677.393	20282.77
677.741	20268.31
678.09	20241.87
678.438	20201.64
678.787	20231.02
679.135	20188.99
679.484	20147.41
679.832	20084.13
680.181	19992.16
680.529	20138.82
680.877	19986.73
681.225	20007.3
681.573	20192.6
681.922	19946.51
682.27	19880.52
682.618	19856.34
682.966	19814.08
683.314	19845.72
683.661	19773.86
684.009	19693.18
684.357	19744.48
684.705	19673.52
685.053	19704.93
685.4	19633.75
685.748	19583.36
686.095	19499.29
686.443	19504.71
686.79	19414.09
687.138	19410.48
687.485	19479.18
687.832	19352.4
688.18	19391.95
688.527	19227.66
688.874	19161.67
689.221	19083.26
689.568	19243.7
689.915	19092.52
690.262	19044.39
690.609	18982.47
690.956	18949.47
691.303	18820.89
691.65	18739.54
691.997	18739.31
692.344	18702.25
692.69	18661.12
693.037	18629.03
693.383	18460.67
693.73	18620.44
694.077	18400.56
694.423	18406.44
694.769	18349.49
695.116	18238.76
695.462	18159.66
695.808	18257.51
696.155	18256.38
696.501	18023.85
696.847	17991.31
697.193	17873.12
697.539	17991.76
697.885	17774.36
698.231	17820.46
698.577	17702.73
698.923	17725.78
699.269	17583.86
699.614	17460.25
699.96	17511.55
700.306	17403.53
700.651	17399.68
700.997	17418.44
701.342	17306.58
701.688	17218.67
702.033	17179.58
702.379	17157.2
702.724	17063.87
703.069	17096.87
703.415	16839.47
703.76	16923.31
704.105	16891.9
704.45	16856.42
704.795	16767.84
705.14	16721.28
705.485	16730.77
705.83	16584.56
706.175	16634.28
706.52	16489.2
706.865	16523.1
707.209	16425.47
707.554	16346.15
707.899	16326.72
708.243	16214.63
708.588	16200.17
708.932	16189.09
709.277	16066.16
709.621	16092.37
709.966	16053.5
710.31	16000.17
710.654	15850.35
710.998	15933.51
711.342	15907.29
711.687	15917.01
712.031	15756.11
712.375	15733.29
712.719	15706.85
713.063	15729.22
713.407	15777.81
713.75	15654.42
714.094	15568.55
714.438	15534.87
714.782	15603.57
715.125	15478.6
715.469	15553.63
715.812	15432.96
716.156	15382.11
716.499	15386.86
716.843	15349.34
717.186	15227.76
717.53	15335.11
717.873	15456.68
718.216	15263.02
718.559	15252.62
718.902	15173.53
719.246	15164.04
719.589	15062.34
719.932	15070.25
720.275	15157.03
720.617	15039.75
720.96	15068.22
721.303	15103.25
721.646	14996.36
721.989	14969.24
722.331	15104.83
722.674	15027.77
723.016	14977.83
723.359	14944.38
723.701	14933.53
724.044	14870.03
724.386	14782.8
724.729	14863.48
725.071	14834.55
725.413	14826.87
725.755	14841.11
726.097	14769.47
726.439	14667.33
726.782	14696.03
727.124	14804.95
727.465	14733.77
727.807	14745.52
728.149	14705.07
728.491	14697.16
728.833	14743.03
729.175	14546.43
729.516	14678.85
729.858	14611.28
730.199	14766.31
730.541	14644.95
730.882	14599.31
731.224	14647.89
731.565	14547.56
731.906	14558.4
732.248	14503.04
732.589	14519.53
732.93	14536.71
733.271	14508.23
733.612	14605.18
733.953	14530.61
734.294	14552.3
734.635	14464.85
734.976	14558.18
735.317	14380.78
735.658	14529.25
735.999	14443.83
736.339	14428.24
736.68	14537.84
737.021	14507.78
737.361	14436.82
737.702	14551.17
738.042	14482.7
738.383	14421
738.723	14510.72
739.063	14381.68
739.404	14540.78
739.744	14500.1
740.084	14512.98
740.424	14555.01
740.764	14493.32
741.104	14601.34
741.444	14446.32
741.784	14524.96
742.124	14583.26
742.464	14619.64
742.804	14561.11
743.143	14628.01
743.483	14588.46
743.823	14614.67
744.162	14614.22
744.502	14618.97
744.841	14602.47
745.181	14693.99
745.52	14709.81
745.86	14735.35
746.199	14760.43
746.538	14891.05
746.877	14906.19
747.216	14880.2
747.556	14949.8
747.895	15018.96
748.234	15016.47
748.573	15094.89
748.911	15151.38
749.25	15138.05
749.589	15209.46
749.928	15324.94
750.267	15426.4
750.605	15430.47
750.944	15474.76
751.283	15550.92
751.621	15648.09
751.96	15639.5
752.298	15760.86
752.636	15884.47
752.975	15952.94
753.313	15848.54
753.651	16171.24
753.989	16149.55
754.327	16150.45
754.666	16243.1
755.004	16403.1
755.342	16574.17
755.679	16625.69
756.017	16690.55
756.355	16822.98
756.693	16825.69
757.031	17048.73
757.368	17047.6
757.706	17222.06
758.044	17245.11
758.381	17416.63
758.719	17441.04
759.056	17610.53
759.394	17685.1
759.731	17771.43
