Data from hue_00_FLMS001491_88.txt Node
Date: Mon Feb 06 15:30:23 GMT 2017
User: dcchb
Spectrometer: FLMS00149
Trigger mode: 0
Integration Time (sec): 2.000000E-2
Scans to average: 10
Electric dark correction enabled: true
Nonlinearity correction enabled: false
Boxcar width: 0
XAxis mode: Wavelengths
Number of Pixels in Spectrum: 2048
>>>>>Begin Spectral Data<<<<<
341.393	-29.12
341.776	-29.12
342.16	-29.12
342.543	-49.69
342.927	-57.82
343.31	-62.57
343.693	-73.64
344.077	-65.96
344.46	-53.98
344.843	-48.33
345.226	-50.37
345.61	-38.84
345.993	-26.86
346.376	-4.27
346.759	11.1
347.142	25.79
347.525	52.23
347.908	44.55
348.291	92.68
348.674	85.22
349.057	113.25
349.44	153.47
349.823	157.31
350.206	165.45
350.588	190.08
350.971	214.94
351.354	225.79
351.737	249.29
352.119	239.57
352.502	264.88
352.884	279.34
353.267	272.11
353.65	275.05
354.032	306.69
354.414	320.7
354.797	307.36
355.179	328.83
355.562	333.35
355.944	337.65
356.326	333.13
356.709	341.26
357.091	343.97
357.473	343.52
357.855	353.69
358.238	336.97
358.62	332.45
359.002	352.56
359.384	350.08
359.766	326.57
360.148	336.74
360.53	354.6
360.912	352.34
361.294	345.1
361.676	359.34
362.057	347.36
362.439	336.97
362.821	323.41
363.203	336.97
363.584	335.39
363.966	329.06
364.348	335.39
364.729	359.57
365.111	333.8
365.493	311.88
365.874	316.4
366.256	319.34
366.637	328.83
367.019	327.93
367.4	321.15
367.781	287.48
368.163	316.4
368.544	324.99
368.925	303.75
369.306	324.54
369.688	308.49
370.069	296.74
370.45	319.57
370.831	332.22
371.212	322.05
371.593	315.05
371.974	325.22
372.355	308.04
372.736	323.86
373.117	306.69
373.498	338.78
373.879	329.51
374.26	324.77
374.641	315.5
375.021	329.74
375.402	341.49
375.783	324.99
376.163	335.16
376.544	308.49
376.925	327.03
377.305	337.19
377.686	329.96
378.066	327.48
378.447	342.39
378.827	329.06
379.208	310.3
379.588	327.7
379.968	335.84
380.349	331.09
380.729	334.48
381.109	342.39
381.489	334.93
381.87	340.36
382.25	327.93
382.63	334.93
383.01	341.04
383.39	330.19
383.77	353.47
384.15	339.91
384.53	351.66
384.91	337.65
385.29	344.65
385.67	360.47
386.049	338.32
386.429	336.74
386.809	352.34
387.189	341.26
387.568	353.01
387.948	355.05
388.328	350.75
388.707	348.04
389.087	353.47
389.466	369.51
389.846	357.31
390.225	361.15
390.605	373.35
390.984	372.45
391.363	355.05
391.743	369.74
392.122	360.7
392.501	366.8
392.881	370.41
393.26	369.28
393.639	400.7
394.018	374.03
394.397	398.44
394.776	378.55
395.155	372.45
395.534	388.04
395.913	361.15
396.292	373.8
396.671	366.57
397.05	401.37
397.429	379.91
397.808	392.11
398.186	388.49
398.565	377.87
398.944	361.83
399.323	399.79
399.701	395.27
400.08	400.02
400.458	389.62
400.837	423.52
401.215	390.3
401.594	394.14
401.972	401.37
402.351	404.54
402.729	417.87
403.107	418.1
403.486	402.5
403.864	413.12
404.242	397.08
404.62	425.33
404.999	410.19
405.377	408.61
405.755	426.01
406.133	421.94
406.511	418.32
406.889	408.38
407.267	424.88
407.645	409.51
408.023	426.46
408.401	416.06
408.779	418.77
409.156	439.56
409.534	432.79
409.912	447.02
410.29	463.29
410.667	439.11
411.045	443.63
411.422	441.6
411.8	454.03
412.178	469.85
412.555	464.42
412.933	450.86
413.31	470.75
413.687	489.28
414.065	470.75
414.442	488.15
414.819	483.86
415.197	477.76
415.574	478.43
415.951	489.28
416.328	501.26
416.705	477.98
417.082	499.22
417.46	483.63
417.837	499.9
418.214	496.51
418.591	497.87
418.967	521.6
419.344	521.82
419.721	509.39
420.098	514.37
420.475	517.08
420.852	504.2
421.228	538.77
421.605	527.92
421.982	523.86
422.358	547.81
422.735	538.55
423.111	540.58
423.488	545.32
423.864	547.13
424.241	564.08
424.617	557.75
424.994	546.45
425.37	572.22
425.746	536.06
426.123	561.14
426.499	546
426.875	561.14
427.251	588.94
427.627	597.53
428.003	585.55
428.379	585.78
428.756	610.41
429.132	614.93
429.507	616.96
429.883	601.14
430.259	616.74
430.635	617.41
431.011	621.25
431.387	627.81
431.763	634.81
432.138	630.07
432.514	649.5
432.89	646.11
433.265	652.89
433.641	680.69
434.016	649.95
434.392	670.97
434.767	666.23
435.143	678.2
435.518	686.79
435.894	674.81
436.269	690.18
436.644	705.55
437.02	692.21
437.395	693.8
437.77	702.83
438.145	727.01
438.52	703.29
438.895	737.64
439.271	712.1
439.646	734.7
440.021	725.21
440.395	736.96
440.77	742.16
441.145	772.89
441.52	773.57
441.895	766.56
442.27	756.84
442.645	767.01
443.019	768.37
443.394	780.35
443.769	783.28
444.143	771.53
444.518	777.18
444.892	768.6
445.267	793.45
445.641	805.88
446.016	793.68
446.39	805.88
446.764	801.82
447.139	803.17
447.513	823.96
447.887	822.83
448.262	834.13
448.636	823.51
449.01	821.93
449.384	840.46
449.758	825.32
450.132	835.71
450.506	838.2
450.88	861.25
451.254	865.54
451.628	863.73
452.002	858.31
452.376	872.32
452.75	866.45
453.123	880.23
453.497	901.02
453.871	913.68
454.244	910.06
454.618	921.81
454.992	901.7
455.365	916.16
455.739	928.82
456.112	943.51
456.486	954.35
456.859	953.22
457.232	979.89
457.606	960.45
457.979	987.12
458.352	1000.45
458.725	1010.62
459.099	1036.16
459.472	1041.36
459.845	1037.06
460.218	1054.24
460.591	1044.52
460.964	1058.08
461.337	1092.65
461.71	1086.33
462.083	1109.83
462.456	1132.2
462.829	1101.02
463.201	1098.53
463.574	1122.94
463.947	1134.69
464.32	1170.84
464.692	1169.94
465.065	1164.29
465.438	1217.4
465.81	1217.85
466.183	1180.56
466.555	1245.87
466.928	1247
467.3	1224.63
467.672	1263.5
468.045	1273.44
468.417	1335.59
468.789	1336.04
469.161	1306.43
469.534	1331.97
469.906	1357.51
470.278	1397.28
470.65	1383.72
471.022	1393.66
471.394	1439.09
471.766	1452.87
472.138	1469.14
472.51	1477.05
472.882	1512.3
473.253	1523.83
473.625	1555.24
473.997	1574.68
474.369	1598.18
474.74	1617.61
475.112	1666.65
475.484	1658.06
475.855	1689.48
476.227	1711.4
476.598	1736.71
476.97	1762.92
477.341	1792.52
477.713	1833.65
478.084	1825.74
478.455	1901.9
478.827	1906.64
479.198	1963.82
479.569	1952.29
479.94	2025.74
480.311	2031.61
480.682	2072.29
481.053	2110.48
481.424	2166.3
481.795	2178.95
482.166	2223.25
482.537	2256.01
482.908	2289.69
483.279	2326.07
483.65	2378.95
484.021	2430.25
484.391	2432.05
484.762	2470.02
485.133	2491.49
485.503	2544.37
485.874	2610.36
486.244	2649
486.615	2689.22
486.985	2684.48
487.356	2737.36
487.726	2795.66
488.097	2829.56
488.467	2834.76
488.837	2927.18
489.207	2930.35
489.578	2991.59
489.948	3034.07
490.318	3049.21
490.688	3079.95
491.058	3096.44
491.428	3230.9
491.798	3215.76
492.168	3277.68
492.538	3296.44
492.908	3314.52
493.278	3347.51
493.648	3408.98
494.017	3416.21
494.387	3450.11
494.757	3481.74
495.126	3534.85
495.496	3537.79
495.866	3581.18
496.235	3614.4
496.605	3627.28
496.974	3669.54
497.344	3672.25
497.713	3740.95
498.082	3765.58
498.452	3785.24
498.821	3790.44
499.19	3839.02
499.559	3874.28
499.928	3898.46
500.298	3922.19
500.667	3966.03
501.036	3947.27
501.405	3991.11
501.774	3970.55
502.143	4042.41
502.512	4027.04
502.88	4034.72
503.249	4081.05
503.618	4136.87
503.987	4194.72
504.356	4197.43
504.724	4168.05
505.093	4206.7
505.462	4219.58
505.83	4283.98
506.199	4255.06
506.567	4329.86
506.936	4317.88
507.304	4367.6
507.672	4415.28
508.041	4386.35
508.409	4438.78
508.777	4434.71
509.145	4479.46
509.514	4494.15
509.882	4538.67
510.25	4500.02
510.618	4485.56
510.986	4509.74
511.354	4562.39
511.722	4611.88
512.09	4606.91
512.458	4646.01
512.826	4659.79
513.193	4654.6
513.561	4639
513.929	4723.29
514.297	4759.23
514.664	4742.95
515.032	4784.08
515.4	4846.45
515.767	4849.17
516.135	4853.46
516.502	4812.78
516.869	4870.41
517.237	4908.37
517.604	4857.08
517.972	4946.34
518.339	4949.73
518.706	4983.85
519.073	4984.76
519.44	5010.97
519.808	5042.38
520.175	5024.98
520.542	5086
520.909	5093.23
521.276	5041.93
521.643	5079.89
522.009	5164.86
522.376	5185.65
522.743	5199.89
523.11	5236.27
523.477	5273.11
523.843	5244.64
524.21	5356.95
524.577	5351.53
524.943	5369.83
525.31	5386.78
525.676	5381.13
526.043	5462.94
526.409	5506.1
526.776	5506.1
527.142	5615.25
527.508	5611.86
527.874	5631.29
528.241	5670.84
528.607	5651.41
528.973	5709.03
529.339	5734.79
529.705	5727.11
530.071	5826.09
530.437	5795.58
530.803	5836.94
531.169	5885.07
531.535	5869.93
531.901	5879.2
532.267	5980.89
532.632	5986.09
532.998	5976.37
533.364	6021.56
533.73	6026.76
534.095	6070.38
534.461	6115.12
534.826	6110.38
535.192	6106.53
535.557	6200.54
535.923	6199.64
536.288	6206.87
536.653	6270.37
537.019	6218.17
537.384	6245.06
537.749	6349.92
538.114	6274.21
538.479	6353.99
538.845	6365.51
539.21	6342.69
539.575	6426.3
539.94	6452.97
540.305	6517.37
540.67	6489.8
541.034	6519.63
541.399	6519.18
541.764	6578.39
542.129	6588.33
542.494	6602.34
542.858	6659.29
543.223	6656.12
543.587	6712.17
543.952	6705.61
544.316	6770.92
544.681	6765.27
545.045	6774.09
545.41	6856.12
545.774	6867.19
546.138	6826.97
546.503	6912.39
546.867	6893.63
547.231	7016.11
547.595	6981.99
547.959	7014.31
548.324	6975.89
548.688	7000.3
549.052	7045.49
549.416	7065.15
549.779	7121.65
550.143	7041.2
550.507	7092.72
550.871	7119.39
551.235	7214.3
551.599	7212.04
551.962	7262.89
552.326	7306.5
552.689	7297.69
553.053	7314.86
553.417	7302.66
553.78	7377.24
554.143	7417.69
554.507	7435.09
554.87	7439.61
555.234	7536.33
555.597	7504.01
555.96	7475.99
556.323	7546.5
556.686	7479.38
557.05	7556.44
557.413	7590.56
557.776	7681.86
558.139	7674.63
558.502	7696.55
558.865	7673.5
559.228	7799.15
559.59	7744.91
559.953	7763.67
560.316	7872.82
560.679	7816.09
561.041	7900.39
561.404	7953.04
561.767	7951.01
562.129	7949.42
562.492	7959.59
562.854	8019.7
563.217	8067.84
563.579	8116.2
563.941	8108.06
564.304	8101.74
564.666	8180.38
565.028	8213.6
565.39	8240.49
565.753	8275.52
566.115	8288.4
566.477	8344.44
566.839	8351.22
567.201	8383.76
567.563	8388.06
567.925	8486.81
568.287	8423.76
568.648	8528.84
569.01	8532.46
569.372	8612.91
569.734	8557.32
570.095	8649.97
570.457	8709.18
570.819	8711.21
571.18	8760.48
571.542	8801.38
571.903	8790.08
572.265	8846.8
572.626	8896.07
572.987	8906.69
573.349	9049.73
573.71	8970.41
574.071	9052.67
574.432	9163.18
574.794	9215.38
575.155	9212.89
575.516	9247.92
575.877	9258.09
576.238	9369.95
576.599	9427.8
576.96	9556.84
577.32	9576.5
577.681	9614.24
578.042	9779.66
578.403	9782.37
578.763	9842.71
579.124	9961.12
579.485	10079.31
579.845	10159.08
580.206	10197.27
580.566	10434.78
580.927	10430.94
581.287	10502.8
581.648	10746.64
582.008	10835.45
582.368	10911.83
582.728	11031.6
583.089	11203.58
583.449	11302.56
583.809	11414.64
584.169	11630.23
584.529	11757.46
584.889	11934.18
585.249	12058.47
585.609	12191.57
585.969	12472.92
586.329	12651.67
586.688	12791.78
587.048	12996.52
587.408	13128.27
587.768	13354.71
588.127	13530.75
588.487	13707.46
588.846	14027
589.206	14178.19
589.565	14336.37
589.925	14597.16
590.284	14819.53
590.643	15114.43
591.003	15391.94
591.362	15605.72
591.721	15762.55
592.08	16064.69
592.44	16243.89
592.799	16671.91
593.158	16873.93
593.517	17132.46
593.876	17360.02
594.235	17628.72
594.593	17881.59
594.952	18151.19
595.311	18339.21
595.67	18687.22
596.029	19049.92
596.387	19208.34
596.746	19498.5
597.104	19710.02
597.463	19949.56
597.822	20307.97
598.18	20434.75
598.538	20739.14
598.897	21110.21
599.255	21120.6
599.613	21654.15
599.972	21794.48
600.33	22049.17
600.688	22238.54
601.046	22709.26
601.404	22985.19
601.762	23055.92
602.12	23442.58
602.478	23614.55
602.836	23956.69
603.194	24060.86
603.552	24268.54
603.91	24578.14
604.268	24887.06
604.625	25076.43
604.983	25209.53
605.341	25390.55
605.698	25643.65
606.056	25980.14
606.413	26206.34
606.771	26467.13
607.128	26653.56
607.485	26720.46
607.843	26941.24
608.2	27288.12
608.557	27557.72
608.914	27745.74
609.272	28050.36
609.629	28261.66
609.986	28525.15
610.343	28502.1
610.7	28791.14
611.057	29030.68
611.414	29325.36
611.771	29353.83
612.127	29585.69
612.484	29830.43
612.841	30026.36
613.198	29999.24
613.554	30191.78
613.911	30422.73
614.267	30636.96
614.624	30718.32
614.98	30881.93
615.337	31149.27
615.693	31211.41
616.05	31344.29
616.406	31796.48
616.762	31727.56
617.118	31728.69
617.475	31981.79
617.831	32157.6
618.187	32259.74
618.543	32388.56
618.899	32740.64
619.255	32699.96
619.611	32676.68
619.967	32961.42
620.323	33267.18
620.678	33066.73
621.034	33126.84
621.39	33109.44
621.746	33252.49
622.101	33826.94
622.457	33458.58
622.812	33716.2
623.168	33880.04
623.523	33967.5
623.879	34141.05
624.234	33928.18
624.589	34273.93
624.945	34195.06
625.3	34376.98
625.655	34395.28
626.01	34445.22
626.365	34584.88
626.72	34621.94
627.075	34656.74
627.43	34719.34
627.785	34600.02
628.14	34855.16
628.495	34979.9
628.85	35034.14
629.205	34969.5
629.559	35067.13
629.914	35030.97
630.269	35083.17
630.623	35035.04
630.978	34974.25
631.332	35085.21
631.687	35331.53
632.041	35137.41
632.396	35277.29
632.75	35154.13
633.104	35224.41
633.459	35169.5
633.813	35165.88
634.167	35256.95
634.521	35197.07
634.875	35270.06
635.229	35242.72
635.583	35019.45
635.937	35186.45
636.291	35222.83
636.645	35202.04
636.999	35087.47
637.352	35220.8
637.706	35073.46
638.06	35386.89
638.413	35144.41
638.767	35136.96
639.121	35214.7
639.474	35079.78
639.828	35081.14
640.181	35230.74
640.534	35174.92
640.888	35109.84
641.241	35167.24
641.594	35189.16
641.947	35254.69
642.301	35051.76
642.654	35220.57
643.007	35103.96
643.36	35094.7
643.713	35075.26
644.066	35163.4
644.419	34930.64
644.771	34809.96
645.124	34445.45
645.477	34535.39
645.83	34270.99
646.182	34139.7
646.535	34084.78
646.888	34057.44
647.24	33922.3
647.593	34316.64
647.945	34173.82
648.298	33896.31
648.65	33920.27
649.002	33821.29
649.355	33972.24
649.707	33837.1
650.059	34133.59
650.411	34475.28
650.763	34430.99
651.115	34824.88
651.467	34732.45
651.819	34746.91
652.171	34657.65
652.523	34581.72
652.875	34539.01
653.227	34526.8
653.578	34635.28
653.93	34708.04
654.282	34507.6
654.633	34472.57
654.985	34542.4
655.337	34550.08
655.688	34490.65
656.039	34614.49
656.391	34323.19
656.742	34502.17
657.094	34466.47
657.445	34386.92
657.796	34479.57
658.147	34391.89
658.498	34445.68
658.849	34535.84
659.2	34385.11
659.551	34319.58
659.902	34417.2
660.253	34462.17
660.604	34422.63
660.955	34253.36
661.306	34370.42
661.656	34322.29
662.007	34413.36
662.358	34350.76
662.708	34359.58
663.059	34349.41
663.409	34241.84
663.76	34457.2
664.11	34351.67
664.461	34325.23
664.811	34406.58
665.161	34372.91
665.511	34292.91
665.862	34457.43
666.212	34438.44
666.562	34332.91
666.912	34232.8
667.262	34260.82
667.612	34285.45
667.962	34269.64
668.312	34143.76
668.662	34397.54
669.011	34297.43
669.361	34296.53
669.711	34203.87
670.06	34235.74
670.41	34038.68
670.76	34107.38
671.109	34315.51
671.459	34171.33
671.808	34161.84
672.157	34272.8
672.507	33877.1
672.856	33941.73
673.205	34049.98
673.554	34114.61
673.904	33974.28
674.253	34137.21
674.602	34022.18
674.951	33468.98
675.3	33279.15
675.649	33834.84
675.998	33888.85
676.346	33925.92
676.695	34082.07
677.044	33838.23
677.393	33800.5
677.741	33894.05
678.09	33894.96
678.438	33755.3
678.787	33786.94
679.135	33714.17
679.484	33536.55
679.832	33767.5
680.181	33601.4
680.529	33543.1
680.877	33503.78
681.225	33519.82
681.573	33754.17
681.922	33495.19
682.27	33419.94
682.618	33409.32
682.966	33311.02
683.314	33366.16
683.661	33238.02
684.009	33192.38
684.357	33137.69
684.705	33046.39
685.053	33116.67
685.4	33037.8
685.748	32865.38
686.095	32946.96
686.443	32790.58
686.79	32725.95
687.138	32794.65
687.485	32794.65
687.832	32584.26
688.18	32521.88
688.527	32544.94
688.874	32606.85
689.221	32510.36
689.568	32418.61
689.915	32318.73
690.262	32250.93
690.609	32251.61
690.956	32152.4
691.303	32057.49
691.65	31890.04
691.997	31831.73
692.344	31618.18
692.69	31756.71
693.037	31607.78
693.383	31381.12
693.73	31528.92
694.077	31396.26
694.423	31370.28
694.769	31267
695.116	31133.22
695.462	31100.45
695.808	31008.25
696.155	31153.79
696.501	30897.29
696.847	30954.92
697.193	30685.1
697.539	30789.05
697.885	30638.77
698.231	30540.92
698.577	30414.14
698.923	30423.64
699.269	30255.05
699.614	30076.3
699.96	30099.58
700.306	30130.76
700.651	29927.15
700.997	29923.99
701.342	29889.86
701.688	29830.66
702.033	29714.5
702.379	29749.98
702.724	29695.07
703.069	29746.59
703.415	29445.36
703.76	29358.58
704.105	29317
704.45	29366.49
704.795	29192.03
705.14	29077
705.485	29047.63
705.83	28824.13
706.175	28846.5
706.52	28874.3
706.865	28822.55
707.209	28678.82
707.554	28590.01
707.899	28668.65
708.243	28482.9
708.588	28553.18
708.932	28282.67
709.277	28298.27
709.621	28175.33
709.966	27990.03
710.31	28131.27
710.654	27886.75
710.998	27921.55
711.342	28098.05
711.687	27868
712.031	27808.79
712.375	27782.57
712.719	27762.91
713.063	27646.53
713.407	27705.97
713.75	27590.26
714.094	27595.46
714.438	27503.71
714.782	27449.25
715.125	27261.68
715.469	27394.34
715.812	27238.86
716.156	27218.97
716.499	27006.78
716.843	27216.26
717.186	27021.24
717.53	27155.25
717.873	27081.12
718.216	27050.39
718.559	26902.6
718.902	26724.98
719.246	26903.05
719.589	26634.13
719.932	26580.57
720.275	26596.17
720.617	26568.82
720.96	26598.88
721.303	26504.64
721.646	26502.83
721.989	26294.7
722.331	26342.84
722.674	26315.04
723.016	26376.28
723.359	26279.34
723.701	26226.01
724.044	26105.33
724.386	26033.69
724.729	26090.87
725.071	25987.82
725.413	26058.55
725.755	25983.3
726.097	25765.23
726.439	25717.32
726.782	25758
727.124	25792.8
727.465	25669.64
727.807	25583.54
728.149	25615.4
728.491	25623.99
728.833	25679.13
729.175	25454.73
729.516	25645.46
729.858	25459.7
730.199	25485.69
730.541	25396.65
730.882	25370.43
731.224	25410.89
731.565	25200.04
731.906	25346.03
732.248	25263.09
732.589	25258.12
732.93	25003.21
733.271	25080.05
733.612	25181.96
733.953	25057.45
734.294	24954.63
734.635	24940.39
734.976	25005.7
735.317	24771.35
735.658	24753.5
735.999	24826.49
736.339	24824.46
736.68	24813.61
737.021	24744.01
737.361	24599.38
737.702	24824.91
738.042	24725.48
738.383	24569.1
738.723	24730.9
739.063	24510.12
739.404	24526.39
739.744	24403
740.084	24396.9
740.424	24352.61
740.764	24414.75
741.104	24490.46
741.444	24277.81
741.784	24169.56
742.124	24241.42
742.464	24137.92
742.804	24051.15
743.143	24148.32
743.483	24093.63
743.823	23918.72
744.162	23974.54
744.502	24031.26
744.841	23877.37
745.181	24111.94
745.52	23840.76
745.86	23844.83
746.199	23812.74
746.538	23713.98
746.877	23807.99
747.216	23777.71
747.556	23731.61
747.895	23696.35
748.234	23577.26
748.573	23589.92
748.911	23585.62
749.25	23632.18
749.589	23429.02
749.928	23438.28
750.267	23459.3
750.605	23374.33
750.944	23309.25
751.283	23222.47
751.621	23239.42
751.96	23158.29
752.298	23206.42
752.636	23108.57
752.975	23041.46
753.313	22995.13
753.651	23108.57
753.989	22914
754.327	22943.38
754.666	22813.21
755.004	22863.16
755.342	22869.94
755.679	22882.82
756.017	22685.76
756.355	22810.73
756.693	22618.87
757.031	22624.52
757.368	22487.12
757.706	22500.45
758.044	22370.51
758.381	22307.46
758.719	22351.53
759.056	22332.77
759.394	22163.51
759.731	22137.07
760.068	22102.27
760.405	21905.21
760.743	21841.49
761.08	22005.33
