Data from hue_300_FLMS001491_00076.txt Node
Date: Tue Feb 07 15:51:11 GMT 2017
User: dcchb
Spectrometer: FLMS00149
Trigger mode: 0
Integration Time (sec): 2.000000E-2
Scans to average: 10
Electric dark correction enabled: true
Nonlinearity correction enabled: false
Boxcar width: 0
XAxis mode: Wavelengths
Number of Pixels in Spectrum: 2048
>>>>>Begin Spectral Data<<<<<
341.393	-3.95
341.776	-3.95
342.16	-3.95
342.543	-40.56
342.927	-52.32
343.31	-80.56
343.693	-72.88
344.077	-57.51
344.46	-64.97
344.843	-39.66
345.226	-30.39
345.61	-20.68
345.993	-23.62
346.376	-3.05
346.759	8.93
347.142	8.47
347.525	49.83
347.908	77.17
348.291	67.91
348.674	78.98
349.057	102.03
349.44	112.88
349.823	147.91
350.206	170.73
350.588	180.22
350.971	205.76
351.354	212.99
351.737	224.97
352.119	249.82
352.502	252.99
352.884	252.99
353.267	273.78
353.65	281.69
354.032	283.95
354.414	305.42
354.797	312.2
355.179	309.48
355.562	312.87
355.944	330.5
356.326	325.98
356.709	333.89
357.091	332.08
357.473	320.56
357.855	320.78
358.238	335.25
358.62	342.25
359.002	335.02
359.384	344.06
359.766	320.78
360.148	352.19
360.53	337.05
360.912	332.99
361.294	335.47
361.676	318.3
362.057	333.44
362.439	320.78
362.821	335.02
363.203	323.49
363.584	323.95
363.966	305.42
364.348	322.59
364.729	320.33
365.111	301.35
365.493	310.39
365.874	314.68
366.256	320.56
366.637	328.69
367.019	311.97
367.4	316.71
367.781	311.29
368.163	318.97
368.544	308.35
368.925	321.23
369.306	323.27
369.688	341.35
370.069	320.33
370.45	325.53
370.831	302.25
371.212	320.56
371.593	316.49
371.974	309.71
372.355	342.48
372.736	316.04
373.117	311.07
373.498	305.19
373.879	346.32
374.26	346.54
374.641	328.92
375.021	318.97
375.402	320.56
375.783	316.26
376.163	322.59
376.544	330.73
376.925	323.49
377.305	330.5
377.686	336.15
378.066	351.29
378.447	316.04
378.827	330.5
379.208	323.49
379.588	305.42
379.968	342.25
380.349	324.85
380.729	334.79
381.109	344.96
381.489	336.83
381.87	345.64
382.25	346.77
382.63	342.02
383.01	347
383.39	333.89
383.77	343.83
384.15	339.54
384.53	327.34
384.91	334.34
385.29	338.64
385.67	331.18
386.049	352.19
386.429	366.43
386.809	343.15
387.189	363.72
387.568	346.54
387.948	349.26
388.328	330.5
388.707	331.86
389.087	367.11
389.466	349.03
389.846	347
390.225	393.32
390.605	370.72
390.984	354.68
391.363	358.52
391.743	366.88
392.122	369.82
392.501	378.63
392.881	391.29
393.26	382.48
393.639	368.92
394.018	372.76
394.397	399.42
394.776	369.14
395.155	395.81
395.534	382.25
395.913	383.83
396.292	384.96
396.671	390.39
397.05	407.11
397.429	406.2
397.808	387.9
398.186	385.41
398.565	390.16
398.944	408.24
399.323	421.34
399.701	397.84
400.08	415.24
400.458	405.75
400.837	402.14
401.215	391.06
401.594	422.7
401.972	429.71
402.351	418.18
402.729	403.04
403.107	430.61
403.486	447.56
403.864	444.85
404.242	436.94
404.62	425.41
404.999	448.46
405.377	445.07
405.755	461.12
406.133	440.55
406.511	455.24
406.889	477.16
407.267	442.14
407.645	472.19
408.023	480.1
408.401	480.78
408.779	470.84
409.156	477.16
409.534	524.17
409.912	501.12
410.29	499.53
410.667	533.88
411.045	533.21
411.422	532.53
411.8	534.79
412.178	564.39
412.555	532.53
412.933	576.82
413.31	584.96
413.687	586.31
414.065	585.86
414.442	595.58
414.819	593.77
415.197	614.56
415.574	616.37
415.951	622.24
416.328	640.77
416.705	644.39
417.082	632.41
417.46	678.29
417.837	673.09
418.214	695.69
418.591	681
418.967	669.7
419.344	704.28
419.721	716.93
420.098	716.48
420.475	723.71
420.852	722.81
421.228	744.05
421.605	740.21
421.982	740.43
422.358	765.74
422.735	767.32
423.111	779.53
423.488	772.75
423.864	820.88
424.241	829.92
424.617	808.23
424.994	821.33
425.37	828.79
425.746	838.06
426.123	871.73
426.499	888.68
426.875	853.88
427.251	870.82
427.627	909.92
428.003	913.76
428.379	933.65
428.756	931.61
429.132	937.49
429.507	960.99
429.883	947.21
430.259	975.45
430.635	981.33
431.011	993.08
431.387	1006.41
431.763	1028.56
432.138	1029.92
432.514	1068.33
432.89	1064.72
433.265	1073.98
433.641	1080.99
434.016	1076.24
434.392	1093.19
434.767	1110.82
435.143	1123.25
435.518	1142.23
435.894	1163.92
436.269	1150.59
436.644	1166.64
437.02	1184.26
437.395	1212.06
437.77	1225.17
438.145	1217.03
438.52	1256.58
438.895	1264.26
439.271	1261.77
439.646	1255.9
440.021	1248.22
440.395	1272.62
440.77	1256.13
441.145	1292.73
441.52	1299.29
441.895	1288.67
442.27	1315.56
442.645	1330.93
443.019	1326.63
443.394	1327.99
443.769	1329.57
444.143	1342.22
444.518	1341.32
444.892	1344.26
445.267	1367.31
445.641	1361.43
446.016	1366.18
446.39	1363.02
446.764	1360.76
447.139	1396.46
447.513	1411.15
447.887	1369.79
448.262	1394.65
448.636	1403.47
449.01	1390.58
449.384	1429.45
449.758	1432.84
450.132	1439.17
450.506	1411.83
450.88	1438.72
451.254	1413.86
451.628	1475.55
452.002	1488.89
452.376	1499.96
452.75	1497.25
453.123	1478.72
453.497	1506.74
453.871	1485.95
454.244	1545.16
454.618	1548.32
454.992	1545.61
455.365	1537.25
455.739	1588.55
456.112	1583.8
456.486	1578.83
456.859	1610.92
457.232	1624.03
457.606	1607.3
457.979	1654.76
458.352	1654.53
458.725	1625.83
459.099	1685.04
459.472	1711.71
459.845	1711.71
460.218	1709.9
460.591	1744.93
460.964	1731.59
461.337	1750.8
461.71	1774.98
462.083	1810.23
462.456	1770.46
462.829	1765.04
463.201	1791.7
463.574	1813.17
463.947	1838.26
464.32	1855.66
464.692	1874.41
465.065	1898.59
465.438	1899.27
465.81	1895.2
466.183	1911.93
466.555	1936.56
466.928	1949.89
467.3	1960.74
467.672	2016.56
468.045	2032.15
468.417	2044.8
468.789	2001.19
469.161	2024.01
469.534	2085.71
469.906	2101.53
470.278	2120.74
470.65	2124.12
471.022	2141.98
471.394	2178.59
471.766	2152.6
472.138	2225.59
472.51	2246.16
472.882	2251.13
473.253	2264.23
473.625	2278.25
473.997	2318.24
474.369	2320.28
474.74	2346.04
475.112	2365.7
475.484	2398.24
475.855	2430.78
476.227	2418.58
476.598	2508.52
476.97	2514.85
477.341	2524.79
477.713	2577.45
478.084	2566.83
478.455	2637.78
478.827	2636.43
479.198	2679.59
479.569	2689.31
479.94	2736.31
480.311	2765.69
480.682	2787.61
481.053	2846.14
481.424	2830.1
481.795	2888.17
482.166	2924.1
482.537	2913.48
482.908	2988.06
483.279	2988.06
483.65	3007.27
484.021	3049.3
484.391	3095.62
484.762	3135.4
485.133	3129.07
485.503	3165.68
485.874	3204.32
486.244	3177.43
486.615	3282.29
486.985	3308.27
487.356	3335.39
487.726	3344.66
488.097	3412.9
488.467	3400.02
488.837	3449.74
489.207	3487.48
489.578	3506.24
489.948	3551.88
490.318	3574.03
490.688	3561.83
491.058	3623.07
491.428	3649.06
491.798	3640.47
492.168	3752.1
492.538	3731.99
492.908	3738.09
493.278	3772.9
493.648	3773.12
494.017	3848.37
494.387	3867.58
494.757	3859.9
495.126	3917.3
495.496	3916.17
495.866	3915.49
496.235	3966.34
496.605	3995.04
496.974	3970.86
497.344	4035.26
497.713	3996.39
498.082	4038.88
498.452	4107.8
498.821	4085.88
499.19	4100.57
499.559	4126.56
499.928	4176.73
500.298	4167.46
500.667	4173.34
501.036	4191.19
501.405	4260.79
501.774	4211.08
502.143	4240.91
502.512	4262.37
502.88	4317.29
503.249	4273.67
503.618	4332.43
503.987	4351.64
504.356	4366.78
504.724	4343.28
505.093	4385.76
505.462	4364.97
505.83	4377.85
506.199	4454.01
506.567	4464.85
506.936	4453.78
507.304	4487.45
507.672	4493.78
508.041	4484.06
508.409	4518.86
508.777	4535.36
509.145	4548.69
509.514	4545.3
509.882	4583.72
510.25	4574.46
510.618	4609.48
510.986	4622.36
511.354	4636.15
511.722	4688.35
512.09	4693.32
512.458	4665.3
512.826	4709.14
513.193	4727.9
513.561	4767.9
513.929	4711.18
514.297	4763.83
514.664	4769.71
515.032	4817.61
515.4	4836.6
515.767	4871.85
516.135	4787.78
516.502	4753.21
516.869	4849.25
517.237	4895.8
517.604	4878.4
517.972	4933.32
518.339	4894.9
518.706	4940.1
519.073	4914.11
519.44	4966.54
519.808	5009.02
520.175	4974.45
520.542	5017.61
520.909	5032.75
521.276	5021.22
521.643	5061.67
522.009	5086.31
522.376	5100.32
522.743	5137.61
523.11	5133.31
523.477	5118.62
523.843	5191.84
524.21	5204.95
524.577	5251.73
524.943	5246.53
525.31	5269.13
525.676	5279.52
526.043	5326.98
526.409	5335.11
526.776	5409.46
527.142	5422.12
527.508	5443.36
527.874	5435.22
528.241	5521.55
528.607	5522.68
528.973	5492.62
529.339	5536.01
529.705	5536.01
530.071	5608.33
530.437	5667.31
530.803	5655.56
531.169	5683.58
531.535	5669.79
531.901	5677.7
532.267	5711.83
532.632	5764.71
532.998	5754.99
533.364	5832.28
533.73	5832.95
534.095	5832.28
534.461	5891.48
534.826	5856.46
535.192	5897.13
535.557	5986.17
535.923	5938.94
536.288	5976
536.653	6000.63
537.019	6045.15
537.384	6044.7
537.749	6023.68
538.114	6064.59
538.479	6114.53
538.845	6088.77
539.21	6150.69
539.575	6128.54
539.94	6163.11
540.305	6215.77
540.67	6248.08
541.034	6244.92
541.399	6262.77
541.764	6300.06
542.129	6314.98
542.494	6329.89
542.858	6402.2
543.223	6412.37
543.587	6453.5
543.952	6467.51
544.316	6479.26
544.681	6531.92
545.045	6481.3
545.41	6577.12
545.774	6543.67
546.138	6554.06
546.503	6630.67
546.867	6622.76
547.231	6654.63
547.595	6685.13
547.959	6754.51
548.324	6719.03
548.688	6741.4
549.052	6831.57
549.416	6762.87
549.779	6771.46
550.143	6851.46
550.507	6877.9
550.871	6884.9
551.235	6881.51
551.599	7002.19
551.962	6920.83
552.326	7015.52
552.689	7012.13
553.053	6929.87
553.417	7076.31
553.78	7110.43
554.143	7081.96
554.507	7085.35
554.87	7154.73
555.234	7170.77
555.597	7106.14
555.96	7152.24
556.323	7199.7
556.686	7235.4
557.05	7281.5
557.413	7253.71
557.776	7269.75
558.139	7294.38
558.502	7289.19
558.865	7297.55
559.228	7346.13
559.59	7362.18
559.953	7437.88
560.316	7450.09
560.679	7551.1
561.041	7583.19
561.404	7497.54
561.767	7598.78
562.129	7552.23
562.492	7628.84
562.854	7591.78
563.217	7606.92
563.579	7627.03
563.941	7632.23
564.304	7706.58
564.666	7780.7
565.028	7754.94
565.39	7771.43
565.753	7806.01
566.115	7794.03
566.477	7893.01
566.839	7888.04
567.201	7929.62
567.563	7975.72
567.925	7997.87
568.287	7965.1
568.648	8014.37
569.01	7998.32
569.372	8111.99
569.734	8078.32
570.095	8166.45
570.457	8184.53
570.819	8187.69
571.18	8240.35
571.542	8328.48
571.903	8386.11
572.265	8328.71
572.626	8371.42
572.987	8357.63
573.349	8476.05
573.71	8566.22
574.071	8582.26
574.432	8584.75
574.794	8641.47
575.155	8755.59
575.516	8709.04
575.877	8861.8
576.238	9007.11
576.599	9047.78
576.96	9138.86
577.32	9118.07
577.681	9229.02
578.042	9341.34
578.403	9374.1
578.763	9538.39
579.124	9553.53
579.485	9697.26
579.845	9857.03
580.206	9919.17
580.566	10001.21
580.927	10130.92
581.287	10308.09
581.648	10444.58
582.008	10591.92
582.368	10680.28
582.728	10916.21
583.089	11049.99
583.449	11148.29
583.809	11393.49
584.169	11543.54
584.529	11647.49
584.889	11963.19
585.249	12123.86
585.609	12264.2
585.969	12632.1
586.329	12723.62
586.688	12969.94
587.048	13223.04
587.408	13409.93
587.768	13641.79
588.127	13970.37
588.487	14125.17
588.846	14501.88
589.206	14564.48
589.565	14893.73
589.925	15197.45
590.284	15352.7
590.643	15677.21
591.003	16043.31
591.362	16292.34
591.721	16603.07
592.08	16922.15
592.44	17118.08
592.799	17418.64
593.158	17729.36
593.517	17931.17
593.876	18378.39
594.235	18602.56
594.593	18812.95
594.952	19191.7
595.311	19452.48
595.67	19779.71
596.029	20219.02
596.387	20437.77
596.746	20737.65
597.104	21008.15
597.463	21207.46
597.822	21635.25
598.18	21851.29
598.538	22121.34
598.897	22566.98
599.255	22719.97
599.613	23304.13
599.972	23394.07
600.33	23764.91
600.688	23931.01
601.046	24295.07
601.404	24615.51
601.762	24807.37
602.12	25239.22
602.478	25465.21
602.836	25780.9
603.194	25860.45
603.552	26102.03
603.91	26380.89
604.268	26705.4
604.625	26988.56
604.983	27279.85
605.341	27394.19
605.698	27758.48
606.056	28038.47
606.413	28213.61
606.771	28510.32
607.128	28661.05
607.485	28856.3
607.843	29227.37
608.2	29402.73
608.557	29901.25
608.914	29914.58
609.272	30138.53
609.629	30449.48
609.986	30654.22
610.343	30739.19
610.7	31169.46
611.057	31272.29
611.414	31364.26
611.771	31627.53
612.127	31971.93
612.484	31934.41
612.841	32276.33
613.198	32361.75
613.554	32654.4
613.911	32898.91
614.267	32900.04
614.624	33134.38
614.98	33395.17
615.337	33746.12
615.693	33670.41
616.05	33721.71
616.406	34090.52
616.762	34014.81
617.118	34162.83
617.475	34317.4
617.831	34608.24
618.187	34584.97
618.543	34799.65
618.899	35126.2
619.255	35216.81
619.611	35369.35
619.967	35426.07
620.323	35616.58
620.678	35562.34
621.034	35684.82
621.39	35843.24
621.746	35782
622.101	36303.79
622.457	36099.05
622.812	36328.2
623.168	36461.98
623.523	36627.85
623.879	36714.4
624.234	36511.7
624.589	36767.06
624.945	36887.73
625.3	36900.84
625.655	37094.28
626.01	37095.18
626.365	37029.65
626.72	37200.49
627.075	37261.05
627.43	37263.09
627.785	37357.55
628.14	37348.06
628.495	37472.12
628.85	37498.11
629.205	37376.08
629.559	37613.59
629.914	37612.46
630.269	37644.77
630.623	37753.47
630.978	37510.99
631.332	37887.03
631.687	37757.54
632.041	37740.59
632.396	37854.03
632.75	37763.87
633.104	37723.87
633.459	37618.11
633.813	37827.37
634.167	37813.81
634.521	37828.72
634.875	37968.83
635.229	37933.35
635.583	37711.89
635.937	37809.97
636.291	37792.79
636.645	37723.41
636.999	37700.36
637.352	37878.89
637.706	37744.21
638.06	37908.95
638.413	37764.77
638.767	37792.34
639.121	37945.78
639.474	37645.68
639.828	37609.52
640.181	37694.94
640.534	37901.04
640.888	37647.03
641.241	37544.89
641.594	37557.77
641.947	37756.41
642.301	37675.51
642.654	37703.98
643.007	37795.5
643.36	37703.75
643.713	37654.94
644.066	37979.23
644.419	37651.33
644.771	37483.2
645.124	37071.91
645.477	37059.48
645.83	36836.88
646.182	36819.26
646.535	36624.91
646.888	36541.3
647.24	36408.87
647.593	36770.9
647.945	36691.13
648.298	36374.3
648.65	36545.14
649.002	36456.1
649.355	36635.76
649.707	36711.01
650.059	36712.37
650.411	37169.53
650.763	37336.31
651.115	37465.12
651.467	37437.55
651.819	37447.04
652.171	37293.14
652.523	37256.99
652.875	37336.31
653.227	37078.23
653.578	37478.45
653.93	37495.62
654.282	37113.49
654.633	36982.64
654.985	37192.81
655.337	37270.09
655.688	37262.18
656.039	37386.93
656.391	37037.11
656.742	37106.03
657.094	37096.76
657.445	37267.83
657.796	37124.56
658.147	37034.17
658.498	37186.71
658.849	37310.54
659.2	37062.64
659.551	37053.15
659.902	37201.17
660.253	37249.08
660.604	37144
660.955	36833.72
661.306	37121.4
661.656	37087.73
662.007	37055.86
662.358	37193.26
662.708	37132.7
663.059	37104.9
663.409	36812.48
663.76	37094.05
664.11	37087.73
664.461	37042.98
664.811	37120.04
665.161	37066.03
665.511	36905.81
665.862	36896.54
666.212	37056.09
666.562	37162.75
666.912	37001.63
667.262	36972.02
667.612	36976.77
667.962	37062.42
668.312	36969.54
668.662	36991.23
669.011	37047.5
669.361	36929.54
669.711	36811.57
670.06	36944.68
670.41	36771.35
670.76	36762.31
671.109	37030.78
671.459	36783.55
671.808	36772.48
672.157	36912.14
672.507	36635.76
672.856	36642.31
673.205	36662.43
673.554	36863.1
673.904	36743.55
674.253	36774.51
674.602	36738.36
674.951	36235.09
675.3	36125.04
675.649	36522.32
675.998	36610
676.346	36579.49
676.695	36715.98
677.044	36502.88
677.393	36605.93
677.741	36566.61
678.09	36530.23
678.438	36559.15
678.787	36497.46
679.135	36522.99
679.484	36212.27
679.832	36345.6
680.181	36141.54
680.529	36265.37
680.877	36214.53
681.225	36023.57
681.573	36447.06
681.922	36080.97
682.27	36054.31
682.618	35998.71
682.966	35963.01
683.314	35990.58
683.661	35867.87
684.009	35804.14
684.357	35731.83
684.705	35716.69
685.053	35829
685.4	35654.54
685.748	35580.87
686.095	35465.17
686.443	35274.21
686.79	35309.47
687.138	35425.4
687.485	35295
687.832	35178.85
688.18	35111.73
688.527	35042.36
688.874	34990.38
689.221	34997.61
689.568	34793.55
689.915	34685.75
690.262	34736.83
690.609	34577.28
690.956	34500.9
691.303	34596.04
691.65	34253.9
691.997	34353.79
692.344	34283.73
692.69	34020.91
693.037	34211.64
693.383	33919.9
693.73	33951.76
694.077	33747.25
694.423	33873.35
694.769	33595.61
695.116	33681.49
695.462	33574.37
695.808	33543.19
696.155	33589.29
696.501	33400.36
696.847	33113.59
697.193	33172.35
697.539	33118.79
697.885	32852.58
698.231	32752.92
698.577	32710.67
698.923	32761.06
699.269	32622.31
699.614	32461.41
699.96	32389.32
700.306	32335.76
700.651	32322.2
700.997	32127.63
701.342	32194.52
701.688	32044.24
702.033	31996.56
702.379	31913.85
702.724	31760.86
703.069	31860.74
703.415	31572.62
703.76	31492.17
704.105	31535.55
704.45	31397.93
704.795	31295.79
705.14	31179.86
705.485	31157.03
705.83	31065.51
706.175	31042.91
706.52	30981.22
706.865	30860.32
707.209	30955.46
707.554	30744.39
707.899	30724.28
708.243	30726.54
708.588	30722.92
708.932	30405.42
709.277	30458.52
709.621	30522.7
709.966	30223.05
710.31	30303.5
710.654	29980.12
710.998	30144.41
711.342	30086.33
711.687	30073.22
712.031	29863.96
712.375	29839.55
712.719	29852.44
713.063	29771.99
713.407	29912.77
713.75	29775.6
714.094	29647.7
714.438	29588.49
714.782	29599.56
715.125	29395.95
715.469	29600.24
715.812	29200.93
716.156	29078.44
716.499	29144.43
716.843	29150.53
717.186	29012.23
717.53	29095.62
717.873	29127.48
718.216	29018.79
718.559	28796.64
718.902	28790.99
719.246	28807.04
719.589	28626.03
719.932	28688.62
720.275	28588.97
720.617	28706.02
720.96	28534.96
721.303	28503.32
721.646	28559.36
721.989	28226.49
722.331	28514.84
722.674	28314.85
723.016	28265.13
723.359	28233.04
723.701	28263.55
724.044	28132.93
724.386	27910.11
724.729	28155.53
725.071	27976.78
725.413	27947.85
725.755	27814.3
726.097	27745.15
726.439	27723.9
726.782	27755.54
727.124	27767.74
727.465	27599.61
727.807	27691.81
728.149	27620.18
728.491	27554.64
728.833	27556.22
729.175	27567.52
729.516	27483.46
729.858	27391.71
730.199	27458.37
730.541	27418.83
730.882	27492.95
731.224	27420.63
731.565	27301.77
731.906	27290.02
732.248	27305.61
732.589	27040.53
732.93	27050.48
733.271	27076.46
733.612	27073.98
733.953	27139.51
734.294	26948.56
734.635	26925.05
734.976	26890.71
735.317	26809.35
735.658	26876.02
735.999	26827.2
736.339	26793.98
736.68	26890.03
737.021	26722.8
737.361	26645.74
737.702	26750.82
738.042	26680.09
738.383	26549.92
738.723	26675.8
739.063	26614.55
739.404	26504.73
739.744	26557.83
740.084	26421.11
740.424	26356.93
740.764	26303.15
741.104	26502.47
741.444	26337.05
741.784	26280.1
742.124	26264.06
742.464	26172.31
742.804	26117.39
743.143	26189.03
743.483	26110.39
743.823	25901.35
744.162	25962.82
744.502	26038.3
744.841	25944.74
745.181	25994.46
745.52	25883.5
745.86	25838.53
746.199	25906.78
746.538	25890.96
746.877	25942.93
747.216	25914.01
747.556	25853.9
747.895	25920.79
748.234	25758.31
748.573	25649.16
748.911	25699.32
749.25	25637.4
749.589	25573.45
749.928	25632.21
750.267	25625.65
750.605	25553.79
750.944	25457.07
751.283	25428.14
751.621	25535.49
751.96	25461.82
752.298	25394.7
752.636	25424.53
752.975	25271.54
753.313	25119.45
753.651	25273.12
753.989	25231.31
754.327	25175.04
754.666	25095.05
755.004	25156.51
755.342	25107.7
755.679	24990.42
756.017	24995.61
756.355	25108.61
756.693	24881.94
757.031	24978.67
757.368	24793.36
757.706	24835.62
758.044	24777.99
758.381	24749.07
758.719	24646.7
759.056	24768.05
759.394	24685.34
