Data from hue_150_FLMS001491_00008.txt Node
Date: Tue Feb 07 16:53:34 GMT 2017
User: dcchb
Spectrometer: FLMS00149
Trigger mode: 0
Integration Time (sec): 2.000000E-2
Scans to average: 10
Electric dark correction enabled: true
Nonlinearity correction enabled: false
Boxcar width: 0
XAxis mode: Wavelengths
Number of Pixels in Spectrum: 2048
>>>>>Begin Spectral Data<<<<<
341.393	-0.82
341.776	-0.82
342.16	-0.82
342.543	-57.09
342.927	-63.64
343.31	-67.94
343.693	-68.84
344.077	-76.3
344.46	-72.46
344.843	-48.5
345.226	-26.81
345.61	-17.09
345.993	-32.91
346.376	-1.95
346.759	9.8
347.142	22.23
347.525	40.31
347.908	59.07
348.291	74.89
348.674	101.1
349.057	105.39
349.44	114.21
349.823	153.75
350.206	155.11
350.588	201.89
350.971	227.2
351.354	236.01
351.737	227.42
352.119	270.36
352.502	271.26
352.884	292.51
353.267	286.63
353.65	308.1
354.032	311.26
354.414	314.88
354.797	319.17
355.179	312.17
355.562	335.9
355.944	322.56
356.326	343.58
356.709	345.61
357.091	343.8
357.473	358.27
357.855	339.96
358.238	344.26
358.62	330.02
359.002	356.23
359.384	369.11
359.766	353.07
360.148	333.86
360.53	335.67
360.912	325.95
361.294	342.67
361.676	340.87
362.057	328.89
362.439	340.19
362.821	321.21
363.203	315.33
363.584	328.66
363.966	334.77
364.348	338.83
364.729	320.75
365.111	340.64
365.493	326.86
365.874	308.1
366.256	297.25
366.637	333.18
367.019	318.49
367.4	324.6
367.781	340.41
368.163	314.2
368.544	309
368.925	314.2
369.306	322.79
369.688	304.48
370.069	313.07
370.45	325.73
370.831	330.7
371.212	328.44
371.593	300.19
371.974	334.31
372.355	313.75
372.736	308.78
373.117	308.1
373.498	305.16
373.879	316.69
374.26	317.82
374.641	313.3
375.021	328.66
375.402	329.57
375.783	330.7
376.163	320.08
376.544	321.66
376.925	312.17
377.305	331.38
377.686	320.08
378.066	316.01
378.447	333.86
378.827	350.58
379.208	340.87
379.588	329.12
379.968	350.13
380.349	328.21
380.729	323.92
381.109	318.72
381.489	345.39
381.87	335.44
382.25	337.03
382.63	353.3
383.01	342.67
383.39	353.3
383.77	335.44
384.15	342
384.53	354.43
384.91	377.25
385.29	367.98
385.67	355.78
386.049	354.65
386.429	349.23
386.809	356.46
387.189	365.95
387.568	386.52
387.948	374.54
388.328	379.74
388.707	368.44
389.087	368.21
389.466	361.43
389.846	364.82
390.225	370.02
390.605	361.43
390.984	393.07
391.363	386.52
391.743	385.16
392.122	365.95
392.501	367.76
392.881	399.4
393.26	394.88
393.639	371.37
394.018	378.38
394.397	376.57
394.776	407.53
395.155	398.94
395.534	405.05
395.913	400.3
396.292	398.27
396.671	412.5
397.05	399.17
397.429	386.06
397.808	380.87
398.186	391.03
398.565	416.8
398.944	406.85
399.323	391.71
399.701	413.86
400.08	388.55
400.458	408.21
400.837	411.15
401.215	413.41
401.594	422.22
401.972	411.37
402.351	411.15
402.729	421.54
403.107	447.98
403.486	427.87
403.864	441.2
404.242	427.19
404.62	420.64
404.999	439.17
405.377	433.29
405.755	450.69
406.133	448.89
406.511	437.14
406.889	438.94
407.267	451.37
407.645	435.55
408.023	448.66
408.401	457.25
408.779	459.51
409.156	455.67
409.534	464.25
409.912	447.08
410.29	470.35
410.667	476.91
411.045	484.82
411.422	477.81
411.8	485.04
412.178	483.91
412.555	502.22
412.933	488.66
413.31	502.44
413.687	485.72
414.065	493.86
414.442	509.22
414.819	503.35
415.197	508.09
415.574	515.55
415.951	523.23
416.328	533.63
416.705	539.73
417.082	532.05
417.46	545.38
417.837	506.06
418.214	528.21
418.591	555.78
418.967	548.77
419.344	555.32
419.721	544.93
420.098	551.48
420.475	556.91
420.852	560.52
421.228	562.78
421.605	568.66
421.982	551.26
422.358	579.28
422.735	582.67
423.111	575.44
423.488	572.95
423.864	590.35
424.241	588.54
424.617	592.84
424.994	594.65
425.37	601.42
425.746	612.95
426.123	605.49
426.499	626.73
426.875	633.29
427.251	632.61
427.627	663.57
428.003	634.19
428.379	653.63
428.756	615.44
429.132	647.98
429.507	640.07
429.883	658.6
430.259	656.11
430.635	669.22
431.011	696.56
431.387	666.06
431.763	703.34
432.138	694.76
432.514	706.96
432.89	722.33
433.265	743.79
433.641	717.13
434.016	729.78
434.392	733.17
434.767	738.6
435.143	746.28
435.518	764.36
435.894	747.41
436.269	749.9
436.644	763.68
437.02	812.04
437.395	782.21
437.77	789.22
438.145	792.15
438.52	792.38
438.895	808.88
439.271	829.89
439.646	870.12
440.021	815.66
440.395	855.2
440.77	860.4
441.145	836.67
441.52	861.31
441.895	870.34
442.27	850.01
442.645	864.02
443.019	891.59
443.394	878.48
443.769	898.14
444.143	880.74
444.518	906.28
444.892	906.5
445.267	895.88
445.641	923.22
446.016	909.21
446.39	927.07
446.764	919.16
447.139	934.07
447.513	944.47
447.887	951.02
448.262	970
448.636	961.42
449.01	960.74
449.384	973.84
449.758	994.63
450.132	993.05
450.506	992.38
450.88	1007.97
451.254	991.25
451.628	1060.4
452.002	1026.72
452.376	1063.11
452.75	1048.87
453.123	1068.31
453.497	1088.19
453.871	1059.27
454.244	1081.64
454.618	1091.58
454.992	1122.32
455.365	1123.67
455.739	1132.03
456.112	1141.07
456.486	1171.81
456.859	1160.51
457.232	1174.97
457.606	1189.43
457.979	1217.45
458.352	1229.2
458.725	1269.2
459.099	1236.44
459.472	1257.9
459.845	1284.34
460.218	1287.06
460.591	1332.03
460.964	1317.34
461.337	1344.23
461.71	1378.35
462.083	1393.04
462.456	1395.98
462.829	1401.4
463.201	1453.83
463.574	1431.01
463.947	1444.79
464.32	1488.63
464.692	1517.56
465.065	1522.76
465.438	1548.52
465.81	1562.98
466.183	1581.96
466.555	1623.54
466.928	1649.53
467.3	1644.79
467.672	1652.7
468.045	1713.26
468.417	1735.63
468.789	1723.88
469.161	1771.34
469.534	1817.21
469.906	1856.53
470.278	1887.72
470.65	1925.23
471.022	1964.33
471.394	1981.73
471.766	2004.33
472.138	2060.6
472.51	2077.32
472.882	2087.94
473.253	2175.17
473.625	2213.59
473.997	2266.92
474.369	2305.11
474.74	2310.53
475.112	2373.58
475.484	2448.83
475.855	2502.84
476.227	2513.92
476.598	2618.32
476.97	2659.68
477.341	2751.42
477.713	2790.75
478.084	2837.3
478.455	2903.29
478.827	2992.1
479.198	3092.21
479.569	3126.78
479.94	3241.13
480.311	3312.99
480.682	3384.63
481.053	3495.13
481.424	3565.87
481.795	3638.63
482.166	3741.91
482.537	3832.98
482.908	3930.6
483.279	4049.24
483.65	4128.34
484.021	4229.35
484.391	4340.99
484.762	4485.39
485.133	4490.81
485.503	4625.27
485.874	4773.07
486.244	4868.66
486.615	5004.25
486.985	5097.58
487.356	5305.71
487.726	5363.33
488.097	5461.64
488.467	5542.76
488.837	5756.54
489.207	5890.55
489.578	5979.36
489.948	6109.75
490.318	6218.68
490.688	6338
491.058	6504.77
491.428	6672
491.798	6746.35
492.168	6991.54
492.538	7018.88
492.908	7166
493.278	7317.63
493.648	7352.66
494.017	7507.91
494.387	7707.9
494.757	7822.03
495.126	7935.7
495.496	7961.91
495.866	8127.1
496.235	8221.11
496.605	8421.33
496.974	8479.86
497.344	8555.79
497.713	8677.37
498.082	8829.01
498.452	8951.26
498.821	9067.64
499.19	9169.56
499.559	9328.2
499.928	9356.9
500.298	9480.06
500.667	9572.49
501.036	9665.59
501.405	9719.38
501.774	9837.79
502.143	9916.89
502.512	10031.23
502.88	10068.75
503.249	10230.1
503.618	10236.2
503.987	10342.41
504.356	10457.89
504.724	10490.43
505.093	10586.7
505.462	10678.45
505.83	10720.48
506.199	10774.26
506.567	10986.91
506.936	10951.89
507.304	11110.53
507.672	11200.69
508.041	11182.16
508.409	11304.65
508.777	11410.63
509.145	11448.37
509.514	11414.7
509.882	11602.94
510.25	11615.6
510.618	11652.21
510.986	11697.4
511.354	11843.84
511.722	11910.96
512.09	12038.86
512.458	11969.94
512.826	12088.58
513.193	12070.05
513.561	12102.37
513.929	12259.65
514.297	12246.09
514.664	12356.6
515.032	12333.32
515.4	12390.27
515.767	12466.2
516.135	12562.69
516.502	12452.41
516.869	12598.85
517.237	12637.49
517.604	12644.95
517.972	12682.92
518.339	12701.67
518.706	12746.19
519.073	12731.5
519.44	12840.88
519.808	12992.06
520.175	12971.72
520.542	13022.12
520.909	13010.36
521.276	13043.36
521.643	13053.3
522.009	13154.77
522.376	13168.78
522.743	13218.49
523.11	13362.9
523.477	13385.95
523.843	13394.76
524.21	13430.47
524.577	13460.3
524.943	13537.13
525.31	13547.53
525.676	13628.65
526.043	13625.94
526.409	13610.12
526.776	13696.45
527.142	13651.03
527.508	13722.21
527.874	13774.64
528.241	13815.99
528.607	13732.15
528.973	13956.1
529.339	13870.23
529.705	13903.9
530.071	13854.86
530.437	13894.63
530.803	13929.89
531.169	13913.17
531.535	13882.43
531.901	13850.12
532.267	13914.07
532.632	13909.1
532.998	13895.31
533.364	13883.56
533.73	13868.42
534.095	13917.23
534.461	13887.86
534.826	14012.82
535.192	13931.24
535.557	13975.31
535.923	13926.95
536.288	13842.88
536.653	13899.38
537.019	13790.23
537.384	13808.54
537.749	13761.53
538.114	13764.69
538.479	13672.49
538.845	13695.32
539.21	13696.45
539.575	13662.1
539.94	13664.13
540.305	13649.44
540.67	13613.74
541.034	13608.77
541.399	13599.95
541.764	13554.08
542.129	13552.95
542.494	13484.25
542.858	13476.11
543.223	13399.05
543.587	13464.36
543.952	13399.51
544.316	13390.69
544.681	13304.14
545.045	13367.64
545.41	13356.12
545.774	13302.33
546.138	13286.29
546.503	13231.38
546.867	13093.75
547.231	13235.44
547.595	13126.07
547.959	13136.46
548.324	13128.33
548.688	13073.19
549.052	13145.73
549.416	13056.24
549.779	12967.43
550.143	12955.9
550.507	12995
550.871	12932.4
551.235	12879.97
551.599	12958.39
551.962	12934.21
552.326	12905.28
552.689	12916.58
553.053	12783.7
553.417	12813.08
553.78	12890.14
554.143	12832.74
554.507	12821.89
554.87	12835.68
555.234	12782.35
555.597	12747.32
555.96	12682.92
556.323	12722.46
556.686	12759.52
557.05	12804.49
557.413	12800.43
557.776	12695.8
558.139	12748.68
558.502	12700.54
558.865	12718.17
559.228	12740.99
559.59	12692.63
559.953	12683.59
560.316	12800.65
560.679	12794.1
561.041	12785.29
561.404	12778.96
561.767	12847.43
562.129	12762.01
562.492	12854.66
562.854	12810.82
563.217	12758.39
563.579	12796.58
563.941	12897.37
564.304	12828.45
564.666	12926.3
565.028	12922.23
565.39	12912.51
565.753	12936.24
566.115	12940.99
566.477	13014.88
566.839	12920.2
567.201	13058.27
567.563	12981.66
567.925	13048.1
568.287	13024.38
568.648	12999.29
569.01	13147.31
569.372	13140.98
569.734	13037.03
570.095	13123.13
570.457	13156.57
570.819	13188.44
571.18	13238.15
571.542	13158.83
571.903	13244.26
572.265	13156.8
572.626	13244.03
572.987	13257.14
573.349	13284.26
573.71	13219.17
574.071	13283.13
574.432	13277.7
574.794	13369.45
575.155	13307.53
575.516	13199.06
575.877	13260.75
576.238	13314.08
576.599	13380.98
576.96	13303.46
577.32	13335.78
577.681	13362.22
578.042	13346.4
578.403	13390.69
578.763	13439.28
579.124	13424.59
579.485	13507.98
579.845	13397.92
580.206	13404.48
580.566	13460.75
580.927	13443.57
581.287	13523.8
581.648	13436.57
582.008	13472.5
582.368	13377.13
582.728	13466.62
583.089	13383.24
583.449	13422.1
583.809	13413.29
584.169	13447.64
584.529	13338.72
584.889	13402.9
585.249	13308.66
585.609	13357.7
585.969	13352.05
586.329	13269.11
586.688	13345.04
587.048	13375.55
587.408	13264.59
587.768	13364.48
588.127	13372.61
588.487	13234.31
588.846	13354.31
589.206	13339.85
589.565	13247.42
589.925	13265.72
590.284	13216.69
590.643	13339.17
591.003	13233.86
591.362	13278.61
591.721	13220.08
592.08	13195.9
592.44	13292.62
592.799	13338.94
593.158	13218.04
593.517	13269.79
593.876	13183.69
594.235	13239.28
594.593	13178.5
594.952	13166.74
595.311	13133.75
595.67	13210.58
596.029	13312.96
596.387	13253.97
596.746	13295.33
597.104	13180.08
597.463	13237.7
597.822	13273.86
598.18	13195.44
598.538	13239.06
598.897	13141.66
599.255	13061.44
599.613	13303.46
599.972	13239.06
600.33	13152.73
600.688	13169.46
601.046	13234.99
601.404	13334.65
601.762	13230.25
602.12	13213.75
602.478	13280.64
602.836	13191.38
603.194	13179.17
603.552	13242.22
603.91	13192.28
604.268	13214.2
604.625	13248.78
604.983	13272.5
605.341	13177.14
605.698	13270.92
606.056	13213.75
606.413	13273.41
606.771	13293.52
607.128	13325.61
607.485	13252.39
607.843	13270.02
608.2	13373.74
608.557	13348.66
608.914	13298.72
609.272	13432.27
609.629	13300.75
609.986	13406.74
610.343	13307.08
610.7	13470.92
611.057	13376.68
611.414	13370.58
611.771	13415.33
612.127	13382.11
612.484	13491.48
612.841	13468.43
613.198	13400.86
613.554	13460.97
613.911	13458.71
614.267	13493.97
614.624	13456.91
614.98	13434.53
615.337	13492.84
615.693	13498.49
616.05	13525.38
616.406	13527.41
616.762	13422.78
617.118	13468.43
617.475	13514.31
617.831	13621.87
618.187	13512.95
618.543	13632.95
618.899	13612.61
619.255	13549.78
619.611	13525.6
619.967	13635.43
620.323	13611.25
620.678	13588.65
621.034	13617.13
621.39	13642.89
621.746	13600.86
622.101	13786.39
622.457	13529.67
622.812	13674.98
623.168	13716.56
623.523	13642.21
623.879	13740.74
624.234	13602.66
624.589	13674.08
624.945	13579.84
625.3	13629.56
625.655	13580.97
626.01	13592.27
626.365	13625.26
626.72	13660.97
627.075	13589.11
627.43	13610.8
627.785	13562.89
628.14	13616
628.495	13512.27
628.85	13567.86
629.205	13512.5
629.559	13529.22
629.914	13589.11
630.269	13525.38
630.623	13481.76
630.978	13497.81
631.332	13553.17
631.687	13503.23
632.041	13481.31
632.396	13443.57
632.75	13409.9
633.104	13421.88
633.459	13455.55
633.813	13395.66
634.167	13446.74
634.521	13409
634.875	13404.03
635.229	13397.25
635.583	13339.85
635.937	13347.3
636.291	13256.23
636.645	13312.73
636.999	13342.56
637.352	13332.39
637.706	13192.51
638.06	13278.15
638.413	13173.98
638.767	13209.68
639.121	13196.8
639.474	13196.8
639.828	13131.72
640.181	13201.32
640.534	13225.27
640.888	13144.82
641.241	12993.42
641.594	13095.56
641.947	13111.15
642.301	13029.8
642.654	13081.55
643.007	13066.63
643.36	13086.29
643.713	12973.98
644.066	13113.41
644.419	13026.63
644.771	12921.55
645.124	12789.58
645.477	12831.84
645.83	12737.6
646.182	12733.99
646.535	12632.52
646.888	12651.05
647.24	12558.62
647.593	12665.74
647.945	12553.43
648.298	12605.85
648.65	12487.44
649.002	12406.09
649.355	12579.64
649.707	12566.76
650.059	12626.87
650.411	12904.15
650.763	12803.59
651.115	12867.09
651.467	12856.7
651.819	12868.67
652.171	12867.09
652.523	12830.93
652.875	12850.14
653.227	12738.73
653.578	12905.51
653.93	12862.12
654.282	12764.49
654.633	12795.91
654.985	12764.49
655.337	12897.15
655.688	12782.12
656.039	12846.53
656.391	12697.83
656.742	12830.03
657.094	12798.84
657.445	12842.46
657.796	12761.11
658.147	12773.99
658.498	12816.47
658.849	12815.79
659.2	12781.22
659.551	12785.29
659.902	12804.27
660.253	12790.71
660.604	12830.93
660.955	12685.85
661.306	12786.19
661.656	12840.65
662.007	12859.41
662.358	12828
662.708	12935.34
663.059	12874.55
663.409	12730.37
663.76	12947.31
664.11	12878.39
664.461	12802.01
664.811	12831.16
665.161	12891.95
665.511	12853.31
665.862	12869.35
666.212	12941.89
666.562	12854.89
666.912	12847.66
667.262	12934.43
667.612	12879.07
667.962	12848.11
668.312	12950.7
668.662	12886.98
669.011	12843.14
669.361	12772.4
669.711	12746.42
670.06	12740.77
670.41	12773.76
670.76	12735.8
671.109	12754.1
671.459	12753.42
671.808	12811.27
672.157	12747.09
672.507	12684.95
672.856	12750.48
673.205	12700.99
673.554	12850.59
673.904	12703.71
674.253	12778.73
674.602	12709.36
674.951	12542.81
675.3	12551.39
675.649	12662.8
675.998	12596.82
676.346	12607.89
676.695	12680.88
677.044	12533.31
677.393	12609.02
677.741	12567.66
678.09	12600.43
678.438	12649.47
678.787	12591.17
679.135	12505.52
679.484	12507.33
679.832	12492.19
680.181	12505.74
680.529	12495.8
680.877	12412.87
681.225	12435.69
681.573	12437.05
681.922	12414.67
682.27	12371.96
682.618	12386.65
682.966	12359.53
683.314	12373.09
683.661	12346.65
684.009	12303.49
684.357	12190.95
684.705	12226.43
685.053	12314.11
685.4	12134.68
685.748	12157.73
686.095	12186.66
686.443	12138.97
686.79	12095.13
687.138	12101.24
687.485	12087.9
687.832	12130.61
688.18	12028.02
688.527	11962.93
688.874	11931.07
689.221	11869.15
689.568	11904.4
689.915	11849.72
690.262	11799.77
690.609	11744.86
690.956	11705.77
691.303	11709.83
691.65	11660.34
691.997	11638.65
692.344	11493.57
692.69	11576.5
693.037	11479.33
693.383	11349.84
693.73	11420.35
694.077	11374.02
694.423	11382.61
694.769	11330.41
695.116	11232.33
695.462	11305.78
695.808	11208.38
696.155	11162.05
696.501	11121.83
696.847	11128.61
697.193	11017.87
697.539	11126.57
697.885	10976.75
698.231	10951.21
698.577	10917.54
698.923	10925.9
699.269	10827.82
699.614	10769.75
699.96	10758.45
700.306	10738.56
700.651	10716.87
700.997	10643.87
701.342	10621.05
701.688	10562.52
702.033	10555.06
702.379	10510.09
702.724	10494.95
703.069	10512.35
703.415	10420.15
703.76	10388.29
704.105	10396.2
704.45	10376.08
704.795	10199.14
705.14	10273.03
705.485	10177.9
705.83	10171.79
706.175	10238.23
706.52	10169.08
706.865	10059.03
707.209	10088.41
707.554	10081.4
707.899	10111.23
708.243	9991.23
708.588	10033.04
708.932	9913.95
709.277	9883.44
709.621	9908.3
709.966	9856.32
710.31	9944.46
710.654	9784.46
710.998	9749.88
711.342	9782.43
711.687	9794.18
712.031	9684.58
712.375	9747.85
712.719	9685.03
713.063	9656.55
713.407	9671.47
713.75	9673.05
714.094	9653.84
714.438	9613.17
714.782	9545.82
715.125	9516.22
715.469	9554.41
715.812	9494.98
716.156	9429.44
716.499	9374.53
716.843	9482.55
717.186	9435.32
717.53	9443.23
717.873	9429.44
718.216	9430.35
718.559	9377.24
718.902	9308.09
719.246	9393.96
719.589	9300.41
719.932	9333.85
720.275	9270.58
720.617	9246.85
720.96	9259.05
721.303	9221.31
721.646	9258.15
721.989	9201.2
722.331	9203.68
722.674	9231.71
723.016	9218.37
723.359	9248.88
723.701	9180.86
724.044	9128.88
724.386	9100.18
724.729	9159.17
725.071	9059.28
725.413	9172.95
725.755	9176.34
726.097	9017.25
726.439	9076.68
726.782	9069.9
727.124	9122.56
727.465	9146.51
727.807	9038.04
728.149	9018.38
728.491	9053.18
728.833	8974.76
729.175	9037.59
729.516	9075.55
729.858	8991.49
730.199	9026.06
730.541	9035.33
730.882	8924.14
731.224	8991.26
731.565	8912.39
731.906	8909.23
732.248	9031.71
732.589	8924.6
732.93	8904.71
733.271	8983.35
733.612	8931.38
733.953	8974.31
734.294	8907.2
734.635	8972.05
734.976	8985.39
735.317	8911.26
735.658	8890.92
735.999	8965.5
736.339	8916.91
736.68	8956.91
737.021	8980.41
737.361	8883.02
737.702	8957.82
738.042	8984.26
738.383	8951.26
738.723	9001.88
739.063	8981.54
739.404	8914.2
739.744	8991.26
740.084	8990.58
740.424	9012.73
740.764	8994.65
741.104	9016.8
741.444	8974.31
741.784	9031.03
742.124	9049.79
742.464	9054.08
742.804	9112.16
743.143	9075.78
743.483	9109.9
743.823	9071.26
744.162	9117.13
744.502	9148.77
744.841	9151.48
745.181	9278.48
745.52	9296.79
745.86	9194.87
746.199	9295.89
746.538	9329.56
746.877	9338.14
747.216	9481.19
747.556	9395.54
747.895	9498.14
748.234	9492.04
748.573	9521.64
748.911	9563.68
749.25	9709.43
749.589	9672.15
749.928	9726.61
750.267	9819.26
750.605	9788.53
750.944	10010.89
751.283	9972.93
751.621	10062.87
751.96	10138.12
752.298	10240.49
752.636	10313.49
752.975	10334.5
753.313	10448.62
753.651	10602.52
753.989	10597.55
754.327	10679.13
754.666	10802.06
755.004	10918.67
755.342	11076.86
755.679	11244.99
756.017	11252.22
756.355	11436.62
756.693	11531.53
757.031	11676.61
757.368	11781.7
757.706	11887.23
758.044	11988.7
758.381	12125.87
758.719	12280.89
