Data from hue_350_FLMS001491_80.txt Node
Date: Mon Feb 06 15:38:31 GMT 2017
User: dcchb
Spectrometer: FLMS00149
Trigger mode: 0
Integration Time (sec): 2.000000E-2
Scans to average: 10
Electric dark correction enabled: true
Nonlinearity correction enabled: false
Boxcar width: 0
XAxis mode: Wavelengths
Number of Pixels in Spectrum: 2048
>>>>>Begin Spectral Data<<<<<
341.393	-13.91
341.776	-13.91
342.16	-13.91
342.543	-75.83
342.927	-66.11
343.31	-63.85
343.693	-75.61
344.077	-67.7
344.46	-67.02
344.843	-54.14
345.226	-51.65
345.61	-29.5
345.993	-32.67
346.376	-24.53
346.759	15.01
347.142	50.49
347.525	24.05
347.908	54.79
348.291	83.94
348.674	104.05
349.057	134.33
349.44	129.36
349.823	142.69
350.206	166.87
350.588	181.34
350.971	235.8
351.354	220.66
351.737	245.29
352.119	260.88
352.502	271.28
352.884	266.53
353.267	280.77
353.65	286.65
354.032	290.03
354.414	293.88
354.797	285.52
355.179	306.08
355.562	317.6
355.944	332.75
356.326	342.91
356.709	342.91
357.091	343.82
357.473	349.24
357.855	348.11
358.238	310.6
358.62	323.03
359.002	340.65
359.384	348.79
359.766	339.3
360.148	336.81
360.53	355.8
360.912	323.93
361.294	338.4
361.676	339.75
362.057	341.11
362.439	344.27
362.821	319.86
363.203	303.82
363.584	319.19
363.966	324.16
364.348	339.52
364.729	321.45
365.111	335.23
365.493	318.73
365.874	319.41
366.256	296.14
366.637	327.77
367.019	294.1
367.4	304.72
367.781	320.99
368.163	313.08
368.544	315.12
368.925	321.9
369.306	326.64
369.688	314.21
370.069	314.67
370.45	303.59
370.831	310.37
371.212	320.77
371.593	336.81
371.974	318.28
372.355	325.06
372.736	307.66
373.117	305.4
373.498	308.34
373.879	313.99
374.26	316.47
374.641	308.79
375.021	301.79
375.402	328.45
375.783	302.69
376.163	315.34
376.544	330.26
376.925	336.59
377.305	334.33
377.686	318.96
378.066	318.06
378.447	332.07
378.827	325.74
379.208	334.1
379.588	325.06
379.968	311.05
380.349	311.5
380.729	316.02
381.109	316.47
381.489	320.09
381.87	346.98
382.25	337.04
382.63	354.89
383.01	347.89
383.39	336.59
383.77	335.01
384.15	335.01
384.53	333.42
384.91	349.69
385.29	344.27
385.67	341.11
386.049	338.85
386.429	338.4
386.809	359.19
387.189	348.34
387.568	345.85
387.948	341.33
388.328	349.02
388.707	349.69
389.087	338.4
389.466	365.06
389.846	352.41
390.225	358.51
390.605	353.08
390.984	347.89
391.363	348.79
391.743	366.42
392.122	367.32
392.501	354.44
392.881	356.93
393.26	346.3
393.639	365.29
394.018	384.04
394.397	376.81
394.776	365.06
395.155	360.09
395.534	366.87
395.913	383.82
396.292	360.32
396.671	381.56
397.05	391.5
397.429	353.54
397.808	378.85
398.186	384.95
398.565	376.13
398.944	388.79
399.323	382.24
399.701	386.98
400.08	371.61
400.458	389.92
400.837	394.21
401.215	380.88
401.594	390.6
401.972	397.15
402.351	373.2
402.729	380.65
403.107	379.75
403.486	408
403.864	404.83
404.242	389.24
404.62	400.09
404.999	413.2
405.377	406.19
405.755	402.57
406.133	414.78
406.511	432.63
406.889	426.98
407.267	412.07
407.645	410.71
408.023	426.53
408.401	423.82
408.779	409.35
409.156	429.24
409.534	440.31
409.912	432.18
410.29	442.12
410.667	423.36
411.045	443.25
411.422	446.64
411.8	464.04
412.178	442.12
412.555	464.95
412.933	441.22
413.31	466.98
413.687	454.78
414.065	470.14
414.442	450.26
414.819	491.39
415.197	461.78
415.574	490.71
415.951	477.83
416.328	457.26
416.705	481.22
417.082	482.57
417.46	492.97
417.837	479.63
418.214	473.31
418.591	514.44
418.967	480.99
419.344	486.41
419.721	500.65
420.098	504.27
420.475	492.29
420.852	513.98
421.228	498.16
421.605	530.03
421.982	530.25
422.358	526.86
422.735	528.67
423.111	526.86
423.488	543.36
423.864	537.03
424.241	543.59
424.617	538.62
424.994	556.69
425.37	568.22
425.746	528.22
426.123	578.16
426.499	574.1
426.875	574.1
427.251	576.13
427.627	590.59
428.003	569.12
428.379	598.5
428.756	575.68
429.132	591.27
429.507	602.12
429.883	614.77
430.259	589.69
430.635	593.98
431.011	609.57
431.387	594.89
431.763	617.48
432.138	615.68
432.514	625.39
432.89	630.59
433.265	650.93
433.641	653.19
434.016	629.01
434.392	637.82
434.767	650.7
435.143	656.35
435.518	680.31
435.894	688.89
436.269	688.22
436.644	692.96
437.02	700.42
437.395	689.12
437.77	718.5
438.145	707.42
438.52	708.78
438.895	707.2
439.271	714.2
439.646	728.22
440.021	732.06
440.395	725.05
440.77	757.14
441.145	734.32
441.52	744.71
441.895	725.5
442.27	729.12
442.645	769.12
443.019	758.05
443.394	776.12
443.769	770.93
444.143	775.22
444.518	776.58
444.892	774.99
445.267	791.94
445.641	770.47
446.016	774.32
446.39	782.9
446.764	800.98
447.139	784.94
447.513	800.3
447.887	785.84
448.262	807.54
448.636	816.12
449.01	801.21
449.384	813.41
449.758	819.96
450.132	815.67
450.506	840.3
450.88	837.82
451.254	819.29
451.628	828.33
452.002	844.14
452.376	876.69
452.75	845.05
453.123	839.17
453.497	886.63
453.871	889.12
454.244	892.28
454.618	904.26
454.992	892.28
455.365	921.66
455.739	907.65
456.112	923.92
456.486	906.06
456.859	923.69
457.232	933.18
457.606	968.43
457.979	972.28
458.352	958.49
458.725	951.94
459.099	978.15
459.472	995.1
459.845	986.29
460.218	1017.7
460.591	1004.59
460.964	1038.49
461.337	1045.27
461.71	1025.83
462.083	1070.81
462.456	1080.75
462.829	1054.31
463.201	1109.45
463.574	1101.31
463.947	1091.14
464.32	1113.06
464.692	1131.82
465.065	1142.67
465.438	1140.41
465.81	1137.47
466.183	1169.79
466.555	1183.57
466.928	1192.38
467.3	1188.99
467.672	1228.32
468.045	1206.62
468.417	1234.42
468.789	1265.83
469.161	1295.43
469.534	1296.56
469.906	1294.3
470.278	1300.86
470.65	1331.14
471.022	1370.23
471.394	1381.76
471.766	1363.68
472.138	1396.22
472.51	1427.18
472.882	1435.99
473.253	1448.42
473.625	1462.21
473.997	1525.48
474.369	1523.9
474.74	1542.66
475.112	1532.26
475.484	1581.07
475.855	1611.13
476.227	1631.24
476.598	1687.74
476.97	1678.92
477.341	1706.72
477.713	1724.8
478.084	1742.2
478.455	1791.92
478.827	1791.69
479.198	1861.97
479.569	1857
479.94	1898.58
480.311	1896.55
480.682	1943.1
481.053	1985.81
481.424	2033.49
481.795	2035.75
482.166	2084.34
482.537	2101.06
482.908	2127.27
483.279	2177.44
483.65	2210.66
484.021	2219.25
484.391	2253.37
484.762	2273.71
485.133	2327.04
485.503	2364.56
485.874	2383.54
486.244	2441.39
486.615	2450.66
486.985	2506.02
487.356	2537.21
487.726	2581.05
488.097	2629.63
488.467	2603.42
488.837	2714.6
489.207	2685
489.578	2747.37
489.948	2817.88
490.318	2795.28
490.688	2837.09
491.058	2867.37
491.428	2920.47
491.798	2928.84
492.168	2975.84
492.538	2992.34
492.908	3038.66
493.278	3077.08
493.648	3100.36
494.017	3153.69
494.387	3157.76
494.757	3204.53
495.126	3211.54
495.496	3223.29
495.866	3269.62
496.235	3321.59
496.605	3284.98
496.974	3313.91
497.344	3333.8
497.713	3390.29
498.082	3411.08
498.452	3482.72
498.821	3437.75
499.19	3438.65
499.559	3500.8
499.928	3494.02
500.298	3549.61
500.667	3600.68
501.036	3593.9
501.405	3619.21
501.774	3569.95
502.143	3653.34
502.512	3601.81
502.88	3662.38
503.249	3678.87
503.618	3670.28
503.987	3700.11
504.356	3762.26
504.724	3801.13
505.093	3762.03
505.462	3800.9
505.83	3838.42
506.199	3873.22
506.567	3827.79
506.936	3861.47
507.304	3921.13
507.672	3901.24
508.041	3949.37
508.409	3916.83
508.777	3951.41
509.145	4021.91
509.514	4005.19
509.882	4015.59
510.25	4039.77
510.618	4090.39
510.986	4086.32
511.354	4103.95
511.722	4117.96
512.09	4150.05
512.458	4088.58
512.826	4174
513.193	4156.6
513.561	4216.03
513.929	4220.1
514.297	4251.51
514.664	4217.39
515.032	4241.57
515.4	4296.71
515.767	4290.16
516.135	4320.44
516.502	4291.96
516.869	4364.5
517.237	4339.42
517.604	4346.2
517.972	4357.72
518.339	4366.54
518.706	4418.06
519.073	4414.45
519.44	4455.35
519.808	4416.03
520.175	4459.42
520.542	4500.09
520.909	4561.56
521.276	4500.77
521.643	4543.48
522.009	4522.69
522.376	4571.5
522.743	4602.24
523.11	4625.51
523.477	4666.42
523.843	4686.3
524.21	4686.08
524.577	4712.29
524.943	4777.37
525.31	4759.52
525.676	4807.88
526.043	4838.62
526.409	4812.85
526.776	4894.21
527.142	4834.32
527.508	4887.2
527.874	4898.95
528.241	4958.16
528.607	4982.34
528.973	5018.5
529.339	5031.38
529.705	5052.4
530.071	5079.97
530.437	5104.15
530.803	5109.34
531.169	5192.73
531.535	5157.25
531.901	5248.1
532.267	5225.05
532.632	5230.24
532.998	5266.85
533.364	5277.7
533.73	5314.76
534.095	5316.57
534.461	5347.53
534.826	5366.96
535.192	5383.46
535.557	5476.11
535.923	5411.93
536.288	5424.81
536.653	5463.46
537.019	5458.49
537.384	5477.69
537.749	5514.3
538.114	5552.27
538.479	5551.37
538.845	5634.08
539.21	5567.41
539.575	5645.6
539.94	5639.05
540.305	5659.61
540.67	5641.08
541.034	5715.65
541.399	5743.22
541.764	5746.61
542.129	5802.21
542.494	5812.83
542.858	5746.39
543.223	5848.76
543.587	5867.97
543.952	5869.78
544.316	5909.1
544.681	5911.13
545.045	5931.47
545.41	5945.93
545.774	5978.25
546.138	6009.88
546.503	6051.69
546.867	6015.53
547.231	6069.09
547.595	6082.65
547.959	6158.36
548.324	6135.3
548.688	6169.65
549.052	6172.59
549.416	6227.96
549.779	6215.53
550.143	6225.92
550.507	6254.17
550.871	6232.25
551.235	6258.24
551.599	6311.12
551.962	6361.74
552.326	6393.6
552.689	6398.12
553.053	6430.21
553.417	6433.38
553.78	6477.67
554.143	6506.59
554.507	6480.15
554.87	6577.55
555.234	6544.33
555.597	6587.5
555.96	6551.11
556.323	6607.83
556.686	6604.22
557.05	6634.05
557.413	6697.55
557.776	6683.76
558.139	6689.41
558.502	6738.68
558.865	6719.7
559.228	6805.34
559.59	6779.81
559.953	6832.91
560.316	6865.46
560.679	6862.74
561.041	6895.28
561.404	6887.38
561.767	6937.54
562.129	6911.33
562.492	7004.66
562.854	6999.91
563.217	7020.93
563.579	6992.91
563.941	7087.82
564.304	7098.67
564.666	7086.24
565.028	7156.52
565.39	7137.09
565.753	7193.81
566.115	7173.24
566.477	7239
566.839	7264.54
567.201	7281.72
567.563	7286.46
567.925	7387.93
568.287	7352.45
568.648	7398.32
569.01	7449.62
569.372	7449.39
569.734	7466.57
570.095	7506.79
570.457	7534.36
570.819	7620.92
571.18	7566
571.542	7686
571.903	7693.91
572.265	7701.82
572.626	7740.46
572.987	7756.51
573.349	7829.27
573.71	7935.48
574.071	7942.71
574.432	7951.08
574.794	8092.09
575.155	8123.95
575.516	8121.24
575.877	8156.49
576.238	8238.98
576.599	8298.19
576.96	8368.69
577.32	8423.83
577.681	8525.3
578.042	8575.69
578.403	8621.57
578.763	8716.71
579.124	8760.77
579.485	8874.89
579.845	8969.35
580.206	9004.61
580.566	9199.86
580.927	9273.53
581.287	9340.64
581.648	9461.09
582.008	9543.58
582.368	9758.94
582.728	9800.07
583.089	9911.02
583.449	10136.78
583.809	10266.5
584.169	10450.9
584.529	10524.12
584.889	10789.87
585.249	10867.84
585.609	10961.17
585.969	11228.05
586.329	11417.2
586.688	11671.2
587.048	11813.57
587.408	11972.67
587.768	12202.94
588.127	12381.69
588.487	12584.4
588.846	12922.92
589.206	13070.04
589.565	13246.53
589.925	13533.75
590.284	13704.15
590.643	14069.56
591.003	14254.87
591.362	14634.06
591.721	14719.94
592.08	15016.65
592.44	15293.93
592.799	15577.77
593.158	15796.75
593.517	16070.41
593.876	16351.76
594.235	16662.26
594.593	16947.22
594.952	17209.14
595.311	17483.25
595.67	17753.76
596.029	18109.23
596.387	18368.88
596.746	18741.08
597.104	18927.28
597.463	19223.32
597.822	19553.48
598.18	19731.78
598.538	20062.62
598.897	20440.69
599.255	20574.93
599.613	21126.55
599.972	21223.04
600.33	21603.82
600.688	21769.7
601.046	21970.82
601.404	22378.49
601.762	22581.2
602.12	22993.62
602.478	23147.29
602.836	23511.12
603.194	23677.22
603.552	23957.44
603.91	24144.1
604.268	24507.48
604.625	24729.39
604.983	25134.13
605.341	25269.04
605.698	25547
606.056	25790.38
606.413	26010.04
606.771	26447.99
607.128	26555.33
607.485	26780.64
607.843	26984.02
608.2	27297.01
608.557	27647.51
608.914	27765.24
609.272	28057.89
609.629	28318.45
609.986	28522.51
610.343	28692.45
610.7	29068.26
611.057	29160.01
611.414	29374.24
611.771	29566.78
612.127	29761.8
612.484	29995.02
612.841	30218.06
613.198	30369.24
613.554	30535.57
613.911	30850.59
614.267	31036.12
614.624	31121.54
614.98	31390.91
615.337	31632.04
615.693	31700.73
616.05	31725.59
616.406	32044.23
616.762	32088.75
617.118	32236.09
617.475	32486.48
617.831	32636.98
618.187	32751.1
618.543	33024.99
618.899	33337.53
619.255	33380.01
619.611	33259.11
619.967	33657.07
620.323	33758.31
620.678	33847.57
621.034	33856.16
621.39	34022.93
621.746	34020.9
622.101	34464.28
622.457	34281.23
622.812	34496.82
623.168	34732.74
623.523	34586.76
623.879	34853.87
624.234	34735.23
624.589	35037.82
624.945	35011.16
625.3	35277.82
625.655	35302
626.01	35308.55
626.365	35454.08
626.72	35566.85
627.075	35670.12
627.43	35612.04
627.785	35731.36
628.14	35773.4
628.495	35730.91
628.85	35942.2
629.205	35786.73
629.559	36093.61
629.914	35939.94
630.269	36132.03
630.623	36000.28
630.978	36046.83
631.332	36109.21
631.687	36290.9
632.041	36218.81
632.396	36327.96
632.75	36238.02
633.104	36367.5
633.459	36171.8
633.813	36172.03
634.167	36348.3
634.521	36377.67
634.875	36241.63
635.229	36246.83
635.583	36310.33
635.937	36331.8
636.291	36279.6
636.645	36336.32
636.999	36306.94
637.352	36285.7
637.706	36219.49
638.06	36233.95
638.413	36330.44
638.767	36266.72
639.121	36302.87
639.474	36288.18
639.828	36259.94
640.181	36407.96
640.534	36121.86
640.888	36231.69
641.241	36075.53
641.594	36273.27
641.947	36254.06
642.301	36247.28
642.654	36311.23
643.007	36358.01
643.36	36269.65
643.713	36250.9
644.066	36315.53
644.419	36173.61
644.771	35909.44
645.124	35679.16
645.477	35438.72
645.83	35525.49
646.182	35268.55
646.535	35088.44
646.888	35132.28
647.24	35101.55
647.593	35309.23
647.945	35245.27
648.298	35032.17
648.65	35000.31
649.002	34986.3
649.355	35193.07
649.707	35106.52
650.059	35137.48
650.411	35573.17
650.763	35614.76
651.115	36040.73
651.467	35796.22
651.819	35810.46
652.171	35823.79
652.523	35747.41
652.875	35871.92
653.227	35692.49
653.578	35970.68
653.93	35804.81
654.282	35727.3
654.633	35604.36
654.985	35807.07
655.337	35810.68
655.688	35713.74
656.039	35832.83
656.391	35479.84
656.742	35643.68
657.094	35570.91
657.445	35607.07
657.796	35610.46
658.147	35726.39
658.498	35713.96
658.849	35571.59
659.2	35743.79
659.551	35612.5
659.902	35584.02
660.253	35495.44
660.604	35615.66
660.955	35357.36
661.306	35518.94
661.656	35506.51
662.007	35531.59
662.358	35512.39
662.708	35467.87
663.059	35442.33
663.409	35270.36
663.76	35460.64
664.11	35548.32
664.461	35533.85
664.811	35418.38
665.161	35442.78
665.511	35406.63
665.862	35353.97
666.212	35558.49
666.562	35518.49
666.912	35354.2
667.262	35478.49
667.612	35407.53
667.962	35489.79
668.312	35330.47
668.662	35627.64
669.011	35404.59
669.361	35289.11
669.711	35345.16
670.06	35430.58
670.41	35315.33
670.76	35322.56
671.109	35343.35
671.459	35420.41
671.808	35331.6
672.157	35319.62
672.507	35191.94
672.856	35146.75
673.205	35221.77
673.554	35280.08
673.904	35159.63
674.253	35503.35
674.602	35222.68
674.951	34765.51
675.3	34528.46
675.649	35273.52
675.998	35106.52
676.346	34963.93
676.695	35197.82
677.044	34925.28
677.393	35112.17
677.741	35101.55
678.09	34918.28
678.438	34905.17
678.787	34946.75
679.135	35049.57
679.484	34728.9
679.832	34862.46
680.181	34711.95
680.529	34826.08
680.877	34689.81
681.225	34708.56
681.573	34875.57
681.922	34682.35
682.27	34610.04
682.618	34659.3
682.966	34451.4
683.314	34579.98
683.661	34407.33
684.009	34241.91
684.357	34368.46
684.705	34201.91
685.053	34142.7
685.4	34109.26
685.748	34003.27
686.095	34154.46
686.443	33909.26
686.79	33888.93
687.138	33922.6
687.485	33982.48
687.832	33775.26
688.18	33851.19
688.527	33670.85
688.874	33698.2
689.221	33589.72
689.568	33455.94
689.915	33363.97
690.262	33297.75
690.609	33311.09
690.956	33173.92
691.303	33142.73
691.65	33046.01
691.997	33035.39
692.344	32792.91
692.69	32759.92
693.037	32787.03
693.383	32540.71
693.73	32639.92
694.077	32415.97
694.423	32535.97
694.769	32416.2
695.116	32256.65
695.462	32255.97
695.808	32224.56
696.155	32161.97
696.501	31954.06
696.847	32086.94
697.193	31683.33
697.539	31907.51
697.885	31605.82
698.231	31567.63
698.577	31604.69
698.923	31549.78
699.269	31406.28
699.614	31119.28
699.96	31147.08
700.306	31263.23
700.651	31220.52
700.997	30980.3
701.342	30888.33
701.688	30856.01
702.033	30731.49
702.379	30682.46
702.724	30647.43
703.069	30773.08
703.415	30288.34
703.76	30389.81
704.105	30407.66
704.45	30350.94
704.795	30153.2
705.14	30115.69
705.485	30004.28
705.83	29952.08
706.175	30061.91
706.52	29999.99
706.865	29800.67
707.209	29735.14
707.554	29683.61
707.899	29593.45
708.243	29520
708.588	29490.62
708.932	29308.71
709.277	29329.95
709.621	29395.48
709.966	29095.38
710.31	29111.65
710.654	28819.91
710.998	29041.37
711.342	28933.8
711.687	28857.19
712.031	28757.76
712.375	28603.64
712.719	28782.39
713.063	28660.36
713.407	28714.6
713.75	28582.17
714.094	28619.46
714.438	28376.53
714.782	28560.93
715.125	28304.21
715.469	28317.55
715.812	28242.75
716.156	28005.01
716.499	28086.82
716.843	28134.05
717.186	28119.13
717.53	28063.32
717.873	28066.93
718.216	27978.12
718.559	27824
718.902	27679.82
719.246	27664.46
719.589	27651.8
719.932	27535.19
720.275	27505.82
720.617	27456.55
720.96	27405.03
721.303	27387.63
721.646	27490.45
721.989	27180.63
722.331	27296.78
722.674	27227.86
723.016	27176.33
723.359	27270.12
723.701	27191.47
724.044	27073.29
724.386	26873.06
724.729	26953.51
725.071	27001.2
725.413	26974.76
725.755	26910.35
726.097	26868.54
726.439	26751.49
726.782	26668.1
727.124	26763.01
727.465	26646.4
727.807	26704.71
728.149	26566.86
728.491	26508.1
728.833	26540.87
729.175	26467.88
729.516	26364.15
729.858	26236.47
730.199	26357.6
730.541	26310.37
730.882	26176.81
731.224	26227.21
731.565	26081
731.906	26078.06
732.248	26060.88
732.589	25981.34
732.93	26005.52
733.271	25989.02
733.612	25864.73
733.953	25975.69
734.294	25894.33
734.635	25804.62
734.976	25810.49
735.317	25717.16
735.658	25729.37
735.999	25698.63
736.339	25629.26
736.68	25629.03
737.021	25630.61
737.361	25478.3
737.702	25604.17
738.042	25570.73
738.383	25414.35
738.723	25474.23
739.063	25512.2
739.404	25475.59
739.744	25356.49
740.084	25343.16
740.424	25355.36
740.764	25205.54
741.104	25258.87
741.444	25158.53
741.784	25091.42
742.124	25213.22
742.464	25054.81
742.804	25030.63
743.143	25100.46
743.483	24963.96
743.823	24833.34
744.162	24829.05
744.502	24915.6
744.841	24763.52
745.181	24818.2
745.52	24695.49
745.86	24741.6
746.199	24621.37
746.538	24733.91
746.877	24585.22
747.216	24720.35
747.556	24609.85
747.895	24577.76
748.234	24465.22
748.573	24396.75
748.911	24442.39
749.25	24411.66
749.589	24276.75
749.928	24220.93
750.267	24312.23
750.605	24328.95
750.944	24151.1
751.283	24189.75
751.621	24208.73
751.96	24004.21
752.298	24045.12
752.636	24004.21
752.975	23914.72
753.313	23821.39
753.651	24006.7
753.989	23861.39
754.327	23771.9
754.666	23634.05
755.004	23737.33
755.342	23608.52
755.679	23598.12
756.017	23439.03
756.355	23543.43
756.693	23480.61
757.031	23409.2
757.368	23278.36
757.706	23258.92
758.044	23178.7
758.381	23238.36
758.719	23041.53
759.056	23126.95
759.394	23060.96
759.731	22770.35
760.068	22904.36
760.405	22789.78
760.743	22756.34
761.08	22766.05
