Data from hue_150_FLMS001491_00090.txt Node
Date: Tue Feb 07 16:54:40 GMT 2017
User: dcchb
Spectrometer: FLMS00149
Trigger mode: 0
Integration Time (sec): 2.000000E-2
Scans to average: 10
Electric dark correction enabled: true
Nonlinearity correction enabled: false
Boxcar width: 0
XAxis mode: Wavelengths
Number of Pixels in Spectrum: 2048
>>>>>Begin Spectral Data<<<<<
341.393	-15.49
341.776	-15.49
342.16	-15.49
342.543	-64.31
342.927	-63.18
343.31	-60.46
343.693	-83.51
344.077	-69.5
344.46	-50.07
344.843	-44.19
345.226	-34.93
345.61	-32.44
345.993	0.32
346.376	-17.08
346.759	6.65
347.142	5.75
347.525	58.4
347.908	72.19
348.291	78.29
348.674	81.45
349.057	89.14
349.44	103.15
349.823	138.4
350.206	153.99
350.588	198.96
350.971	204.16
351.354	217.72
351.737	228.12
352.119	234.22
352.502	266.53
352.884	272.41
353.267	271.05
353.65	281.22
354.032	305.85
354.414	306.53
354.797	305.18
355.179	302.92
355.562	313.54
355.944	337.49
356.326	347.43
356.709	335.46
357.091	313.54
357.473	349.02
357.855	346.08
358.238	309.92
358.62	337.72
359.002	332.07
359.384	340.43
359.766	322.58
360.148	342.69
360.53	318.73
360.912	329.36
361.294	324.84
361.676	349.92
362.057	331.84
362.439	342.91
362.821	323.25
363.203	319.41
363.584	340.88
363.966	320.54
364.348	308.34
364.729	331.84
365.111	335.46
365.493	323.93
365.874	302.92
366.256	308.34
366.637	321.67
367.019	315.8
367.4	309.47
367.781	306.53
368.163	305.63
368.544	288
368.925	294.1
369.306	308.11
369.688	308.79
370.069	316.7
370.45	319.19
370.831	297.72
371.212	337.04
371.593	297.49
371.974	306.08
372.355	308.11
372.736	312.41
373.117	310.37
373.498	314.44
373.879	307.89
374.26	320.77
374.641	329.36
375.021	312.18
375.402	317.38
375.783	347.21
376.163	315.57
376.544	311.5
376.925	311.05
377.305	320.09
377.686	330.94
378.066	330.71
378.447	321.67
378.827	321.45
379.208	332.75
379.588	332.97
379.968	309.47
380.349	330.49
380.729	329.81
381.109	335.23
381.489	334.55
381.87	325.74
382.25	360.99
382.63	341.11
383.01	342.01
383.39	343.59
383.77	335.01
384.15	331.39
384.53	350.82
384.91	351.95
385.29	337.49
385.67	340.2
386.049	367.77
386.429	334.55
386.809	335.46
387.189	356.47
387.568	360.32
387.948	361.45
388.328	370.26
388.707	364.16
389.087	351.05
389.466	372.29
389.846	370.03
390.225	372.74
390.605	395.79
390.984	375.23
391.363	367.32
391.743	387.89
392.122	382.46
392.501	385.63
392.881	360.54
393.26	381.56
393.639	383.37
394.018	361.22
394.397	398.05
394.776	380.65
395.155	399.18
395.534	383.14
395.913	370.94
396.292	399.18
396.671	385.17
397.05	385.17
397.429	388.56
397.808	410.03
398.186	384.95
398.565	374.1
398.944	397.15
399.323	393.31
399.701	412.97
400.08	429.01
400.458	426.98
400.837	424.95
401.215	416.36
401.594	401.22
401.972	412.07
402.351	414.1
402.729	410.48
403.107	407.55
403.486	426.53
403.864	429.24
404.242	416.81
404.62	446.41
404.999	408.68
405.377	433.53
405.755	429.47
406.133	427.88
406.511	442.57
406.889	430.14
407.267	456.13
407.645	442.57
408.023	449.13
408.401	458.39
408.779	449.35
409.156	475.57
409.534	462.23
409.912	454.1
410.29	457.04
410.667	441.44
411.045	475.11
411.422	494.78
411.8	485.06
412.178	481.89
412.555	482.8
412.933	473.53
413.31	508.56
413.687	492.97
414.065	486.87
414.442	473.76
414.819	505.62
415.197	495.91
415.574	499.97
415.951	509.69
416.328	531.84
416.705	516.02
417.082	510.59
417.46	535.23
417.837	547.88
418.214	537.03
418.591	552.17
418.967	532.29
419.344	549.24
419.721	546.07
420.098	555.56
420.475	550.37
420.852	546.98
421.228	553.76
421.605	570.71
421.982	548.79
422.358	583.59
422.735	572.51
423.111	577.94
423.488	601.89
423.864	580.2
424.241	595.56
424.617	594.89
424.994	608.9
425.37	618.16
425.746	608.44
426.123	615.68
426.499	634.66
426.875	640.08
427.251	639.18
427.627	643.02
428.003	621.1
428.379	654.54
428.756	640.99
429.132	666.07
429.507	685.96
429.883	665.62
430.259	661.55
430.635	670.59
431.011	694.09
431.387	675.79
431.763	719.63
432.138	712.62
432.514	708.1
432.89	726.41
433.265	747.2
433.641	748.78
434.016	730.7
434.392	747.42
434.767	748.1
435.143	758.72
435.518	754.2
435.894	765.73
436.269	778.61
436.644	802.11
437.02	790.59
437.395	780.19
437.77	807.31
438.145	792.85
438.52	829.68
438.895	830.13
439.271	820.64
439.646	838.95
440.021	850.25
440.395	836.01
440.77	860.64
441.145	851.83
441.52	885.95
441.895	854.54
442.27	864.71
442.645	878.72
443.019	893.18
443.394	888.89
443.769	900.19
444.143	923.69
444.518	912.84
444.892	909.23
445.267	922.33
445.641	924.82
446.016	939.28
446.39	939.96
446.764	935.22
447.139	936.12
447.513	950.13
447.887	965.05
448.262	963.24
448.636	956.68
449.01	985.16
449.384	1011.6
449.758	995.33
450.132	1018.38
450.506	1012.5
450.88	1037.13
451.254	1002.56
451.628	1044.59
452.002	1054.99
452.376	1052.27
452.75	1059.28
453.123	1054.76
453.497	1089.11
453.871	1111.03
454.244	1116
454.618	1091.82
454.992	1137.02
455.365	1154.19
455.739	1168.88
456.112	1169.11
456.486	1187.19
456.859	1166.17
457.232	1218.6
457.606	1214.76
457.979	1211.82
458.352	1261.08
458.725	1279.39
459.099	1293.62
459.472	1284.36
459.845	1310.12
460.218	1335.21
460.591	1330.91
460.964	1347.86
461.337	1358.26
461.71	1394.41
462.083	1387.18
462.456	1420.17
462.829	1425.37
463.201	1438.71
463.574	1468.99
463.947	1497.46
464.32	1501.75
464.692	1499.95
465.065	1547.85
465.438	1574.75
465.81	1607.06
466.183	1608.87
466.555	1659.49
466.928	1647.74
467.3	1671.24
467.672	1717.12
468.045	1768.87
468.417	1748.53
468.789	1767.06
469.161	1798.92
469.534	1857.9
469.906	1889.77
470.278	1897.22
470.65	1932.03
471.022	1951.69
471.394	2021.97
471.766	2085.24
472.138	2051.12
472.51	2122.98
472.882	2193.94
473.253	2187.61
473.625	2242.3
473.997	2318.46
474.369	2332.92
474.74	2381.51
475.112	2407.04
475.484	2499.69
475.855	2513.03
476.227	2593.25
476.598	2615.85
476.97	2706.92
477.341	2837.54
477.713	2849.97
478.084	2916.63
478.455	2984.43
478.827	3077.76
479.198	3147.81
479.569	3200.69
479.94	3296.06
480.311	3353.46
480.682	3447.69
481.053	3515.49
481.424	3641.36
481.795	3696.95
482.166	3816.04
482.537	3919.54
482.908	4020.11
483.279	4091.06
483.65	4206.32
484.021	4349.14
484.391	4415.12
484.762	4538.96
485.133	4604.05
485.503	4761.56
485.874	4911.38
486.244	4956.58
486.615	5128.78
486.985	5211.94
487.356	5373.06
487.726	5467.98
488.097	5569.9
488.467	5713.17
488.837	5914.97
489.207	6015.31
489.578	6114.97
489.948	6237.22
490.318	6373.04
490.688	6456.88
491.058	6611.22
491.428	6813.03
491.798	6873.59
492.168	7097.09
492.538	7141.83
492.908	7276.97
493.278	7483.97
493.648	7577.75
494.017	7674.7
494.387	7809.39
494.757	7949.72
495.126	8102.26
495.496	8219.54
495.866	8219.09
496.235	8422.7
496.605	8505.19
496.974	8655.01
497.344	8803.48
497.713	8866.53
498.082	8960.99
498.452	9119.41
498.821	9215.68
499.19	9198.5
499.559	9391.04
499.928	9471.26
500.298	9549.9
500.667	9718.26
501.036	9722.33
501.405	9903.34
501.774	9893.62
502.143	10056.11
502.512	10085.94
502.88	10263.56
503.249	10288.87
503.618	10299.49
503.987	10426.72
504.356	10460.16
504.724	10548.3
505.093	10674.62
505.462	10719.37
505.83	10812.92
506.199	10959.58
506.567	11117.77
506.936	11070.54
507.304	11171.78
507.672	11198.22
508.041	11255.4
508.409	11409.06
508.777	11433.7
509.145	11590.75
509.514	11576.97
509.882	11608.16
510.25	11665.78
510.618	11724.76
510.986	11794.59
511.354	11907.81
511.722	11916.62
512.09	12018.09
512.458	12019.44
512.826	12128.14
513.193	12147.58
513.561	12203.17
513.929	12275.48
514.297	12344.63
514.664	12370.85
515.032	12373.78
515.4	12533.1
515.767	12471.86
516.135	12557.28
516.502	12468.7
516.869	12660.33
517.237	12677.51
517.604	12606.32
517.972	12745.75
518.339	12754.34
518.706	12736.71
519.073	12868.01
519.44	12916.82
519.808	12874.79
520.175	12891.06
520.542	13019.19
520.909	13042.69
521.276	13060.55
521.643	13093.99
522.009	13232.52
522.376	13211.73
522.743	13213.99
523.11	13315
523.477	13361.33
523.843	13416.7
524.21	13486.52
524.577	13512.96
524.943	13579.63
525.31	13582.79
525.676	13643.58
526.043	13654.2
526.409	13668.67
526.776	13743.47
527.142	13694.2
527.508	13769.68
527.874	13878.15
528.241	13803.35
528.607	13780.98
528.973	13863.24
529.339	13835.44
529.705	13865.05
530.071	13966.06
530.437	13907.53
530.803	13931.94
531.169	13947.3
531.535	13893.29
531.901	13924.7
532.267	13919.28
532.632	13923.35
532.998	13836.12
533.364	13969.68
533.73	13961.09
534.095	13921.31
534.461	13880.64
534.826	13989.56
535.192	13833.86
535.557	13955.89
535.923	13907.76
536.288	13968.09
536.653	13880.64
537.019	13866.17
537.384	13876.57
537.749	13785.27
538.114	13798.61
538.479	13770.13
538.845	13812.39
539.21	13667.54
539.575	13645.39
539.94	13736.91
540.305	13683.13
540.67	13610.59
541.034	13637.03
541.399	13596.13
541.764	13639.51
542.129	13514.32
542.494	13571.04
542.858	13567.88
543.223	13594.32
543.587	13489.46
543.952	13382.12
544.316	13385.28
544.681	13390.03
545.045	13351.84
545.41	13362.46
545.774	13285.4
546.138	13257.6
546.503	13233.2
546.867	13215.8
547.231	13298.96
547.595	13171.96
547.959	13133.99
548.324	13076.37
548.688	13116.82
549.052	13133.99
549.416	13085.86
549.779	13040.43
550.143	12987.78
550.507	13018.06
550.871	12937.61
551.235	13039.98
551.599	13010.38
551.962	12977.61
552.326	12939.87
552.689	13005.18
553.053	12898.52
553.417	12963.83
553.78	12948.46
554.143	12796.6
554.507	12845.64
554.87	12869.59
555.234	12873.88
555.597	12882.92
555.96	12780.55
556.323	12812.87
556.686	12700.56
557.05	12720.44
557.413	12832.53
557.776	12710.5
558.139	12773.1
558.502	12696.94
558.865	12705.3
559.228	12750.95
559.59	12790.05
559.953	12712.08
560.316	12773.55
560.679	12782.59
561.041	12807.67
561.404	12846.54
561.767	12900.1
562.129	12730.61
562.492	12828.69
562.854	12844.05
563.217	12825.75
563.579	12854.45
563.941	12871.85
564.304	12895.35
564.666	12975.12
565.028	12897.16
565.39	12965.18
565.753	13010.15
566.115	12950.27
566.477	12981.68
566.839	12981.9
567.201	12989.81
567.563	13011.06
567.925	13100.55
568.287	13074.78
568.648	13030.26
569.01	13061.9
569.372	13156.36
569.734	13106.87
570.095	13098.96
570.457	13160.43
570.819	13115.46
571.18	13111.62
571.542	13235.23
571.903	13121.11
572.265	13193.2
572.626	13200.88
572.987	13268.22
573.349	13320.43
573.71	13320.43
574.071	13316.81
574.432	13315
574.794	13419.41
575.155	13357.49
575.516	13403.36
575.877	13363.82
576.238	13425.51
576.599	13386.41
576.96	13362.91
577.32	13384.61
577.681	13412.18
578.042	13420.08
578.403	13465.73
578.763	13318.84
579.124	13403.36
579.485	13390.93
579.845	13516.58
580.206	13413.53
580.566	13461.21
580.927	13510.25
581.287	13451.95
581.648	13486.3
582.008	13493.98
582.368	13404.27
582.728	13440.42
583.089	13430.48
583.449	13414.89
583.809	13471.16
584.169	13456.92
584.529	13360.65
584.889	13500.08
585.249	13390.48
585.609	13270.94
585.969	13422.57
586.329	13357.94
586.688	13356.13
587.048	13406.53
587.408	13310.03
587.768	13289.24
588.127	13280.65
588.487	13248.56
588.846	13378.5
589.206	13242.01
589.565	13282.01
589.925	13308
590.284	13276.13
590.643	13304.61
591.003	13261.22
591.362	13336.25
591.721	13339.64
592.08	13258.06
592.44	13302.12
592.799	13279.52
593.158	13231.62
593.517	13237.26
593.876	13242.24
594.235	13224.38
594.593	13178.06
594.952	13235.46
595.311	13166.08
595.67	13266.87
596.029	13202.92
596.387	13278.17
596.746	13293.31
597.104	13203.82
597.463	13219.86
597.822	13287.66
598.18	13195.23
598.538	13129.02
598.897	13245.4
599.255	13062.13
599.613	13289.69
599.972	13214.44
600.33	13235.01
600.688	13117.72
601.046	13199.3
601.404	13273.87
601.762	13137.83
602.12	13232.07
602.478	13257.38
602.836	13277.26
603.194	13209.92
603.552	13235.01
603.91	13142.13
604.268	13189.58
604.625	13185.74
604.983	13256.47
605.341	13105.52
605.698	13208.79
606.056	13245.63
606.413	13212.63
606.771	13273.87
607.128	13233.65
607.485	13196.59
607.843	13320.88
608.2	13263.03
608.557	13365.17
608.914	13197.04
609.272	13319.3
609.629	13255.8
609.986	13358.39
610.343	13221.9
610.7	13343.48
611.057	13419.18
611.414	13303.7
611.771	13375.34
612.127	13384.38
612.484	13439.52
612.841	13435.9
613.198	13342.35
613.554	13483.81
613.911	13443.14
614.267	13451.72
614.624	13504.15
614.98	13433.42
615.337	13514.77
615.693	13459.86
616.05	13477.94
616.406	13579.63
616.762	13541.66
617.118	13540.99
617.475	13519.52
617.831	13549.8
618.187	13545.05
618.543	13610.36
618.899	13595.67
619.255	13657.37
619.611	13520.2
619.967	13662.79
620.323	13671.6
620.678	13644.71
621.034	13665.05
621.39	13532.62
621.746	13546.18
622.101	13782.11
622.457	13634.77
622.812	13575.34
623.168	13666.18
623.523	13689
623.879	13663.47
624.234	13542.34
624.589	13637.03
624.945	13575.79
625.3	13684.48
625.655	13649.23
626.01	13645.16
626.365	13577.37
626.72	13622.34
627.075	13620.98
627.43	13616.46
627.785	13567.65
628.14	13598.39
628.495	13623.7
628.85	13637.48
629.205	13569.46
629.559	13650.59
629.914	13525.39
630.269	13550.7
630.623	13458.28
630.978	13585.28
631.332	13529.01
631.687	13565.62
632.041	13467.09
632.396	13588.22
632.75	13507.77
633.104	13432.97
633.459	13393.87
633.813	13363.36
634.167	13470.71
634.521	13282.01
634.875	13408.11
635.229	13411.27
635.583	13328.79
635.937	13247.89
636.291	13264.61
636.645	13336.7
636.999	13292.18
637.352	13305.51
637.706	13193.2
638.06	13233.65
638.413	13185.74
638.767	13194.33
639.121	13248.34
639.474	13066.87
639.828	13036.59
640.181	13194.1
640.534	13223.93
640.888	13175.35
641.241	13097.83
641.594	13106.19
641.947	13077.27
642.301	13083.6
642.654	13054.9
643.007	13136.02
643.36	13054.22
643.713	13040.21
644.066	13078.63
644.419	12997.27
644.771	12901.68
645.124	12885.18
645.477	12829.14
645.83	12710.27
646.182	12663.95
646.535	12714.79
646.888	12679.09
647.24	12535.59
647.593	12656.72
647.945	12668.92
648.298	12600.45
648.65	12564.06
649.002	12561.35
649.355	12580.11
649.707	12646.32
650.059	12702.59
650.411	12796.15
650.763	12793.66
651.115	12891.74
651.467	12794.79
651.819	12829.82
652.171	12836.15
652.523	12796.6
652.875	12796.82
653.227	12819.42
653.578	12830.95
653.93	12848.57
654.282	12764.28
654.633	12670.73
654.985	12766.54
655.337	12799.76
655.688	12816.49
656.039	12833.21
656.391	12659.43
656.742	12771.06
657.094	12798.18
657.445	12786.88
657.796	12747.79
658.147	12717.28
658.498	12759.31
658.849	12725.64
659.2	12772.87
659.551	12716.83
659.902	12896.71
660.253	12809.03
660.604	12799.54
660.955	12766.99
661.306	12905.3
661.656	12838.63
662.007	12884.96
662.358	12844.96
662.708	12821.91
663.059	12815.58
663.409	12822.36
663.76	12878.86
664.11	12858.07
664.461	12852.19
664.811	12814.68
665.161	12860.1
665.511	12783.04
665.862	12864.62
666.212	12906.2
666.562	12786.43
666.912	12742.59
667.262	12862.36
667.612	12882.47
667.962	12897.16
668.312	12836.15
668.662	12848.8
669.011	12855.13
669.361	12866.2
669.711	12767.45
670.06	12793.43
670.41	12786.43
670.76	12758.63
671.109	12880.44
671.459	12797.28
671.808	12724.51
672.157	12817.61
672.507	12684.29
672.856	12704.85
673.205	12799.08
673.554	12762.25
673.904	12663.95
674.253	12802.47
674.602	12740.33
674.951	12468.7
675.3	12517.74
675.649	12705.08
675.998	12630.05
676.346	12621.69
676.695	12692.87
677.044	12635.7
677.393	12582.59
677.741	12651.97
678.09	12599.09
678.438	12509.6
678.787	12580.56
679.135	12614.68
679.484	12468.02
679.832	12531.97
680.181	12461.47
680.529	12444.07
680.877	12421.69
681.225	12436.83
681.573	12501.92
681.922	12411.98
682.27	12386.21
682.618	12362.03
682.966	12314.58
683.314	12365.2
683.661	12282.04
684.009	12217.86
684.357	12252.66
684.705	12219.89
685.053	12181.02
685.4	12164.3
685.748	12103.96
686.095	12114.13
686.443	12107.58
686.79	12087.01
687.138	12042.04
687.485	11992.55
687.832	11954.36
688.18	12038.88
688.527	11926.34
688.874	11918.88
689.221	11866.23
689.568	11863.29
689.915	11750.52
690.262	11809.96
690.609	11757.08
690.956	11704.2
691.303	11646.57
691.65	11674.59
691.997	11637.08
692.344	11552.79
692.69	11580.81
693.037	11461.94
693.383	11428.5
693.73	11410.65
694.077	11417.2
694.423	11352.57
694.769	11346.24
695.116	11226.47
695.462	11320.93
695.808	11276.86
696.155	11186.7
696.501	11207.49
696.847	11118.22
697.193	11041.16
697.539	11102.18
697.885	10933.6
698.231	10975.4
698.577	10932.69
698.923	10956.65
699.269	10915.97
699.614	10806.14
699.96	10784
700.306	10733.83
700.651	10653.38
700.997	10670.78
701.342	10685.47
701.688	10632.36
702.033	10588.07
702.379	10621.29
702.724	10518.47
703.069	10547.84
703.415	10406.6
703.76	10375.19
704.105	10395.98
704.45	10375.65
704.795	10351.69
705.14	10222.88
705.485	10270.11
705.83	10228.98
706.175	10210.23
706.52	10179.49
706.865	10116.9
707.209	10137.91
707.554	10051.13
707.899	10052.04
708.243	10011.81
708.588	10020.17
708.932	9912.83
709.277	9949.22
709.621	9981.08
709.966	9855.43
710.31	9877.58
710.654	9797.13
710.998	9744.7
711.342	9768.2
711.687	9764.14
712.031	9751.71
712.375	9713.06
712.719	9721.65
713.063	9665.38
713.407	9664.93
713.75	9563.46
714.094	9584.03
714.438	9611.37
714.782	9629.45
715.125	9508.32
715.469	9565.5
715.812	9458.16
716.156	9486.86
716.499	9480.75
716.843	9377.48
717.186	9480.98
717.53	9495.22
717.873	9476.01
718.216	9502.9
718.559	9370.93
718.902	9350.14
719.246	9381.32
719.589	9336.35
719.932	9313.07
720.275	9293.64
720.617	9326.63
720.96	9273.98
721.303	9243.47
721.646	9254.32
721.989	9206.64
722.331	9248.9
722.674	9247.77
723.016	9184.49
723.359	9158.5
723.701	9180.87
724.044	9156.92
724.386	9071.5
724.729	9204.6
725.071	9152.17
725.413	9132.29
725.755	9123.02
726.097	9028.34
726.439	9009.13
726.782	9017.04
727.124	9020.88
727.465	8998.96
727.807	9055.91
728.149	8981.11
728.491	9009.13
728.833	9047.77
729.175	9001.22
729.516	8965.06
729.858	8968.68
730.199	9009.58
730.541	8954.21
730.882	9027.88
731.224	8958.73
731.565	8921.22
731.906	8951.28
732.248	9030.37
732.589	8985.17
732.93	8924.16
733.271	8940.43
733.612	8971.84
733.953	8935.46
734.294	8946.76
734.635	8957.6
734.976	9003.25
735.317	8919.41
735.658	8930.71
735.999	8953.99
736.339	8912.18
736.68	8951.28
737.021	8965.74
737.361	8923.03
737.702	8984.27
738.042	8997.15
738.383	8932.52
738.723	9017.26
739.063	8937.94
739.404	9040.31
739.744	9028.56
740.084	8998.73
740.424	8983.14
740.764	8998.96
741.104	9049.8
741.444	8985.85
741.784	8957.83
742.124	9050.26
742.464	9069.92
742.804	9071.5
743.143	9055.23
743.483	9065.85
743.823	9113.31
744.162	9103.14
744.502	9181.1
744.841	9166.19
745.181	9190.14
745.52	9203.47
745.86	9306.75
746.199	9260.65
746.538	9313.98
746.877	9427.2
747.216	9422.9
747.556	9419.06
747.895	9533.41
748.234	9542.45
748.573	9556.68
748.911	9614.08
749.25	9681.88
749.589	9711.26
749.928	9791.71
750.267	9866.51
750.605	9922.78
750.944	9939.95
751.283	10029.21
751.621	10168.19
751.96	10125.71
752.298	10348.08
752.636	10356.44
752.975	10425.14
753.313	10466.49
753.651	10662.19
753.989	10675.52
754.327	10794.39
754.666	10805.92
755.004	11015.85
755.342	11035.51
755.679	11243.19
756.017	11344.89
756.355	11419.01
756.693	11503.98
757.031	11671.88
757.368	11821.93
757.706	11933.8
758.044	11995.94
758.381	12209.72
