Data from hue_170_FLMS001491_00098.txt Node
Date: Tue Feb 07 16:49:32 GMT 2017
User: dcchb
Spectrometer: FLMS00149
Trigger mode: 0
Integration Time (sec): 2.000000E-2
Scans to average: 10
Electric dark correction enabled: true
Nonlinearity correction enabled: false
Boxcar width: 0
XAxis mode: Wavelengths
Number of Pixels in Spectrum: 2048
>>>>>Begin Spectral Data<<<<<
341.393	-13.76
341.776	-13.76
342.16	-13.76
342.543	-48.56
342.927	-76.35
343.31	-66.18
343.693	-68.22
344.077	-77.94
344.46	-60.31
344.843	-40.65
345.226	-41.1
345.61	-27.32
345.993	-19.41
346.376	2.97
346.759	-25.73
347.142	28.05
347.525	33.25
347.908	57.2
348.291	85.68
348.674	79.35
349.057	140.36
349.44	115.96
349.823	146.69
350.206	158.89
350.588	184.2
350.971	178.1
351.354	215.84
351.737	236.86
352.119	248.38
352.502	239.34
352.884	264.43
353.267	281.6
353.65	283.64
354.032	301.04
354.414	282.05
354.797	320.7
355.179	316.18
355.562	318.66
355.944	310.98
356.326	329.74
356.709	325.67
357.091	336.74
357.473	344.43
357.855	330.87
358.238	333.13
358.62	338.55
359.002	323.18
359.384	322.05
359.766	343.52
360.148	347.36
360.53	345.1
360.912	330.42
361.294	325.44
361.676	328.83
362.057	333.13
362.439	320.47
362.821	293.81
363.203	334.03
363.584	310.75
363.966	358.44
364.348	337.42
364.729	334.48
365.111	284.99
365.493	299.68
365.874	310.3
366.256	319.34
366.637	303.3
367.019	317.76
367.4	321.38
367.781	316.18
368.163	297.42
368.544	303.98
368.925	312.79
369.306	320.47
369.688	289.96
370.069	289.29
370.45	310.08
370.831	308.72
371.212	296.74
371.593	308.72
371.974	320.7
372.355	310.53
372.736	317.08
373.117	314.82
373.498	319.79
373.879	326.57
374.26	310.3
374.641	324.54
375.021	320.02
375.402	294.03
375.783	306.69
376.163	328.83
376.544	311.43
376.925	316.63
377.305	313.92
377.686	335.84
378.066	320.47
378.447	328.61
378.827	317.76
379.208	310.75
379.588	338.32
379.968	297.87
380.349	324.31
380.729	320.25
381.109	352.34
381.489	346.69
381.87	348.27
382.25	310.98
382.63	313.69
383.01	321.6
383.39	346.91
383.77	327.25
384.15	342.39
384.53	346.01
384.91	354.14
385.29	322.73
385.67	339.45
386.049	357.53
386.429	334.71
386.809	349.62
387.189	350.3
387.568	346.46
387.948	346.46
388.328	340.81
388.707	348.04
389.087	347.59
389.466	338.78
389.846	357.31
390.225	355.73
390.605	375.84
390.984	339
391.363	352.11
391.743	354.6
392.122	364.31
392.501	373.35
392.881	374.26
393.26	375.39
393.639	360.02
394.018	369.51
394.397	367.25
394.776	366.8
395.155	364.99
395.534	363.86
395.913	388.72
396.292	385.1
396.671	372
397.05	374.03
397.429	382.62
397.808	395.27
398.186	381.71
398.565	403.63
398.944	403.18
399.323	386.23
399.701	399.11
400.08	371.54
400.458	413.58
400.837	378.78
401.215	404.76
401.594	384.42
401.972	409.73
402.351	391.66
402.729	407.25
403.107	425.78
403.486	403.63
403.864	404.76
404.242	430.07
404.62	421.94
404.999	421.26
405.377	420.13
405.755	402.5
406.133	422.84
406.511	435.27
406.889	435.5
407.267	415.16
407.645	442.95
408.023	453.8
408.401	442.95
408.779	421.03
409.156	446.12
409.534	451.32
409.912	440.47
410.29	441.82
410.667	475.04
411.045	496.96
411.422	491.09
411.8	477.08
412.178	481.6
412.555	497.87
412.933	470.3
413.31	502.39
413.687	491.77
414.065	507.59
414.442	526.79
414.819	522.27
415.197	516.17
415.574	507.59
415.951	543.74
416.328	546.23
416.705	525.89
417.082	557.08
417.46	524.76
417.837	557.53
418.214	567.24
418.591	547.58
418.967	567.02
419.344	573.12
419.721	586.68
420.098	577.87
420.475	591.2
420.852	619.67
421.228	608.37
421.605	616.96
421.982	605.89
422.358	621.25
422.735	640.92
423.111	623.51
423.488	624.19
423.864	640.69
424.241	657.41
424.617	651.08
424.994	680.91
425.37	669.62
425.746	672.78
426.123	678.88
426.499	698.09
426.875	696.73
427.251	713.23
427.627	711.42
428.003	718.43
428.379	724.08
428.756	732.66
429.132	726.79
429.507	765.88
429.883	757.52
430.259	767.24
430.635	750.07
431.011	803.17
431.387	785.54
431.763	789.39
432.138	793.45
432.514	805.43
432.89	811.98
433.265	846.56
433.641	858.76
434.016	860.57
434.392	851.31
434.767	884.52
435.143	882.26
435.518	885.43
435.894	938.08
436.269	906.67
436.644	939.66
437.02	913.9
437.395	940.34
437.77	968.36
438.145	963.62
438.52	976.05
438.895	1007.01
439.271	1009.27
439.646	1004.07
440.021	1016.95
440.395	1043.84
440.77	1046.78
441.145	1043.16
441.52	1092.65
441.895	1070.28
442.27	1084.97
442.645	1089.94
443.019	1093.78
443.394	1101.47
443.769	1129.72
444.143	1120.68
444.518	1117.29
444.892	1115.03
445.267	1159.09
445.641	1151.86
446.016	1151.41
446.39	1165.65
446.764	1168.36
447.139	1175.36
447.513	1215.82
447.887	1182.82
448.262	1196.83
448.636	1213.78
449.01	1244.52
449.384	1227.57
449.758	1240.67
450.132	1266.89
450.506	1246.32
450.88	1309.37
451.254	1298.53
451.628	1299.2
452.002	1302.59
452.376	1333.1
452.75	1367.22
453.123	1361.57
453.497	1380.33
453.871	1406.32
454.244	1434.34
454.618	1417.17
454.992	1442.02
455.365	1438.63
455.739	1486.99
456.112	1510.95
456.486	1497.16
456.859	1523.38
457.232	1529.71
457.606	1537.61
457.979	1571.74
458.352	1591.62
458.725	1608.8
459.099	1607.67
459.472	1641.12
459.845	1690.38
460.218	1691.74
460.591	1663.49
460.964	1705.07
461.337	1752.52
461.71	1790.49
462.083	1816.25
462.456	1831.39
462.829	1825.74
463.201	1868
463.574	1890.37
463.947	1911.16
464.32	1979.41
464.692	1971.28
465.065	1992.97
465.438	2015.12
465.81	2046.3
466.183	2054.21
466.555	2136.47
466.928	2124.04
467.3	2145.28
467.672	2217.15
468.045	2254.66
468.417	2277.93
468.789	2279.52
469.161	2312.06
469.534	2339.63
469.906	2419.85
470.278	2455.56
470.65	2473.41
471.022	2560.86
471.394	2568.32
471.766	2645.61
472.138	2671.14
472.51	2759.5
472.882	2797.24
473.253	2797.24
473.625	2884.47
473.997	2931.02
474.369	2991.36
474.74	3020.29
475.112	3133.05
475.484	3173.5
475.855	3291.02
476.227	3271.81
476.598	3386.83
476.97	3453.5
477.341	3566.94
477.713	3654.85
478.084	3636.77
478.455	3802.64
478.827	3822.75
479.198	3948.4
479.569	4037.21
479.94	4126.47
480.311	4226.81
480.682	4332.12
481.053	4492.79
481.424	4571.66
481.795	4615.27
482.166	4722.62
482.537	4802.39
482.908	4948.37
483.279	5028.6
483.65	5150.18
484.021	5298.42
484.391	5343.16
484.762	5431.3
485.133	5537.28
485.503	5653.21
485.874	5847.56
486.244	5895.24
486.615	6074.22
486.985	6169.13
487.356	6281.22
487.726	6482.57
488.097	6608.67
488.467	6615.45
488.837	6797.36
489.207	6916.23
489.578	7015.89
489.948	7146.73
490.318	7235.77
490.688	7370
491.058	7556.44
491.428	7659.94
491.798	7755.98
492.168	7981.06
492.538	8062.19
492.908	8091.11
493.278	8289.3
493.648	8259.7
494.017	8498.34
494.387	8592.8
494.757	8718.67
495.126	8810.87
495.496	8896.52
495.866	8935.16
496.235	9104.2
496.605	9145.78
496.974	9196.4
497.344	9364.08
497.713	9440.23
498.082	9569.49
498.452	9616.5
498.821	9678.19
499.19	9761.81
499.559	9856.72
499.928	9961.35
500.298	10037.05
500.667	10142.59
501.036	10192.53
501.405	10258.74
501.774	10307.1
502.143	10372.18
502.512	10454.67
502.88	10553.65
503.249	10482.69
503.618	10623.48
503.987	10625.29
504.356	10696.7
504.724	10898.95
505.093	10863.02
505.462	10874.32
505.83	10979.4
506.199	11075.67
506.567	11140.75
506.936	11146.63
507.304	11221.2
507.672	11265.49
508.041	11307.98
508.409	11413.51
508.777	11425.94
509.145	11624.81
509.514	11504.58
509.882	11592.49
510.25	11602.66
510.618	11712.04
510.986	11736.44
511.354	11794.75
511.722	11810.11
512.09	11874.74
512.458	11907.29
512.826	11920.39
513.193	12013.27
513.561	11879.04
513.929	11957.68
514.297	12107.51
514.664	12126.04
515.032	12143.89
515.4	12195.41
515.767	12256.88
516.135	12254.17
516.502	12178.47
516.869	12337.78
517.237	12408.29
517.604	12340.72
517.972	12446.48
518.339	12468.4
518.706	12410.55
519.073	12469.53
519.44	12541.62
519.808	12599.02
520.175	12547.04
520.542	12635.63
520.909	12673.14
521.276	12598.34
521.643	12669.3
522.009	12683.76
522.376	12771.9
522.743	12827.49
523.11	12769.86
523.477	12897.54
523.843	12872.23
524.21	12960.14
524.577	12949.52
524.943	12913.59
525.31	12975.96
525.676	13026.58
526.043	13030.87
526.409	13060.02
526.776	13109.51
527.142	13135.95
527.508	13116.52
527.874	13216.4
528.241	13235.16
528.607	13212.34
528.973	13154.94
529.339	13115.39
529.705	13256.4
530.071	13201.72
530.437	13225.9
530.803	13383.63
531.169	13227.93
531.535	13195.61
531.901	13219.12
532.267	13142.28
532.632	13155.84
532.998	13183.64
533.364	13173.92
533.73	13150.19
534.095	13169.63
534.461	13159
534.826	13160.59
535.192	13134.37
535.557	13188.83
535.923	12997.88
536.288	13006.47
536.653	13036.07
537.019	12913.59
537.384	12959.69
537.749	12888.5
538.114	12892.57
538.479	12770.99
538.845	12785
539.21	12760.82
539.575	12820.03
539.94	12730.99
540.305	12789.07
540.67	12763.99
541.034	12647.61
541.399	12688.51
541.764	12629.07
542.129	12583.2
542.494	12459.36
542.858	12467.5
543.223	12482.86
543.587	12416.88
543.952	12329.2
544.316	12351.79
544.681	12236.54
545.045	12260.72
545.41	12280.16
545.774	12276.09
546.138	12175.3
546.503	12077.22
546.867	12095.53
547.231	12060.95
547.595	12093.95
547.959	11978.24
548.324	12006.27
548.688	11980.28
549.052	11924.91
549.416	11881.98
549.779	11811.02
550.143	11841.3
550.507	11835.2
550.871	11786.61
551.235	11712.71
551.599	11672.94
551.962	11699.16
552.326	11684.69
552.689	11689.66
553.053	11560.18
553.417	11495.55
553.78	11610.8
554.143	11557.69
554.507	11515.66
554.87	11506.39
555.234	11556.33
555.597	11423
555.96	11434.98
556.323	11512.04
556.686	11374.42
557.05	11366.51
557.413	11388.66
557.776	11384.36
558.139	11369.22
558.502	11302.1
558.865	11327.64
559.228	11327.87
559.59	11349.33
559.953	11270.92
560.316	11359.73
560.679	11264.36
561.041	11382.1
561.404	11308.43
561.767	11363.57
562.129	11251.48
562.492	11340.97
562.854	11234.08
563.217	11225.5
563.579	11272.95
563.941	11300.97
564.304	11310.92
564.666	11331.03
565.028	11300.3
565.39	11311.82
565.753	11315.44
566.115	11383.23
566.477	11366.74
566.839	11362.67
567.201	11459.84
567.563	11341.42
567.925	11395.66
568.287	11337.36
568.648	11374.64
569.01	11359.73
569.372	11411.93
569.734	11345.94
570.095	11427.98
570.457	11344.36
570.819	11356.79
571.18	11486.51
571.542	11473.4
571.903	11461.42
572.265	11411.71
572.626	11434.53
572.987	11523.57
573.349	11421.2
573.71	11438.15
574.071	11486.05
574.432	11490.12
574.794	11497.81
575.155	11531.25
575.516	11467.3
575.877	11580.29
576.238	11430.24
576.599	11508.2
576.96	11498.26
577.32	11561.31
577.681	11516.79
578.042	11590.23
578.403	11497.35
578.763	11537.8
579.124	11524.47
579.485	11467.52
579.845	11461.2
580.206	11451.25
580.566	11431.59
580.927	11523.57
581.287	11554.98
581.648	11498.48
582.008	11545.49
582.368	11579.61
582.728	11489.44
583.089	11462.33
583.449	11498.26
583.809	11482.44
584.169	11493.29
584.529	11392.5
584.889	11516.79
585.249	11387.75
585.609	11377.81
585.969	11456.22
586.329	11356.34
586.688	11400.63
587.048	11368.54
587.408	11389.11
587.768	11354.08
588.127	11267.08
588.487	11287.19
588.846	11362.89
589.206	11299.39
589.565	11210.58
589.925	11322.44
590.284	11224.82
590.643	11322.67
591.003	11306.4
591.362	11315.44
591.721	11257.81
592.08	11284.48
592.44	11346.62
592.799	11267.53
593.158	11248.77
593.517	11182.79
593.876	11275.21
594.235	11172.39
594.593	11084.26
594.952	11163.58
595.311	11154.76
595.67	11196.57
596.029	11259.17
596.387	11212.61
596.746	11220.3
597.104	11129.91
597.463	11147.98
597.822	11178.27
598.18	11124.71
598.538	11087.19
598.897	11162.9
599.255	11074.77
599.613	11203.58
599.972	11174.65
600.33	11152.28
600.688	11074.31
601.046	11166.74
601.404	11178.72
601.762	11194.76
602.12	11192.95
602.478	11109.79
602.836	11130.58
603.194	11076.35
603.552	11120.87
603.91	11024.15
604.268	11073.18
604.625	11057.14
604.983	11113.86
605.341	11041.09
605.698	11125.16
606.056	11157.02
606.413	11075.67
606.771	11162.22
607.128	11096.91
607.485	11090.13
607.843	11110.7
608.2	11163.8
608.557	11085.84
608.914	11144.37
609.272	11169.23
609.629	11201.32
609.986	11213.74
610.343	11166.06
610.7	11265.27
611.057	11212.39
611.414	11247.87
611.771	11128.1
612.127	11183.01
612.484	11259.39
612.841	11276.34
613.198	11267.08
613.554	11203.12
613.911	11226.63
614.267	11311.6
614.624	11267.98
614.98	11259.39
615.337	11310.01
615.693	11187.53
616.05	11226.85
616.406	11375.32
616.762	11262.78
617.118	11319.05
617.475	11327.87
617.831	11365.83
618.187	11410.35
618.543	11373.97
618.899	11380.07
619.255	11297.81
619.611	11308.43
619.967	11430.69
620.323	11376.23
620.678	11354.76
621.034	11384.59
621.39	11356.79
621.746	11301.43
622.101	11502.78
622.457	11378.49
622.812	11314.31
623.168	11420.97
623.523	11379.16
623.879	11436.56
624.234	11392.05
624.589	11395.66
624.945	11355.21
625.3	11454.64
625.655	11460.52
626.01	11392.27
626.365	11380.52
626.72	11383.01
627.075	11415.32
627.43	11343.46
627.785	11342.55
628.14	11267.3
628.495	11336
628.85	11341.2
629.205	11377.81
629.559	11390.46
629.914	11225.72
630.269	11314.53
630.623	11326.51
630.978	11281.54
631.332	11333.74
631.687	11359.5
632.041	11232.28
632.396	11268.66
632.75	11189.79
633.104	11249.68
633.459	11184.59
633.813	11212.84
634.167	11201.99
634.521	11217.13
634.875	11175.78
635.229	11236.34
635.583	11108.66
635.937	11112.28
636.291	11153.41
636.645	11029.34
636.999	11060.3
637.352	11106.85
637.706	11038.61
638.06	11087.65
638.413	11095.1
638.767	11020.98
639.121	10974.88
639.474	10935.33
639.828	10914.09
640.181	10931.27
640.534	11004.26
640.888	10936.92
641.241	10881.55
641.594	10866.64
641.947	10955.9
642.301	10890.59
642.654	10914.54
643.007	10871.61
643.36	10864.38
643.713	10786.41
644.066	10889.01
644.419	10783.25
644.771	10759.97
645.124	10674.55
645.477	10684.27
645.83	10505.29
646.182	10552.52
646.535	10558.85
646.888	10566.3
647.24	10525.63
647.593	10540.99
647.945	10579.41
648.298	10470.04
648.65	10497.61
649.002	10472.52
649.355	10481.79
649.707	10540.32
650.059	10601.33
650.411	10664.61
650.763	10629.13
651.115	10782.12
651.467	10795.45
651.819	10752.06
652.171	10726.3
652.523	10776.47
652.875	10753.42
653.227	10671.39
653.578	10781.89
653.93	10734.66
654.282	10689.69
654.633	10710.71
654.985	10678.39
655.337	10701.44
655.688	10755.9
656.039	10773.53
656.391	10675
656.742	10702.8
657.094	10724.72
657.445	10762.01
657.796	10838.61
658.147	10762.46
658.498	10766.52
658.849	10819.63
659.2	10847.88
659.551	10778.5
659.902	10835.68
660.253	10854.43
660.604	10916.8
660.955	10723.14
661.306	10799.74
661.656	10795.9
662.007	10798.61
662.358	10836.58
662.708	10832.51
663.059	10879.74
663.409	10756.81
663.76	10844.26
664.11	10817.14
664.461	10833.87
664.811	10816.47
665.161	10861.89
665.511	10832.96
665.862	10817.6
666.212	10893.3
666.562	10915
666.912	10932.62
667.262	10822.57
667.612	10847.88
667.962	10847.88
668.312	10840.42
668.662	10827.77
669.011	10903.24
669.361	10847.88
669.711	10866.64
670.06	10841.1
670.41	10784.83
670.76	10815.34
671.109	10815.79
671.459	10842.68
671.808	10779.63
672.157	10817.6
672.507	10733.08
672.856	10754.55
673.205	10772.63
673.554	10820.31
673.904	10689.69
674.253	10837.48
674.602	10752.97
674.951	10638.62
675.3	10552.29
675.649	10713.19
675.998	10766.07
676.346	10729.92
676.695	10741.21
677.044	10605.17
677.393	10655.12
677.741	10691.5
678.09	10616.47
678.438	10574.44
678.787	10622.12
679.135	10588.68
679.484	10494.22
679.832	10552.52
680.181	10469.13
680.529	10503.48
680.877	10475.46
681.225	10491.5
681.573	10538.73
681.922	10482.69
682.27	10439.53
682.618	10399.75
682.966	10422.81
683.314	10475.23
683.661	10422.81
684.009	10376.25
684.357	10376.25
684.705	10349.13
685.053	10270.72
685.4	10246.54
685.748	10204.05
686.095	10233.66
686.443	10178.07
686.79	10151.4
687.138	10130.61
687.485	10158.86
687.832	10119.31
688.18	10126.54
688.527	9998.64
688.874	10051.52
689.221	9963.16
689.568	9945.08
689.915	9952.31
690.262	9977.84
690.609	9866.21
690.956	9909.82
691.303	9820.79
691.65	9739.89
691.997	9760.22
692.344	9715.48
692.69	9643.39
693.037	9697.85
693.383	9580.34
693.73	9612.43
694.077	9565.65
694.423	9543.51
694.769	9537.4
695.116	9514.13
695.462	9434.81
695.808	9424.41
696.155	9407.46
696.501	9314.59
696.847	9349.16
697.193	9260.12
697.539	9283.63
697.885	9197.3
698.231	9213.12
698.577	9204.76
698.923	9168.83
699.269	9090.18
699.614	9054.25
699.96	9002.28
700.306	8987.59
700.651	9021.71
700.997	8936.74
701.342	8850.64
701.688	8833.92
702.033	8842.51
702.379	8851.77
702.724	8740.59
703.069	8782.4
703.415	8765.9
703.76	8774.49
704.105	8722.96
704.45	8632.8
704.795	8567.94
705.14	8551.44
705.485	8564.32
705.83	8495.17
706.175	8567.26
706.52	8464.44
706.865	8466.25
707.209	8388.96
707.554	8376.98
707.899	8372.24
708.243	8384.44
708.588	8318.91
708.932	8262.41
709.277	8247.27
709.621	8280.71
709.966	8235.52
710.31	8220.15
710.654	8135.41
710.998	8157.1
711.342	8148.97
711.687	8139.7
712.031	8096.31
712.375	8082.08
712.719	8076.88
713.063	8062.42
713.407	8064
713.75	8007.95
714.094	7976.77
714.438	7998.46
714.782	8006.82
715.125	7863.1
715.469	7947.84
715.812	7909.42
716.156	7881.18
716.499	7922.98
716.843	7882.98
717.186	7920.5
717.53	7868.97
717.873	7820.84
718.216	7827.85
718.559	7831.91
718.902	7797.11
719.246	7786.72
719.589	7756.43
719.932	7746.27
720.275	7688.87
720.617	7729.99
720.96	7686.15
721.303	7732.48
721.646	7713.95
721.989	7676.21
722.331	7732.48
722.674	7689.09
723.016	7665.36
723.359	7668.75
723.701	7677.57
724.044	7584.01
724.386	7591.92
724.729	7622.43
725.071	7620.39
725.413	7612.26
725.755	7647.28
726.097	7625.59
726.439	7595.99
726.782	7573.61
727.124	7629.66
727.465	7533.16
727.807	7517.8
728.149	7545.37
728.491	7557.8
728.833	7550.79
729.175	7532.26
729.516	7499.04
729.858	7499.49
730.199	7519.38
730.541	7465.59
730.882	7509.44
731.224	7554.41
731.565	7544.69
731.906	7549.21
732.248	7502.2
732.589	7480.28
732.93	7474.63
733.271	7521.19
733.612	7511.02
733.953	7519.83
734.294	7470.11
734.635	7516.21
734.976	7534.29
735.317	7499.27
735.658	7515.54
735.999	7513.28
736.339	7501.75
736.68	7519.38
737.021	7580.85
737.361	7526.84
737.702	7600.05
738.042	7495.88
738.383	7506.72
738.723	7569.32
739.063	7551.47
739.404	7630.11
739.744	7605.93
740.084	7571.58
740.424	7652.26
740.764	7582.65
741.104	7634.18
741.444	7598.02
741.784	7729.09
742.124	7688.19
742.464	7677.57
742.804	7755.98
743.143	7747.4
743.483	7783.1
743.823	7790.78
744.162	7815.64
744.502	7893.83
744.841	7864.91
745.181	7889.76
745.52	7912.59
745.86	7991
746.199	8035.07
746.538	8007.95
746.877	8073.49
747.216	8191.9
747.556	8172.69
747.895	8273.71
748.234	8229.19
748.573	8264.9
748.911	8365.91
749.25	8440.94
749.589	8435.29
749.928	8602.74
750.267	8634.6
750.605	8694.49
750.944	8775.16
751.283	8812.45
751.621	8923.64
751.96	8989.62
752.298	9069.62
752.636	9174.93
752.975	9243.85
753.313	9328.6
753.651	9449.05
753.989	9514.81
754.327	9637.97
754.666	9743.95
755.004	9866.21
755.342	10014.23
755.679	10131.97
756.017	10174.22
756.355	10378.96
756.693	10503.93
757.031	10688.56
757.368	10773.08
757.706	10862.79
758.044	11039.06
758.381	11189.56
758.719	11342.78
759.056	11524.25
759.394	11633.39
