Data from hue_250_FLMS001491_00088.txt Node
Date: Tue Feb 07 16:01:36 GMT 2017
User: dcchb
Spectrometer: FLMS00149
Trigger mode: 0
Integration Time (sec): 2.000000E-2
Scans to average: 10
Electric dark correction enabled: true
Nonlinearity correction enabled: false
Boxcar width: 0
XAxis mode: Wavelengths
Number of Pixels in Spectrum: 2048
>>>>>Begin Spectral Data<<<<<
341.393	-21.69
341.776	-21.69
342.16	-21.69
342.543	-54.46
342.927	-77.96
343.31	-72.31
343.693	-60.11
344.077	-61.24
344.46	-63.5
344.843	-38.64
345.226	-37.51
345.61	-28.7
345.993	-25.08
346.376	-14.46
346.759	17.63
347.142	14.46
347.525	40
347.908	62.6
348.291	77.74
348.674	75.03
349.057	114.12
349.44	121.58
349.823	138.53
350.206	159.77
350.588	190.28
350.971	179.2
351.354	230.05
351.737	227.34
352.119	257.39
352.502	263.95
352.884	270.95
353.267	261.91
353.65	298.98
354.032	283.83
354.414	304.17
354.797	290.16
355.179	311.18
355.562	317.05
355.944	329.26
356.326	319.77
356.709	327.22
357.091	325.64
357.473	325.87
357.855	331.29
358.238	302.14
358.62	334.45
359.002	329.48
359.384	351.63
359.766	305.75
360.148	323.61
360.53	324.96
360.912	337.17
361.294	337.39
361.676	309.6
362.057	308.01
362.439	316.6
362.821	327.45
363.203	317.96
363.584	336.49
363.966	317.96
364.348	329.26
364.729	305.98
365.111	289.94
365.493	301.01
365.874	321.12
366.256	306.88
366.637	320.44
367.019	306.43
367.4	292.87
367.781	313.44
368.163	294.91
368.544	317.73
368.925	330.39
369.306	318.41
369.688	297.62
370.069	291.07
370.45	313.44
370.831	287
371.212	301.69
371.593	288.35
371.974	282.93
372.355	300.56
372.736	324.51
373.117	311.18
373.498	305.98
373.879	304.4
374.26	303.95
374.641	322.03
375.021	280.67
375.402	307.56
375.783	309.6
376.163	324.29
376.544	329.26
376.925	315.92
377.305	328.35
377.686	308.69
378.066	324.74
378.447	331.29
378.827	324.06
379.208	314.34
379.588	312.53
379.968	324.29
380.349	319.09
380.729	321.57
381.109	332.19
381.489	328.35
381.87	327.68
382.25	329.71
382.63	336.71
383.01	334.23
383.39	328.35
383.77	318.18
384.15	325.19
384.53	327
384.91	332.19
385.29	334.45
385.67	348.92
386.049	337.84
386.429	365.87
386.809	347.34
387.189	365.19
387.568	334.45
387.948	357.73
388.328	343.72
388.707	362.25
389.087	351.18
389.466	329.71
389.846	394.34
390.225	349.6
390.605	366.32
390.984	340.1
391.363	348.24
391.743	343.95
392.122	367
392.501	352.08
392.881	357.5
393.26	360.22
393.639	382.59
394.018	378.97
394.397	370.39
394.776	381.23
395.155	390.27
395.534	398.86
395.913	381.23
396.292	385.53
396.671	398.41
397.05	391.63
397.429	382.14
397.808	399.09
398.186	398.18
398.565	381.23
398.944	389.14
399.323	403.15
399.701	399.99
400.08	399.31
400.458	401.12
400.837	405.64
401.215	414
401.594	433.43
401.972	412.42
402.351	397.05
402.729	424.62
403.107	429.82
403.486	417.16
403.864	430.27
404.242	423.94
404.62	441.34
404.999	437.95
405.377	425.3
405.755	422.81
406.133	446.32
406.511	447.67
406.889	440.21
407.267	452.87
407.645	459.2
408.023	469.37
408.401	477.05
408.779	493.77
409.156	485.18
409.534	484.73
409.912	494.22
410.29	503.49
410.667	526.31
411.045	520.89
411.422	496.94
411.8	520.89
412.178	507.33
412.555	520.66
412.933	530.38
413.31	549.59
413.687	550.95
414.065	544.62
414.442	563.38
414.819	550.27
415.197	574.67
415.574	573.77
415.951	580.1
416.328	585.07
416.705	605.41
417.082	625.75
417.46	579.87
417.837	635.46
418.214	635.01
418.591	608.57
418.967	619.19
419.344	631.85
419.721	657.38
420.098	651.28
420.475	663.94
420.852	668.68
421.228	685.18
421.605	652.41
421.982	708.68
422.358	712.98
422.735	709.36
423.111	707.1
423.488	748.23
423.864	737.61
424.241	751.62
424.617	781.9
424.994	779.19
425.37	775.57
425.746	805.18
426.123	779.41
426.499	811.96
426.875	805.63
427.251	815.8
427.627	829.36
428.003	835.23
428.379	842.92
428.756	869.58
429.132	866.42
429.507	892.63
429.883	884.27
430.259	905.96
430.635	890.15
431.011	899.86
431.387	927.66
431.763	942.35
432.138	956.13
432.514	966.98
432.89	964.27
433.265	990.71
433.641	980.31
434.016	1020.31
434.392	1042.01
434.767	1064.15
435.143	1066.19
435.518	1082.23
435.894	1101.67
436.269	1105.73
436.644	1122.68
437.02	1168.78
437.395	1129.01
437.77	1161.55
438.145	1188.44
438.52	1206.52
438.895	1204.71
439.271	1228.67
439.646	1259.63
440.021	1243.58
440.395	1254.88
440.77	1270.02
441.145	1286.97
441.52	1332.62
441.895	1314.09
442.27	1341.89
442.645	1351.6
443.019	1368.33
443.394	1378.72
443.769	1391.15
444.143	1378.95
444.518	1392.28
444.892	1396.35
445.267	1396.8
445.641	1442.9
446.016	1449.45
446.39	1474.99
446.764	1456.46
447.139	1428.89
447.513	1489.68
447.887	1506.18
448.262	1490.58
448.636	1523.12
449.01	1496.01
449.384	1549.34
449.758	1526.29
450.132	1561.77
450.506	1568.55
450.88	1564.25
451.254	1576
451.628	1592.05
452.002	1613.29
452.376	1641.31
452.75	1642.44
453.123	1654.42
453.497	1682.44
453.871	1686.28
454.244	1709.56
454.618	1719.28
454.992	1760.41
455.365	1735.32
455.739	1799.95
456.112	1816.45
456.486	1814.42
456.859	1821.42
457.232	1838.82
457.606	1876.56
457.979	1863
458.352	1900.29
458.725	1947.75
459.099	1964.69
459.472	1995.2
459.845	2008.53
460.218	2018.7
460.591	2029.55
460.964	2041.75
461.337	2068.19
461.71	2120.17
462.083	2115.2
462.456	2154.52
462.829	2160.62
463.201	2189.32
463.574	2169.89
463.947	2229.32
464.32	2241.3
464.692	2272.03
465.065	2311.13
465.438	2317.45
465.81	2344.57
466.183	2368.75
466.555	2403.55
466.928	2400.61
467.3	2435.64
467.672	2498.47
468.045	2503.66
468.417	2543.89
468.789	2528.3
469.161	2564.23
469.534	2607.16
469.906	2642.87
470.278	2662.75
470.65	2663.43
471.022	2735.52
471.394	2827.95
471.766	2796.76
472.138	2844.67
472.51	2860.49
472.882	2920.15
473.253	2959.92
473.625	2963.31
473.997	3035.17
474.369	3038.79
474.74	3086.25
475.112	3166.92
475.484	3181.39
475.855	3226.13
476.227	3236.07
476.598	3302.29
476.97	3295.28
477.341	3420.48
477.713	3458.89
478.084	3439.68
478.455	3558.78
478.827	3596.52
479.198	3645.1
479.569	3671.09
479.94	3757.19
480.311	3785.44
480.682	3850.75
481.053	3928.48
481.424	3966.9
481.795	4005.09
482.166	4087.35
482.537	4118.54
482.908	4191.08
483.279	4203.05
483.65	4282.6
484.021	4377.96
484.391	4348.36
484.762	4425.87
485.133	4437.4
485.503	4519.2
485.874	4597.62
486.244	4585.87
486.615	4683.27
486.985	4763.49
487.356	4826.31
487.726	4861.12
488.097	4914.9
488.467	4976.37
488.837	5044.61
489.207	5103.59
489.578	5149.92
489.948	5182.46
490.318	5236.7
490.688	5237.15
491.058	5309.01
491.428	5404.15
491.798	5455.68
492.168	5534.54
492.538	5520.08
492.908	5621.55
493.278	5663.81
493.648	5631.94
494.017	5706.97
494.387	5748.78
494.757	5823.58
495.126	5804.59
495.496	5867.42
495.866	5879.39
496.235	5927.08
496.605	5947.87
496.974	5987.19
497.344	6010.01
497.713	6118.26
498.082	6114.64
498.452	6165.49
498.821	6131.36
499.19	6189.22
499.559	6266.73
499.928	6292.94
500.298	6284.13
500.667	6344.01
501.036	6322.09
501.405	6404.8
501.774	6352.15
502.143	6443.22
502.512	6407.52
502.88	6459.94
503.249	6498.36
503.618	6515.31
503.987	6549.66
504.356	6547.62
504.724	6551.69
505.093	6647.73
505.462	6567.28
505.83	6666.94
506.199	6655.19
506.567	6800.73
506.936	6767.73
507.304	6823.32
507.672	6807.96
508.041	6844.79
508.409	6850.44
508.777	6899.25
509.145	6912.13
509.514	6928.63
509.882	7023.54
510.25	6958.91
510.618	6994.17
510.986	7028.29
511.354	7071.45
511.722	7090.66
512.09	7144.9
512.458	7076.42
512.826	7148.51
513.193	7200.71
513.561	7223.54
513.929	7179.02
514.297	7204.56
514.664	7279.58
515.032	7294.27
515.4	7268.51
515.767	7339.02
516.135	7316.64
516.502	7288.85
516.869	7322.29
517.237	7382.4
517.604	7325.91
517.972	7418.11
518.339	7507.37
518.706	7397.77
519.073	7482.06
519.44	7529.29
519.808	7511.44
520.175	7498.56
520.542	7586.69
520.909	7562.29
521.276	7579.24
521.643	7564.32
522.009	7638.9
522.376	7618.56
522.743	7696.52
523.11	7699.23
523.477	7808.38
523.843	7747.82
524.21	7846.8
524.577	7806.35
524.943	7868.27
525.31	7905.1
525.676	7915.27
526.043	7899.91
526.409	7906.01
526.776	8018.77
527.142	7953.01
527.508	7974.25
527.874	7971.09
528.241	7994.59
528.607	8012.9
528.973	8031.2
529.339	8034.37
529.705	8070.97
530.071	8122.5
530.437	8123.18
530.803	8161.37
531.169	8193.91
531.535	8101.03
531.901	8125.66
532.267	8072.33
532.632	8162.27
532.998	8162.27
533.364	8202.72
533.73	8204.08
534.095	8230.29
534.461	8205.43
534.826	8263.29
535.192	8228.71
535.557	8222.16
535.923	8212.44
536.288	8251.08
536.653	8282.04
537.019	8166.11
537.384	8220.35
537.749	8169.05
538.114	8224.42
538.479	8204.3
538.845	8229.39
539.21	8170.18
539.575	8218.09
539.94	8167.47
540.305	8242.5
540.67	8146.9
541.034	8154.36
541.399	8244.98
541.764	8188.49
542.129	8229.16
542.494	8163.85
542.858	8183.29
543.223	8217.86
543.587	8186.45
543.952	8144.64
544.316	8142.84
544.681	8150.52
545.045	8172.21
545.41	8204.53
545.774	8160.69
546.138	8153.91
546.503	8146.45
546.867	8119.79
547.231	8210.86
547.595	8209.73
547.959	8216.73
548.324	8129.5
548.688	8154.59
549.052	8171.99
549.416	8099.45
549.779	8156.17
550.143	8155.04
550.507	8125.66
550.871	8157.75
551.235	8114.14
551.599	8129.05
551.962	8184.87
552.326	8157.53
552.689	8158.66
553.053	8124.98
553.417	8161.82
553.78	8169.95
554.143	8099.45
554.507	8102.16
554.87	8218.77
555.234	8196.85
555.597	8109.17
555.96	8200.24
556.323	8175.6
556.686	8176.96
557.05	8187.81
557.413	8214.25
557.776	8258.09
558.139	8287.47
558.502	8276.84
558.865	8278.88
559.228	8326.79
559.59	8241.37
559.953	8274.13
560.316	8321.59
560.679	8310.52
561.041	8340.35
561.404	8398.65
561.767	8370.85
562.129	8392.77
562.492	8443.62
562.854	8424.64
563.217	8425.32
563.579	8447.91
563.941	8502.83
564.304	8487.91
564.666	8552.09
565.028	8537.85
565.39	8613.78
565.753	8580.79
566.115	8583.5
566.477	8666.21
566.839	8655.59
567.201	8731.97
567.563	8660.79
567.925	8717.74
568.287	8769.26
568.648	8740.56
569.01	8761.13
569.372	8823.95
569.734	8768.81
570.095	8832.31
570.457	8882.25
570.819	8897.39
571.18	8850.39
571.542	8941.46
571.903	8835.02
572.265	8928.35
572.626	8955.47
572.987	8966.32
573.349	8945.98
573.71	9060.78
574.071	9017.16
574.432	9094
574.794	9209.93
575.155	9179.65
575.516	9137.39
575.877	9190.49
576.238	9164.28
576.599	9121.79
576.96	9211.51
577.32	9201.57
577.681	9270.94
578.042	9274.11
578.403	9240.43
578.763	9349.13
579.124	9343.03
579.485	9357.04
579.845	9345.29
580.206	9467.1
580.566	9366.08
580.927	9390.26
581.287	9442.46
581.648	9390.04
582.008	9496.02
582.368	9528.56
582.728	9474.55
583.089	9502.35
583.449	9503.48
583.809	9476.81
584.169	9569.01
584.529	9576.47
584.889	9609.46
585.249	9580.09
585.609	9579.41
585.969	9536.25
586.329	9607.43
586.688	9625.06
587.048	9584.15
587.408	9548.68
587.768	9609.46
588.127	9696.24
588.487	9559.97
588.846	9723.36
589.206	9625.28
589.565	9648.11
589.925	9690.59
590.284	9662.8
590.643	9715
591.003	9725.85
591.362	9812.4
591.721	9756.58
592.08	9762.68
592.44	9777.6
592.799	9776.69
593.158	9778.95
593.517	9744.15
593.876	9809.91
594.235	9810.59
594.593	9771.04
594.952	9810.82
595.311	9795
595.67	9796.58
596.029	9931.49
596.387	9903.92
596.746	9828.89
597.104	9845.16
597.463	9846.07
597.822	9896.01
598.18	9891.72
598.538	9848.33
598.897	9934.65
599.255	9874.09
599.613	9969.46
599.972	9860.31
600.33	9944.6
600.688	9882
601.046	9894.43
601.404	9984.82
601.762	9918.16
602.12	9993.86
602.478	9977.36
602.836	10031.83
603.194	9895.56
603.552	9971.04
603.91	9966.74
604.268	9978.49
604.625	9976.46
604.983	10061.2
605.341	10006.06
605.698	10052.84
606.056	10001.54
606.413	9962.68
606.771	10043.35
607.128	10010.13
607.485	10070.7
607.843	9994.99
608.2	10061.2
608.557	10080.41
608.914	10035.67
609.272	10086.97
609.629	10124.48
609.986	10102.79
610.343	10057.36
610.7	10187.53
611.057	10145.04
611.414	10189.56
611.771	10269.56
612.127	10203.8
612.484	10233.86
612.841	10203.12
613.198	10209
613.554	10206.29
613.911	10250.13
614.267	10239.28
614.624	10273.63
614.98	10197.25
615.337	10376.22
615.693	10200.41
616.05	10273.63
616.406	10248.09
616.762	10313.85
617.118	10321.99
617.475	10300.97
617.831	10281.54
618.187	10313.18
618.543	10344.36
618.899	10330.8
619.255	10331.71
619.611	10407.18
619.967	10344.59
620.323	10435.43
620.678	10363.12
621.034	10324.93
621.39	10370.35
621.746	10313.4
622.101	10457.13
622.457	10383
622.812	10354.08
623.168	10393.85
623.523	10407.86
623.879	10440.86
624.234	10380.07
624.589	10403.79
624.945	10370.8
625.3	10457.13
625.655	10386.85
626.01	10343.46
626.365	10362.21
626.72	10312.5
627.075	10378.03
627.43	10424.13
627.785	10308.2
628.14	10393.17
628.495	10391.37
628.85	10335.32
629.205	10300.29
629.559	10357.24
629.914	10302.78
630.269	10317.92
630.623	10305.27
630.978	10205.83
631.332	10349.11
631.687	10377.58
632.041	10300.97
632.396	10267.75
632.75	10199.51
633.104	10186.17
633.459	10222.33
633.813	10123.8
634.167	10169.68
634.521	10244.02
634.875	10185.72
635.229	10110.47
635.583	10089.45
635.937	10081.32
636.291	10072.28
636.645	10123.58
636.999	10049.23
637.352	10060.98
637.706	10030.92
638.06	10082.45
638.413	9998.83
638.767	10076.8
639.121	10044.93
639.474	9961.77
639.828	9977.82
640.181	9969.46
640.534	9969
640.888	9933.3
641.241	9941.21
641.594	9891.94
641.947	9919.06
642.301	9912.51
642.654	9888.1
643.007	9938.27
643.36	9938.72
643.713	9828.44
644.066	9893.75
644.419	9806.52
644.771	9791.38
645.124	9740.76
645.477	9762
645.83	9700.31
646.182	9652.4
646.535	9595.45
646.888	9595.23
647.24	9520.65
647.593	9576.7
647.945	9569.92
648.298	9523.82
648.65	9465.29
649.002	9446.31
649.355	9598.17
649.707	9541.22
650.059	9586.41
650.411	9678.62
650.763	9657.37
651.115	9763.81
651.467	9678.84
651.819	9689.91
652.171	9708.9
652.523	9676.58
652.875	9654.21
653.227	9640.2
653.578	9659.63
653.93	9764.49
654.282	9650.14
654.633	9686.3
654.985	9662.8
655.337	9726.98
655.688	9689.69
656.039	9680.65
656.391	9660.08
656.742	9662.8
657.094	9643.81
657.445	9711.84
657.796	9717.26
658.147	9650.82
658.498	9639.97
658.849	9684.49
659.2	9680.42
659.551	9634.55
659.902	9661.44
660.253	9652.18
660.604	9622.35
660.955	9643.14
661.306	9666.86
661.656	9652.63
662.007	9683.36
662.358	9632.29
662.708	9627.77
663.059	9658.5
663.409	9607.21
663.76	9670.03
664.11	9598.84
664.461	9695.79
664.811	9557.94
665.161	9616.7
665.511	9666.41
665.862	9613.53
666.212	9651.72
666.562	9709.35
666.912	9649.69
667.262	9630.93
667.612	9592.97
667.962	9644.27
668.312	9648.11
668.662	9663.25
669.011	9705.28
669.361	9645.4
669.711	9653.53
670.06	9615.34
670.41	9559.52
670.76	9602.91
671.109	9648.79
671.459	9596.81
671.808	9562.69
672.157	9596.58
672.507	9546.87
672.856	9500.99
673.205	9591.16
673.554	9598.84
673.904	9570.6
674.253	9515.68
674.602	9481.33
674.951	9431.62
675.3	9397.04
675.649	9547.32
675.998	9432.07
676.346	9487.89
676.695	9500.77
677.044	9390.04
677.393	9418.74
677.741	9475.91
678.09	9400.43
678.438	9343.94
678.787	9409.92
679.135	9477.04
679.484	9299.64
679.832	9427.32
680.181	9318.85
680.529	9364.5
680.877	9379.64
681.225	9351.62
681.573	9392.75
681.922	9353.43
682.27	9282.02
682.618	9292.19
682.966	9265.07
683.314	9285.18
683.661	9239.98
684.009	9166.31
684.357	9109.36
684.705	9140.55
685.053	9158.63
685.4	9188.01
685.748	9095.81
686.095	9077.5
686.443	8998.18
686.79	9037.28
687.138	9091.29
687.485	9130.83
687.832	9022.59
688.18	9009.71
688.527	8978.07
688.874	8990.72
689.221	8959.99
689.568	8877.05
689.915	8918.18
690.262	8851.97
690.609	8870.05
690.956	8789.37
691.303	8776.04
691.65	8706.44
691.997	8731.52
692.344	8680
692.69	8692.2
693.037	8641.13
693.383	8551.19
693.73	8579.89
694.077	8539.89
694.423	8547.35
694.769	8478.2
695.116	8418.08
695.462	8441.13
695.808	8427.12
696.155	8457.18
696.501	8384.19
696.847	8396.16
697.193	8315.04
697.539	8300.12
697.885	8277.3
698.231	8197.98
698.577	8195.94
698.923	8211.31
699.269	8178.77
699.614	8116.85
699.96	8122.95
700.306	8094.48
700.651	8042.73
700.997	8018.32
701.342	8059.22
701.688	8054.48
702.033	7934.93
702.379	8011.09
702.724	7942.62
703.069	7917.53
703.415	7841.6
703.76	7904.2
704.105	7836.63
704.45	7828.72
704.795	7825.56
705.14	7788.27
705.485	7765.67
705.83	7696.97
706.175	7736.52
706.52	7685.67
706.865	7652
707.209	7587.6
707.554	7576.07
707.899	7614.94
708.243	7516.19
708.588	7496.98
708.932	7529.29
709.277	7500.37
709.621	7444.1
709.966	7360.94
710.31	7422.86
710.654	7402.52
710.998	7386.47
711.342	7360.26
711.687	7395.51
712.031	7319.81
712.375	7336.76
712.719	7336.76
713.063	7279.13
713.407	7316.19
713.75	7239.36
714.094	7263.09
714.438	7251.11
714.782	7284.1
715.125	7190.55
715.469	7251.33
715.812	7224.67
716.156	7143.77
716.499	7166.59
716.843	7159.59
717.186	7124.78
717.53	7159.81
717.873	7172.47
718.216	7044.79
718.559	7080.27
718.902	7038.68
719.246	7056.31
719.589	7027.39
719.932	6949.87
720.275	6996.88
720.617	7052.02
720.96	7002.08
721.303	6979.48
721.646	6990.32
721.989	6948.07
722.331	6969.31
722.674	6971.79
723.016	6879.14
723.359	6997.56
723.701	6941.51
724.044	6953.72
724.386	6869.88
724.729	6926.82
725.071	6883.43
725.413	6870.55
725.755	6896.09
726.097	6858.12
726.439	6829.65
726.782	6779.26
727.124	6903.32
727.465	6820.84
727.807	6844.34
728.149	6820.84
728.491	6831.23
728.833	6825.36
729.175	6789.2
729.516	6813.15
729.858	6750.33
730.199	6881.17
730.541	6825.36
730.882	6807.28
731.224	6835.53
731.565	6783.1
731.906	6772.93
732.248	6833.04
732.589	6774.74
732.93	6735.42
733.271	6760.95
733.612	6732.48
733.953	6709.2
734.294	6742.2
734.635	6694.51
734.976	6765.25
735.317	6739.71
735.658	6692.03
735.999	6767.73
736.339	6731.57
736.68	6738.35
737.021	6727.05
737.361	6765.47
737.702	6773.38
738.042	6695.42
738.383	6732.03
738.723	6737
739.063	6725.92
739.404	6801.63
739.744	6724.12
740.084	6718.24
740.424	6742.87
740.764	6769.77
741.104	6845.24
741.444	6779.03
741.784	6777.45
742.124	6829.65
742.464	6768.18
742.804	6758.92
743.143	6789.65
743.483	6840.27
743.823	6741.97
744.162	6802.76
744.502	6824.23
744.841	6821.52
745.181	6871.46
745.52	6885.24
745.86	6904.23
746.199	6927.05
746.538	6912.59
746.877	6993.26
747.216	7011.12
747.556	6991.91
747.895	7033.49
748.234	7081.85
748.573	7091.79
748.911	7148.29
749.25	7221.51
749.589	7218.12
749.928	7225.57
750.267	7336.3
750.605	7373.14
750.944	7393.03
751.283	7349.64
751.621	7484.55
751.96	7458.11
752.298	7540.14
752.636	7644.54
752.975	7659.91
753.313	7724.09
753.651	7810.87
753.989	7879.34
754.327	7983.07
754.666	7964.99
755.004	8140.12
755.342	8206.79
755.679	8230.07
756.017	8254.7
756.355	8356.39
756.693	8477.52
757.031	8658.08
757.368	8594.12
757.706	8721.58
758.044	8781.24
758.381	8927.9
758.719	9066.2
759.056	9199.08
759.394	9186.2
759.731	9218.97
760.068	9410.83
760.405	9399.3
760.743	9556.36
761.08	9683.81
761.417	9728.78
761.754	9791.83
762.091	9949.12
762.428	10018.72
762.765	10137.13
763.102	10296
763.438	10338.49
763.775	10421.42
764.112	10559.5
764.449	10640.85
764.785	10794.74
765.122	10767.17
765.458	10881.75
765.795	11017.34
766.131	11067.05
766.467	11165.58
766.804	11194.51
767.14	11281.51
767.476	11389.31
767.812	11496.42
