Data from hue_320_FLMS001491_9.txt Node
Date: Mon Feb 06 15:46:37 GMT 2017
User: dcchb
Spectrometer: FLMS00149
Trigger mode: 0
Integration Time (sec): 2.000000E-2
Scans to average: 10
Electric dark correction enabled: true
Nonlinearity correction enabled: false
Boxcar width: 0
XAxis mode: Wavelengths
Number of Pixels in Spectrum: 2048
>>>>>Begin Spectral Data<<<<<
341.393	-9.46
341.776	-9.46
342.16	-9.46
342.543	-69.57
342.927	-63.92
343.31	-54.66
343.693	-84.94
344.077	-57.37
344.46	-56.02
344.843	-50.82
345.226	-41.55
345.61	-29.35
345.993	-9.91
346.376	-5.17
346.759	21.5
347.142	16.75
347.525	37.99
347.908	32.8
348.291	70.53
348.674	98.78
349.057	111.44
349.44	107.6
349.823	143.98
350.206	164.32
350.588	205.22
350.971	210.19
351.354	216.97
351.737	235.95
352.119	238.21
352.502	267.37
352.884	294.71
353.267	308.95
353.65	277.08
354.032	301.94
354.414	322.51
354.797	332.9
355.179	316.18
355.562	324.99
355.944	318.44
356.326	323.64
356.709	351.21
357.091	351.43
357.473	337.65
357.855	364.76
358.238	336.74
358.62	331.32
359.002	333.13
359.384	333.8
359.766	343.75
360.148	329.96
360.53	334.48
360.912	322.05
361.294	347.59
361.676	342.84
362.057	352.79
362.439	344.88
362.821	322.73
363.203	329.29
363.584	329.74
363.966	317.99
364.348	330.42
364.729	323.41
365.111	313.69
365.493	331.32
365.874	314.6
366.256	329.51
366.637	309.4
367.019	308.72
367.4	329.96
367.781	312.56
368.163	317.53
368.544	313.24
368.925	303.98
369.306	330.42
369.688	312.34
370.069	322.05
370.45	308.27
370.831	310.53
371.212	308.95
371.593	309.62
371.974	329.74
372.355	319.34
372.736	332
373.117	318.21
373.498	313.92
373.879	340.36
374.26	301.72
374.641	319.12
375.021	324.77
375.402	342.62
375.783	320.02
376.163	326.8
376.544	329.74
376.925	344.88
377.305	332.22
377.686	326.57
378.066	317.76
378.447	329.51
378.827	345.33
379.208	335.39
379.588	339.91
379.968	330.87
380.349	331.09
380.729	337.65
381.109	344.2
381.489	335.61
381.87	339.45
382.25	354.6
382.63	323.86
383.01	331.09
383.39	347.36
383.77	347.82
384.15	350.3
384.53	352.34
384.91	343.75
385.29	335.84
385.67	357.08
386.049	338.1
386.429	334.48
386.809	353.47
387.189	346.91
387.568	355.27
387.948	370.64
388.328	353.92
388.707	358.21
389.087	385.55
389.466	374.03
389.846	368.38
390.225	389.17
390.605	383.75
390.984	369.74
391.363	362.73
391.743	376.52
392.122	372.45
392.501	365.89
392.881	377.87
393.26	384.65
393.639	389.62
394.018	384.88
394.397	380.81
394.776	368.83
395.155	372.9
395.534	382.17
395.913	379.68
396.292	375.61
396.671	381.26
397.05	411.09
397.429	395.95
397.808	383.07
398.186	397.53
398.565	409.51
398.944	412.9
399.323	391.43
399.701	377.65
400.08	399.57
400.458	421.71
400.837	421.26
401.215	407.7
401.594	407.7
401.972	418.77
402.351	414.71
402.729	408.38
403.107	409.51
403.486	416.06
403.864	441.6
404.242	429.85
404.62	431.2
404.999	439.34
405.377	447.7
405.755	428.04
406.133	450.64
406.511	441.15
406.889	464.2
407.267	450.64
407.645	455.84
408.023	475.72
408.401	477.08
408.779	494.93
409.156	475.27
409.534	488.6
409.912	493.57
410.29	502.39
410.667	497.87
411.045	485.67
411.422	521.82
411.8	502.16
412.178	515.95
412.555	544.19
412.933	541.71
413.31	552.33
413.687	543.06
414.065	566.34
414.442	565.44
414.819	562.95
415.197	576.28
415.574	588.49
415.951	579.67
416.328	583.74
416.705	578.77
417.082	629.39
417.46	607.92
417.837	626.23
418.214	634.59
418.591	628.26
418.967	628.03
419.344	621.71
419.721	634.59
420.098	646.11
420.475	661.25
420.852	683.17
421.228	684.53
421.605	690.86
421.982	684.08
422.358	720.69
422.735	733.12
423.111	688.82
423.488	712.78
423.864	723.63
424.241	748.03
424.617	736.51
424.994	751.42
425.37	786
425.746	753.68
426.123	784.64
426.499	761.36
426.875	758.43
427.251	772.44
427.627	795.71
428.003	806.33
428.379	818.54
428.756	841.36
429.132	836.84
429.507	811.76
429.883	842.27
430.259	850.63
430.635	874.13
431.011	896.95
431.387	884.75
431.763	905.54
432.138	898.54
432.514	922.04
432.89	907.8
433.265	951.19
433.641	943.28
434.016	979.89
434.392	976.05
434.767	978.76
435.143	1002.71
435.518	983.05
435.894	997.97
436.269	1005.65
436.644	1027.35
437.02	1038.19
437.395	1025.31
437.77	1023.28
438.145	1084.75
438.52	1072.77
438.895	1067.12
439.271	1087.46
439.646	1095.37
440.021	1109.83
440.395	1083.16
440.77	1077.29
441.145	1115.93
441.52	1121.13
441.895	1127.68
442.27	1124.29
442.645	1144.86
443.019	1124.29
443.394	1154.12
443.769	1170.84
444.143	1149.6
444.518	1174.46
444.892	1175.14
445.267	1189.6
445.641	1178.53
446.016	1187.79
446.39	1208.13
446.764	1216.72
447.139	1185.08
447.513	1208.13
447.887	1212.2
448.262	1206.55
448.636	1201.13
449.01	1232.09
449.384	1243.61
449.758	1238.41
450.132	1249.03
450.506	1225.53
450.88	1262.14
451.254	1285.19
451.628	1254.68
452.002	1268.47
452.376	1281.35
452.75	1306.66
453.123	1294.68
453.497	1288.36
453.871	1331.07
454.244	1353.21
454.618	1361.35
454.992	1361.12
455.365	1369.48
455.739	1375.36
456.112	1385.75
456.486	1381.46
456.859	1424.85
457.232	1411.06
457.606	1420.1
457.979	1429.82
458.352	1446.54
458.725	1451.29
459.099	1467.79
459.472	1508.69
459.845	1493.1
460.218	1514.11
460.591	1480.89
460.964	1499.65
461.337	1522.25
461.71	1555.02
462.083	1567.9
462.456	1585.3
462.829	1588.01
463.201	1606.99
463.574	1572.42
463.947	1614.9
464.32	1650.38
464.692	1642.7
465.065	1655.35
465.438	1664.62
465.81	1687.44
466.183	1697.16
466.555	1714.11
466.928	1726.99
467.3	1730.6
467.672	1759.3
468.045	1782.81
468.417	1803.6
468.789	1803.6
469.161	1791.85
469.534	1831.84
469.906	1849.02
470.278	1849.02
470.65	1890.83
471.022	1910.03
471.394	1913.88
471.766	1934.67
472.138	1984.83
472.51	1989.13
472.882	2015.57
473.253	2024.61
473.625	2037.71
473.997	2082.23
474.369	2111.84
474.74	2104.61
475.112	2097.83
475.484	2164.94
475.855	2158.62
476.227	2193.19
476.598	2238.84
476.97	2218.73
477.341	2259.86
477.713	2278.61
478.084	2294.43
478.455	2364.49
478.827	2380.3
479.198	2436.12
479.569	2445.84
479.94	2524.26
480.311	2511.83
480.682	2533.52
481.053	2567.19
481.424	2601.09
481.795	2651.03
482.166	2656
482.537	2673.86
482.908	2685.16
483.279	2770.35
483.65	2768.54
484.021	2828.2
484.391	2843.8
484.762	2896.9
485.133	2894.87
485.503	2926.73
485.874	2968.09
486.244	2989.55
486.615	3003.57
486.985	3010.57
487.356	3103.9
487.726	3130.34
488.097	3191.13
488.467	3169.89
488.837	3217.57
489.207	3247.4
489.578	3305.93
489.948	3330.11
490.318	3324.91
490.688	3322.43
491.058	3349.32
491.428	3409.2
491.798	3446.04
492.168	3515.19
492.538	3484.91
492.908	3497.34
493.278	3569.88
493.648	3580.27
494.017	3621.85
494.387	3653.49
494.757	3642.42
495.126	3691.68
495.496	3713.83
495.866	3756.99
496.235	3734.39
496.605	3774.84
496.974	3817.78
497.344	3770.1
497.713	3839.02
498.082	3811.91
498.452	3936.42
498.821	3907.5
499.19	3931.45
499.559	3991.56
499.928	4002.41
500.298	3970.55
500.667	3985.69
501.036	4000.6
501.405	4050.54
501.774	3965.57
502.143	4044.89
502.512	4068.62
502.88	4110.88
503.249	4058.45
503.618	4130.32
503.987	4099.13
504.356	4142.52
504.724	4177.09
505.093	4182.74
505.462	4157.66
505.83	4193.82
506.199	4195.17
506.567	4293.25
506.936	4278.56
507.304	4309.29
507.672	4258.9
508.041	4320.82
508.409	4335.96
508.777	4351.1
509.145	4341.61
509.514	4360.59
509.882	4410.99
510.25	4367.37
510.618	4420.7
510.986	4453.02
511.354	4474.03
511.722	4521.27
512.09	4514.26
512.458	4453.7
512.826	4510.87
513.193	4509.29
513.561	4518.1
513.929	4560.81
514.297	4600.81
514.664	4621.38
515.032	4628.38
515.4	4575.5
515.767	4669.74
516.135	4647.82
516.502	4624.99
516.869	4743.41
517.237	4686.91
517.604	4683.52
517.972	4704.76
518.339	4758.77
518.706	4754.25
519.073	4721.71
519.44	4779.11
519.808	4790.64
520.175	4740.02
520.542	4808.94
520.909	4848.26
521.276	4863.63
521.643	4895.04
522.009	4927.13
522.376	4931.2
522.743	4949.73
523.11	4985.89
523.477	5008.26
523.843	5014.59
524.21	5064.3
524.577	5056.84
524.943	5086.45
525.31	5073.57
525.676	5113.79
526.043	5120.57
526.409	5230.63
526.776	5248.48
527.142	5227.24
527.508	5253.22
527.874	5234.92
528.241	5301.81
528.607	5291.64
528.973	5351.07
529.339	5380
529.705	5382.26
530.071	5431.07
530.437	5449.15
530.803	5502.26
531.169	5529.37
531.535	5477.62
531.901	5548.13
532.267	5590.16
532.632	5596.04
532.998	5607.56
533.364	5600.11
533.73	5636.94
534.095	5654.34
534.461	5698.18
534.826	5758.97
535.192	5746.77
535.557	5752.19
535.923	5768.01
536.288	5810.5
536.653	5851.63
537.019	5843.94
537.384	5826.32
537.749	5887.56
538.114	5925.3
538.479	5937.5
538.845	5960.78
539.21	5964.84
539.575	6002.58
539.94	5985.63
540.305	6089.13
540.67	6035.12
541.034	6108.12
541.399	6131.84
541.764	6129.81
542.129	6165.97
542.494	6215.01
542.858	6222.24
543.223	6276.25
543.587	6285.74
543.952	6246.64
544.316	6304.04
544.681	6294.55
545.045	6352.86
545.41	6411.61
545.774	6405.96
546.138	6426.07
546.503	6454.1
546.867	6464.04
547.231	6463.81
547.595	6568.9
547.959	6580.65
548.324	6504.72
548.688	6570.25
549.052	6622.23
549.416	6636.92
549.779	6674.43
550.143	6685.95
550.507	6726.63
550.871	6755.33
551.235	6699.97
551.599	6742.68
551.962	6762.34
552.326	6760.75
552.689	6837.59
553.053	6842.79
553.417	6848.66
553.78	6939.73
554.143	6891.15
554.507	6943.12
554.87	6972.73
555.234	7027.41
555.597	6970.69
555.96	7013.18
556.323	7067.64
556.686	7051.14
557.05	7065.15
557.413	7024.25
557.776	7095.66
558.139	7108.09
558.502	7132.27
558.865	7195.77
559.228	7279.84
559.59	7290.46
559.953	7248.43
560.316	7307.18
560.679	7295.66
561.041	7361.19
561.404	7410.68
561.767	7364.35
562.129	7433.51
562.492	7511.24
562.854	7467.4
563.217	7454.97
563.579	7516.67
563.941	7587.4
564.304	7600.73
564.666	7541.52
565.028	7645.93
565.39	7639.15
565.753	7678.24
566.115	7664.46
566.477	7709.2
566.839	7684.12
567.201	7725.47
567.563	7820.84
567.925	7847.73
568.287	7875.75
568.648	7789.43
569.01	7944
569.372	7950.55
569.734	7949.2
570.095	7952.81
570.457	8063.77
570.819	8061.29
571.18	8052.92
571.542	8184.22
571.903	8169.98
572.265	8223.77
572.626	8270.09
572.987	8259.47
573.349	8363.2
573.71	8419.02
574.071	8470.31
574.432	8555.28
574.794	8652.91
575.155	8656.98
575.516	8643.87
575.877	8733.36
576.238	8763.41
576.599	8820.81
576.96	8923.64
577.32	8981.71
577.681	9056.29
578.042	9230.29
578.403	9326.11
578.763	9315.49
579.124	9402.49
579.485	9560.23
579.845	9719.77
580.206	9742.14
580.566	9813.1
580.927	9950.05
581.287	10135.13
581.648	10186.2
582.008	10411.73
582.368	10588.68
582.728	10688.79
583.089	10825.96
583.449	11016.69
583.809	11167.19
584.169	11345.04
584.529	11509.56
584.889	11771.47
585.249	11904.8
585.609	12110.44
585.969	12404.9
586.329	12577.78
586.688	12816.19
587.048	13045.56
587.408	13268.83
587.768	13555.6
588.127	13821.36
588.487	14012.99
588.846	14332.98
589.206	14488.91
589.565	14858.62
589.925	15167.77
590.284	15451.6
590.643	15750.12
591.003	16067.18
591.362	16325.47
591.721	16548.97
592.08	16894.27
592.44	17173.59
592.799	17555.72
593.158	17823.97
593.517	18151.64
593.876	18458.53
594.235	18716.37
594.593	19024.84
594.952	19395.45
595.311	19732.39
595.67	20056
596.029	20532.6
596.387	20782.08
596.746	21128.06
597.104	21333.7
597.463	21763.07
597.822	22202.83
598.18	22392.66
598.538	22662.26
598.897	23184.96
599.255	23211.85
599.613	23925.5
599.972	23970.02
600.33	24348.99
600.688	24489.55
601.046	24980.16
601.404	25454.73
601.762	25579.24
602.12	25962.06
602.478	26261.94
602.836	26562.04
603.194	26735.14
603.552	27041.35
603.91	27264.85
604.268	27797.94
604.625	27881.33
604.983	28289.23
605.341	28376.46
605.698	28926.27
606.056	29122.88
606.413	29314.29
606.771	29666.14
607.128	29952.91
607.485	30138.44
607.843	30414.6
608.2	30825.43
608.557	31112.88
608.914	31162.6
609.272	31518.07
609.629	31824.28
609.986	32224.04
610.343	32187.66
610.7	32581.09
611.057	32793.52
611.414	33005.04
611.771	33151.25
612.127	33574.51
612.484	33590.78
612.841	33895.86
613.198	33893.37
613.554	34218.79
613.911	34556.63
614.267	34727.7
614.624	34875.5
614.98	35117.97
615.337	35405.88
615.693	35467.12
616.05	35563.61
616.406	35889.71
616.762	35974.22
617.118	36070.27
617.475	36315.46
617.831	36364.04
618.187	36672.74
618.543	36877.93
618.899	37120.86
619.255	37197.92
619.611	37266.62
619.967	37500.06
620.323	37632.94
620.678	37606.95
621.034	37698.25
621.39	37721.75
621.746	37876.09
622.101	38413.93
622.457	38293.26
622.812	38351.56
623.168	38552.01
623.523	38633.59
623.879	38979.34
624.234	38718.78
624.589	38929.63
624.945	39084.65
625.3	39217.08
625.655	39163.97
626.01	39311.99
626.365	39637.18
626.72	39438.77
627.075	39464.75
627.43	39622.04
627.785	39513.57
628.14	39713.11
628.495	39783.39
628.85	39781.36
629.205	39722.6
629.559	40032.2
629.914	39860
630.269	40046.66
630.623	40002.14
630.978	39974.34
631.332	40182.93
631.687	40248.01
632.041	40114.23
632.396	40285.97
632.75	40178.86
633.104	40180.44
633.459	40167.79
633.813	40051.4
634.167	40120.78
634.521	40330.72
634.875	40442.35
635.229	40208.91
635.583	40158.29
635.937	40279.87
636.291	40252.08
636.645	40271.29
636.999	40271.06
637.352	40251.85
637.706	40168.92
638.06	40281.91
638.413	40278.07
638.767	40318.52
639.121	40316.48
639.474	40041.46
639.828	40109.03
640.181	40241.68
640.534	40288.23
640.888	40223.83
641.241	40007.79
641.594	40095.7
641.947	40366.42
642.301	40077.39
642.654	40065.87
643.007	40029.26
643.36	39977.51
643.713	39951.75
644.066	40209.82
644.419	40058.18
644.771	39718.53
645.124	39390.4
645.477	39430.18
645.83	39195.38
646.182	39018.66
646.535	38991.55
646.888	38990.42
647.24	38813.7
647.593	38969.17
647.945	39022.05
648.298	38793.58
648.65	38719.91
649.002	38656.41
649.355	38775.51
649.707	38743.64
650.059	39002.39
650.411	39385.66
650.763	39397.86
651.115	39775.71
651.467	39703.17
651.819	39623.17
652.171	39601.47
652.523	39705.2
652.875	39601.25
653.227	39500.23
653.578	39654.8
653.93	39613.68
654.282	39520.57
654.633	39350.18
654.985	39576.16
655.337	39485.32
655.688	39459.78
656.039	39686.89
656.391	39361.48
656.742	39504.53
657.094	39468.37
657.445	39606.44
657.796	39340.24
658.147	39421.36
658.498	39366.45
658.849	39358.99
659.2	39353.34
659.551	39217.3
659.902	39374.13
660.253	39318.54
660.604	39393.57
660.955	39206.68
661.306	39429.27
661.656	39286.45
662.007	39180.92
662.358	39208.04
662.708	39121.26
663.059	39203.97
663.409	39079.9
663.76	39180.02
664.11	39136.17
664.461	39250.07
664.811	39307.7
665.161	39221.14
665.511	39126.91
665.862	39050.3
666.212	39321.03
666.562	39265.66
666.912	39262.05
667.262	39128.49
667.612	39111.09
667.962	39154.7
668.312	39035.84
668.662	39335.72
669.011	39258.21
669.361	39116.29
669.711	39032.67
670.06	38989.96
670.41	38959.68
670.76	38934.6
671.109	39144.08
671.459	39100.47
671.808	38929.63
672.157	39161.71
672.507	38853.92
672.856	38956.74
673.205	38873.81
673.554	39066.8
673.904	38896.63
674.253	39119.45
674.602	38991.32
674.951	38373.71
675.3	38277.89
675.649	38742.29
675.998	38793.58
676.346	38729.41
676.695	38938.67
677.044	38446.47
677.393	38580.03
677.741	38763.53
678.09	38716.98
678.438	38531.44
678.787	38695.51
679.135	38734.6
679.484	38470.88
679.832	38675.17
680.181	38270.43
680.529	38422.07
680.877	38345.23
681.225	38317.66
681.573	38365.57
681.922	38194.05
682.27	38134.62
682.618	38123.32
682.966	37958.8
683.314	38134.17
683.661	37980.05
684.009	37928.52
684.357	37711.81
684.705	37644.69
685.053	37663.9
685.4	37701.41
685.748	37431.13
686.095	37576.22
686.443	37430.68
686.79	37243.34
687.138	37517.23
687.485	37461.19
687.832	37207.19
688.18	37420.51
688.527	37054.42
688.874	37139.16
689.221	37008.77
689.568	36839.96
689.915	36827.53
690.262	36844.26
690.609	36768.1
690.956	36623.25
691.303	36644.04
691.65	36492.63
691.997	36412.4
692.344	36223.71
692.69	36251.05
693.037	36212.86
693.383	35955.92
693.73	36184.84
694.077	35936.26
694.423	35910.72
694.769	35715.93
695.116	35708.24
695.462	35642.03
695.808	35571.97
696.155	35567
696.501	35315.94
696.847	35419.66
697.193	35138.31
697.539	35190.74
697.885	35110.97
698.231	34919.34
698.577	34778.32
698.923	34758.44
699.269	34513.7
699.614	34502.85
699.96	34364.32
700.306	34554.37
700.651	34253.82
700.997	34177.89
701.342	34030.09
701.688	34128.85
702.033	33968.4
702.379	33888.63
702.724	33783.32
703.069	33829.87
703.415	33553.72
703.76	33479.6
704.105	33476.89
704.45	33492.93
704.795	33331.81
705.14	33219.04
705.485	33117.35
705.83	32963.46
706.175	33154.64
706.52	32882.33
706.865	32917.81
707.209	32852.72
707.554	32697.02
707.899	32909.45
708.243	32591.26
708.588	32587.87
708.932	32227.88
709.277	32350.14
709.621	32327.99
709.966	32113.53
710.31	32186.53
710.654	31864.73
710.998	32095.91
711.342	32033.08
711.687	31928.68
712.031	31789.25
712.375	31728.91
712.719	31592.19
713.063	31697.73
713.407	31674.22
713.75	31614.79
714.094	31566.66
714.438	31411.63
714.782	31417.06
715.125	31171.64
715.469	31359.43
715.812	31132.99
716.156	30948.14
716.499	30994.47
716.843	31131.64
717.186	30901.81
717.53	30995.37
717.873	30980.46
718.216	30888.26
718.559	30728.71
718.902	30564.87
719.246	30692.33
719.589	30467.25
719.932	30401.94
720.275	30489.85
720.617	30390.87
720.96	30267.71
721.303	30423.64
721.646	30230.19
721.989	30176.86
722.331	30250.31
722.674	30062.97
723.016	30074.04
723.359	29957.43
723.701	30055.06
724.044	29769.41
724.386	29611.91
724.729	29830.43
725.071	29734.39
725.413	29753.14
725.755	29699.59
726.097	29550.89
726.439	29415.07
726.782	29504.11
727.124	29496.43
727.465	29418.24
727.807	29404.9
728.149	29287.39
728.491	29267.96
728.833	29133.05
729.175	29136.66
729.516	29101.64
729.858	28954.07
730.199	29032.94
730.541	29024.58
730.882	28987.74
731.224	29053.05
731.565	28820.51
731.906	28865.03
732.248	28723.79
732.589	28644.47
732.93	28625.04
733.271	28527.87
733.612	28574.19
733.953	28655.55
734.294	28425.27
734.635	28386.4
734.976	28417.36
735.317	28335.78
735.658	28268.44
735.999	28432.5
736.339	28280.64
736.68	28380.52
737.021	28218.5
737.361	28133.07
737.702	28225.05
738.042	28178.04
738.383	28117.93
738.723	28104.37
739.063	28103.02
739.404	28093.07
739.744	28102.11
740.084	27833.19
740.424	27950.93
740.764	27835.91
741.104	27941.21
741.444	27671.39
741.784	27661.22
742.124	27764.95
742.464	27611.05
742.804	27509.81
743.143	27423.94
743.483	27553.43
743.823	27358.4
744.162	27334
744.502	27482.02
744.841	27161.57
745.181	27363.83
745.52	27228.01
745.86	27203.61
746.199	27167.68
746.538	27150.95
746.877	27179.43
747.216	27101.69
747.556	27123.83
747.895	27044.06
748.234	26985.99
748.573	26908.7
748.911	26894.91
749.25	26853.33
749.589	26658.31
749.928	26811.75
750.267	26645.2
750.605	26660.34
750.944	26536.51
751.283	26441.37
751.621	26538.99
751.96	26363.18
752.298	26336.74
752.636	26262.39
752.975	26164.31
753.313	26140.36
753.651	26256.06
753.989	26060.59
754.327	26114.37
754.666	25943.3
755.004	26026.91
755.342	26019.46
755.679	25848.39
756.017	25739.01
756.355	25881.38
756.693	25667.38
757.031	25678.9
757.368	25574.95
757.706	25481.62
758.044	25381.28
758.381	25541.05
758.719	25293.37
759.056	25461.73
759.394	25366.82
759.731	25256.09
