Data from hue_50_FLMS001491_99.txt Node
Date: Mon Feb 06 15:11:22 GMT 2017
User: dcchb
Spectrometer: FLMS00149
Trigger mode: 0
Integration Time (sec): 2.000000E-2
Scans to average: 10
Electric dark correction enabled: true
Nonlinearity correction enabled: false
Boxcar width: 0
XAxis mode: Wavelengths
Number of Pixels in Spectrum: 2048
>>>>>Begin Spectral Data<<<<<
341.393	-14.67
341.776	-14.67
342.16	-14.67
342.543	-63.04
342.927	-93.99
343.31	-56.03
343.693	-56.26
344.077	-75.92
344.46	-61.45
344.843	-62.58
345.226	-23.26
345.61	-38.4
345.993	-32.3
346.376	-27.56
346.759	18.09
347.142	27.13
347.525	32.78
347.908	59.9
348.291	76.4
348.674	106
349.057	113.46
349.44	104.42
349.823	149.39
350.206	154.13
350.588	188.94
350.971	205.88
351.354	228.26
351.737	235.94
352.119	250.63
352.502	266.9
352.884	280.01
353.267	285.43
353.65	310.97
354.032	309.84
354.414	299.89
354.797	334.02
355.179	332.89
355.562	328.14
355.944	337.18
356.326	320.91
356.709	346.9
357.091	343.28
357.473	342.15
357.855	336.5
358.238	325.66
358.62	347.35
359.002	337.41
359.384	331.08
359.766	357.74
360.148	355.94
360.53	322.94
360.912	345.77
361.294	317.75
361.676	326.11
362.057	338.08
362.439	334.69
362.821	325.66
363.203	324.3
363.584	320.23
363.966	310.97
364.348	312.55
364.729	315.49
365.111	331.76
365.493	331.76
365.874	332.43
366.256	305.32
366.637	319.33
367.019	305.99
367.4	311.64
367.781	327.92
368.163	312.55
368.544	317.07
368.925	309.38
369.306	306.45
369.688	325.88
370.069	320.23
370.45	320.23
370.831	313.68
371.212	313.45
371.593	317.75
371.974	313.45
372.355	333.56
372.736	318.88
373.117	320.01
373.498	301.7
373.879	291.08
374.26	318.2
374.641	313.23
375.021	333.56
375.402	281.59
375.783	315.71
376.163	336.05
376.544	338.08
376.925	332.89
377.305	335.15
377.686	333.56
378.066	320.01
378.447	329.27
378.827	332.66
379.208	330.63
379.588	332.43
379.968	343.96
380.349	349.84
380.729	337.18
381.109	332.66
381.489	327.69
381.87	343.51
382.25	357.52
382.63	334.69
383.01	353.45
383.39	335.6
383.77	334.69
384.15	342.6
384.53	333.11
384.91	341.02
385.29	349.61
385.67	340.57
386.049	360.46
386.429	371.08
386.809	383.96
387.189	339.21
387.568	337.18
387.948	367.24
388.328	358.2
388.707	371.53
389.087	379.21
389.466	359.1
389.846	376.73
390.225	365.88
390.605	380.8
390.984	367.91
391.363	382.15
391.743	393.22
392.122	364.52
392.501	404.3
392.881	389.61
393.26	379.44
393.639	384.64
394.018	372.89
394.397	395.26
394.776	396.39
395.155	382.6
395.534	390.74
395.913	373.11
396.292	393.45
396.671	392.55
397.05	396.61
397.429	390.51
397.808	402.04
398.186	415.37
398.565	389.16
398.944	402.94
399.323	403.17
399.701	418.31
400.08	383.73
400.458	409.49
400.837	422.38
401.215	394.81
401.594	413.34
401.972	418.53
402.351	411.08
402.729	411.08
403.107	438.19
403.486	431.19
403.864	418.31
404.242	425.31
404.62	442.26
404.999	444.97
405.377	427.8
405.755	432.55
406.133	448.14
406.511	451.08
406.889	442.71
407.267	452.66
407.645	458.08
408.023	476.39
408.401	456.95
408.779	464.41
409.156	463.05
409.534	451.08
409.912	472.32
410.29	453.79
410.667	487.91
411.045	484.75
411.422	484.52
411.8	474.13
412.178	496.95
412.555	495.37
412.933	496.27
413.31	495.14
413.687	505.31
414.065	521.58
414.442	511.41
414.819	526.55
415.197	500.34
415.574	503.73
415.951	530.62
416.328	518.42
416.705	518.42
417.082	501.92
417.46	546.89
417.837	543.5
418.214	541.92
418.591	543.28
418.967	554.58
419.344	572.2
419.721	576.95
420.098	562.71
420.475	548.47
420.852	570.62
421.228	561.58
421.605	567
421.982	551.64
422.358	571.07
422.735	576.04
423.111	604.97
423.488	603.61
423.864	580.56
424.241	577.85
424.617	593.67
424.994	607.46
425.37	602.03
425.746	587.8
426.123	625.08
426.499	611.07
426.875	631.18
427.251	613.78
427.627	607.68
428.003	638.19
428.379	642.03
428.756	655.36
429.132	654.69
429.507	658.08
429.883	680.45
430.259	667.34
430.635	684.97
431.011	676.38
431.387	686.32
431.763	702.14
432.138	683.61
432.514	721.13
432.89	694.91
433.265	725.87
433.641	736.72
434.016	738.3
434.392	746.44
434.767	727
435.143	756.83
435.518	749.15
435.894	776.04
436.269	773.78
436.644	776.94
437.02	783.27
437.395	793.67
437.77	790.5
438.145	779.65
438.52	795.25
438.895	823.04
439.271	792.54
439.646	818.3
440.021	858.52
440.395	826.43
440.77	844.51
441.145	825.08
441.52	867.34
441.895	840.67
442.27	870.27
442.645	842.93
443.019	863.72
443.394	864.4
443.769	890.61
444.143	883.61
444.518	891.29
444.892	911.18
445.267	879.31
445.641	891.97
446.016	887.9
446.39	910.5
446.764	922.93
447.139	915.92
447.513	919.76
447.887	927.22
448.262	922.48
448.636	953.89
449.01	969.25
449.384	956.15
449.758	965.86
450.132	996.6
450.506	963.38
450.88	994.11
451.254	993.21
451.628	1004.96
452.002	1010.16
452.376	1019.87
452.75	1019.65
453.123	1041.34
453.497	1030.95
453.871	1067.1
454.244	1070.72
454.618	1075.47
454.992	1081.12
455.365	1077.73
455.739	1142.13
456.112	1115.92
456.486	1134.9
456.859	1148.46
457.232	1139.19
457.606	1153.88
457.979	1164.73
458.352	1188.68
458.725	1217.38
459.099	1223.03
459.472	1227.55
459.845	1229.13
460.218	1236.59
460.591	1265.74
460.964	1292.18
461.337	1300.54
461.71	1310.26
462.083	1348
462.456	1334.44
462.829	1339.19
463.201	1358.85
463.574	1373.54
463.947	1392.97
464.32	1414.89
464.692	1442.69
465.065	1463.7
465.438	1471.16
465.81	1490.37
466.183	1504.38
466.555	1555.23
466.928	1583.7
467.3	1555.91
467.672	1572.63
468.045	1632.29
468.417	1645.39
468.789	1632.06
469.161	1662.34
469.534	1680.87
469.906	1759.52
470.278	1741.89
470.65	1804.94
471.022	1802.68
471.394	1890.81
471.766	1883.81
472.138	1902.56
472.51	1972.17
472.882	1985.27
473.253	2011.26
473.625	2046.97
473.997	2166.28
474.369	2151.6
474.74	2194.08
475.112	2238.15
475.484	2261.42
475.855	2355.21
476.227	2392.27
476.598	2456.22
476.97	2465.03
477.341	2533.73
477.713	2631.36
478.084	2639.27
478.455	2746.83
478.827	2807.17
479.198	2900.73
479.569	2912.48
479.94	2990.22
480.311	3050.1
480.682	3183.89
481.053	3280.38
481.424	3360.83
481.795	3417.78
482.166	3478.79
482.537	3588.62
482.908	3677.66
483.279	3776.86
483.65	3847.82
484.021	3993.13
484.391	4082.39
484.762	4158.77
485.133	4242.39
485.503	4391.54
485.874	4492.1
486.244	4614.13
486.615	4732.55
486.985	4813.67
487.356	4971.63
487.726	5024.97
488.097	5229.93
488.467	5288.01
488.837	5485.07
489.207	5596.03
489.578	5726.87
489.948	5845.74
490.318	5930.03
490.688	6077.37
491.058	6247.31
491.428	6385.83
491.798	6470.35
492.168	6660.86
492.538	6743.11
492.908	6899.49
493.278	7081.86
493.648	7148.98
494.017	7345.36
494.387	7543.32
494.757	7619.25
495.126	7755.29
495.496	7849.98
495.866	7985.11
496.235	8136.07
496.605	8280.7
496.974	8427.59
497.344	8620.58
497.713	8686.57
498.082	8850.63
498.452	8926.11
498.821	9051.08
499.19	9181.69
499.559	9365.64
499.928	9506.66
500.298	9626.65
500.667	9738.97
501.036	9824.39
501.405	9975.8
501.774	10056.47
502.143	10204.04
502.512	10283.36
502.88	10508.21
503.249	10545.95
503.618	10724.7
503.987	10724.25
504.356	10875.66
504.724	10946.84
505.093	11019.16
505.462	11213.05
505.83	11345.93
506.199	11528.07
506.567	11671.8
506.936	11746.6
507.304	11850.55
507.672	11933.26
508.041	12074.95
508.409	12199.92
508.777	12336.19
509.145	12589.29
509.514	12556.97
509.882	12737.31
510.25	12804.88
510.618	12798.32
510.986	12995.83
511.354	13098.88
511.722	13263.39
512.09	13327.35
512.458	13425.2
512.826	13573.44
513.193	13645.31
513.561	13728.01
513.929	13905.86
514.297	14102.02
514.664	14212.75
515.032	14308.79
515.4	14349.02
515.767	14416.81
516.135	14541.1
516.502	14436.92
516.869	14792.39
517.237	14914.2
517.604	14895.67
517.972	15133.18
518.339	15205.72
518.706	15165.94
519.073	15313.74
519.44	15445.94
519.808	15667.17
520.175	15632.6
520.542	15861.52
520.909	15964.57
521.276	15973.83
521.643	16158.46
522.009	16244.11
522.376	16468.73
522.743	16548.73
523.11	16658.56
523.477	16817.65
523.843	16918.89
524.21	17108.49
524.577	17286.34
524.943	17359.78
525.31	17496.5
525.676	17618.31
526.043	17770.17
526.409	17844.29
526.776	18003.83
527.142	18044.29
527.508	18220.1
527.874	18326.99
528.241	18445.63
528.607	18503.93
528.973	18691.27
529.339	18745.51
529.705	18853.98
530.071	18987.54
530.437	19047.42
530.803	19279.96
531.169	19370.13
531.535	19340.3
531.901	19443.8
532.267	19532.16
532.632	19612.38
532.998	19752.72
533.364	19848.98
533.73	19938.92
534.095	20062.54
534.461	20037.91
534.826	20221.18
535.192	20340.27
535.557	20520.15
535.923	20459.82
536.288	20604.9
536.653	20632.01
537.019	20628.4
537.384	20824.78
537.749	20940.48
538.114	21005.56
538.479	21019.8
538.845	21184.09
539.21	21220.25
539.575	21289.17
539.94	21439.45
540.305	21517.64
540.67	21479.9
541.034	21574.14
541.399	21681.03
541.764	21660.91
542.129	21865.65
542.494	21918.31
542.858	21895.48
543.223	21954.24
543.587	22074.24
543.952	22151.97
544.316	22220.45
544.681	22395.36
545.045	22436.26
545.41	22519.2
545.774	22476.26
546.138	22504.28
546.503	22611.85
546.867	22650.49
547.231	22821.33
547.595	22949.69
547.959	22992.18
548.324	23104.72
548.688	23152.63
549.052	23207.77
549.416	23286.18
549.779	23273.07
550.143	23410.7
550.507	23498.38
550.871	23602.78
551.235	23677.36
551.599	23783.12
551.962	23977.24
552.326	23868.54
552.689	24107.85
553.053	23992.83
553.417	24051.59
553.78	24449.77
554.143	24245.25
554.507	24410.9
554.87	24478.47
555.234	24782.64
555.597	24600.95
555.96	24726.82
556.323	24911.68
556.686	24842.07
557.05	25158
557.413	25051.56
557.776	25220.59
558.139	25412
558.502	25381.04
558.865	25507.59
559.228	25684.08
559.59	25766.34
559.953	25723.18
560.316	25992.33
560.679	26006.56
561.041	26209.04
561.404	26300.57
561.767	26348.25
562.129	26351.41
562.492	26635.92
562.854	26599.09
563.217	26683.83
563.579	26775.81
563.941	27006.76
564.304	27072.75
564.666	27253.99
565.028	27335.57
565.39	27353.42
565.753	27493.53
566.115	27674.99
566.477	27683.13
566.839	27825.95
567.201	27985.94
567.563	27946.4
567.925	28154.08
568.287	28204.24
568.648	28174.64
569.01	28385.48
569.372	28609.21
569.734	28467.29
570.095	28724
570.457	28915.64
570.819	28957.22
571.18	29078.12
571.542	29146.82
571.903	29239.25
572.265	29338.45
572.626	29452.57
572.987	29553.59
573.349	29648.73
573.71	29724.2
574.071	29800.13
574.432	29959.45
574.794	30189.05
575.155	30133.69
575.516	30164.64
575.877	30321.25
576.238	30500.68
576.599	30495.26
576.96	30554.46
577.32	30615.93
577.681	30908.58
578.042	30998.75
578.403	30973.89
578.763	31024.51
579.124	31179.31
579.485	31445.51
579.845	31513.99
580.206	31596.7
580.566	31702.68
580.927	31634.89
581.287	31911.49
581.648	31890.93
582.008	32194.42
582.368	32027.19
582.728	32243.69
583.089	32235.78
583.449	32520.97
583.809	32581.3
584.169	32578.37
584.529	32584.02
584.889	32925.48
585.249	32889.32
585.609	32833.95
585.969	33224.68
586.329	33165.47
586.688	33246.6
587.048	33288.63
587.408	33406.14
587.768	33522.07
588.127	33640.71
588.487	33752.57
588.846	33955.73
589.206	33805.23
589.565	33972.45
589.925	34243.41
590.284	34212.22
590.643	34453.8
591.003	34535.15
591.362	34705.54
591.721	34625.77
592.08	34769.5
592.44	35030.51
592.799	35058.53
593.158	35032.09
593.517	35157.73
593.876	35314.11
594.235	35337.62
594.593	35446.54
594.952	35639.75
595.311	35571.06
595.67	35732.41
596.029	35927.43
596.387	36057.82
596.746	36175.79
597.104	36138.5
597.463	36182.11
597.822	36240.42
598.18	36314.09
598.538	36317.03
598.897	36685.6
599.255	36424.82
599.613	36949.1
599.972	36788.65
600.33	37005.37
600.688	36852.38
601.046	36979.15
601.404	37409.2
601.762	37247.4
602.12	37407.62
602.478	37516.09
602.836	37516.77
603.194	37448.52
603.552	37559.7
603.91	37462.98
604.268	37649.42
604.625	37672.92
604.983	37892.13
605.341	37754.73
605.698	38065.68
606.056	38180.71
606.413	38050.54
606.771	38196.75
607.128	38518.55
607.485	38351.1
607.843	38408.72
608.2	38639.45
608.557	38803.29
608.914	38627.7
609.272	38909.27
609.629	38911.76
609.986	39309.49
610.343	39062.49
610.7	39418.41
611.057	39289.38
611.414	39295.25
611.771	39442.82
612.127	39523.04
612.484	39674.45
612.841	39716.94
613.198	39679.65
613.554	39698.63
613.911	39995.35
614.267	39957.83
614.624	39891.17
614.98	40046.87
615.337	40253.19
615.693	40267.2
616.05	40206.41
616.406	40411.61
616.762	40233.53
617.118	40297.94
617.475	40421.78
617.831	40618.61
618.187	40555.56
618.543	40722.33
618.899	41052.49
619.255	41067.63
619.611	40899.96
619.967	41053.17
620.323	41130.91
620.678	40941.31
621.034	40935.89
621.39	41034.87
621.746	40912.61
622.101	41462.43
622.457	41164.81
622.812	41362.32
623.168	41395.08
623.523	41470.34
623.879	41557.11
624.234	41253.17
624.589	41528.87
624.945	41433.05
625.3	41639.15
625.655	41526.83
626.01	41562.09
626.365	41560.28
626.72	41553.5
627.075	41626.72
627.43	41595.08
627.785	41568.19
628.14	41593.72
628.495	41608.41
628.85	41565.47
629.205	41497.68
629.559	41756.66
629.914	41703.55
630.269	41594.85
630.623	41528.19
630.978	41533.61
631.332	41664.68
631.687	41865.81
632.041	41483.44
632.396	41688.41
632.75	41429.43
633.104	41585.59
633.459	41410.45
633.813	41460.62
634.167	41494.06
634.521	41384.46
634.875	41582.88
635.229	41466.72
635.583	41308.31
635.937	41423.33
636.291	41323.67
636.645	41329.32
636.999	41317.8
637.352	41445.93
637.706	41108.99
638.06	41403.45
638.413	41303.33
638.767	41172.49
639.121	41149.67
639.474	41089.33
639.828	41021.53
640.181	41102.66
640.534	41170.46
640.888	40921.65
641.241	40870.13
641.594	40932.5
641.947	41016.34
642.301	40840.97
642.654	40956.68
643.007	40881.65
643.36	40669.23
643.713	40729.11
644.066	40887.07
644.419	40717.14
644.771	40496.58
645.124	40101.11
645.477	40054.1
645.83	39836.71
646.182	39714.68
646.535	39465.19
646.888	39493.66
647.24	39303.84
647.593	39671.06
647.945	39476.72
648.298	39360.34
648.65	39219.1
649.002	39288.92
649.355	39353.56
649.707	39377.06
650.059	39491.41
650.411	39909.93
650.763	39987.89
651.115	40335.9
651.467	40286.41
651.819	40187.21
652.171	40080.99
652.523	40111.95
652.875	39970.26
653.227	39912.41
653.578	40194.89
653.93	40085.51
654.282	39840.1
654.633	39825.18
654.985	39979.3
655.337	39899.53
655.688	39829.93
656.039	40004.16
656.391	39704.96
656.742	39732.75
657.094	39716.26
657.445	39876.03
657.796	39816.14
658.147	39651.17
658.498	39698.86
658.849	39771.17
659.2	39677.39
659.551	39726.2
659.902	39782.7
660.253	39697.73
660.604	39728.46
660.955	39544.51
661.306	39576.83
661.656	39566.66
662.007	39522.82
662.358	39551.29
662.708	39620.89
663.059	39454.8
663.409	39229.27
663.76	39739.76
664.11	39584.51
664.461	39614.57
664.811	39516.49
665.161	39426.77
665.511	39417.28
665.862	39479.88
666.212	39548.58
666.562	39498.64
666.912	39513.33
667.262	39499.09
667.612	39531.63
667.962	39551.29
668.312	39475.36
668.662	39676.94
669.011	39441.69
669.361	39381.35
669.711	39366.44
670.06	39415.47
670.41	39393.55
670.76	39206.67
671.109	39318.75
671.459	39361.01
671.808	39222.26
672.157	39400.56
672.507	39104.3
672.856	39123.73
673.205	39081.92
673.554	39202.37
673.904	39026.78
674.253	39288.7
674.602	39071.76
674.951	38592.45
675.3	38312
675.649	39033.34
675.998	38972.1
676.346	39054.35
676.695	39141.58
677.044	38805.55
677.393	38863.4
677.741	39003.96
678.09	38881.48
678.438	38713.12
678.787	38935.71
679.135	38744.08
679.484	38614.14
679.832	38718.32
680.181	38489.17
680.529	38792.89
680.877	38512.22
681.225	38480.58
681.573	38782.27
681.922	38361.94
682.27	38398.33
682.618	38370.76
682.966	38227.03
683.314	38279.01
683.661	38154.72
684.009	38051.89
684.357	37947.49
684.705	37956.98
685.053	38018
685.4	37837.66
685.748	37826.14
686.095	37797.44
686.443	37573.04
686.79	37657.1
687.138	37551.34
687.485	37680.15
687.832	37406.26
688.18	37484.23
688.527	37290.11
688.874	37327.62
689.221	37275.42
689.568	37073.84
689.915	36917.69
690.262	36922.43
690.609	36837.46
690.956	36682.67
691.303	36699.39
691.65	36615.55
691.997	36665.72
692.344	36319.96
692.69	36369
693.037	36344.14
693.383	36106.64
693.73	36254.65
694.077	36088.1
694.423	35954.55
694.769	35886.98
695.116	35716.36
695.462	35697.38
695.808	35563.82
696.155	35684.73
696.501	35445.64
696.847	35374.68
697.193	35277.73
697.539	35196.15
697.885	35037.06
698.231	35027.12
698.577	34960.22
698.923	34931.98
699.269	34745.54
699.614	34634.58
699.96	34532.44
700.306	34574.92
700.651	34408.15
700.997	34276.4
701.342	34336.06
701.688	34315.5
702.033	34151.43
702.379	34122.51
702.724	34028.5
703.069	33941.49
703.415	33618.34
703.76	33619.7
704.105	33582.18
704.45	33529.53
704.795	33390.32
705.14	33238.24
705.485	33185.81
705.83	33050.9
706.175	33125.24
706.52	33007.96
706.865	32957.57
707.209	32797.8
707.554	32708.98
707.899	32792.37
708.243	32665.14
708.588	32699.72
708.932	32558.25
709.277	32501.53
709.621	32531.14
709.966	32156.91
710.31	32341.54
710.654	32004.6
710.998	32098.15
711.342	32228.32
711.687	32051.37
712.031	31779.52
712.375	31948.1
712.719	31899.97
713.063	31814.77
713.407	31763.92
713.75	31665.4
714.094	31562.57
714.438	31464.5
714.782	31444.16
715.125	31441.9
715.469	31415.69
715.812	31214.56
716.156	31086.65
716.499	31176.82
716.843	31234.67
717.186	30951.29
717.53	30920.56
717.873	31041.68
718.216	30915.59
718.559	30806.66
718.902	30645.54
719.246	30711.07
719.589	30507.46
719.932	30370.52
720.275	30467.24
720.617	30347.92
720.96	30296.62
721.303	30306.34
721.646	30310.4
721.989	30039
722.331	30216.62
722.674	30073.57
723.016	30189.28
723.359	30101.6
723.701	30054.59
724.044	29848.72
724.386	29755.16
724.729	29803.98
725.071	29758.55
725.413	29779.34
725.755	29790.19
726.097	29524.89
726.439	29512.01
726.782	29508.39
727.124	29578.67
727.465	29413.93
727.807	29470.88
728.149	29345.91
728.491	29302.75
728.833	29271.79
729.175	29214.39
729.516	29220.71
729.858	29118.8
730.199	29187.72
730.541	29082.64
730.882	29152.24
731.224	29101.4
731.565	28885.58
731.906	28857.11
732.248	28930.33
732.589	28723.78
732.93	28663.67
733.271	28745.92
733.612	28603.33
733.953	28686.72
734.294	28518.59
734.635	28376.9
734.976	28558.59
735.317	28368.76
735.658	28445.59
735.999	28333.05
736.339	28289.89
736.68	28350.68
737.021	28326.05
737.361	28128.09
737.702	28388.65
738.042	28262.32
738.383	28065.94
738.723	28201.53
739.063	27982.78
739.404	28101.2
739.744	27851.94
740.084	27857.13
740.424	27970.13
740.764	27783.92
741.104	27865.95
741.444	27682.22
741.784	27597.25
742.124	27573.3
742.464	27736.69
742.804	27540.08
743.143	27538.5
743.483	27668.67
743.823	27447.88
744.162	27444.04
744.502	27489.01
744.841	27373.08
745.181	27474.77
745.52	27289.01
745.86	27272.97
746.199	27202.24
746.538	27176.25
746.877	27253.76
747.216	27202.01
747.556	27109.58
747.895	27022.35
748.234	26982.36
748.573	26948.91
748.911	26934.22
749.25	26985.75
749.589	26741.01
749.928	26755.02
750.267	26799.31
750.605	26627.34
750.944	26649.71
751.283	26449.71
751.621	26593.44
751.96	26407.91
752.298	26387.12
752.636	26409.94
752.975	26214.01
753.313	26123.62
753.651	26342.15
753.989	26210.85
754.327	26154.81
754.666	25964.53
755.004	25910.75
755.342	26034.36
755.679	25970.18
756.017	25706.46
756.355	25785.32
