Data from hue_240_FLMS001491_00087.txt Node
Date: Tue Feb 07 16:36:04 GMT 2017
User: dcchb
Spectrometer: FLMS00149
Trigger mode: 0
Integration Time (sec): 2.000000E-2
Scans to average: 10
Electric dark correction enabled: true
Nonlinearity correction enabled: false
Boxcar width: 0
XAxis mode: Wavelengths
Number of Pixels in Spectrum: 2048
>>>>>Begin Spectral Data<<<<<
341.393	-5.2
341.776	-5.2
342.16	-5.2
342.543	-54.46
342.927	-53.33
343.31	-63.73
343.693	-75.25
344.077	-59.66
344.46	-67.34
344.843	-42.71
345.226	-47.46
345.61	-38.87
345.993	-29.6
346.376	-8.59
346.759	7.68
347.142	23.5
347.525	58.76
347.908	57.4
348.291	82.71
348.674	106.89
349.057	96.27
349.44	144.85
349.823	135.14
350.206	145.53
350.588	175.59
350.971	197.06
351.354	201.8
351.737	225.3
352.119	238.19
352.502	255.81
352.884	269.37
353.267	283.38
353.65	296.49
354.032	299.2
354.414	300.56
354.797	319.99
355.179	305.53
355.562	308.01
355.944	330.84
356.326	337.17
356.709	332.19
357.091	331.06
357.473	345.3
357.855	322.93
358.238	329.71
358.62	335.81
359.002	344.85
359.384	349.37
359.766	336.49
360.148	342.59
360.53	324.96
360.912	340.1
361.294	315.7
361.676	338.52
362.057	313.66
362.439	295.13
362.821	310.95
363.203	311.4
363.584	320.9
363.966	304.4
364.348	318.64
364.729	320.9
365.111	317.96
365.493	309.37
365.874	314.57
366.256	307.11
366.637	300.11
367.019	302.82
367.4	300.78
367.781	302.59
368.163	297.17
368.544	317.73
368.925	329.48
369.306	307.79
369.688	296.72
370.069	339.88
370.45	314.79
370.831	294.91
371.212	316.83
371.593	302.82
371.974	310.5
372.355	322.93
372.736	303.72
373.117	311.86
373.498	316.38
373.879	308.92
374.26	298.75
374.641	310.05
375.021	315.25
375.402	327.22
375.783	315.92
376.163	323.38
376.544	311.18
376.925	315.7
377.305	294.46
377.686	328.35
378.066	324.29
378.447	310.05
378.827	321.57
379.208	334.91
379.588	313.21
379.968	348.69
380.349	312.99
380.729	352.31
381.109	347.56
381.489	327.67
381.87	333.78
382.25	346.88
382.63	341.69
383.01	353.89
383.39	337.17
383.77	340.78
384.15	343.95
384.53	341.23
384.91	341.01
385.29	331.06
385.67	341.23
386.049	340.78
386.429	332.65
386.809	359.09
387.189	343.49
387.568	357.28
387.948	338.97
388.328	352.99
388.707	343.72
389.087	354.11
389.466	330.16
389.846	353.66
390.225	373.32
390.605	370.39
390.984	353.89
391.363	360.89
391.743	369.48
392.122	349.37
392.501	351.18
392.881	365.64
393.26	388.01
393.639	372.19
394.018	391.85
394.397	367.22
394.776	357.73
395.155	347.79
395.534	376.04
395.913	375.81
396.292	387.11
396.671	393.21
397.05	393.66
397.429	375.81
397.808	383.49
398.186	390.95
398.565	399.31
398.944	390.95
399.323	391.18
399.701	397.05
400.08	409.03
400.458	382.81
400.837	411.51
401.215	398.86
401.594	388.46
401.972	397.5
402.351	409.03
402.729	408.12
403.107	423.04
403.486	427.79
403.864	411.97
404.242	430.72
404.62	418.07
404.999	413.1
405.377	440.89
405.755	413.55
406.133	449.03
406.511	432.53
406.889	441.57
407.267	413.32
407.645	457.62
408.023	461.46
408.401	432.53
408.779	476.15
409.156	456.03
409.534	486.99
409.912	478.41
410.29	467.78
410.667	480.21
411.045	486.54
411.422	497.84
411.8	486.09
412.178	532.19
412.555	515.69
412.933	534.45
413.31	531.74
413.687	521.34
414.065	521.57
414.442	544.84
414.819	548.01
415.197	548.69
415.574	560.89
415.951	561.57
416.328	574.45
416.705	563.38
417.082	578.06
417.46	606.99
417.837	602.24
418.214	583.94
418.591	585.3
418.967	615.58
419.344	621.9
419.721	622.58
420.098	635.01
420.475	605.18
420.852	634.79
421.228	642.24
421.605	643.6
421.982	660.55
422.358	681.34
422.735	696.48
423.111	687.89
423.488	679.76
423.864	714.78
424.241	701
424.617	714.11
424.994	734.22
425.37	722.47
425.746	736.25
426.123	762.01
426.499	766.99
426.875	775.57
427.251	788
427.627	812.63
428.003	812.41
428.379	809.47
428.756	842.92
429.132	812.63
429.507	831.62
429.883	828.9
430.259	858.28
430.635	848.57
431.011	878.17
431.387	860.77
431.763	890.6
432.138	895.57
432.514	926.53
432.89	936.47
433.265	966.3
433.641	958.39
434.016	958.62
434.392	956.13
434.767	1007.21
435.143	1024.15
435.518	1018.5
435.894	1026.87
436.269	1059.18
436.644	1075.45
437.02	1080.2
437.395	1076.81
437.77	1108.67
438.145	1102.34
438.52	1110.48
438.895	1146.86
439.271	1139.86
439.646	1190.7
440.021	1199.06
440.395	1187.54
440.77	1196.58
441.145	1243.13
441.52	1235.45
441.895	1254.88
442.27	1262.34
442.645	1265.73
443.019	1274.54
443.394	1270.02
443.769	1294.88
444.143	1296.01
444.518	1323.58
444.892	1315.67
445.267	1338.27
445.641	1326.52
446.016	1318.16
446.39	1352.28
446.764	1372.85
447.139	1362.45
447.513	1411.49
447.887	1388.66
448.262	1391.83
448.636	1421.21
449.01	1417.36
449.384	1443.8
449.758	1460.3
450.132	1439.96
450.506	1474.54
450.88	1484.25
451.254	1459.17
451.628	1489.23
452.002	1538.26
452.376	1521.54
452.75	1521.99
453.123	1538.94
453.497	1549.11
453.871	1566.74
454.244	1609.22
454.618	1594.99
454.992	1592.05
455.365	1640.63
455.739	1660.07
456.112	1667.3
456.486	1708.88
456.859	1743.91
457.232	1739.39
457.606	1742.33
457.979	1776.9
458.352	1763.12
458.725	1807.86
459.099	1830.01
459.472	1844.25
459.845	1881.76
460.218	1878.59
460.591	1910.01
460.964	1910.68
461.337	1908.42
461.71	1956.56
462.083	1997.24
462.456	2006.05
462.829	2024.13
463.201	2026.61
463.574	2026.84
463.947	2079.49
464.32	2119.94
464.692	2162.66
465.065	2136.67
465.438	2141.19
465.81	2159.04
466.183	2182.54
466.555	2229.77
466.928	2256.21
467.3	2251.92
467.672	2270
468.045	2365.81
468.417	2366.27
468.789	2373.5
469.161	2392.25
469.534	2388.64
469.906	2480.39
470.278	2477.9
470.65	2476.77
471.022	2564.23
471.394	2607.84
471.766	2582.08
472.138	2634.73
472.51	2661.4
472.882	2731.91
473.253	2748.63
473.625	2783.2
473.997	2836.08
474.369	2815.97
474.74	2894.84
475.112	2931
475.484	2942.97
475.855	2977.55
476.227	3007.6
476.598	3097.32
476.97	3076.53
477.341	3206.02
477.713	3214.6
478.084	3238.11
478.455	3303.64
478.827	3354.04
479.198	3419.8
479.569	3382.74
479.94	3479.23
480.311	3519
480.682	3601.04
481.053	3631.77
481.424	3685.33
481.795	3689.62
482.166	3798.09
482.537	3817.3
482.908	3895.04
483.279	3894.13
483.65	3946.56
484.021	4015.71
484.391	4073.34
484.762	4118.08
485.133	4122.38
485.503	4201.02
485.874	4272.2
486.244	4254.58
486.615	4351.52
486.985	4440.34
487.356	4495.25
487.726	4492.09
488.097	4558.07
488.467	4577.73
488.837	4667.9
489.207	4688.46
489.578	4780.89
489.948	4847.78
490.318	4826.09
490.688	4903.83
491.058	4949.7
491.428	5017.5
491.798	5016.82
492.168	5162.8
492.538	5147.21
492.908	5167.1
493.278	5209.35
493.648	5213.2
494.017	5318.28
494.387	5327.09
494.757	5385.17
495.126	5421.78
495.496	5395.79
495.866	5443.92
496.235	5539.52
496.605	5567.09
496.974	5573.64
497.344	5619.51
497.713	5636.69
498.082	5693.86
498.452	5696.35
498.821	5719.62
499.19	5751.04
499.559	5807.08
499.928	5833.07
500.298	5847.3
500.667	5890.47
501.036	5888.43
501.405	5933.86
501.774	5884.59
502.143	6050.24
502.512	5977.47
502.88	6044.36
503.249	5995.77
503.618	6087.52
503.987	6057.24
504.356	6082.33
504.724	6129.1
505.093	6130.01
505.462	6153.51
505.83	6148.54
506.199	6221.76
506.567	6290.91
506.936	6263.11
507.304	6328.2
507.672	6347.86
508.041	6331.58
508.409	6356.89
508.777	6419.04
509.145	6419.04
509.514	6414.07
509.882	6429.66
510.25	6491.13
510.618	6467.4
510.986	6467.85
511.354	6570.9
511.722	6607.06
512.09	6600.73
512.458	6596.66
512.826	6660.16
513.193	6691.35
513.561	6622.42
513.929	6680.95
514.297	6745.59
514.664	6727.51
515.032	6752.59
515.4	6774.74
515.767	6713.5
516.135	6778.35
516.502	6715.98
516.869	6846.15
517.237	6894.51
517.604	6845.24
517.972	6881.85
518.339	6894.06
518.706	6901.06
519.073	6984
519.44	6962.3
519.808	6989.19
520.175	7016.31
520.542	6993.26
520.909	7019.25
521.276	6995.75
521.643	7058.35
522.009	7036.2
522.376	7126.59
522.743	7089.76
523.11	7079.81
523.477	7132.69
523.843	7156.42
524.21	7219.25
524.577	7262.63
524.943	7237.1
525.31	7230.54
525.676	7290.2
526.043	7298.79
526.409	7322.29
526.776	7305.34
527.142	7332.69
527.508	7298.79
527.874	7429.86
528.241	7385.34
528.607	7376.3
528.973	7440.03
529.339	7422.4
529.705	7442.52
530.071	7488.84
530.437	7431.44
530.803	7462.18
531.169	7524.55
531.535	7488.84
531.901	7488.84
532.267	7469.86
532.632	7509.18
532.998	7557.09
533.364	7525.68
533.73	7464.21
534.095	7547.15
534.461	7549.63
534.826	7519.12
535.192	7598.44
535.557	7491.78
535.923	7549.86
536.288	7587.37
536.653	7594.6
537.019	7480.71
537.384	7459.69
537.749	7593.25
538.114	7507.15
538.479	7499.01
538.845	7543.98
539.21	7477.32
539.575	7473.25
539.94	7514.38
540.305	7448.84
540.67	7435.74
541.034	7484.1
541.399	7510.99
541.764	7417.43
542.129	7424.89
542.494	7473.25
542.858	7509.18
543.223	7440.93
543.587	7534.72
543.952	7459.69
544.316	7354.61
544.681	7385.34
545.045	7449.3
545.41	7437.32
545.774	7435.28
546.138	7361.84
546.503	7451.56
546.867	7367.94
547.231	7432.57
547.595	7333.14
547.959	7354.61
548.324	7419.47
548.688	7357.55
549.052	7414.04
549.416	7321.62
549.779	7352.35
550.143	7323.65
550.507	7346.02
550.871	7338.11
551.235	7298.57
551.599	7365.68
551.962	7341.05
552.326	7322.29
552.689	7376.3
553.053	7255.85
553.417	7341.28
553.78	7380.37
554.143	7320.26
554.507	7337.43
554.87	7341.28
555.234	7364.1
555.597	7272.58
555.96	7290.43
556.323	7292.46
556.686	7318.23
557.05	7318.9
557.413	7361.39
557.776	7345.12
558.139	7346.7
558.502	7328.62
558.865	7429.64
559.228	7416.53
559.59	7398.9
559.953	7366.36
560.316	7471.22
560.679	7464.89
561.041	7442.74
561.404	7467.37
561.767	7511.67
562.129	7458.56
562.492	7525
562.854	7537.65
563.217	7530.65
563.579	7508.73
563.941	7552.57
564.304	7576.98
564.666	7628.27
565.028	7588.95
565.39	7566.13
565.753	7673.7
566.115	7654.71
566.477	7666.47
566.839	7700.59
567.201	7741.04
567.563	7723.41
567.925	7794.15
568.287	7720.02
568.648	7756.63
569.01	7824.43
569.372	7816.97
569.734	7793.02
570.095	7856.97
570.457	7886.12
570.819	7872.11
571.18	7871.21
571.542	7882.73
571.903	7913.46
572.265	7962.5
572.626	7940.81
572.987	7971.09
573.349	7973.58
573.71	8028.04
574.071	8032.56
574.432	8059.9
574.794	8106.23
575.155	8091.54
575.516	8014.25
575.877	8167.47
576.238	8121.59
576.599	8152.78
576.96	8118.2
577.32	8186.68
577.681	8214.7
578.042	8223.96
578.403	8270.52
578.763	8213.57
579.124	8260.8
579.485	8321.82
579.845	8273.91
580.206	8281.82
580.566	8272.1
580.927	8301.48
581.287	8329.05
581.648	8286.79
582.008	8367.24
582.368	8332.89
582.728	8358.2
583.089	8376.5
583.449	8352.77
583.809	8388.25
584.169	8437.07
584.529	8396.84
584.889	8456.27
585.249	8454.92
585.609	8415.6
585.969	8459.44
586.329	8468.25
586.688	8445.65
587.048	8476.39
587.408	8458.31
587.768	8423.51
588.127	8480.45
588.487	8534.92
588.846	8561.58
589.206	8446.56
589.565	8518.87
589.925	8508.48
590.284	8574.01
590.643	8570.62
591.003	8573.56
591.362	8545.76
591.721	8564.52
592.08	8517.74
592.44	8578.08
592.799	8603.39
593.158	8574.92
593.517	8520.23
593.876	8660.56
594.235	8578.53
594.593	8593.45
594.952	8613.78
595.311	8564.75
595.67	8614.01
596.029	8639.32
596.387	8635.48
596.746	8673.9
597.104	8680.9
597.463	8618.76
597.822	8727.68
598.18	8565.2
598.538	8669.38
598.897	8653.33
599.255	8654.01
599.613	8692.88
599.972	8698.75
600.33	8771.97
600.688	8641.58
601.046	8728.58
601.404	8749.15
601.762	8725.87
602.12	8741.92
602.478	8704.4
602.836	8785.98
603.194	8713.22
603.552	8774.68
603.91	8708.7
604.268	8749.37
604.625	8756.15
604.983	8753.22
605.341	8661.92
605.698	8813.78
606.056	8865.76
606.413	8843.61
606.771	8763.84
607.128	8829.37
607.485	8813.33
607.843	8817.62
608.2	8837.73
608.557	8847.9
608.914	8827.34
609.272	8858.3
609.629	8835.7
609.986	8830.73
610.343	8834.12
610.7	8895.13
611.057	8879.54
611.414	8847.9
611.771	8915.47
612.127	8931.29
612.484	8918.64
612.841	8965.41
613.198	8978.97
613.554	8945.08
613.911	9040.67
614.267	8950.73
614.624	8946.88
614.98	8938.3
615.337	9037.05
615.693	8976.94
616.05	8998.86
616.406	9080.67
616.762	8981.23
617.118	9018.29
617.475	9030.72
617.831	9054.45
618.187	9065.3
618.543	9046.77
618.899	9094
619.255	9027.33
619.611	9039.76
619.967	9147.1
620.323	9083.38
620.678	9081.57
621.034	9031.4
621.39	9034.11
621.746	9063.49
622.101	9127.67
622.457	9014.45
622.812	9051.74
623.168	9122.02
623.523	9088.8
623.879	9146.43
624.234	9135.35
624.589	9101.46
624.945	9048.8
625.3	9118.63
625.655	9108.46
626.01	9092.64
626.365	9093.32
626.72	9016.94
627.075	9091.74
627.43	9018.75
627.785	9067.56
628.14	9060.1
628.495	9066.65
628.85	9056.94
629.205	9019.88
629.559	9129.25
629.914	9021.23
630.269	9050.38
630.623	8992.76
630.978	8973.1
631.332	9044.06
631.687	8988.46
632.041	9015.58
632.396	8994.57
632.75	8998.63
633.104	8985.53
633.459	8961.8
633.813	8932.19
634.167	8926.32
634.521	8911.63
634.875	8835.47
635.229	8943.49
635.583	8811.52
635.937	8885.64
636.291	8901.46
636.645	8842.93
636.999	8906.43
637.352	8937.39
637.706	8843.16
638.06	8836.6
638.413	8748.24
638.767	8788.7
639.121	8833.21
639.474	8687.91
639.828	8728.36
640.181	8747.57
640.534	8845.19
640.888	8724.52
641.241	8691.07
641.594	8751.86
641.947	8645.65
642.301	8673.22
642.654	8702.6
643.007	8694.91
643.36	8742.59
643.713	8661.02
644.066	8745.98
644.419	8593.45
644.771	8608.59
645.124	8549.61
645.477	8480.45
645.83	8448.82
646.182	8412.21
646.535	8400.91
646.888	8429.83
647.24	8334.92
647.593	8464.18
647.945	8304.19
648.298	8358.2
648.65	8285.66
649.002	8337.41
649.355	8404.07
649.707	8375.6
650.059	8355.26
650.411	8455.82
650.763	8480.23
651.115	8523.84
651.467	8548.02
651.819	8557.97
652.171	8526.33
652.523	8547.12
652.875	8522.04
653.227	8504.18
653.578	8503.05
653.93	8504.18
654.282	8491.08
654.633	8430.96
654.985	8506.89
655.337	8510.06
655.688	8466.22
656.039	8490.4
656.391	8441.81
656.742	8461.92
657.094	8531.53
657.445	8510.51
657.796	8477.74
658.147	8444.75
658.498	8486.78
658.849	8438.65
659.2	8528.14
659.551	8461.25
659.902	8508.48
660.253	8516.84
660.604	8497.63
660.955	8481.58
661.306	8555.48
661.656	8490.85
662.007	8505.99
662.358	8489.04
662.708	8473.45
663.059	8466.67
663.409	8409.72
663.76	8541.02
664.11	8502.83
664.461	8513
664.811	8461.25
665.161	8507.35
665.511	8511.41
665.862	8462.15
666.212	8480
666.562	8551.87
666.912	8536.95
667.262	8450.17
667.612	8465.09
667.962	8457.63
668.312	8509.83
668.662	8542.37
669.011	8429.38
669.361	8428.25
669.711	8473.45
670.06	8466.22
670.41	8390.06
670.76	8387.58
671.109	8489.04
671.459	8401.36
671.808	8378.54
672.157	8447.46
672.507	8433.45
672.856	8391.64
673.205	8440.68
673.554	8422.38
673.904	8408.14
674.253	8401.81
674.602	8419.44
674.951	8235.72
675.3	8202.72
675.649	8343.96
675.998	8267.35
676.346	8288.14
676.695	8388.25
677.044	8293.79
677.393	8342.61
677.741	8423.51
678.09	8350.29
678.438	8330.63
678.787	8285.66
679.135	8324.75
679.484	8252.44
679.832	8246.11
680.181	8162.5
680.529	8234.81
680.877	8164.76
681.225	8164.53
681.573	8261.7
681.922	8141.71
682.27	8150.97
682.618	8191.65
682.966	8136.06
683.314	8165.21
683.661	8090.18
684.009	8111.88
684.357	8099.22
684.705	8042.05
685.053	8107.13
685.4	8085.66
685.748	8021.94
686.095	7980.58
686.443	7985.33
686.79	7960.69
687.138	7956.4
687.485	7908.27
687.832	7913.01
688.18	7911.2
688.527	7915.27
688.874	7896.06
689.221	7853.58
689.568	7815.39
689.915	7806.8
690.262	7816.74
690.609	7736.07
690.956	7767.71
691.303	7746.46
691.65	7675.05
691.997	7646.35
692.344	7686.8
692.69	7589.63
693.037	7585.34
693.383	7490.65
693.73	7578.11
694.077	7581.72
694.423	7457.66
694.769	7477.09
695.116	7432.8
695.462	7415.62
695.808	7477.32
696.155	7430.09
696.501	7353.7
696.847	7378.11
697.193	7306.02
697.539	7262.41
697.885	7301.28
698.231	7223.54
698.577	7214.95
698.923	7226.25
699.269	7177.21
699.614	7181.05
699.96	7149.19
700.306	7126.14
700.651	7050.66
700.997	7076.88
701.342	7016.09
701.688	7006.37
702.033	6957.11
702.379	6942.87
702.724	6961.85
703.069	6957.56
703.415	6838.92
703.76	6883.43
704.105	6894.28
704.45	6874.17
704.795	6785.58
705.14	6846.37
705.485	6820.61
705.83	6781.52
706.175	6784.91
706.52	6826.94
706.865	6761.18
707.209	6691.8
707.554	6725.92
707.899	6724.79
708.243	6643.67
708.588	6611.35
708.932	6626.49
709.277	6597.79
709.621	6602.31
709.966	6596.89
710.31	6551.47
710.654	6555.76
710.998	6551.69
711.342	6518.02
711.687	6485.25
712.031	6464.01
712.375	6436.67
712.719	6492.03
713.063	6435.31
713.407	6456.33
713.75	6407.97
714.094	6439.15
714.438	6491.58
714.782	6377.23
715.125	6326.39
715.469	6403.22
715.812	6353.96
716.156	6287.97
716.499	6319.16
716.843	6326.39
717.186	6319.83
717.53	6300.17
717.873	6306.05
718.216	6263.34
718.559	6254.3
718.902	6208.2
719.246	6250.68
719.589	6239.84
719.932	6157.58
720.275	6191.48
720.617	6176.79
720.96	6188.09
721.303	6190.12
721.646	6182.66
721.989	6169.78
722.331	6180.63
722.674	6162.32
723.016	6148.31
723.359	6125.26
723.701	6136.79
724.044	6134.08
724.386	6093.85
724.729	6091.37
725.071	6073.96
725.413	6123.68
725.755	6111.93
726.097	6053.85
726.439	6015.89
726.782	6046.85
727.124	6091.59
727.465	6031.03
727.807	6073.96
728.149	6073.74
728.491	6017.69
728.833	6018.37
729.175	6032.84
729.516	6022.67
729.858	6023.8
730.199	6007.98
730.541	6016.34
730.882	6009.56
731.224	6044.36
731.565	5967.07
731.906	5975.21
732.248	6013.63
732.589	5963.23
732.93	5950.13
733.271	6003.68
733.612	5947.64
733.953	5999.62
734.294	5950.13
734.635	5997.36
734.976	6014.53
735.317	5949.67
735.658	5974.76
735.999	6000.97
736.339	5951.93
736.68	6028.99
737.021	5945.15
737.361	5928.43
737.702	6034.19
738.042	5991.71
738.383	5992.38
738.723	5975.21
739.063	6013.4
739.404	5983.57
739.744	5995.32
740.084	5931.37
740.424	5975.21
740.764	5993.06
741.104	6012.72
741.444	6024.47
741.784	5984.7
742.124	6035.1
742.464	6039.62
742.804	6050.01
743.143	6073.06
743.483	6090.69
743.823	6070.8
744.162	6031.48
744.502	6104.02
744.841	6106.96
745.181	6127.07
745.52	6139.95
745.86	6131.14
746.199	6143.79
746.538	6148.09
746.877	6211.14
747.216	6279.38
747.556	6251.81
747.895	6285.71
748.234	6289.1
748.573	6302.66
748.911	6376.78
749.25	6320.96
749.589	6443.45
749.928	6431.7
750.267	6494.07
750.605	6510.11
750.944	6560.73
751.283	6613.16
751.621	6686.83
751.96	6684.34
752.298	6718.02
752.636	6828.97
752.975	6819.48
753.313	6918.01
753.651	6943.09
753.989	7010.89
754.327	7141.06
754.666	7068.74
755.004	7214.95
755.342	7292.92
755.679	7346.93
756.017	7378.11
756.355	7494.72
756.693	7538.11
757.031	7637.99
757.368	7680.93
757.706	7809.96
758.044	7892
758.381	7968.83
758.719	8065.55
759.056	8163.4
759.394	8282.04
759.731	8266
760.068	8344.87
760.405	8445.88
760.743	8553.22
761.08	8668.47
761.417	8711.41
761.754	8937.39
762.091	8955.7
762.428	9073.89
762.765	9139.65
763.102	9263.71
763.438	9272.52
763.775	9345.52
764.112	9387.78
764.449	9635
764.785	9546.87
765.122	9623.02
765.458	9793.64
765.795	9830.25
766.131	9897.82
766.467	9980.98
766.804	10001.54
767.14	10103.01
767.476	10204.25
767.812	10196.57
768.148	10347.98
768.485	10397.01
768.821	10392.72
769.157	10516.79
769.492	10604.24
769.828	10628.42
770.164	10603.79
