Data from hue_280_FLMS001491_00070.txt Node
Date: Tue Feb 07 15:55:37 GMT 2017
User: dcchb
Spectrometer: FLMS00149
Trigger mode: 0
Integration Time (sec): 2.000000E-2
Scans to average: 10
Electric dark correction enabled: true
Nonlinearity correction enabled: false
Boxcar width: 0
XAxis mode: Wavelengths
Number of Pixels in Spectrum: 2048
>>>>>Begin Spectral Data<<<<<
341.393	-6.43
341.776	-6.43
342.16	-6.43
342.543	-57.05
342.927	-66.54
343.31	-72.64
343.693	-77.38
344.077	-66.09
344.46	-67.89
344.843	-50.72
345.226	-41.91
345.61	-33.32
345.993	-13.21
346.376	7.36
346.759	-13.21
347.142	27.25
347.525	61.14
347.908	50.07
348.291	71.99
348.674	104.76
349.057	113.8
349.44	110.63
349.823	134.81
350.206	145.21
350.588	191.99
350.971	215.49
351.354	226.11
351.737	228.14
352.119	226.79
352.502	258.88
352.884	252.32
353.267	271.53
353.65	285.32
354.032	291.19
354.414	297.75
354.797	304.98
355.179	311.98
355.562	302.49
355.944	322.15
356.326	330.29
356.709	328.48
357.091	320.12
357.473	339.33
357.855	320.57
358.238	318.76
358.62	334.58
359.002	332.55
359.384	338.65
359.766	324.86
360.148	317.63
360.53	332.55
360.912	330.97
361.294	335.94
361.676	304.53
362.057	321.02
362.439	313.11
362.821	310.4
363.203	323.28
363.584	330.29
363.966	308.82
364.348	307.69
364.729	306.56
365.111	310.63
365.493	310.63
365.874	337.52
366.256	311.53
366.637	298.2
367.019	306.56
367.4	309.27
367.781	324.86
368.163	314.7
368.544	309.05
368.925	288.48
369.306	308.82
369.688	283.96
370.069	300.91
370.45	304.98
370.831	305.66
371.212	307.69
371.593	297.75
371.974	294.13
372.355	293.9
372.736	293
373.117	295.26
373.498	307.24
373.879	315.6
374.26	301.14
374.641	320.8
375.021	311.53
375.402	314.7
375.783	317.63
376.163	318.08
376.544	317.18
376.925	339.55
377.305	302.49
377.686	312.66
378.066	330.97
378.447	311.08
378.827	308.82
379.208	309.05
379.588	309.95
379.968	310.85
380.349	318.76
380.729	322.83
381.109	330.51
381.489	332.77
381.87	314.7
382.25	304.98
382.63	323.51
383.01	343.39
383.39	323.51
383.77	323.06
384.15	341.59
384.53	309.72
384.91	320.12
385.29	336.84
385.67	341.36
386.049	334.36
386.429	341.14
386.809	333
387.189	346.33
387.568	352.66
387.948	345.43
388.328	347.69
388.707	341.36
389.087	339.1
389.466	354.47
389.846	341.59
390.225	347.46
390.605	359.89
390.984	359.89
391.363	362.15
391.743	362.83
392.122	360.12
392.501	341.59
392.881	362.15
393.26	368.93
393.639	364.41
394.018	369.61
394.397	363.51
394.776	367.12
395.155	363.51
395.534	369.38
395.913	362.6
396.292	381.13
396.671	370.51
397.05	391.76
397.429	396.73
397.808	365.54
398.186	372.09
398.565	388.37
398.944	385.88
399.323	393.34
399.701	398.76
400.08	387.46
400.458	398.31
400.837	421.81
401.215	398.76
401.594	420.46
401.972	375.71
402.351	425.43
402.729	411.64
403.107	417.07
403.486	395.6
403.864	421.58
404.242	435.14
404.62	426.56
404.999	434.01
405.377	409.61
405.755	442.15
406.133	434.69
406.511	456.61
406.889	451.64
407.267	460.91
407.645	445.09
408.023	450.51
408.401	458.87
408.779	460.91
409.156	461.36
409.534	478.08
409.912	479.44
410.29	491.19
410.667	503.39
411.045	509.04
411.422	530.28
411.8	516.5
412.178	502.94
412.555	513.79
412.933	532.99
413.31	538.42
413.687	557.4
414.065	554.69
414.442	550.62
414.819	562.6
415.197	564.86
415.574	571.19
415.951	572.77
416.328	579.09
416.705	587.23
417.082	569.83
417.46	622.71
417.837	632.43
418.214	624.07
418.591	616.83
418.967	641.69
419.344	636.04
419.721	631.97
420.098	636.72
420.475	673.56
420.852	656.38
421.228	677.62
421.605	683.05
421.982	676.27
422.358	679.66
422.735	699.54
423.111	700.67
423.488	730.5
423.864	714.23
424.241	753.1
424.617	757.62
424.994	743.61
425.37	740.9
425.746	772.99
426.123	764.63
426.499	801.69
426.875	781.8
427.251	801.01
427.627	813.67
428.003	834
428.379	846.43
428.756	822.48
429.132	869.03
429.507	870.61
429.883	844.62
430.259	894.34
430.635	885.98
431.011	888.69
431.387	913.78
431.763	947.45
432.138	939.76
432.514	944.06
432.89	954.9
433.265	985.19
433.641	977.5
434.016	1004.62
434.392	1004.39
434.767	1028.8
435.143	1035.13
435.518	1019.31
435.894	1057.27
436.269	1056.37
436.644	1068.57
437.02	1101.12
437.395	1082.13
437.77	1116.93
438.145	1128.01
438.52	1141.11
438.895	1139.31
439.271	1172.98
439.646	1185.86
440.021	1186.76
440.395	1208.91
440.77	1213.88
441.145	1212.3
441.52	1231.28
441.895	1244.61
442.27	1257.27
442.645	1238.96
443.019	1286.42
443.394	1245.29
443.769	1299.75
444.143	1279.42
444.518	1320.54
444.892	1264.95
445.267	1321.45
445.641	1290.26
446.016	1320.54
446.39	1291.39
446.764	1316.7
447.139	1329.36
447.513	1366.42
447.887	1350.83
448.262	1356.25
448.636	1374.55
449.01	1376.59
449.384	1375.01
449.758	1414.33
450.132	1383.82
450.506	1425.17
450.88	1408.23
451.254	1407.1
451.628	1430.15
452.002	1433.76
452.376	1423.82
452.75	1447.32
453.123	1476.02
453.497	1499.52
453.871	1497.71
454.244	1530.71
454.618	1540.88
454.992	1528.67
455.365	1525.06
455.739	1571.39
456.112	1592.85
456.486	1572.52
456.859	1570.48
457.232	1626.53
457.606	1599.63
457.979	1635.56
458.352	1675.79
458.725	1675.34
459.099	1679.63
459.472	1700.87
459.845	1712.4
460.218	1715.79
460.591	1761.21
460.964	1739.97
461.337	1780.42
461.71	1782.23
462.083	1824.26
462.456	1807.76
462.829	1790.81
463.201	1846.41
463.574	1822.45
463.947	1840.08
464.32	1889.57
464.692	1899.51
465.065	1875.56
465.438	1920.98
465.81	1937.03
466.183	1934.77
466.555	1991.71
466.928	1973.41
467.3	1992.39
467.672	2035.33
468.045	2039.17
468.417	2052.73
468.789	2063.35
469.161	2126.85
469.534	2111.48
469.906	2156
470.278	2192.16
470.65	2162.78
471.022	2222.22
471.394	2269.22
471.766	2260.86
472.138	2292.72
472.51	2293.85
472.882	2348.99
473.253	2353.96
473.625	2384.7
473.997	2423.79
474.369	2441.87
474.74	2384.7
475.112	2446.16
475.484	2504.92
475.855	2556.44
476.227	2549.21
476.598	2641.87
476.97	2614.52
477.341	2677.8
477.713	2681.41
478.084	2699.49
478.455	2740.39
478.827	2780.62
479.198	2838.47
479.569	2795.99
479.94	2868.98
480.311	2875.31
480.682	2959.15
481.053	2996.88
481.424	3059.93
481.795	3012.7
482.166	3075.75
482.537	3085.24
482.908	3178.57
483.279	3174.73
483.65	3203.21
484.021	3243.21
484.391	3300.61
484.762	3293.37
485.133	3321.62
485.503	3335.63
485.874	3422.86
486.244	3451.56
486.615	3485.69
486.985	3548.06
487.356	3547.6
487.726	3544.21
488.097	3642.52
488.467	3638
488.837	3676.19
489.207	3710.54
489.578	3751.44
489.948	3820.59
490.318	3828.73
490.688	3855.17
491.058	3891.78
491.428	3902.62
491.798	3936.97
492.168	4018.33
492.538	4013.13
492.908	4043.86
493.278	4093.58
493.648	4076.86
494.017	4135.16
494.387	4107.59
494.757	4200.47
495.126	4200.92
495.496	4202.5
495.866	4257.19
496.235	4273.69
496.605	4311.65
496.974	4324.76
497.344	4322.27
497.713	4329.28
498.082	4331.31
498.452	4404.08
498.821	4416.28
499.19	4438.43
499.559	4449.28
499.928	4477.98
500.298	4512.78
500.667	4543.74
501.036	4501.25
501.405	4553.23
501.774	4537.63
502.143	4550.29
502.512	4603.17
502.88	4621.02
503.249	4615.6
503.618	4614.02
503.987	4637.75
504.356	4617.18
504.724	4690.17
505.093	4711.87
505.462	4730.85
505.83	4691.76
506.199	4748.48
506.567	4766.33
506.936	4834.35
507.304	4858.98
507.672	4818.76
508.041	4871.41
508.409	4861.47
508.777	4880.22
509.145	4881.81
509.514	4863.28
509.882	4903.5
510.25	4947.34
510.618	4935.59
510.986	4936.95
511.354	4959.09
511.722	5007.68
512.09	5056.94
512.458	4999.77
512.826	5101.91
513.193	5053.33
513.561	5087
513.929	5094.23
514.297	5140.1
514.664	5107.79
515.032	5120.44
515.4	5157.51
515.767	5118.41
516.135	5163.61
516.502	5100.56
516.869	5283.38
517.237	5192.08
517.604	5169.93
517.972	5251.97
518.339	5226.43
518.706	5198.86
519.073	5245.86
519.44	5250.84
519.808	5331.51
520.175	5333.32
520.542	5337.61
520.909	5326.99
521.276	5379.19
521.643	5390.04
522.009	5429.36
522.376	5410.83
522.743	5456.48
523.11	5446.54
523.477	5508.68
523.843	5504.16
524.21	5510.94
524.577	5538.74
524.943	5568.12
525.31	5584.39
525.676	5600.43
526.043	5637.94
526.409	5649.92
526.776	5677.04
527.142	5661.9
527.508	5687.89
527.874	5709.81
528.241	5783.03
528.607	5781.44
528.973	5766.53
529.339	5776.25
529.705	5841.56
530.071	5864.83
530.437	5889.46
530.803	5842.91
531.169	5927.88
531.535	5889.24
531.901	5877.94
532.267	5946.19
532.632	5976.47
532.998	5980.08
533.364	5982.34
533.73	5979.18
534.095	5981.89
534.461	6027.77
534.826	6023.92
535.192	6017.82
535.557	6101.44
535.923	6081.78
536.288	6156.58
536.653	6129.91
537.019	6042.45
537.384	6105.96
537.749	6098.72
538.114	6122.9
538.479	6173.52
538.845	6240.64
539.21	6171.26
539.575	6209.68
539.94	6181.66
540.305	6249.91
540.67	6249.68
541.034	6281.32
541.399	6290.36
541.764	6245.16
542.129	6308.44
542.494	6310.47
542.858	6276.35
543.223	6351.6
543.587	6345.5
543.952	6348.66
544.316	6339.17
544.681	6383.91
545.045	6414.65
545.41	6399.28
545.774	6421.88
546.138	6411.94
546.503	6452.39
546.867	6456.23
547.231	6456.23
547.595	6508.66
547.959	6529.22
548.324	6520.41
548.688	6512.05
549.052	6513.85
549.416	6530.12
549.779	6536.68
550.143	6508.66
550.507	6569.45
550.871	6615.32
551.235	6587.98
551.599	6582.55
551.962	6583.68
552.326	6571.71
552.689	6623
553.053	6648.77
553.417	6678.6
553.78	6674.53
554.143	6629.33
554.507	6667.97
554.87	6675.88
555.234	6761.31
555.597	6676.56
555.96	6713.17
556.323	6723.79
556.686	6759.27
557.05	6832.26
557.413	6833.85
557.776	6792.72
558.139	6866.84
558.502	6876.1
558.865	6842.21
559.228	6837.01
559.59	6888.31
559.953	6860.74
560.316	6940.74
560.679	6953.16
561.041	6979.6
561.404	6950.9
561.767	6985.03
562.129	7029.77
562.492	7019.6
562.854	7065.48
563.217	7044.69
563.579	7084.91
563.941	7197.23
564.304	7122.88
564.666	7174.85
565.028	7186.83
565.39	7208.53
565.753	7244.46
566.115	7319.71
566.477	7306.15
566.839	7299.82
567.201	7318.58
567.563	7320.84
567.925	7376.88
568.287	7422.3
568.648	7405.13
569.01	7479.03
569.372	7505.47
569.734	7471.12
570.095	7561.74
570.457	7550.89
570.819	7551.79
571.18	7652.13
571.542	7636.99
571.903	7651.45
572.265	7699.13
572.626	7733.94
572.987	7758.34
573.349	7753.6
573.71	7842.41
574.071	7810.32
574.432	7862.75
574.794	7932.12
575.155	7895.06
575.516	7909.98
575.877	7975.51
576.238	8030.2
576.599	8041.05
576.96	8003.76
577.32	8100.48
577.681	8099.58
578.042	8187.26
578.403	8169.86
578.763	8189.29
579.124	8343.18
579.485	8274.71
579.845	8389.96
580.206	8422.28
580.566	8441.04
580.927	8456.4
581.287	8515.16
581.648	8629.28
582.008	8680.35
582.368	8615.95
582.728	8699.56
583.089	8683.29
583.449	8770.52
583.809	8794.7
584.169	8818.65
584.529	8927.58
584.889	9015.03
585.249	9004.64
585.609	9112.66
585.969	9156.72
586.329	9221.58
586.688	9277.62
587.048	9380.45
587.408	9350.16
587.768	9372.76
588.127	9529.14
588.487	9528.69
588.846	9629.48
589.206	9610.27
589.565	9696.6
589.925	9879.64
590.284	9810.72
590.643	9891.84
591.003	10004.84
591.362	10017.72
591.721	10115.12
592.08	10091.16
592.44	10310.36
592.799	10325.28
593.158	10315.34
593.517	10384.94
593.876	10422.45
594.235	10471.94
594.593	10591.26
594.952	10621.09
595.311	10652.05
595.67	10804.81
596.029	10866.96
596.387	10909.9
596.746	10967.3
597.104	10966.17
597.463	11043.45
597.822	11123
598.18	11147.86
598.538	11132.72
598.897	11328.87
599.255	11186.5
599.613	11457.23
599.972	11454.97
600.33	11558.24
600.688	11507.4
601.046	11562.08
601.404	11684.11
601.762	11643.89
602.12	11757.11
602.478	11843.43
602.836	11815.86
603.194	11753.94
603.552	11904.9
603.91	11909.19
604.268	11911.23
604.625	11942.41
604.983	12115.06
605.341	11970.43
605.698	12146.7
606.056	12250.88
606.413	12234.38
606.771	12312.57
607.128	12310.76
607.485	12357.99
607.843	12381.95
608.2	12389.41
608.557	12461.95
608.914	12402.74
609.272	12537.65
609.629	12547.37
609.986	12625.78
610.343	12617.2
610.7	12661.04
611.057	12726.35
611.414	12634.6
611.771	12710.3
612.127	12876.85
612.484	12894.03
612.841	12872.11
613.198	12841.6
613.554	12897.19
613.911	12917.3
614.267	12946.91
614.624	13027.36
614.98	12977.41
615.337	13103.51
615.693	13024.42
616.05	13032.78
616.406	13136.73
616.762	13066.22
617.118	13143.96
617.475	13091.99
617.831	13178.54
618.187	13162.49
618.543	13214.24
618.899	13265.77
619.255	13246.78
619.611	13197.29
619.967	13284.98
620.323	13416.5
620.678	13335.6
621.034	13331.53
621.39	13318.42
621.746	13313.45
622.101	13425.99
622.457	13435.48
622.812	13442.71
623.168	13418.98
623.523	13470.06
623.879	13512.54
624.234	13467.34
624.589	13544.18
624.945	13516.83
625.3	13538.98
625.655	13512.09
626.01	13581.01
626.365	13580.79
626.72	13559.77
627.075	13586.66
627.43	13534.23
627.785	13522.94
628.14	13608.81
628.495	13629.37
628.85	13538.98
629.205	13505.99
629.559	13579.21
629.914	13529.04
630.269	13596.38
630.623	13491.07
630.978	13442.03
631.332	13488.59
631.687	13575.36
632.041	13449.94
632.396	13487.46
632.75	13407.23
633.104	13481.35
633.459	13387.57
633.813	13377.18
634.167	13390.06
634.521	13385.54
634.875	13388.25
635.229	13438.19
635.583	13410.4
635.937	13356.39
636.291	13389.61
636.645	13324.97
636.999	13290.17
637.352	13347.8
637.706	13209.5
638.06	13368.14
638.413	13280
638.767	13300.57
639.121	13353.9
639.474	13256.73
639.828	13239.55
640.181	13190.29
640.534	13248.37
640.888	13201.59
641.241	13139.44
641.594	13224.19
641.947	13257.86
642.301	13220.12
642.654	13202.49
643.007	13283.39
643.36	13269.61
643.713	13146.45
644.066	13241.36
644.419	13158.88
644.771	13048.37
645.124	12969.28
645.477	12946.68
645.83	12825.55
646.182	12763.86
646.535	12770.41
646.888	12822.84
647.24	12792.56
647.593	12793.24
647.945	12754.37
648.298	12799.79
648.65	12732.67
649.002	12649.29
649.355	12737.87
649.707	12739.68
650.059	12787.59
650.411	12954.14
650.763	12995.94
651.115	13162.27
651.467	13096.96
651.819	13105.09
652.171	12997.07
652.523	13007.92
652.875	13030.97
653.227	12971.09
653.578	13148.48
653.93	13074.59
654.282	12923.86
654.633	12960.01
654.985	13057.86
655.337	13064.64
655.688	13055.6
656.039	13067.13
656.391	12951.88
656.742	13046.11
657.094	13084.75
657.445	12999.56
657.796	13033.23
658.147	12997.75
658.498	13100.57
658.849	13161.14
659.2	13131.76
659.551	13106.22
659.902	13185.32
660.253	13155.71
660.604	13099.67
660.955	13110.29
661.306	13156.62
661.656	13094.47
662.007	13170.4
662.358	13162.04
662.708	13129.95
663.059	13055.15
663.409	13047.92
663.76	13144.64
664.11	13179.44
664.461	13225.77
664.811	13171.98
665.161	13217.41
665.511	13148.71
665.862	13107.13
666.212	13137.86
666.562	13123.62
666.912	13202.94
667.262	13196.16
667.612	13124.3
667.962	13293.56
668.312	13203.85
668.662	13200.46
669.011	13237.97
669.361	13108.93
669.711	13174.7
670.06	13143.06
670.41	13094.02
670.76	13056.73
671.109	13155.04
671.459	13179.44
671.808	13148.03
672.157	13120.69
672.507	13080.91
672.856	13145.32
673.205	13205.2
673.554	13074.13
673.904	13062.16
674.253	13124.75
674.602	13052.67
674.951	12931.54
675.3	12856.29
675.649	13041.59
675.998	12929.73
676.346	12982.84
676.695	13033.68
677.044	12924.31
677.393	13039.11
677.741	12925.21
678.09	12916.17
678.438	12890.86
678.787	12968.37
679.135	12949.17
679.484	12813.12
679.832	12857.42
680.181	12826.68
680.529	12739.45
680.877	12765.67
681.225	12797.3
681.573	12880.92
681.922	12692.45
682.27	12678.21
682.618	12687.48
682.966	12694.71
683.314	12710.3
683.661	12686.57
684.009	12522.51
684.357	12570.64
684.705	12567.25
685.053	12562.06
685.4	12556.86
685.748	12511.66
686.095	12477.31
686.443	12505.11
686.79	12416.3
687.138	12378.78
687.485	12390.76
687.832	12373.81
688.18	12339.01
688.527	12221.5
688.874	12287.49
689.221	12173.59
689.568	12186.25
689.915	12151.67
690.262	12141.95
690.609	12096.31
690.956	11965.24
691.303	12067.83
691.65	11974.73
691.997	11918.23
692.344	11865.35
692.69	11895.41
693.037	11841.17
693.383	11713.49
693.73	11797.33
694.077	11635.08
694.423	11709.42
694.769	11643.89
695.116	11559.82
695.462	11636.21
695.808	11518.24
696.155	11543.78
696.501	11522.31
696.847	11442.31
697.193	11280.96
697.539	11387.4
697.885	11330.68
698.231	11296.33
698.577	11264.01
698.923	11219.95
699.269	11175.2
699.614	10988.99
699.96	11076.22
700.306	11007.75
700.651	10981.99
700.997	10886.39
701.342	10947.41
701.688	10834.87
702.033	10898.6
702.379	10832.38
702.724	10731.6
703.069	10824.48
703.415	10655.89
703.76	10641.2
704.105	10669.9
704.45	10570.92
704.795	10520.53
705.14	10476.69
705.485	10461.55
705.83	10462
706.175	10499.06
706.52	10441.66
706.865	10345.84
707.209	10347.88
707.554	10342.23
707.899	10279.63
708.243	10263.36
708.588	10182.23
708.932	10168.9
709.277	10141.33
709.621	10113.99
709.966	10129.13
710.31	10088.9
710.654	10026.3
710.998	10017.94
711.342	9986.08
711.687	9945.85
712.031	9998.28
712.375	9932.3
712.719	9923.93
713.063	9883.03
713.407	9911.28
713.75	9823.6
714.094	9786.76
714.438	9855.46
714.782	9838.51
715.125	9781.34
715.469	9689.36
715.812	9709.02
716.156	9652.53
716.499	9688.69
716.843	9726.65
717.186	9592.87
717.53	9737.95
717.873	9699.53
718.216	9671.06
718.559	9605.98
718.902	9524.4
719.246	9577.95
719.589	9586.77
719.932	9583.38
720.275	9551.97
720.617	9572.53
720.96	9482.82
721.303	9600.1
721.646	9535.92
721.989	9531.18
722.331	9516.94
722.674	9505.64
723.016	9476.49
723.359	9442.14
723.701	9445.98
724.044	9372.54
724.386	9384.51
724.729	9368.69
725.071	9350.16
725.413	9346.1
725.755	9355.14
726.097	9302.26
726.439	9303.39
726.782	9296.38
727.124	9318.3
727.465	9302.03
727.807	9285.31
728.149	9327.79
728.491	9220.22
728.833	9361.69
729.175	9275.59
729.516	9315.81
729.858	9276.04
730.199	9251.18
730.541	9317.62
730.882	9294.35
731.224	9360.11
731.565	9193.78
731.906	9184.97
732.248	9251.64
732.589	9255.03
732.93	9224.07
733.271	9229.94
733.612	9248.02
733.953	9223.39
734.294	9201.47
734.635	9218.87
734.976	9209.6
735.317	9231.52
735.658	9200.11
735.999	9295.93
736.339	9277.4
736.68	9271.3
737.021	9235.14
737.361	9271.3
737.702	9365.53
738.042	9280.56
738.383	9260
738.723	9295.48
739.063	9298.19
739.404	9298.19
739.744	9329.83
740.084	9261.35
740.424	9396.04
740.764	9347.45
741.104	9330.5
741.444	9397.39
741.784	9317.62
742.124	9446.21
742.464	9378.86
742.804	9350.84
743.143	9473.78
743.483	9516.94
743.823	9448.01
744.162	9437.62
744.502	9577.73
744.841	9523.94
745.181	9563.72
745.52	9563.72
745.86	9693.21
746.199	9643.94
746.538	9690.95
746.877	9763.94
747.216	9790.38
747.556	9806.42
747.895	9887.78
748.234	9919.19
748.573	9970.26
748.911	10016.36
749.25	10123.48
749.589	10084.61
749.928	10157.83
750.267	10286.41
750.605	10332.74
750.944	10362.34
751.283	10460.64
751.621	10549.23
751.96	10620.86
752.298	10751.71
752.636	10770.69
752.975	10809.56
753.313	11014.53
753.651	11157.35
753.989	11139.27
754.327	11239.61
754.666	11352.82
755.004	11534.74
755.342	11637.56
755.679	11774.51
756.017	11748.97
756.355	11999.81
756.693	12042.07
757.031	12263.08
757.368	12305.57
757.706	12454.04
758.044	12545.11
758.381	12676.86
758.719	12823.74
759.056	12968.15
759.394	13101.03
759.731	13145.77
760.068	13322.49
760.405	13495.82
760.743	13480.9
761.08	13785.08
761.417	13797.28
761.754	14018.06
762.091	14092.86
