Data from hue_220_FLMS001491_00076.txt Node
Date: Tue Feb 07 16:39:55 GMT 2017
User: dcchb
Spectrometer: FLMS00149
Trigger mode: 0
Integration Time (sec): 2.000000E-2
Scans to average: 10
Electric dark correction enabled: true
Nonlinearity correction enabled: false
Boxcar width: 0
XAxis mode: Wavelengths
Number of Pixels in Spectrum: 2048
>>>>>Begin Spectral Data<<<<<
341.393	-27.34
341.776	-27.34
342.16	-27.34
342.543	-62.37
342.927	-69.6
343.31	-73.44
343.693	-63.73
344.077	-80.68
344.46	-47
344.843	-49.49
345.226	-28.7
345.61	-32.09
345.993	-6.55
346.376	3.16
346.759	22.15
347.142	6.78
347.525	41.81
347.908	37.29
348.291	68.02
348.674	101.24
349.057	101.24
349.44	115.03
349.823	135.82
350.206	155.93
350.588	172.65
350.971	207
351.354	207.68
351.737	258.07
352.119	232.08
352.502	252.2
352.884	264.4
353.267	277.05
353.65	289.48
354.032	301.24
354.414	305.75
354.797	296.94
355.179	312.53
355.562	312.76
355.944	327.68
356.326	357.5
356.709	358.86
357.091	321.8
357.473	334.45
357.855	317.05
358.238	324.51
358.62	338.3
359.002	309.6
359.384	352.53
359.766	331.74
360.148	331.97
360.53	365.19
360.912	344.85
361.294	321.57
361.676	324.51
362.057	321.8
362.439	314.12
362.821	321.8
363.203	314.57
363.584	311.18
363.966	346.21
364.348	315.25
364.729	312.31
365.111	291.74
365.493	304.4
365.874	317.96
366.256	313.66
366.637	294.46
367.019	312.76
367.4	325.87
367.781	299.88
368.163	292.87
368.544	299.2
368.925	315.25
369.306	328.35
369.688	294.46
370.069	309.82
370.45	302.14
370.831	303.27
371.212	311.63
371.593	324.74
371.974	317.28
372.355	312.53
372.736	296.49
373.117	301.46
373.498	318.64
373.879	309.82
374.26	313.21
374.641	303.27
375.021	322.93
375.402	326.77
375.783	310.27
376.163	326.55
376.544	328.35
376.925	306.21
377.305	328.8
377.686	308.24
378.066	316.38
378.447	324.29
378.827	313.44
379.208	320.44
379.588	322.93
379.968	346.43
380.349	347.79
380.729	360.44
381.109	340.78
381.489	326.09
381.87	355.7
382.25	323.61
382.63	358.18
383.01	343.72
383.39	344.62
383.77	331.06
384.15	344.85
384.53	338.75
384.91	342.59
385.29	358.63
385.67	335.58
386.049	340.33
386.429	353.44
386.809	349.14
387.189	347.56
387.568	341.01
387.948	332.87
388.328	342.82
388.707	356.15
389.087	365.87
389.466	360.22
389.846	348.24
390.225	365.64
390.605	369.48
390.984	366.32
391.363	353.89
391.743	367.9
392.122	373.1
392.501	367.9
392.881	364.51
393.26	385.07
393.639	372.87
394.018	371.74
394.397	377.17
394.776	381.01
395.155	371.29
395.534	361.8
395.913	363.83
396.292	368.58
396.671	396.37
397.05	388.24
397.429	398.41
397.808	400.89
398.186	402.7
398.565	404.96
398.944	414.45
399.323	403.38
399.701	393.89
400.08	386.88
400.458	410.16
400.837	407.45
401.215	427.56
401.594	414.45
401.972	413.32
402.351	416.94
402.729	410.84
403.107	407.45
403.486	419.2
403.864	425.53
404.242	427.33
404.62	435.47
404.999	436.15
405.377	453.55
405.755	454.45
406.133	461.68
406.511	456.26
406.889	453.77
407.267	468.46
407.645	489.93
408.023	492.64
408.401	476.15
408.779	471.17
409.156	491.51
409.534	509.14
409.912	497.16
410.29	530.83
410.667	536.48
411.045	546.2
411.422	534.9
411.8	543.94
412.178	549.59
412.555	559.76
412.933	573.77
413.31	590.72
413.687	567.44
414.065	603.6
414.442	588.91
414.819	598.63
415.197	606.54
415.574	632.98
415.951	632.75
416.328	627.55
416.705	648.8
417.082	655.35
417.46	637.72
417.837	675.91
418.214	659.42
418.591	670.94
418.967	665.75
419.344	701.9
419.721	677.27
420.098	700.55
420.475	724.05
420.852	751.84
421.228	751.39
421.605	759.08
421.982	750.49
422.358	753.2
422.735	794.78
423.111	803.82
423.488	790.94
423.864	798.62
424.241	860.54
424.617	837.49
424.994	879.3
425.37	878.39
425.746	888.56
426.123	885.63
426.499	884.27
426.875	943.25
427.251	947.32
427.627	949.35
428.003	962.46
428.379	993.19
428.756	967.43
429.132	1027.09
429.507	1022.35
429.883	1053.08
430.259	1044.72
430.635	1049.69
431.011	1057.83
431.387	1081.33
431.763	1090.59
432.138	1103.7
432.514	1147.54
432.89	1128.33
433.265	1155.68
433.641	1188.22
434.016	1177.6
434.392	1225.05
434.767	1235.45
435.143	1260.31
435.518	1284.49
435.894	1313.19
436.269	1316.58
436.644	1323.81
437.02	1360.64
437.395	1357.03
437.77	1400.19
438.145	1455.78
438.52	1463.69
438.895	1456.68
439.271	1474.31
439.646	1519.28
440.021	1525.84
440.395	1560.18
440.77	1557.02
441.145	1561.09
441.52	1597.92
441.895	1614.65
442.27	1619.17
442.645	1619.84
443.019	1657.36
443.394	1677.47
443.769	1704.81
444.143	1715.89
444.518	1753.17
444.892	1730.35
445.267	1740.29
445.641	1730.58
446.016	1800.86
446.39	1788.43
446.764	1809.9
447.139	1799.95
447.513	1814.87
447.887	1843.79
448.262	1828.43
448.636	1851.93
449.01	1870.23
449.384	1877.24
449.758	1916.79
450.132	1916.33
450.506	1944.81
450.88	1957.91
451.254	1958.82
451.628	2000.17
452.002	2030
452.376	2013.51
452.75	2045.6
453.123	2034.75
453.497	2112.71
453.871	2062.09
454.244	2118.14
454.618	2167.17
454.992	2123.33
455.365	2192.71
455.739	2196.55
456.112	2244.69
456.486	2266.83
456.859	2252.37
457.232	2336.66
457.606	2306.15
457.979	2317.23
458.352	2364.01
458.725	2399.48
459.099	2470.22
459.472	2474.29
459.845	2458.69
460.218	2490.33
460.591	2543.89
460.964	2516.09
461.337	2602.87
461.71	2639.03
462.083	2650.33
462.456	2649.87
462.829	2650.33
463.201	2697.78
463.574	2715.18
463.947	2757.22
464.32	2804.45
464.692	2804.22
465.065	2817.1
465.438	2883.54
465.81	2938
466.183	2940.49
466.555	2988.4
466.928	2996.98
467.3	2974.84
467.672	3022.97
468.045	3104.33
468.417	3107.26
468.789	3130.09
469.161	3185.23
469.534	3204.66
469.906	3283.08
470.278	3322.62
470.65	3346.58
471.022	3402.62
471.394	3437.88
471.766	3468.84
472.138	3512.68
472.51	3577.08
472.882	3625.89
473.253	3660.47
473.625	3698.21
473.997	3797.19
474.369	3775.04
474.74	3817.07
475.112	3869.28
475.484	3897.98
475.855	3969.61
476.227	4022.49
476.598	4128.03
476.97	4142.49
477.341	4246.89
477.713	4286.44
478.084	4262.94
478.455	4378.87
478.827	4423.61
479.198	4541.8
479.569	4524.85
479.94	4601.01
480.311	4644.4
480.682	4763.94
481.053	4843.26
481.424	4856.6
481.795	4903.15
482.166	4989.02
482.537	5019.53
482.908	5134.55
483.279	5208.9
483.65	5245.74
484.021	5366.19
484.391	5388.11
484.762	5424.72
485.133	5456.13
485.503	5526.63
485.874	5642.34
486.244	5660.42
486.615	5764.59
486.985	5736.8
487.356	5895.66
487.726	5956.23
488.097	6019.28
488.467	5999.62
488.837	6203.45
489.207	6241.87
489.578	6262.89
489.948	6296.56
490.318	6413.84
490.688	6431.02
491.058	6512.15
491.428	6550.34
491.798	6683.67
492.168	6701.74
492.538	6762.31
492.908	6827.17
493.278	6847.05
493.648	6819.26
494.017	6960.72
494.387	7007.95
494.757	7014.5
495.126	7037.78
495.496	7098.12
495.866	7174.73
496.235	7206.82
496.605	7228.51
496.974	7338.34
497.344	7319.13
497.713	7363.87
498.082	7347.38
498.452	7483.19
498.821	7416.98
499.19	7506.47
499.559	7550.31
499.928	7573.81
500.298	7611.1
500.667	7680.48
501.036	7603.87
501.405	7692.91
501.774	7660.14
502.143	7729.06
502.512	7717.54
502.88	7774.94
503.249	7820.36
503.618	7863.3
503.987	7852.9
504.356	7887.93
504.724	7876.86
505.093	7894.26
505.462	7931.99
505.83	7966.8
506.199	7969.73
506.567	8064.19
506.936	8080.69
507.304	8176.28
507.672	8134.48
508.041	8148.26
508.409	8191.87
508.777	8220.12
509.145	8233.91
509.514	8236.85
509.882	8282.04
510.25	8251.76
510.618	8289.05
510.986	8310.97
511.354	8306.9
511.722	8402.49
512.09	8401.59
512.458	8357.29
512.826	8448.37
513.193	8439.1
513.561	8450.85
513.929	8485.88
514.297	8486.33
514.664	8497.86
515.032	8488.59
515.4	8522.49
515.767	8548.93
516.135	8574.24
516.502	8548.93
516.869	8651.52
517.237	8622.15
517.604	8512.77
517.972	8588.47
518.339	8608.59
518.706	8656.04
519.073	8583.5
519.44	8624.63
519.808	8649.94
520.175	8667.79
520.542	8689.49
520.909	8750.05
521.276	8668.92
521.643	8688.36
522.009	8701.47
522.376	8787.11
522.743	8759.77
523.11	8783.27
523.477	8828.92
523.843	8767.91
524.21	8826.43
524.577	8960.67
524.943	8850.61
525.31	8909.37
525.676	8903.95
526.043	8915.02
526.409	8879.99
526.776	8999.31
527.142	8950.05
527.508	8987.79
527.874	9023.49
528.241	9013.55
528.607	8926.32
528.973	9000.89
529.339	8990.95
529.705	9044.28
530.071	9016.26
530.437	9012.64
530.803	9020.1
531.169	8987.56
531.535	8976.94
531.901	8995.24
532.267	8973.78
532.632	9009.48
532.998	8982.59
533.364	9008.58
533.73	8967.9
534.095	9003.61
534.461	9016.94
534.826	8990.72
535.192	8988.24
535.557	9000.44
535.923	8981.91
536.288	8953.89
536.653	8902.59
537.019	8852.42
537.384	8890.39
537.749	8886.32
538.114	8868.24
538.479	8865.98
538.845	8834.57
539.21	8851.74
539.575	8797.73
539.94	8803.16
540.305	8817.4
540.67	8692.43
541.034	8703.27
541.399	8725.87
541.764	8718.19
542.129	8733.78
542.494	8667.79
542.858	8740.11
543.223	8684.74
543.587	8717.06
543.952	8656.5
544.316	8668.02
544.681	8539.44
545.045	8598.19
545.41	8590.06
545.774	8577.63
546.138	8621.92
546.503	8501.25
546.867	8490.17
547.231	8514.58
547.595	8507.57
547.959	8518.65
548.324	8498.53
548.688	8471.87
549.052	8446.56
549.416	8422.83
549.779	8422.6
550.143	8359.55
550.507	8369.05
550.871	8327.46
551.235	8312.1
551.599	8288.37
551.962	8383.28
552.326	8321.82
552.689	8292.44
553.053	8230.97
553.417	8242.95
553.78	8324.3
554.143	8273.68
554.507	8271.42
554.87	8241.59
555.234	8263.29
555.597	8226.45
555.96	8212.89
556.323	8209.95
556.686	8170.41
557.05	8162.05
557.413	8205.89
557.776	8197.52
558.139	8184.64
558.502	8122.05
558.865	8075.72
559.228	8176.28
559.59	8180.12
559.953	8178.77
560.316	8205.43
560.679	8235.94
561.041	8216.06
561.404	8274.13
561.767	8237.52
562.129	8176.96
562.492	8282.04
562.854	8200.24
563.217	8218.77
563.579	8260.57
563.941	8262.38
564.304	8275.26
564.666	8291.53
565.028	8229.84
565.39	8250.86
565.753	8324.07
566.115	8294.7
566.477	8356.39
566.839	8324.3
567.201	8325.2
567.563	8341.48
567.925	8406.78
568.287	8404.75
568.648	8382.15
569.01	8444.98
569.372	8494.92
569.734	8459.89
570.095	8427.8
570.457	8538.53
570.819	8478.42
571.18	8472.55
571.542	8536.72
571.903	8485.2
572.265	8543.73
572.626	8551.64
572.987	8550.51
573.349	8567.68
573.71	8589.83
574.071	8624.86
574.432	8618.08
574.794	8749.15
575.155	8720.67
575.516	8720.9
575.877	8705.76
576.238	8685.65
576.599	8747.11
576.96	8732.88
577.32	8758.19
577.681	8773.33
578.042	8798.19
578.403	8792.99
578.763	8892.65
579.124	8877.73
579.485	8941.01
579.845	8906.21
580.206	8928.58
580.566	8983.49
580.927	8937.17
581.287	9044.96
581.648	8946.21
582.008	8965.19
582.368	9018.52
582.728	9027.56
583.089	8969.93
583.449	9062.36
583.809	9111.4
584.169	9062.36
584.529	9086.09
584.889	9140.78
585.249	9144.17
585.609	9100.1
585.969	9179.42
586.329	9184.62
586.688	9227.55
587.048	9278.63
587.408	9167.22
587.768	9248.8
588.127	9251.28
588.487	9247.44
588.846	9286.08
589.206	9248.12
589.565	9294.22
589.925	9298.06
590.284	9287.89
590.643	9306.65
591.003	9316.82
591.362	9390.26
591.721	9384.61
592.08	9372.41
592.44	9383.26
592.799	9432.75
593.158	9397.94
593.517	9331.51
593.876	9424.84
594.235	9399.53
594.593	9397.49
594.952	9412.18
595.311	9422.13
595.67	9444.95
596.029	9491.28
596.387	9526.53
596.746	9553.65
597.104	9463.93
597.463	9501.67
597.822	9526.53
598.18	9515
598.538	9461.9
598.897	9525.17
599.255	9460.99
599.613	9634.1
599.972	9506.42
600.33	9584.83
600.688	9526.98
601.046	9623.25
601.404	9625.06
601.762	9597.94
602.12	9623.7
602.478	9563.82
602.836	9645.17
603.194	9524.95
603.552	9625.74
603.91	9608.56
604.268	9627.09
604.625	9620.09
604.983	9704.6
605.341	9637.03
605.698	9715.22
606.056	9676.36
606.413	9660.08
606.771	9698.95
607.128	9672.51
607.485	9661.44
607.843	9662.57
608.2	9684.04
608.557	9758.61
608.914	9742.12
609.272	9661.89
609.629	9746.86
609.986	9816.92
610.343	9790.93
610.7	9855.56
611.057	9801.32
611.414	9797.48
611.771	9849.46
612.127	9814.21
612.484	9830.25
612.841	9788.22
613.198	9819.63
613.554	9808.56
613.911	9893.07
614.267	9879.74
614.624	9881.1
614.98	9827.54
615.337	9930.81
615.693	9908.89
616.05	9921.1
616.406	9916.8
616.762	9859.4
617.118	9919.97
617.475	9934.88
617.831	9945.95
618.187	9965.39
618.543	9940.53
618.899	10071.15
619.255	9990.7
619.611	9916.58
619.967	10054.42
620.323	10043.58
620.678	10014.65
621.034	9937.14
621.39	9985.05
621.746	10039.74
622.101	10127.42
622.457	9961.77
622.812	10017.14
623.168	10066.4
623.523	10037.25
623.879	10108.43
624.234	9985.05
624.589	10089.23
624.945	10068.44
625.3	10007.19
625.655	10025.5
626.01	10023.69
626.365	10050.36
626.72	10048.78
627.075	9973.75
627.43	10056.91
627.785	9988.21
628.14	9990.47
628.495	10024.82
628.85	10023.24
629.205	9956.8
629.559	10013.75
629.914	9930.81
630.269	9969
630.623	9952.05
630.978	9854.43
631.332	9929.91
631.687	9971.04
632.041	9880.19
632.396	9905.5
632.75	9936.01
633.104	9868.89
633.459	9863.47
633.813	9887.42
634.167	9786.86
634.521	9884.03
634.875	9844.26
635.229	9790.48
635.583	9777.6
635.937	9804.26
636.291	9749.12
636.645	9829.8
636.999	9668.9
637.352	9768.33
637.706	9677.49
638.06	9763.13
638.413	9724.04
638.767	9741.89
639.121	9706.41
639.474	9661.89
639.828	9598.62
640.181	9645.17
640.534	9675.23
640.888	9643.81
641.241	9559.75
641.594	9623.25
641.947	9641.78
642.301	9606.98
642.654	9616.92
643.007	9649.69
643.36	9570.37
643.713	9565.85
644.066	9581.67
644.419	9529.24
644.771	9508
645.124	9459.19
645.477	9433.65
645.83	9358.4
646.182	9317.95
646.535	9302.35
646.888	9263.03
647.24	9212.87
647.593	9292.19
647.945	9267.55
648.298	9170.83
648.65	9197.27
649.002	9126.31
649.355	9255.12
649.707	9222.81
650.059	9308.68
650.411	9445.85
650.763	9405.85
651.115	9475.23
651.467	9475.68
651.819	9483.59
652.171	9521.78
652.523	9486.08
652.875	9454.44
653.227	9416.25
653.578	9507.32
653.93	9458.73
654.282	9377.38
654.633	9357.72
654.985	9417.61
655.337	9520.2
655.688	9403.82
656.039	9495.57
656.391	9478.39
656.742	9496.7
657.094	9393.65
657.445	9475.91
657.796	9475.46
658.147	9449.92
658.498	9414.67
658.849	9539.64
659.2	9461.22
659.551	9396.59
659.902	9457.6
660.253	9496.02
660.604	9517.94
660.955	9451.05
661.306	9476.14
661.656	9486.3
662.007	9459.41
662.358	9509.13
662.708	9469.81
663.059	9474.33
663.409	9465.29
663.76	9519.3
664.11	9475.91
664.461	9550.03
664.811	9515.68
665.161	9564.49
665.511	9499.19
665.862	9536.92
666.212	9515.68
666.562	9519.52
666.912	9496.93
667.262	9482.01
667.612	9576.7
667.962	9441.79
668.312	9463.71
668.662	9602.91
669.011	9527.21
669.361	9439.07
669.711	9476.36
670.06	9571.05
670.41	9418.96
670.76	9513.2
671.109	9503.7
671.459	9432.07
671.808	9499.41
672.157	9463.71
672.507	9378.96
672.856	9376.25
673.205	9395.91
673.554	9464.84
673.904	9397.49
674.253	9447.66
674.602	9421.67
674.951	9301.45
675.3	9267.1
675.649	9406.53
675.998	9343.94
676.346	9288.57
676.695	9359.08
677.044	9320.43
677.393	9385.29
677.741	9328.79
678.09	9340.32
678.438	9303.71
678.787	9274.56
679.135	9275.01
679.484	9217.84
679.832	9265.29
680.181	9238.18
680.529	9189.36
680.877	9197.72
681.225	9137.16
681.573	9204.5
681.922	9172.19
682.27	9144.62
682.618	9155.92
682.966	9109.82
683.314	9117.95
683.661	9072.53
684.009	9034.34
684.357	9016.49
684.705	8993.89
685.053	8982.14
685.4	8966.32
685.748	8972.65
686.095	8945.3
686.443	8917.51
686.79	8867.11
687.138	8938.75
687.485	8915.92
687.832	8823.72
688.18	8807.68
688.527	8802.03
688.874	8763.16
689.221	8747.79
689.568	8743.27
689.915	8686.33
690.262	8654.69
690.609	8658.53
690.956	8654.91
691.303	8652.88
691.65	8621.02
691.997	8557.97
692.344	8507.57
692.69	8471.64
693.037	8500.34
693.383	8422.15
693.73	8473
694.077	8364.75
694.423	8380.8
694.769	8338.76
695.116	8369.05
695.462	8282.04
695.808	8293.79
696.155	8260.8
696.501	8147.36
696.847	8227.13
697.193	8096.74
697.539	8168.6
697.885	8093.57
698.231	8018.77
698.577	8056.74
698.923	8051.09
699.269	7985.55
699.614	7961.37
699.96	7970.86
700.306	7957.76
700.651	7864.65
700.997	7844.09
701.342	7807.48
701.688	7808.38
702.033	7798.21
702.379	7706.69
702.724	7726.35
703.069	7689.29
703.415	7649.97
703.76	7612.91
704.105	7625.34
704.45	7633.7
704.795	7529.52
705.14	7515.96
705.485	7508.5
705.83	7450.2
706.175	7477.77
706.52	7430.54
706.865	7378.79
707.209	7401.16
707.554	7352.12
707.899	7409.07
708.243	7327.04
708.588	7257.21
708.932	7200.71
709.277	7249.53
709.621	7247.72
709.966	7218.57
710.31	7156.87
710.654	7167.5
710.998	7133.82
711.342	7141.28
711.687	7061.51
712.031	7089.31
712.375	7044.79
712.719	7072.58
713.063	7057.22
713.407	7082.3
713.75	7042.07
714.094	7024.9
714.438	7003.88
714.782	6997.33
715.125	6964.34
715.469	6966.82
715.812	6968.18
716.156	6880.5
716.499	6936.09
716.843	6930.89
717.186	6856.54
717.53	6954.85
717.873	6886.82
718.216	6876.66
718.559	6914.17
718.902	6796.21
719.246	6842.76
719.589	6834.17
719.932	6796.66
720.275	6815.19
720.617	6812.7
720.96	6780.16
721.303	6779.93
721.646	6771.8
721.989	6785.36
722.331	6786.04
722.674	6781.97
723.016	6725.92
723.359	6757.34
723.701	6798.92
724.044	6745.81
724.386	6658.36
724.729	6728.64
725.071	6714.85
725.413	6697.68
725.755	6678.24
726.097	6626.04
726.439	6635.31
726.782	6647.28
727.124	6692.03
727.465	6649.99
727.807	6627.4
728.149	6610.45
728.491	6619.49
728.833	6667.62
729.175	6621.29
729.516	6624.46
729.858	6651.12
730.199	6656.1
730.541	6635.76
730.882	6665.14
731.224	6651.12
731.565	6619.71
731.906	6606.15
732.248	6573.84
732.589	6632.59
732.93	6616.55
733.271	6612.26
733.612	6613.61
733.953	6657.68
734.294	6636.66
734.635	6604.8
734.976	6605.48
735.317	6594.85
735.658	6634.4
735.999	6611.8
736.339	6556.89
736.68	6635.08
737.021	6671.24
737.361	6591.01
737.702	6659.94
738.042	6611.58
738.383	6635.53
738.723	6661.29
739.063	6683.67
739.404	6688.64
739.744	6673.95
740.084	6613.61
740.424	6741.74
740.764	6699.26
741.104	6777.45
741.444	6695.19
741.784	6749.43
742.124	6778.58
742.464	6786.26
742.804	6729.31
743.143	6800.27
743.483	6818.13
743.823	6804.57
744.162	6820.16
744.502	6892.47
744.841	6950.33
745.181	6916.65
745.52	6983.55
745.86	7064.67
746.199	6982.19
746.538	7098.57
746.877	7167.27
747.216	7164.78
747.556	7186.48
747.895	7275.29
748.234	7238
748.573	7310.54
748.911	7349.64
749.25	7439.58
749.589	7427.15
749.928	7492.68
750.267	7555.96
750.605	7679.57
750.944	7807.7
751.283	7791.43
751.621	7886.12
751.96	7884.09
752.298	8052.22
752.636	8169.73
752.975	8179.22
753.313	8254.47
753.651	8433.9
753.989	8483.84
754.327	8588.02
754.666	8649.04
755.004	8788.47
755.342	8983.04
755.679	9081.57
756.017	9126.99
756.355	9268
756.693	9393.88
757.031	9610.37
757.368	9708.22
757.706	9882.23
758.044	9970.36
758.381	10176.23
758.719	10285.15
759.056	10418.94
759.394	10595.2
759.731	10685.14
760.068	10862.54
760.405	11004.68
760.743	11138.69
761.08	11327.61
761.417	11528.06
761.754	11736.41
762.091	11908.61
762.428	12079.91
762.765	12206.91
763.102	12374.14
763.438	12562.61
763.775	12676.73
764.112	12926.44
764.449	13138.19
764.785	13271.74
765.122	13340.21
765.458	13506.99
765.795	13676.48
766.131	13827.43
766.467	14005.06
766.804	14110.14
767.14	14228.1
767.476	14445.27
767.812	14520.07
768.148	14720.97
768.485	14819.72
