Data from hue_250_FLMS001491_00068.txt Node
Date: Tue Feb 07 16:01:19 GMT 2017
User: dcchb
Spectrometer: FLMS00149
Trigger mode: 0
Integration Time (sec): 2.000000E-2
Scans to average: 10
Electric dark correction enabled: true
Nonlinearity correction enabled: false
Boxcar width: 0
XAxis mode: Wavelengths
Number of Pixels in Spectrum: 2048
>>>>>Begin Spectral Data<<<<<
341.393	-29.45
341.776	-29.45
342.16	-29.45
342.543	-66.74
342.927	-75.1
343.31	-72.61
343.693	-56.11
344.077	-76.68
344.46	-68.09
344.843	-49.33
345.226	-47.53
345.61	-35.1
345.993	-10.92
346.376	-17.47
346.759	1.06
347.142	31.57
347.525	45.58
347.908	51.91
348.291	86.25
348.674	100.27
349.057	117.21
349.44	126.48
349.823	133.71
350.206	155.18
350.588	190.21
350.971	215.52
351.354	218.45
351.737	236.31
352.119	252.13
352.502	247.61
352.884	260.94
353.267	272.69
353.65	296.42
354.032	280.37
354.414	299.81
354.797	295.06
355.179	301.62
355.562	311.11
355.944	319.92
356.326	322.63
356.709	321.95
357.091	324.21
357.473	325.8
357.855	336.87
358.238	323.76
358.62	342.29
359.002	340.03
359.384	333.25
359.766	331.9
360.148	315.18
360.53	333.25
360.912	340.26
361.294	331.67
361.676	323.08
362.057	313.37
362.439	342.75
362.821	335.51
363.203	328.28
363.584	325.57
363.966	323.31
364.348	307.04
364.729	330.77
365.111	303.42
365.493	312.24
365.874	309.75
366.256	319.24
366.637	320.6
367.019	315.4
367.4	283.99
367.781	335.06
368.163	312.01
368.544	306.59
368.925	295.74
369.306	311.33
369.688	302.29
370.069	291.9
370.45	301.39
370.831	317.21
371.212	297.77
371.593	313.37
371.974	313.82
372.355	306.14
372.736	322.41
373.117	309.98
373.498	307.49
373.879	303.65
374.26	308.62
374.641	299.81
375.021	318.11
375.402	323.54
375.783	315.63
376.163	304.33
376.544	333.03
376.925	335.06
377.305	325.12
377.686	310.43
378.066	330.32
378.447	321.28
378.827	332.35
379.208	323.76
379.588	348.17
379.968	325.8
380.349	323.54
380.729	325.34
381.109	332.8
381.489	347.94
381.87	329.64
382.25	349.75
382.63	313.82
383.01	334.16
383.39	333.71
383.77	340.94
384.15	341.84
384.53	345.68
384.91	351.33
385.29	328.28
385.67	355.4
386.049	354.5
386.429	374.61
386.809	366.02
387.189	366.93
387.568	372.8
387.948	346.13
388.328	360.6
388.707	342.52
389.087	365.12
389.466	364.21
389.846	363.08
390.225	387.26
390.605	380.03
390.984	403.08
391.363	372.12
391.743	379.58
392.122	365.34
392.501	380.26
392.881	385.46
393.26	382.52
393.639	375.29
394.018	400.37
394.397	389.75
394.776	412.12
395.155	390.43
395.534	403.53
395.913	398.34
396.292	404.21
396.671	379.81
397.05	398.34
397.429	405.12
397.808	392.01
398.186	403.53
398.565	412.35
398.944	416.42
399.323	406.7
399.701	416.19
400.08	418.68
400.458	407.15
400.837	436.3
401.215	426.36
401.594	426.36
401.972	433.14
402.351	425.91
402.729	457.54
403.107	452.35
403.486	434.49
403.864	449.64
404.242	437.43
404.62	457.77
404.999	450.54
405.377	459.35
405.755	472.46
406.133	461.16
406.511	456.87
406.889	494.15
407.267	494.15
407.645	495.96
408.023	508.39
408.401	495.06
408.779	500.48
409.156	508.39
409.534	518.11
409.912	515.62
410.29	537.09
410.667	546.58
411.045	546.13
411.422	556.3
411.8	558.78
412.178	566.24
412.555	554.72
412.933	572.12
413.31	568.73
413.687	570.31
414.065	604.66
414.442	592
414.819	607.37
415.197	621.61
415.574	640.59
415.951	640.36
416.328	639.91
416.705	618.9
417.082	646.47
417.46	636.97
417.837	674.04
418.214	660.7
418.591	667.93
418.967	671.32
419.344	675.17
419.721	689.18
420.098	689.85
420.475	707.71
420.852	714.03
421.228	749.29
421.605	738.44
421.982	764.66
422.358	739.57
422.735	768.72
423.111	758.55
423.488	770.08
423.864	813.02
424.241	806.91
424.617	808.04
424.994	832.22
425.37	832.9
425.746	839.68
426.123	828.61
426.499	863.18
426.875	875.84
427.251	892.79
427.627	921.71
428.003	915.84
428.379	915.39
428.756	929.4
429.132	961.49
429.507	936.85
429.883	943.41
430.259	976.4
430.635	980.24
431.011	974.59
431.387	1001.48
431.763	1021.82
432.138	1037.87
432.514	1056.4
432.89	1036.06
433.265	1093.69
433.641	1103.18
434.016	1119.22
434.392	1125.1
434.767	1138.2
435.143	1118.32
435.518	1189.28
435.894	1189.5
436.269	1194.47
436.644	1207.36
437.02	1220.91
437.395	1202.84
437.77	1274.92
438.145	1281.48
438.52	1304.53
438.895	1305.88
439.271	1293.68
439.646	1328.26
440.021	1361.48
440.395	1359.22
440.77	1364.87
441.145	1369.84
441.52	1387.92
441.895	1420.01
442.27	1443.28
442.645	1425.43
443.019	1479.66
443.394	1471.3
443.769	1477.18
444.143	1499.1
444.518	1496.84
444.892	1495.71
445.267	1508.14
445.641	1525.76
446.016	1536.16
446.39	1558.98
446.764	1548.59
447.139	1565.09
447.513	1608.25
447.887	1586.78
448.262	1625.88
448.636	1601.02
449.01	1626.78
449.384	1649.6
449.758	1655.93
450.132	1672.88
450.506	1709.71
450.88	1709.49
451.254	1664.29
451.628	1707.23
452.002	1721.92
452.376	1750.62
452.75	1777.51
453.123	1746.55
453.497	1803.05
453.871	1813.44
454.244	1840.33
454.618	1855.7
454.992	1881.01
455.365	1910.61
455.739	1918.75
456.112	1977.28
456.486	1979.99
456.859	1958.52
457.232	2000.78
457.606	1994.91
457.979	2041.01
458.352	2082.81
458.725	2092.76
459.099	2102.02
459.472	2142.47
459.845	2136.37
460.218	2147.22
460.591	2185.86
460.964	2191.06
461.337	2251.17
461.71	2279.42
462.083	2297.72
462.456	2296.82
462.829	2338.85
463.201	2352.86
463.574	2375.46
463.947	2398.06
464.32	2395.57
464.692	2436.48
465.065	2509.02
465.438	2508.56
465.81	2574.1
466.183	2554.44
466.555	2647.09
466.928	2596.02
467.3	2628.33
467.672	2698.84
468.045	2728.9
468.417	2715.56
468.789	2774.32
469.161	2784.26
469.534	2814.54
469.906	2896.35
470.278	2897.71
470.65	2912.62
471.022	2967.99
471.394	3010.7
471.766	3002.11
472.138	3064.93
472.51	3126.17
472.882	3193.74
473.253	3201.65
473.625	3256.57
473.997	3308.32
474.369	3301.99
474.74	3319.16
475.112	3421.76
475.484	3484.58
475.855	3506.28
476.227	3524.13
476.598	3647.52
476.97	3658.82
477.341	3696.1
477.713	3766.84
478.084	3768.19
478.455	3868.08
478.827	3910.56
479.198	3985.36
479.569	4020.84
479.94	4096.77
480.311	4116.43
480.682	4209.54
481.053	4302.87
481.424	4337.89
481.795	4341.06
482.166	4413.37
482.537	4497.21
482.908	4567.49
483.279	4632.35
483.65	4685.23
484.021	4769.75
484.391	4807.94
484.762	4795.74
485.133	4839.12
485.503	4912.79
485.874	5034.15
486.244	5113.69
486.615	5128.83
486.985	5181.94
487.356	5294.25
487.726	5344.2
488.097	5404.31
488.467	5406.11
488.837	5558.2
489.207	5574.25
489.578	5662.83
489.948	5683.62
490.318	5752.09
490.688	5764.75
491.058	5891.53
491.428	5931.52
491.798	5958.87
492.168	6063.5
492.538	6087
492.908	6134.46
493.278	6243.83
493.648	6219.2
494.017	6333.32
494.387	6373.55
494.757	6369.71
495.126	6442.92
495.496	6477.95
495.866	6493.32
496.235	6528.35
496.605	6618.51
496.974	6687.21
497.344	6676.59
497.713	6731.28
498.082	6764.95
498.452	6814.21
498.821	6798.85
499.19	6814.89
499.559	6897.6
499.928	6948.9
500.298	6954.32
500.667	7023.7
501.036	7002.23
501.405	7114.54
501.774	7108.44
502.143	7149.35
502.512	7166.52
502.88	7234.32
503.249	7197.93
503.618	7280.42
503.987	7291.04
504.356	7321.54
504.724	7297.14
505.093	7382.56
505.462	7339.62
505.83	7487.64
506.199	7477.47
506.567	7539.62
506.936	7520.64
507.304	7590.24
507.672	7595.66
508.041	7691.7
508.409	7689.22
508.777	7747.3
509.145	7813.74
509.514	7876.78
509.882	7864.13
510.25	7854.64
510.618	7868.88
510.986	7902.09
511.354	7917.46
511.722	7980.51
512.09	8021.87
512.458	8003.79
512.826	8102.54
513.193	8112.71
513.561	8070.45
513.929	8143.9
514.297	8207.4
514.664	8218.92
515.032	8261.18
515.4	8330.56
515.767	8272.03
516.135	8343.21
516.502	8284.23
516.869	8399.26
517.237	8422.53
517.604	8385.47
517.972	8431.35
518.339	8474.28
518.706	8524.45
519.073	8493.94
519.44	8545.92
519.808	8573.94
520.175	8578.01
520.542	8707.72
520.909	8714.95
521.276	8671.57
521.643	8815.97
522.009	8768.06
522.376	8853.93
522.743	8855.29
523.11	8869.75
523.477	8989.52
523.843	8973.7
524.21	8991.78
524.577	9032.46
524.943	9048.73
525.31	9096.64
525.676	9107.71
526.043	9129.41
526.409	9225
526.776	9303.64
527.142	9192
527.508	9250.31
527.874	9293.24
528.241	9350.42
528.607	9294.83
528.973	9438.55
529.339	9377.54
529.705	9441.04
530.071	9550.86
530.437	9479.45
530.803	9533.92
531.169	9531.66
531.535	9480.13
531.901	9550.64
532.267	9559.23
532.632	9603.97
532.998	9660.47
533.364	9667.25
533.73	9699.11
534.095	9623.18
534.461	9693.01
534.826	9737.07
535.192	9730.3
535.557	9798.77
535.923	9725.55
536.288	9750.63
536.653	9773.23
537.019	9745.21
537.384	9696.62
537.749	9762.84
538.114	9848.26
538.479	9841.48
538.845	9844.64
539.21	9772.33
539.575	9813
539.94	9781.59
540.305	9826.34
540.67	9834.02
541.034	9870.18
541.399	9853.46
541.764	9887.58
542.129	9900.69
542.494	9872.89
542.858	9890.06
543.223	9841.7
543.587	9898.65
543.952	9850.97
544.316	9878.31
544.681	9879.9
545.045	9935.04
545.41	9907.01
545.774	9920.35
546.138	9938.88
546.503	9946.79
546.867	9937.07
547.231	9980.91
547.595	9924.87
547.959	9984.3
548.324	9925.54
548.688	10051.64
549.052	10036.05
549.416	10001.25
549.779	9994.24
550.143	9945.88
550.507	10041.47
550.871	10054.81
551.235	10030.4
551.599	10049.61
551.962	10082.83
552.326	10010.74
552.689	10064.3
553.053	10054.58
553.417	10103.62
553.78	10081.92
554.143	10068.82
554.507	10138.65
554.87	10140.45
555.234	10203.28
555.597	10069.27
555.96	10138.87
556.323	10203.95
556.686	10175.93
557.05	10173.67
557.413	10248.7
557.776	10198.31
558.139	10273.11
558.502	10238.08
558.865	10299.55
559.228	10334.35
559.59	10326.66
559.953	10364.18
560.316	10495.47
560.679	10430.39
561.041	10506.77
561.404	10446.21
561.767	10506.09
562.129	10463.84
562.492	10622.47
562.854	10638.75
563.217	10565.08
563.579	10553.32
563.941	10721
564.304	10650.04
564.666	10731.62
565.028	10753.77
565.39	10885.74
565.753	10774.79
566.115	10865.41
566.477	10920.77
566.839	10868.57
567.201	10903.15
567.563	10942.69
567.925	10974.78
568.287	10967.32
568.648	10951.96
569.01	11045.51
569.372	11078.28
569.734	11121.44
570.095	11123.03
570.457	11191.27
570.819	11168
571.18	11155.12
571.542	11243.7
571.903	11300.65
572.265	11378.84
572.626	11313.98
572.987	11407.54
573.349	11377.71
573.71	11454.09
574.071	11466.07
574.432	11463.13
574.794	11567.08
575.155	11596.01
575.516	11490.7
575.877	11670.81
576.238	11602.11
576.599	11651.15
576.96	11750.58
577.32	11680.53
577.681	11794.2
578.042	11805.72
578.403	11755.33
578.763	11758.94
579.124	11828.54
579.485	11870.58
579.845	11944.93
580.206	11896.34
580.566	11887.53
580.927	11924.59
581.287	11981.54
581.648	11954.64
582.008	12040.29
582.368	12013.85
582.728	12019.73
583.089	12054.3
583.449	12073.06
583.809	12068.76
584.169	12105.83
584.529	12104.24
584.889	12182.66
585.249	12118.48
585.609	12170
585.969	12204.58
586.329	12127.52
586.688	12259.72
587.048	12227.4
587.408	12258.36
587.768	12210.23
588.127	12181.08
588.487	12326.38
588.846	12264.69
589.206	12247.74
589.565	12293.84
589.925	12341.98
590.284	12262.66
590.643	12293.17
591.003	12320.74
591.362	12445.93
591.721	12409.55
592.08	12416.1
592.44	12406.61
592.799	12437.79
593.158	12417
593.517	12471.92
593.876	12462.43
594.235	12449.09
594.593	12419.94
594.952	12490.45
595.311	12385.14
595.67	12471.01
596.029	12468.3
596.387	12587.62
596.746	12523.44
597.104	12528.41
597.463	12490.67
597.822	12471.69
598.18	12577.9
598.538	12522.99
598.897	12591.91
599.255	12435.31
599.613	12632.82
599.972	12558.92
600.33	12558.92
600.688	12588.07
601.046	12630.78
601.404	12671.69
601.762	12636.89
602.12	12707.17
602.478	12641.18
602.836	12686.83
603.194	12648.18
603.552	12696.77
603.91	12668.75
604.268	12732.93
604.625	12677.34
604.983	12699.48
605.341	12634.17
605.698	12783.32
606.056	12762.08
606.413	12720.95
606.771	12786.71
607.128	12781.06
607.485	12678.69
607.843	12733.38
608.2	12802.3
608.557	12822.42
608.914	12842.3
609.272	12867.84
609.629	12836.43
609.986	12923.66
610.343	12868.29
610.7	12955.52
611.057	12928.85
611.414	13022.64
611.771	12991.9
612.127	13023.32
612.484	13013.6
612.841	13071
613.198	13025.58
613.554	12997.55
613.911	13108.74
614.267	13066.48
614.624	12951.91
614.98	12999.14
615.337	13140.83
615.693	13024.45
616.05	13073.71
616.406	13085.91
616.762	13025.8
617.118	13090.88
617.475	13059.7
617.831	13143.31
618.187	13200.71
618.543	13108.29
618.899	13263.31
619.255	13211.79
619.611	13168.4
619.967	13168.62
620.323	13247.26
620.678	13134.27
621.034	13153.26
621.39	13242.97
621.746	13193.25
622.101	13267.38
622.457	13196.64
622.812	13196.87
623.168	13217.21
623.523	13228.06
623.879	13200.26
624.234	13187.83
624.589	13273.93
624.945	13291.56
625.3	13285.68
625.655	13273.93
626.01	13274.83
626.365	13186.02
626.72	13218.11
627.075	13251.11
627.43	13221.5
627.785	13189.19
628.14	13154.39
628.495	13264.21
628.85	13158.68
629.205	13131.34
629.559	13172.92
629.914	13179.7
630.269	13134.95
630.623	13121.62
630.978	13016.76
631.332	13041.39
631.687	13129.53
632.041	12954.39
632.396	13043.2
632.75	12968.4
633.104	13018.8
633.459	12958.01
633.813	12977.44
634.167	12929.76
634.521	12891.34
634.875	13007.95
635.229	12901.74
635.583	12931.34
635.937	12864
636.291	12885.92
636.645	12899.48
636.999	12823.77
637.352	12879.82
637.706	12740.39
638.06	12750.1
638.413	12818.58
638.767	12812.7
639.121	12796.66
639.474	12623.33
639.828	12672.82
640.181	12762.76
640.534	12758.46
640.888	12622.87
641.241	12572.71
641.594	12643.44
641.947	12636.66
642.301	12691.57
642.654	12670.78
643.007	12675.08
643.36	12595.3
643.713	12584.46
644.066	12619.94
644.419	12573.61
644.771	12513.72
645.124	12455.2
645.477	12371.81
645.83	12281.41
646.182	12279.38
646.535	12225.37
646.888	12227.18
647.24	12085.26
647.593	12120.29
647.945	12153.51
648.298	12025.15
648.65	12081.87
649.002	12034.87
649.355	12123
649.707	12093.62
650.059	12212.72
650.411	12292.94
650.763	12283.67
651.115	12423.78
651.467	12414.29
651.819	12352.82
652.171	12344.24
652.523	12332.26
652.875	12365.71
653.227	12281.64
653.578	12407.51
653.93	12358.25
654.282	12294.97
654.633	12192.38
654.985	12299.72
655.337	12297.91
655.688	12333.39
656.039	12406.61
656.391	12187.41
656.742	12292.49
657.094	12319.61
657.445	12356.44
657.796	12341.3
658.147	12211.36
658.498	12314.63
658.849	12200.96
659.2	12221.53
659.551	12179.27
659.902	12269.66
660.253	12266.73
660.604	12271.25
660.955	12215.2
661.306	12279.38
661.656	12239.61
662.007	12216.11
662.358	12231.7
662.708	12235.09
663.059	12255.88
663.409	12193.73
663.76	12254.52
664.11	12283.45
664.461	12294.3
664.811	12258.14
665.161	12228.99
665.511	12211.36
665.862	12281.19
666.212	12245.48
666.562	12267.63
666.912	12225.6
667.262	12168.2
667.612	12213.17
667.962	12230.79
668.312	12159.16
668.662	12309.21
669.011	12265.6
669.361	12163
669.711	12172.04
670.06	12192.15
670.41	12131.36
670.76	12195.54
671.109	12193.28
671.459	12160.74
671.808	12154.41
672.157	12171.81
672.507	12115.09
672.856	12117.58
673.205	12132.04
673.554	12149.44
673.904	12105.37
674.253	12094.07
674.602	12010.69
674.951	11894.98
675.3	11931.37
675.649	12011.82
675.998	12076.22
676.346	12015.43
676.695	12025.6
677.044	11855.89
677.393	12017.69
677.741	12023.12
678.09	11972.72
678.438	11899.96
678.787	12003.68
679.135	11967.3
679.484	11895.89
679.832	11920.97
680.181	11845.27
680.529	11864.48
680.877	11841.2
681.225	11859.73
681.573	11844.82
681.922	11756.23
682.27	11701.54
682.618	11779.51
682.966	11753.07
683.314	11717.59
683.661	11749.45
684.009	11709.68
684.357	11631.71
684.705	11601.88
685.053	11578.61
685.4	11521.89
685.748	11510.59
686.095	11481.21
686.443	11480.08
686.79	11432.17
687.138	11456.13
687.485	11478.72
687.832	11306.98
688.18	11382.68
688.527	11322.12
688.874	11346.75
689.221	11262.01
689.568	11296.13
689.915	11157.38
690.262	11208.22
690.609	11138.39
690.956	11138.17
691.303	11102.91
691.65	11049.36
691.997	11083.25
692.344	10952.86
692.69	10978.85
693.037	11004.16
693.383	10872.64
693.73	10837.16
694.077	10840.32
694.423	10837.16
694.769	10748.12
695.116	10758.29
695.462	10757.39
695.808	10700.21
696.155	10739.53
696.501	10605.98
696.847	10589.26
697.193	10575.02
697.539	10598.29
697.885	10516.94
698.231	10444.17
698.577	10466.09
698.923	10368.7
699.269	10339.32
699.614	10272.65
699.96	10245.76
700.306	10289.6
700.651	10297.74
700.997	10212.99
701.342	10189.04
701.688	10128.93
702.033	10139.78
702.379	10059.55
702.724	10119.89
703.069	9978.88
703.415	9972.77
703.76	9914.24
704.105	9958.31
704.45	9880.8
704.795	9767.58
705.14	9864.75
705.485	9789.73
705.83	9769.62
706.175	9742.95
706.52	9691.2
706.865	9719.67
707.209	9680.35
707.554	9572.79
707.899	9652.78
708.243	9591.09
708.588	9529.17
708.932	9481.71
709.277	9504.31
709.621	9421.38
709.966	9422.51
710.31	9421.83
710.654	9378.89
710.998	9395.61
711.342	9371.66
711.687	9296.86
712.031	9304.09
712.375	9369.63
712.719	9321.04
713.063	9310.42
713.407	9344.77
713.75	9229.97
714.094	9244.21
714.438	9182.06
714.782	9251.21
715.125	9169.18
715.469	9213.02
715.812	9132.34
716.156	9067.71
716.499	9086.7
716.843	9100.03
717.186	8969.19
717.53	9056.19
717.873	9105.68
718.216	9032.23
718.559	9044.66
718.902	8983.42
719.246	8980.48
719.589	8970.09
719.932	8988.62
720.275	8978.22
720.617	8921.95
720.96	8905.68
721.303	8902.29
721.646	8937.1
721.989	8782.3
722.331	8848.28
722.674	8795.86
723.016	8867.94
723.359	8841.5
723.701	8837.21
724.044	8841.28
724.386	8725.12
724.729	8815.74
725.071	8805.12
725.413	8716.54
725.755	8698.46
726.097	8688.97
726.439	8698.91
726.782	8665.46
727.124	8784.11
727.465	8688.51
727.807	8662.07
728.149	8701.62
728.491	8646.93
728.833	8644
729.175	8618.01
729.516	8626.82
729.858	8605.35
730.199	8569.65
730.541	8603.54
730.882	8578.46
731.224	8589.99
731.565	8573.94
731.906	8584.11
732.248	8585.92
732.589	8551.34
732.93	8547.28
733.271	8584.11
733.612	8547.28
733.953	8564.9
734.294	8578.01
734.635	8530.78
734.976	8553.6
735.317	8534.85
735.658	8549.31
735.999	8549.08
736.339	8494.85
736.68	8542.76
737.021	8538.46
737.361	8497.79
737.702	8518.8
738.042	8515.86
738.383	8498.69
738.723	8487.16
739.063	8477.45
739.404	8492.36
739.744	8496.66
740.084	8526.03
740.424	8514.51
740.764	8536.43
741.104	8545.47
741.444	8523.32
741.784	8507.73
742.124	8563.32
742.464	8443.32
742.804	8488.29
743.143	8542.76
743.483	8535.52
743.823	8553.38
744.162	8550.21
744.502	8556.09
744.841	8578.69
745.181	8587.5
745.52	8661.17
745.86	8664.79
746.199	8696.88
746.538	8649.42
746.877	8667.95
747.216	8756.08
747.556	8729.64
747.895	8800.38
748.234	8795.4
748.573	8779.13
748.911	8863.43
749.25	8903.2
749.589	8957.43
749.928	8936.42
750.267	9001.05
750.605	9024.78
750.944	9123.53
751.283	9142.51
751.621	9216.41
751.96	9241.72
752.298	9364.88
752.636	9410.3
752.975	9391.77
753.313	9424.77
753.651	9494.59
753.989	9509.06
754.327	9623.86
754.666	9674.03
755.004	9791.31
755.342	9908.6
755.679	9929.84
756.017	9958.09
756.355	10075.6
756.693	10140.68
757.031	10181.81
757.368	10322.37
757.706	10411.86
758.044	10450.95
758.381	10564.4
758.719	10635.81
759.056	10819.76
759.394	10889.13
759.731	10923.26
760.068	10995.57
760.405	11123.93
760.743	11144.5
