Data from hue_220_FLMS001491_00002.txt Node
Date: Tue Feb 07 16:38:27 GMT 2017
User: dcchb
Spectrometer: FLMS00149
Trigger mode: 0
Integration Time (sec): 2.000000E-2
Scans to average: 10
Electric dark correction enabled: true
Nonlinearity correction enabled: false
Boxcar width: 0
XAxis mode: Wavelengths
Number of Pixels in Spectrum: 2048
>>>>>Begin Spectral Data<<<<<
341.393	-13.7
341.776	-13.7
342.16	-13.7
342.543	-73.81
342.927	-39.46
343.31	-81.27
343.693	-75.62
344.077	-77.65
344.46	-37.65
344.843	-77.65
345.226	-46.47
345.61	-34.94
345.993	-22.29
346.376	-12.34
346.759	10.93
347.142	32.85
347.525	59.74
347.908	54.77
348.291	86.18
348.674	98.39
349.057	123.02
349.44	145.84
349.823	153.08
350.206	152.17
350.588	167.54
350.971	221.1
351.354	236.69
351.737	218.61
352.119	245.95
352.502	247.99
352.884	273.3
353.267	287.31
353.65	308.78
354.032	317.82
354.414	310.81
354.797	303.58
355.179	306.29
355.562	315.56
355.944	340.64
356.326	325.5
356.709	326.86
357.091	323.01
357.473	339.96
357.855	347.65
358.238	342.67
358.62	337.93
359.002	344.93
359.384	326.18
359.766	333.18
360.148	342.67
360.53	372.05
360.912	333.64
361.294	325.95
361.676	331.6
362.057	333.86
362.439	336.12
362.821	317.36
363.203	324.37
363.584	320.75
363.966	311.71
364.348	315.56
364.729	306.74
365.111	323.24
365.493	329.57
365.874	323.24
366.256	292.96
366.637	342.45
367.019	308.55
367.4	304.26
367.781	334.31
368.163	315.78
368.544	302
368.925	326.63
369.306	334.99
369.688	317.36
370.069	319.85
370.45	311.26
370.831	316.69
371.212	306.29
371.593	315.1
371.974	315.56
372.355	309
372.736	319.4
373.117	325.5
373.498	315.33
373.879	312.39
374.26	320.3
374.641	327.31
375.021	314.88
375.402	313.07
375.783	322.79
376.163	340.87
376.544	319.62
376.925	330.02
377.305	316.01
377.686	327.53
378.066	322.34
378.447	320.53
378.827	337.03
379.208	346.97
379.588	337.25
379.968	311.71
380.349	342.45
380.729	333.64
381.109	334.31
381.489	329.57
381.87	348.1
382.25	338.83
382.63	335.22
383.01	333.86
383.39	335.22
383.77	336.35
384.15	356.23
384.53	337.48
384.91	336.12
385.29	325.05
385.67	350.81
386.049	356.01
386.429	359.4
386.809	358.04
387.189	362.56
387.568	364.59
387.948	353.52
388.328	386.52
388.707	363.92
389.087	358.04
389.466	357.59
389.846	354.2
390.225	381.54
390.605	357.59
390.984	372.28
391.363	374.09
391.743	385.16
392.122	376.8
392.501	356.01
392.881	387.87
393.26	380.87
393.639	393.75
394.018	363.24
394.397	395.1
394.776	387.42
395.155	410.47
395.534	386.29
395.913	366.85
396.292	403.24
396.671	406.4
397.05	389.91
397.429	402.33
397.808	426.29
398.186	401.2
398.565	395.55
398.944	404.14
399.323	416.34
399.701	393.97
400.08	410.47
400.458	425.38
400.837	418.15
401.215	416.34
401.594	456.57
401.972	440.07
402.351	442.78
402.729	426.97
403.107	433.52
403.486	433.75
403.864	434.2
404.242	467.19
404.62	449.34
404.999	439.17
405.377	470.58
405.755	454.76
406.133	459.73
406.511	469.68
406.889	470.58
407.267	489.56
407.645	472.61
408.023	480.75
408.401	510.35
408.779	498.6
409.156	519.62
409.534	505.38
409.912	529.34
410.29	515.1
410.667	534.08
411.045	544.03
411.422	547.19
411.8	566.85
412.178	579.05
412.555	577.02
412.933	565.72
413.31	607.07
413.687	600.07
414.065	607.53
414.442	621.31
414.819	612.05
415.197	655.43
415.574	643.23
415.951	643.01
416.328	644.36
416.705	670.35
417.082	650.24
417.46	673.51
417.837	692.95
418.214	692.04
418.591	709.22
418.967	708.09
419.344	719.84
419.721	748.09
420.098	737.01
420.475	770.01
420.852	763.91
421.228	764.58
421.605	787.86
421.982	797.35
422.358	797.58
422.735	825.6
423.111	853.17
423.488	859.27
423.864	869.89
424.241	883
424.617	884.81
424.994	905.82
425.37	935.65
425.746	910.12
426.123	938.82
426.499	948.53
426.875	977.69
427.251	974.3
427.627	1023.11
428.003	1021.53
428.379	1013.39
428.756	1014.75
429.132	1055.88
429.507	1059.04
429.883	1057.91
430.259	1097.01
430.635	1094.29
431.011	1079.15
431.387	1120.73
431.763	1126.61
432.138	1159.83
432.514	1165.7
432.89	1211.58
433.265	1224.23
433.641	1211.58
434.016	1277.79
434.392	1273.27
434.767	1291.12
435.143	1322.76
435.518	1340.39
435.894	1374.06
436.269	1388.52
436.644	1386.04
437.02	1406.83
437.395	1435.53
437.77	1456.77
438.145	1492.25
438.52	1520.04
438.895	1529.54
439.271	1542.19
439.646	1574.51
440.021	1597.56
440.395	1599.82
440.77	1602.98
441.145	1616.31
441.52	1702.86
441.895	1673.04
442.27	1729.53
442.645	1704.67
443.019	1745.12
443.394	1745.8
443.769	1828.51
444.143	1773.82
444.518	1814.05
444.892	1827.83
445.267	1820.38
445.641	1859.02
446.016	1856.53
446.39	1889.75
446.764	1895.18
447.139	1925.01
447.513	1902.63
447.887	1908.06
448.262	1932.46
448.636	1951.9
449.01	1944.44
449.384	1989.86
449.758	1983.31
450.132	2036.19
450.506	2048.17
450.88	2052.46
451.254	2074.83
451.628	2077.32
452.002	2078.22
452.376	2109.18
452.75	2129.29
453.123	2172.46
453.497	2189.41
453.871	2207.71
454.244	2272.34
454.618	2250.65
454.992	2311.44
455.365	2284.54
455.739	2352.34
456.112	2327.03
456.486	2391.66
456.859	2385.11
457.232	2433.69
457.606	2454.71
457.979	2417.87
458.352	2520.24
458.725	2489.06
459.099	2543.75
459.472	2582.39
459.845	2627.59
460.218	2639.56
460.591	2639.11
460.964	2630.98
461.337	2736.96
461.71	2759.11
462.083	2801.59
462.456	2827.13
462.829	2794.81
463.201	2849.5
463.574	2844.76
463.947	2883.17
464.32	2930.4
464.692	2997.52
465.065	2973.79
465.438	3003.85
465.81	3088.14
466.183	3090.85
466.555	3155.03
466.928	3157.97
467.3	3206.55
467.672	3203.84
468.045	3298.3
468.417	3290.85
468.789	3347.57
469.161	3332.65
469.534	3415.81
469.906	3452.88
470.278	3494
470.65	3447
471.022	3570.16
471.394	3673.66
471.766	3656.94
472.138	3704.62
472.51	3789.36
472.882	3769.93
473.253	3801.79
473.625	3883.15
473.997	3947.33
474.369	3986.87
474.74	3976.7
475.112	4080.2
475.484	4119.75
475.855	4211.5
476.227	4213.99
476.598	4344.15
476.97	4347.09
477.341	4419.86
477.713	4486.07
478.084	4506.18
478.455	4607.42
478.827	4638.61
479.198	4724.25
479.569	4764.48
479.94	4888.77
480.311	4870.24
480.682	4983.91
481.053	5132.61
481.424	5164.69
481.795	5200.17
482.166	5289.66
482.537	5360.17
482.908	5450.79
483.279	5409.66
483.65	5546.15
484.021	5592.03
484.391	5694.85
484.762	5707.73
485.133	5774.85
485.503	5831.57
485.874	5929.87
486.244	5934.84
486.615	6027.95
486.985	6155.18
487.356	6234.72
487.726	6261.84
488.097	6363.08
488.467	6403.53
488.837	6445.79
489.207	6572.79
489.578	6634.26
489.948	6610.31
490.318	6774.37
490.688	6739.12
491.058	6869.28
491.428	6886.46
491.798	6941.15
492.168	7126.45
492.538	7096.4
492.908	7124.64
493.278	7229.95
493.648	7247.13
494.017	7344.75
494.387	7415.48
494.757	7431.53
495.126	7469.94
495.496	7510.62
495.866	7526.44
496.235	7646.44
496.605	7688.24
496.974	7714.23
497.344	7674.01
497.713	7725.31
498.082	7761.24
498.452	7826.77
498.821	7811.4
499.19	7862.93
499.559	7949.25
499.928	7974.11
500.298	7977.28
500.667	8112.64
501.036	8051.4
501.405	8138.63
501.774	8131.17
502.143	8175.24
502.512	8192.64
502.88	8253.43
503.249	8269.7
503.618	8230.6
503.987	8330.26
504.356	8326.42
504.724	8381.33
505.093	8364.38
505.462	8416.59
505.83	8380.88
506.199	8466.3
506.567	8533.65
506.936	8507.21
507.304	8577.94
507.672	8578.39
508.041	8580.65
508.409	8655.22
508.777	8676.69
509.145	8755.56
509.514	8675.56
509.882	8728.44
510.25	8724.83
510.618	8717.82
510.986	8774.77
511.354	8778.16
511.722	8872.17
512.09	8851.83
512.458	8865.16
512.826	8928.44
513.193	8911.71
513.561	8916.69
513.929	8986.97
514.297	9020.19
514.664	8993.29
515.032	9065.38
515.4	9065.61
515.767	9029.45
516.135	9080.75
516.502	9017.25
516.869	9131.82
517.237	9063.35
517.604	9092.28
517.972	9185.15
518.339	9199.39
518.706	9092.95
519.073	9146.74
519.44	9119.39
519.808	9245.27
520.175	9174.76
520.542	9247.98
520.909	9299.05
521.276	9212.27
521.643	9301.08
522.009	9276.45
522.376	9250.01
522.743	9278.26
523.11	9298.6
523.477	9322.1
523.843	9335.88
524.21	9405.94
524.577	9456.11
524.943	9440.97
525.31	9439.61
525.676	9400.97
526.043	9471.02
526.409	9466.95
526.776	9534.07
527.142	9488.2
527.508	9538.82
527.874	9598.02
528.241	9602.09
528.607	9573.84
528.973	9667.63
529.339	9588.99
529.705	9599.61
530.071	9627.85
530.437	9666.5
530.803	9609.55
531.169	9656.33
531.535	9580.17
531.901	9595.54
532.267	9617.23
532.632	9629.44
532.998	9587.4
533.364	9573.84
533.73	9565.48
534.095	9609.1
534.461	9568.87
534.826	9641.64
535.192	9566.39
535.557	9568.65
535.923	9532.72
536.288	9533.85
536.653	9544.47
537.019	9484.13
537.384	9502.66
537.749	9474.64
538.114	9467.86
538.479	9481.19
538.845	9466.95
539.21	9372.04
539.575	9433.06
539.94	9381.98
540.305	9436.9
540.67	9328.2
541.034	9350.8
541.399	9391.48
541.764	9335.66
542.129	9360.74
542.494	9307.86
542.858	9328.43
543.223	9252.04
543.587	9290.01
543.952	9265.38
544.316	9226.06
544.681	9206.4
545.045	9225.38
545.41	9190.8
545.774	9144.48
546.138	9120.3
546.503	9179.28
546.867	9076
547.231	9124.82
547.595	9123.69
547.959	9118.49
548.324	9071.71
548.688	9044.37
549.052	9017.7
549.416	8970.92
549.779	9017.02
550.143	8951.26
550.507	8989.23
550.871	8922.79
551.235	8894.54
551.599	9007.53
551.962	8879.63
552.326	8901.32
552.689	8906.97
553.053	8866.97
553.417	8823.81
553.78	9012.28
554.143	8800.08
554.507	8759.4
554.87	8803.24
555.234	8828.78
555.597	8833.3
555.96	8802.11
556.323	8756.69
556.686	8733.64
557.05	8746.97
557.413	8751.95
557.776	8762.57
558.139	8826.52
558.502	8747.2
558.865	8773.41
559.228	8798.27
559.59	8783.81
559.953	8824.03
560.316	8803.47
560.679	8787.42
561.041	8841.43
561.404	8842.11
561.767	8795.33
562.129	8753.75
562.492	8856.12
562.854	8784.71
563.217	8809.12
563.579	8828.55
563.941	8814.54
564.304	8867.87
564.666	8931.15
565.028	8938.61
565.39	8907.2
565.753	8979.28
566.115	8922.34
566.477	9017.02
566.839	8972.5
567.201	8984.48
567.563	9004.59
567.925	9070.58
568.287	9057.25
568.648	9090.47
569.01	9070.35
569.372	9119.17
569.734	9092.05
570.095	9100.41
570.457	9190.35
570.819	9097.92
571.18	9177.92
571.542	9162.78
571.903	9226.06
572.265	9302.44
572.626	9236.45
572.987	9277.35
573.349	9306.96
573.71	9302.21
574.071	9294.76
574.432	9274.87
574.794	9391.48
575.155	9402.55
575.516	9374.53
575.877	9401.42
576.238	9446.62
576.599	9461.08
576.96	9476.22
577.32	9470.57
577.681	9507.86
578.042	9554.41
578.403	9588.76
578.763	9571.81
579.124	9551.25
579.485	9564.13
579.845	9590.12
580.206	9586.5
580.566	9673.05
580.927	9670.56
581.287	9721.86
581.648	9672.82
582.008	9727.96
582.368	9739.49
582.728	9790.34
583.089	9791.24
583.449	9775.42
583.809	9787.85
584.169	9851.35
584.529	9779.94
584.889	9949.43
585.249	9870.11
585.609	9793.05
585.969	9920.28
586.329	9888.86
586.688	9900.16
587.048	9911.69
587.408	9950.33
587.768	9913.72
588.127	10028.75
588.487	9980.39
588.846	10042.76
589.206	9991.91
589.565	9990.56
589.925	10043.66
590.284	10009.77
590.643	10122.3
591.003	10051.8
591.362	10118.01
591.721	10131.57
592.08	10071.23
592.44	10174.73
592.799	10080.5
593.158	10085.92
593.517	10196.43
593.876	10185.81
594.235	10134.28
594.593	10161.63
594.952	10203.66
595.311	10184.22
595.67	10181.96
596.029	10187.39
596.387	10202.98
596.746	10300.6
597.104	10235.52
597.463	10233.71
597.822	10308.51
598.18	10267.16
598.538	10251.79
598.897	10264.67
599.255	10221.51
599.613	10318.23
599.972	10349.19
600.33	10367.5
600.688	10244.79
601.046	10274.39
601.404	10344.67
601.762	10360.04
602.12	10394.39
602.478	10436.87
602.836	10433.93
603.194	10319.14
603.552	10349.64
603.91	10320.72
604.268	10396.42
604.625	10403.2
604.983	10347.16
605.341	10335.18
605.698	10395.97
606.056	10424.67
606.413	10397.1
606.771	10470.77
607.128	10472.58
607.485	10414.73
607.843	10455.4
608.2	10494.27
608.557	10427.16
608.914	10528.4
609.272	10597.55
609.629	10515.97
609.986	10572.24
610.343	10559.81
610.7	10610.2
611.057	10608.85
611.414	10527.27
611.771	10642.74
612.127	10622.18
612.484	10611.56
612.841	10626.92
613.198	10616.98
613.554	10582.86
613.911	10667.6
614.267	10706.7
614.624	10673.02
614.98	10666.92
615.337	10713.48
615.693	10713.93
616.05	10668.73
616.406	10772.91
616.762	10735.85
617.118	10707.37
617.475	10727.71
617.831	10756.41
618.187	10810.42
618.543	10744.89
618.899	10892
619.255	10824.21
619.611	10801.16
619.967	10867.37
620.323	10800.03
620.678	10778.11
621.034	10730.88
621.39	10805.45
621.746	10757.77
622.101	10858.78
622.457	10766.58
622.812	10827.6
623.168	10837.77
623.523	10736.75
623.879	10921.83
624.234	10754.38
624.589	10856.52
624.945	10839.35
625.3	10850.42
625.655	10835.28
626.01	10798.9
626.365	10801.16
626.72	10842.29
627.075	10750.76
627.43	10763.42
627.785	10781.95
628.14	10743.53
628.495	10808.39
628.85	10795.73
629.205	10735.62
629.559	10763.19
629.914	10731.55
630.269	10724.32
630.623	10767.49
630.978	10723.64
631.332	10816.98
631.687	10759.8
632.041	10699.69
632.396	10694.04
632.75	10688.84
633.104	10715.96
633.459	10620.82
633.813	10707.37
634.167	10630.31
634.521	10649.97
634.875	10647.26
635.229	10616.53
635.583	10563.2
635.937	10589.18
636.291	10519.81
636.645	10570.88
636.999	10507.15
637.352	10590.99
637.706	10498.34
638.06	10548.96
638.413	10473.26
638.767	10486.36
639.121	10454.05
639.474	10401.17
639.828	10506.48
640.181	10382.64
640.534	10473.93
640.888	10329.3
641.241	10368.17
641.594	10358.23
641.947	10432.13
642.301	10423.54
642.654	10400.26
643.007	10388.74
643.36	10362.75
643.713	10341.28
644.066	10396.65
644.419	10285.92
644.771	10240.04
645.124	10192.59
645.477	10192.59
645.83	10096.32
646.182	9990.1
646.535	10019.03
646.888	10113.72
647.24	9996.88
647.593	10088.18
647.945	9981.74
648.298	9968.18
648.65	9948.75
649.002	9932.93
649.355	9956.43
649.707	9967.51
650.059	10075.98
650.411	10106.49
650.763	10149.87
651.115	10219.7
651.467	10172.25
651.819	10243.21
652.171	10238.46
652.523	10245.24
652.875	10219.25
653.227	10155.07
653.578	10240.27
653.93	10257.44
654.282	10083.44
654.633	10168.63
654.985	10170.21
655.337	10110.55
655.688	10166.15
656.039	10228.29
656.391	10215.18
656.742	10236.2
657.094	10190.1
657.445	10271.23
657.796	10195.75
658.147	10200.49
658.498	10164.11
658.849	10213.15
659.2	10169.08
659.551	10226.93
659.902	10191.23
660.253	10247.72
660.604	10223.54
660.955	10141.96
661.306	10295.86
661.656	10188.97
662.007	10196.65
662.358	10212.02
662.708	10262.87
663.059	10238.01
663.409	10136.09
663.76	10333.6
664.11	10291.11
664.461	10231.23
664.811	10250.89
665.161	10307.61
665.511	10202.08
665.862	10247.05
666.212	10334.73
666.562	10271.68
666.912	10273.94
667.262	10305.35
667.612	10244.56
667.962	10299.93
668.312	10275.75
668.662	10379.92
669.011	10235.52
669.361	10298.8
669.711	10228.52
670.06	10158.69
670.41	10259.48
670.76	10218.8
671.109	10230.78
671.459	10245.47
671.808	10224.67
672.157	10212.92
672.507	10160.27
672.856	10159.14
673.205	10143.77
673.554	10177.22
673.904	10188.74
674.253	10203.66
674.602	10133.83
674.951	10019.71
675.3	9858.81
675.649	10096.77
675.998	10102.19
676.346	10098.58
676.695	10115.75
677.044	10026.49
677.393	10111.01
677.741	10048.63
678.09	10085.7
678.438	10070.1
678.787	10008.18
679.135	10056.77
679.484	9969.09
679.832	10055.19
680.181	9974.29
680.529	9963.21
680.877	9961.86
681.225	9870.79
681.573	9990.1
681.922	9859.94
682.27	9868.3
682.618	9817.23
682.966	9798.25
683.314	9875.98
683.661	9809.77
684.009	9764.57
684.357	9762.54
684.705	9771.81
685.053	9746.5
685.4	9715.76
685.748	9673.5
686.095	9683.22
686.443	9649.77
686.79	9665.37
687.138	9645.71
687.485	9612.49
687.832	9560.29
688.18	9511.7
688.527	9544.01
688.874	9494.07
689.221	9526.84
689.568	9399.39
689.915	9402.1
690.262	9415.2
690.609	9395.77
690.956	9354.87
691.303	9323.91
691.65	9268.32
691.997	9303.34
692.344	9202.1
692.69	9147.87
693.037	9170.69
693.383	9114.65
693.73	9139.28
694.077	9032.16
694.423	9041.65
694.769	9023.58
695.116	8981.77
695.462	9023.8
695.808	8960.08
696.155	8909
696.501	8827.2
696.847	8842.11
697.193	8819.29
697.539	8789.23
697.885	8655.22
698.231	8677.37
698.577	8642.8
698.923	8682.79
699.269	8611.84
699.614	8631.72
699.96	8549.24
700.306	8518.5
700.651	8485.06
700.997	8480.99
701.342	8483.03
701.688	8462.91
702.033	8367.1
702.379	8322.13
702.724	8348.11
703.069	8333.2
703.415	8222.02
703.76	8228.57
704.105	8281.45
704.45	8197.38
704.795	8174.56
705.14	8155.8
705.485	8147.89
705.83	8106.99
706.175	8063.15
706.52	8034.22
706.865	8035.58
707.209	7990.16
707.554	7967.56
707.899	7915.58
708.243	7882.59
708.588	7924.85
708.932	7818.41
709.277	7794.23
709.621	7840.78
709.966	7777.06
710.31	7825.42
710.654	7707.45
710.998	7766.43
711.342	7762.82
711.687	7750.62
712.031	7680.56
712.375	7667
712.719	7670.39
713.063	7672.43
713.407	7665.65
713.75	7576.38
714.094	7613.22
714.438	7637.4
714.782	7593.33
715.125	7571.64
715.469	7536.38
715.812	7580.45
716.156	7456.84
716.499	7516.27
716.843	7504.29
717.186	7466.56
717.53	7539.1
717.873	7511.75
718.216	7508.59
718.559	7404.41
718.902	7376.39
719.246	7380.91
719.589	7363.05
719.932	7380.23
720.275	7352.43
720.617	7329.61
720.96	7351.76
721.303	7333.68
721.646	7319.21
721.989	7333.45
722.331	7323.96
722.674	7333.23
723.016	7337.07
723.359	7340.23
723.701	7326.45
724.044	7263.4
724.386	7224.08
724.729	7270.63
725.071	7245.32
725.413	7242.15
725.755	7274.02
726.097	7250.52
726.439	7225.43
726.782	7173.91
727.124	7233.57
727.465	7203.74
727.807	7167.35
728.149	7161.03
728.491	7145.66
728.833	7194.7
729.175	7210.29
729.516	7189.27
729.858	7173.46
730.199	7142.04
730.541	7131.65
730.882	7140.24
731.224	7213.91
731.565	7181.82
731.906	7131.2
732.248	7188.82
732.589	7128.48
732.93	7141.59
733.271	7112.44
733.612	7187.47
733.953	7151.54
734.294	7166.68
734.635	7129.16
734.976	7184.08
735.317	7100.69
735.658	7086.68
735.999	7184.3
736.339	7150.86
736.68	7194.92
737.021	7149.95
737.361	7160.12
737.702	7222.04
738.042	7196.51
738.383	7180.23
738.723	7223.85
739.063	7194.02
739.404	7222.04
739.744	7202.38
740.084	7213.45
740.424	7247.8
740.764	7267.69
741.104	7295.94
741.444	7270.4
741.784	7268.59
742.124	7352.66
742.464	7316.5
742.804	7304.75
743.143	7301.14
743.483	7365.54
743.823	7395.6
744.162	7380.91
744.502	7477.85
744.841	7425.2
745.181	7517.63
745.52	7457.52
745.86	7511.53
746.199	7647.79
746.538	7649.83
746.877	7651.63
747.216	7758.3
747.556	7745.87
747.895	7812.76
748.234	7806.21
748.573	7880.33
748.911	7949.71
749.25	8045.52
749.589	8032.19
749.928	8166.65
750.267	8195.58
750.605	8267.89
750.944	8297.49
751.283	8384.95
751.621	8412.74
751.96	8523.93
752.298	8646.41
752.636	8708.78
752.975	8782.23
753.313	8936.8
753.651	9031.26
753.989	9085.72
754.327	9209.33
754.666	9261.99
755.004	9459.5
755.342	9598.25
755.679	9725.93
756.017	9810.22
756.355	9989.88
756.693	10026.71
757.031	10222.64
757.368	10364.11
757.706	10507.38
758.044	10630.54
758.381	10766.13
758.719	10990.08
759.056	11173.8
759.394	11287.92
759.731	11336.06
760.068	11614.69
760.405	11629.84
760.743	11851.3
761.08	12089.94
761.417	12223.27
761.754	12456.71
762.091	12607.89
762.428	12705.74
762.765	12942.8
763.102	13157.93
763.438	13216.01
763.775	13519.96
764.112	13710.68
