Data from hue_100_FLMS001491_00002.txt Node
Date: Tue Feb 07 17:02:33 GMT 2017
User: dcchb
Spectrometer: FLMS00149
Trigger mode: 0
Integration Time (sec): 2.000000E-2
Scans to average: 10
Electric dark correction enabled: true
Nonlinearity correction enabled: false
Boxcar width: 0
XAxis mode: Wavelengths
Number of Pixels in Spectrum: 2048
>>>>>Begin Spectral Data<<<<<
341.393	-6
341.776	-6
342.16	-6
342.543	-70.63
342.927	-92.78
343.31	-51.43
343.693	-70.18
344.077	-64.53
344.46	-59.79
344.843	-32.89
345.226	-48.71
345.61	-37.19
345.993	-24.76
346.376	-10.3
346.759	21.57
347.142	2.81
347.525	47.33
347.908	47.56
348.291	79.42
348.674	106.54
349.057	94.56
349.44	130.26
349.823	132.98
350.206	142.02
350.588	196.25
350.971	235.35
351.354	211.62
351.737	232.41
352.119	245.74
352.502	234.67
352.884	272.18
353.267	278.06
353.65	295.91
354.032	293.2
354.414	301.33
354.797	319.86
355.179	311.73
355.562	304.05
355.944	308.79
356.326	318.73
356.709	320.54
357.091	318.96
357.473	325.74
357.855	326.87
358.238	337.27
358.62	322.58
359.002	335.23
359.384	318.73
359.766	316.7
360.148	329.81
360.53	334.78
360.912	336.14
361.294	342.01
361.676	326.87
362.057	344.5
362.439	330.94
362.821	316.47
363.203	317.15
363.584	319.86
363.966	331.16
364.348	312.41
364.729	326.42
365.111	317.38
365.493	323.25
365.874	337.27
366.256	305.85
366.637	323.71
367.019	309.92
367.4	310.6
367.781	297.72
368.163	309.47
368.544	310.37
368.925	321.9
369.306	337.94
369.688	323.03
370.069	323.71
370.45	289.81
370.831	289.81
371.212	307.66
371.593	299.3
371.974	309.24
372.355	320.99
372.736	291.16
373.117	326.42
373.498	304.27
373.879	328.9
374.26	320.32
374.641	320.99
375.021	300.43
375.402	305.18
375.783	312.41
376.163	325.97
376.544	324.38
376.925	331.84
377.305	326.87
377.686	345.63
378.066	328
378.447	326.19
378.827	340.43
379.208	331.39
379.588	345.4
379.968	338.85
380.349	335.68
380.729	336.36
381.109	346.53
381.489	346.98
381.87	315.8
382.25	350.37
382.63	339.07
383.01	333.42
383.39	331.62
383.77	340.88
384.15	320.32
384.53	358.96
384.91	345.85
385.29	375
385.67	345.17
386.049	375.46
386.429	358.96
386.809	354.44
387.189	357.15
387.568	354.44
387.948	344.95
388.328	369.35
388.707	366.64
389.087	365.51
389.466	346.08
389.846	365.96
390.225	391.5
390.605	385.17
390.984	397.38
391.363	391.28
391.743	371.16
392.122	381.33
392.501	381.78
392.881	391.05
393.26	383.59
393.639	409.35
394.018	393.31
394.397	400.09
394.776	386.98
395.155	380.65
395.534	390.6
395.913	392.18
396.292	416.13
396.671	405.74
397.05	417.94
397.429	419.07
397.808	382.46
398.186	404.16
398.565	410.03
398.944	399.18
399.323	398.28
399.701	420.43
400.08	411.16
400.458	425.85
400.837	438.73
401.215	417.04
401.594	449.13
401.972	427.88
402.351	432.86
402.729	436.25
403.107	426.3
403.486	426.53
403.864	455
404.242	438.05
404.62	439.86
404.999	444.38
405.377	448.22
405.755	451.61
406.133	422.23
406.511	447.09
406.889	445.06
407.267	458.62
407.645	446.87
408.023	464.04
408.401	479.63
408.779	475.79
409.156	461.56
409.534	465.4
409.912	485.96
410.29	483.02
410.667	475.79
411.045	470.59
411.422	501.33
411.8	469.92
412.178	503.14
412.555	511.95
412.933	518.5
413.31	504.49
413.687	508.11
414.065	523.7
414.442	533.19
414.819	532.06
415.197	532.51
415.574	529.8
415.951	549.69
416.328	537.71
416.705	540.65
417.082	556.24
417.46	536.13
417.837	553.3
418.214	537.94
418.591	560.08
418.967	586.52
419.344	566.19
419.721	582.23
420.098	574.77
420.475	568.45
420.852	570.03
421.228	577.26
421.605	586.98
421.982	612.96
422.358	599.41
422.735	613.42
423.111	624.04
423.488	629.23
423.864	619.74
424.241	626.75
424.617	625.17
424.994	633.53
425.37	627.88
425.746	654.54
426.123	662.45
426.499	636.01
426.875	647.54
427.251	670.82
427.627	689.8
428.003	704.49
428.379	673.3
428.756	684.6
429.132	680.53
429.507	719.63
429.883	698.16
430.259	699.52
430.635	727.09
431.011	706.52
431.387	744.03
431.763	712.17
432.138	731.61
432.514	750.59
432.89	749.68
433.265	762.56
433.641	774.77
434.016	778.16
434.392	776.35
434.767	812.96
435.143	795.11
435.518	798.27
435.894	810.7
436.269	812.05
436.644	833.52
437.02	853.41
437.395	833.75
437.77	828.1
438.145	883.47
438.52	873.97
438.895	906.74
439.271	876.01
439.646	892.73
440.021	926.85
440.395	887.31
440.77	889.12
441.145	887.99
441.52	921.66
441.895	906.29
442.27	920.53
442.645	937.48
443.019	939.74
443.394	931.15
443.769	979.06
444.143	961.66
444.518	963.69
444.892	937.25
445.267	979.06
445.641	988.77
446.016	978.38
446.39	1015.67
446.764	1008.21
447.139	1009.11
447.513	1029.22
447.887	1036.91
448.262	1011.15
448.636	1018.15
449.01	1034.87
449.384	1043.46
449.758	1056.57
450.132	1070.13
450.506	1085.04
450.88	1096.79
451.254	1088.66
451.628	1099.28
452.002	1145.61
452.376	1144.02
452.75	1159.16
453.123	1148.09
453.497	1152.16
453.871	1156.68
454.244	1184.93
454.618	1178.15
454.992	1193.97
455.365	1223.34
455.739	1235.09
456.112	1234.87
456.486	1292.27
456.859	1276
457.232	1294.08
457.606	1267.86
457.979	1313.74
458.352	1334.08
458.725	1379.27
459.099	1344.47
459.472	1395.99
459.845	1399.84
460.218	1446.16
460.591	1418.82
460.964	1448.65
461.337	1489.33
461.71	1500.4
462.083	1509.21
462.456	1502.88
462.829	1550.34
463.201	1548.08
463.574	1591.7
463.947	1592.15
464.32	1616.33
464.692	1646.16
465.065	1678.7
465.438	1672.15
465.81	1734.06
466.183	1731.13
466.555	1776.78
466.928	1790.79
467.3	1795.53
467.672	1839.82
468.045	1886.6
468.417	1909.88
468.789	1917.34
469.161	1956.43
469.534	1977.45
469.906	1981.06
470.278	2040.95
470.65	2091.57
471.022	2121.63
471.394	2168.4
471.766	2187.61
472.138	2220.15
472.51	2308.51
472.882	2321.39
473.253	2358
473.625	2403.65
473.997	2491.78
474.369	2530.43
474.74	2574.04
475.112	2597.54
475.484	2704.66
475.855	2741.72
476.227	2776.3
476.598	2915.05
476.97	2959.12
477.341	3007.48
477.713	3052.67
478.084	3160.47
478.455	3256.28
478.827	3322.05
479.198	3395.49
479.569	3497.63
479.94	3548.48
480.311	3646.78
480.682	3733.56
481.053	3867.79
481.424	3979.88
481.795	4049.71
482.166	4130.84
482.537	4213.77
482.908	4404.73
483.279	4453.99
483.65	4580.32
484.021	4708.45
484.391	4821.67
484.762	4899.41
485.133	5026.63
485.503	5143.47
485.874	5299.85
486.244	5441.31
486.615	5564.7
486.985	5692.83
487.356	5834.75
487.726	5984.35
488.097	6097.34
488.467	6249.65
488.837	6372.13
489.207	6486.71
489.578	6714.27
489.948	6811.67
490.318	7016.64
490.688	7090.08
491.058	7321.94
491.428	7448.72
491.798	7587.47
492.168	7767.8
492.538	7945.65
492.908	8040.79
493.278	8223.84
493.648	8312.87
494.017	8525.3
494.387	8623.6
494.757	8704.73
495.126	8951.28
495.496	9054.78
495.866	9147.43
496.235	9260.65
496.605	9451.83
496.974	9564.82
497.344	9648.66
497.713	9845.04
498.082	9951.93
498.452	10134.97
498.821	10206.84
499.19	10308.75
499.559	10447.96
499.928	10575.19
500.298	10684.11
500.667	10859.02
501.036	10933.82
501.405	11034.16
501.774	11051.11
502.143	11210.43
502.512	11299.69
502.88	11481.15
503.249	11495.84
503.618	11545.33
503.987	11748.04
504.356	11787.36
504.724	11893.12
505.093	11979.44
505.462	12073.45
505.83	12176.28
506.199	12312.54
506.567	12508.47
506.936	12532.65
507.304	12626.21
507.672	12667.79
508.041	12807.67
508.409	12922.7
508.777	13027.1
509.145	13132.41
509.514	13148.68
509.882	13243.82
510.25	13302.12
510.618	13300.99
510.986	13386.41
511.354	13415.34
511.722	13537.82
512.09	13677.48
512.458	13682.68
512.826	13759.74
513.193	13835.44
513.561	13897.36
513.929	14029.56
514.297	14081.31
514.664	14146.17
515.032	14244.7
515.4	14414.41
515.767	14282.66
516.135	14412.83
516.502	14300.97
516.869	14579.83
517.237	14578.25
517.604	14627.74
517.972	14615.76
518.339	14759.48
518.706	14666.61
519.073	14639.71
519.44	14773.04
519.808	14962.64
520.175	14896.2
520.542	14991.8
520.909	15026.37
521.276	15082.19
521.643	15163.77
522.009	15322.86
522.376	15307.94
522.743	15389.98
523.11	15365.8
523.477	15494.15
523.843	15561.95
524.21	15639.24
524.577	15698.9
524.943	15645.79
525.31	15782.96
525.676	15792
526.043	15878.55
526.409	15849.85
526.776	16060.92
527.142	15938.89
527.508	16025.67
527.874	16052.33
528.241	16070.64
528.607	16096.17
528.973	16171.65
529.339	16097.3
529.705	16220.69
530.071	16331.19
530.437	16239.22
530.803	16237.41
531.169	16328.48
531.535	16281.48
531.901	16297.52
532.267	16212.78
532.632	16351.99
532.998	16368.03
533.364	16389.05
533.73	16341.59
534.095	16432.89
534.461	16361.48
534.826	16358.76
535.192	16379.78
535.557	16477.63
535.923	16373.68
536.288	16328.26
536.653	16376.39
537.019	16313.12
537.384	16332.1
537.749	16408.26
538.114	16263.4
538.479	16201.03
538.845	16218.66
539.21	16236.73
539.575	16203.06
539.94	16177.98
540.305	16232.21
540.67	16117.42
541.034	16220.92
541.399	16149.96
541.764	16163.52
542.129	16102.73
542.494	16050.07
542.858	15992.67
543.223	15991.99
543.587	16074.03
543.952	15999.9
544.316	15890.53
544.681	15885.1
545.045	15939.34
545.41	15991.09
545.774	15941.83
546.138	15864.77
546.503	15815.95
546.867	15786.35
547.231	15879.23
547.595	15829.74
547.959	15775.73
548.324	15678.56
548.688	15756.52
549.052	15654.6
549.416	15681.27
549.779	15625.22
550.143	15603.76
550.507	15697.54
550.871	15623.42
551.235	15551.55
551.599	15603.98
551.962	15638.78
552.326	15546.36
552.689	15491.89
553.053	15452.57
553.417	15393.59
553.78	15537.77
554.143	15375.74
554.507	15504.32
554.87	15386.59
555.234	15453.93
555.597	15429.3
555.96	15511.56
556.323	15445.79
556.686	15386.59
557.05	15467.49
557.413	15438.56
557.776	15362.41
558.139	15505.23
558.502	15378.9
558.865	15434.5
559.228	15500.26
559.59	15471.1
559.953	15452.12
560.316	15489.41
560.679	15562.85
561.041	15571.89
561.404	15546.58
561.767	15503.87
562.129	15511.33
562.492	15670.87
562.854	15570.76
563.217	15469.75
563.579	15613.02
563.941	15625.45
564.304	15653.25
564.666	15740.25
565.028	15661.16
565.39	15682.62
565.753	15805.33
566.115	15688.73
566.477	15877.42
566.839	15797.2
567.201	15796.07
567.563	15874.71
567.925	15936.18
568.287	15886.01
568.648	15880.59
569.01	15910.41
569.372	15980.7
569.734	15944.54
570.095	16009.4
570.457	16064.54
570.819	16149.5
571.18	16017.08
571.542	16081.26
571.903	16119.68
572.265	16155.83
572.626	16129.39
572.987	16176.62
573.349	16137.3
573.71	16157.19
574.071	16117.42
574.432	16187.47
574.794	16293.23
575.155	16194.02
575.516	16176.17
575.877	16160.13
576.238	16293.23
576.599	16386.33
576.96	16313.57
577.32	16340.46
577.681	16345.88
578.042	16329.84
578.403	16305.66
578.763	16384.75
579.124	16418.42
579.485	16381.36
579.845	16415.26
580.206	16385.43
580.566	16350.4
580.927	16413.45
581.287	16420.23
581.648	16363.06
582.008	16440.57
582.368	16360.12
582.728	16397.63
583.089	16332.32
583.449	16337.97
583.809	16408.26
584.169	16430.85
584.529	16333
584.889	16412.77
585.249	16323.29
585.609	16304.75
585.969	16342.49
586.329	16166.68
586.688	16260.24
587.048	16366.45
587.408	16189.5
587.768	16291.65
588.127	16309.5
588.487	16224.76
588.846	16325.77
589.206	16121.93
589.565	16188.83
589.925	16268.82
590.284	16210.07
590.643	16201.71
591.003	16182.27
591.362	16406.22
591.721	16173.23
592.08	16166.23
592.44	16252.55
592.799	16216.85
593.158	16214.14
593.517	16100.92
593.876	16115.38
594.235	16086.46
594.593	16108.15
594.952	16167.58
595.311	16110.86
595.67	16111.77
596.029	16206.9
596.387	16207.81
596.746	16279.44
597.104	16166.23
597.463	16153.8
597.822	16146.79
598.18	16119.68
598.538	16026.8
598.897	16257.75
599.255	16023.86
599.613	16285.09
599.972	16157.87
600.33	16139.56
600.688	16104.08
601.046	16064.54
601.404	16146.57
601.762	16116.29
602.12	16167.81
602.478	16134.59
602.836	16227.02
603.194	16090.75
603.552	16107.92
603.91	16052.78
604.268	16191.31
604.625	16065.89
604.983	16140.47
605.341	16010.98
605.698	16161.48
606.056	16283.74
606.413	16108.38
606.771	16296.17
607.128	16170.75
607.485	16115.38
607.843	16125.55
608.2	16190.18
608.557	16231.99
608.914	16264.53
609.272	16318.31
609.629	16348.82
609.986	16296.17
610.343	16191.76
610.7	16322.61
611.057	16319.22
611.414	16385.43
611.771	16317.41
612.127	16387.92
612.484	16356.96
612.841	16456.84
613.198	16299.11
613.554	16367.13
613.911	16506.56
614.267	16485.99
614.624	16395.37
614.98	16402.61
615.337	16572.32
615.693	16473.79
616.05	16467.69
616.406	16568.02
616.762	16586.33
617.118	16470.63
617.475	16452.1
617.831	16484.86
618.187	16634.01
618.543	16578.87
618.899	16687.8
619.255	16570.96
619.611	16626.55
619.967	16655.25
620.323	16737.51
620.678	16643.28
621.034	16615.26
621.39	16683.95
621.746	16560.79
622.101	16820.9
622.457	16645.08
622.812	16630.85
623.168	16755.14
623.523	16616.16
623.879	16797.17
624.234	16614.35
624.589	16712.65
624.945	16709.26
625.3	16673.11
625.655	16610.28
626.01	16720.11
626.365	16658.64
626.72	16597.4
627.075	16634.24
627.43	16641.02
627.785	16547.69
628.14	16597.63
628.495	16539.55
628.85	16649.15
629.205	16543.39
629.559	16683.05
629.914	16573.9
630.269	16520.12
630.623	16558.08
630.978	16474.69
631.332	16493
631.687	16618.19
632.041	16429.05
632.396	16581.36
632.75	16509.5
633.104	16551.75
633.459	16441.7
633.813	16366
634.167	16462.26
634.521	16398.31
634.875	16383.17
635.229	16364.64
635.583	16290.97
635.937	16400.8
636.291	16285.77
636.645	16321.93
636.999	16206
637.352	16334.13
637.706	16198.54
638.06	16194.93
638.413	16196.28
638.767	16089.17
639.121	16168.94
639.474	16065.89
639.828	16057.3
640.181	16089.62
640.534	16125.32
640.888	16008.27
641.241	15947.48
641.594	16053.91
641.947	16007.14
642.301	15999.9
642.654	16028.38
643.007	16057.3
643.36	15929.62
643.713	15936.18
644.066	15994.71
644.419	15777.31
644.771	15818.21
645.124	15692.57
645.477	15635.17
645.83	15548.16
646.182	15506.81
646.535	15511.78
646.888	15537.32
647.24	15371.45
647.593	15383.65
647.945	15305.91
648.298	15265.23
648.65	15303.65
649.002	15224.11
649.355	15404.21
649.707	15395.4
650.059	15521.72
650.411	15567.15
650.763	15642.85
651.115	15844.2
651.467	15730.08
651.819	15737.99
652.171	15676.3
652.523	15647.82
652.875	15642.17
653.227	15623.19
653.578	15765.56
653.93	15679.46
654.282	15589.52
654.633	15595.85
654.985	15576.64
655.337	15700.93
655.688	15675.39
656.039	15759.91
656.391	15617.99
656.742	15561.5
657.094	15651.66
657.445	15726.92
657.796	15741.15
658.147	15616.86
658.498	15642.63
658.849	15730.76
659.2	15704.54
659.551	15657.54
659.902	15680.59
660.253	15695.28
660.604	15662.74
660.955	15706.8
661.306	15727.14
661.656	15603.76
662.007	15681.49
662.358	15676.07
662.708	15680.59
663.059	15629.97
663.409	15569.18
663.76	15728.05
664.11	15748.39
664.461	15667.71
664.811	15708.16
665.161	15678.56
665.511	15694.6
665.862	15593.14
666.212	15733.47
666.562	15722.4
666.912	15659.57
667.262	15746.8
667.612	15703.41
667.962	15723.98
668.312	15665.68
668.662	15843.98
669.011	15661.16
669.361	15712.68
669.711	15620.25
670.06	15665
670.41	15644.21
670.76	15635.17
671.109	15684.21
671.459	15617.09
671.808	15654.15
672.157	15619.35
672.507	15530.31
672.856	15587.49
673.205	15571.67
673.554	15668.84
673.904	15460.94
674.253	15676.07
674.602	15494.61
674.951	15329.41
675.3	15259.13
675.649	15447.83
675.998	15449.18
676.346	15466.13
676.695	15439.47
677.044	15357.66
677.393	15365.8
677.741	15389.07
678.09	15352.92
678.438	15341.39
678.787	15423.87
679.135	15374.38
679.484	15214.39
679.832	15282.41
680.181	15166.93
680.529	15242.18
680.877	15132.81
681.225	15053.71
681.573	15263.65
681.922	15123.09
682.27	15057.33
682.618	15025.01
682.966	15053.71
683.314	15022.53
683.661	15019.59
684.009	14992.02
684.357	14885.13
684.705	14904.57
685.053	14893.04
685.4	14877.9
685.748	14730.56
686.095	14760.16
686.443	14719.94
686.79	14679.94
687.138	14630.45
687.485	14658.47
687.832	14649.88
688.18	14618.02
688.527	14501.19
688.874	14517.68
689.221	14467.52
689.568	14420.51
689.915	14365.6
690.262	14439.72
690.609	14380.74
690.956	14267.07
691.303	14304.13
691.65	14183.23
691.997	14164.47
692.344	14126.28
692.69	14074.08
693.037	14087.64
693.383	13929.9
693.73	13984.59
694.077	13882.22
694.423	13935.78
694.769	13837.7
695.116	13780.3
695.462	13790.92
695.808	13649.01
696.155	13779.4
696.501	13555.9
696.847	13562
697.193	13455.11
697.539	13489.91
697.885	13414.44
698.231	13293.99
698.577	13456.24
698.923	13325.62
699.269	13273.2
699.614	13173.31
699.96	13145.97
700.306	13070.49
700.651	13048.12
700.997	13023.03
701.342	12982.58
701.688	12898.29
702.033	13021
702.379	12934.67
702.724	12847.67
703.069	12850.38
703.415	12722.93
703.76	12720.89
704.105	12738.97
704.45	12606.32
704.795	12533.1
705.14	12526.1
705.485	12577.85
705.83	12506.44
706.175	12483.84
706.52	12405.2
706.865	12357.06
707.209	12337.18
707.554	12321.13
707.899	12271.87
708.243	12167.24
708.588	12201.13
708.932	12082.95
709.277	12060.8
709.621	12085.66
709.966	11991.42
710.31	12033.45
710.654	11952.78
710.998	11946
711.342	11936.51
711.687	11903.06
712.031	11936.73
712.375	11828.49
712.719	11811.54
713.063	11785.78
713.407	11781.71
713.75	11775.16
714.094	11660.13
714.438	11683.86
714.782	11730.41
715.125	11591.43
715.469	11650.41
715.812	11561.15
716.156	11514.37
716.499	11550.76
716.843	11463.75
717.186	11440.25
717.53	11429.85
717.873	11545.11
718.216	11460.36
718.559	11414.49
718.902	11421.27
719.246	11406.58
719.589	11313.7
719.932	11234.38
720.275	11291.1
720.617	11307.15
720.96	11375.17
721.303	11304.66
721.646	11295.4
721.989	11232.35
722.331	11301.72
722.674	11174.72
723.016	11208.17
723.359	11263.53
723.701	11240.93
724.044	11135.17
724.386	11147.83
724.729	11178.79
725.071	11161.39
725.413	11200.03
725.755	11121.16
726.097	11109.64
726.439	11085.23
726.782	11033.26
727.124	11101.05
727.465	11094.95
727.807	11043.88
728.149	11071.45
728.491	10950.32
728.833	11071.22
729.175	11029.64
729.516	10975.4
729.858	11002.75
730.199	10967.27
730.541	11011.79
730.882	10954.39
731.224	10987.83
731.565	10887.04
731.906	10987.61
732.248	10881.62
732.589	10880.49
732.93	10836.42
733.271	10867.16
733.612	10907.83
733.953	10950.55
734.294	10918.23
734.635	10929.75
734.976	10895.18
735.317	10784.45
735.658	10866.25
735.999	10874.16
736.339	10910.55
736.68	10942.64
737.021	10908.74
737.361	10827.38
737.702	10892.24
738.042	10888.4
738.383	10890.43
738.723	10874.84
739.063	10936.53
739.404	10922.75
739.744	10967.72
740.084	10849.53
740.424	10955.74
740.764	10907.61
741.104	10982.86
741.444	10952.58
741.784	10960.49
742.124	11032.13
742.464	10999.58
742.804	11008.85
743.143	11022.63
743.483	11142.4
743.823	11039.58
744.162	11035.97
744.502	11112.12
744.841	11079.36
745.181	11158.22
745.52	11159.81
745.86	11268.05
746.199	11233.25
746.538	11349.86
746.877	11353.02
747.216	11401.83
747.556	11393.25
747.895	11485.67
748.234	11500.14
748.573	11588.27
748.911	11562.05
749.25	11690.86
749.589	11725.67
749.928	11808.83
750.267	11950.75
750.605	11976.96
750.944	12025.77
751.283	12028.48
751.621	12234.81
751.96	12211.08
752.298	12319.1
752.636	12471.18
752.975	12503.72
753.313	12545.31
753.651	12704.17
753.989	12782.59
754.327	12929.7
754.666	12936.48
755.004	13113.2
755.342	13305.51
755.679	13408.11
756.017	13500.76
756.355	13676.8
