Data from hue_90_FLMS001491_37.txt Node
Date: Mon Feb 06 15:25:03 GMT 2017
User: dcchb
Spectrometer: FLMS00149
Trigger mode: 0
Integration Time (sec): 2.000000E-2
Scans to average: 10
Electric dark correction enabled: true
Nonlinearity correction enabled: false
Boxcar width: 0
XAxis mode: Wavelengths
Number of Pixels in Spectrum: 2048
>>>>>Begin Spectral Data<<<<<
341.393	-7.02
341.776	-7.02
342.16	-7.02
342.543	-58.54
342.927	-74.81
343.31	-63.06
343.693	-82.72
344.077	-59.9
344.46	-62.16
344.843	-44.98
345.226	-36.17
345.61	-26.45
345.993	-15.83
346.376	-23.06
346.759	16.48
347.142	22.13
347.525	49.93
347.908	60.32
348.291	58.29
348.674	93.09
349.057	114.11
349.44	143.26
349.823	145.29
350.206	176.7
350.588	204.27
350.971	197.49
351.354	209.25
351.737	236.82
352.119	254.22
352.502	261.67
352.884	283.37
353.267	284.05
353.65	310.26
354.032	291.96
354.414	303.48
354.797	317.27
355.179	330.37
355.562	308.23
355.944	328.34
356.326	333.08
356.709	336.25
357.091	354.55
357.473	343.03
357.855	320.88
358.238	351.84
358.62	343.25
359.002	353.87
359.384	338.73
359.766	340.32
360.148	348.45
360.53	360.88
360.912	362.91
361.294	338.06
361.676	341.22
362.057	332.86
362.439	358.39
362.821	335.8
363.203	311.62
363.584	314.55
363.966	340.54
364.348	331.95
364.729	309.13
365.111	325.85
365.493	323.14
365.874	322.24
366.256	318.62
366.637	325.85
367.019	323.82
367.4	310.94
367.781	333.99
368.163	312.97
368.544	315.46
368.925	319.07
369.306	356.59
369.688	331.28
370.069	312.07
370.45	305.29
370.831	316.36
371.212	336.25
371.593	306.42
371.974	340.32
372.355	311.16
372.736	316.36
373.117	319.07
373.498	334.21
373.879	305.74
374.26	322.69
374.641	321.33
375.021	349.81
375.402	338.73
375.783	319.53
376.163	356.59
376.544	334.44
376.925	324.5
377.305	328.56
377.686	338.28
378.066	341.67
378.447	336.02
378.827	336.47
379.208	343.48
379.588	334.21
379.968	326.98
380.349	327.21
380.729	326.08
381.109	324.5
381.489	333.54
381.87	345.74
382.25	330.15
382.63	356.13
383.01	355.46
383.39	353.65
383.77	345.97
384.15	366.53
384.53	348.9
384.91	357.72
385.29	352.97
385.67	345.74
386.049	351.39
386.429	362.46
386.809	356.81
387.189	367.43
387.568	341.22
387.948	341.22
388.328	371.5
388.707	359.75
389.087	364.72
389.466	373.99
389.846	372.86
390.225	373.99
390.605	367.21
390.984	388.68
391.363	373.54
391.743	382.8
392.122	371.28
392.501	377.6
392.881	372.63
393.26	378.73
393.639	395
394.018	371.05
394.397	404.5
394.776	382.8
395.155	392.97
395.534	407.43
395.913	390.48
396.292	403.82
396.671	412.18
397.05	397.26
397.429	399.52
397.808	404.27
398.186	402.69
398.565	401.56
398.944	375.57
399.323	399.07
399.701	399.07
400.08	407.88
400.458	413.31
400.837	401.33
401.215	415.12
401.594	386.19
401.972	422.8
402.351	434.1
402.729	428.9
403.107	424.83
403.486	421.44
403.864	432.74
404.242	409.01
404.62	405.85
404.999	446.75
405.377	439.3
405.755	429.13
406.133	437.71
406.511	446.08
406.889	442.23
407.267	457.15
407.645	461.44
408.023	453.53
408.401	467.09
408.779	472.06
409.156	463.25
409.534	467.77
409.912	475
410.29	469.35
410.667	467.77
411.045	481.1
411.422	497.37
411.8	505.74
412.178	493.31
412.555	480.88
412.933	497.83
413.31	493.98
413.687	505.74
414.065	514.1
414.442	501.67
414.819	510.25
415.197	509.35
415.574	540.54
415.951	518.39
416.328	550.93
416.705	515.23
417.082	547.54
417.46	522.68
417.837	532.18
418.214	536.69
418.591	563.36
418.967	555.9
419.344	581.89
419.721	563.13
420.098	555
420.475	573.53
420.852	593.19
421.228	543.47
421.605	568.78
421.982	549.12
422.358	575.79
422.735	567.2
423.111	606.98
423.488	612.17
423.864	596.13
424.241	610.14
424.617	605.17
424.994	620.99
425.37	626.18
425.746	625.73
426.123	604.49
426.499	619.18
426.875	656.24
427.251	646.07
427.627	625.51
428.003	651.95
428.379	659.4
428.756	673.19
429.132	656.01
429.507	669.12
429.883	673.19
430.259	700.76
430.635	705.73
431.011	681.78
431.387	676.13
431.763	708.89
432.138	716.8
432.514	710.48
432.89	722.45
433.265	712.28
433.641	751.38
434.016	757.25
434.392	726.52
434.767	781.66
435.143	765.84
435.518	776.91
435.894	790.47
436.269	788.44
436.644	802.9
437.02	784.82
437.395	806.74
437.77	810.59
438.145	820.76
438.52	834.77
438.895	805.39
439.271	841.55
439.646	842.68
440.021	845.61
440.395	839.51
440.77	863.24
441.145	865.95
441.52	892.62
441.895	880.64
442.27	870.02
442.645	885.61
443.019	895.33
443.394	874.99
443.769	911.37
444.143	891.94
444.518	923.8
444.892	925.84
445.267	935.33
445.641	919.51
446.016	942.79
446.39	959.73
446.764	966.29
447.139	931.71
447.513	966.74
447.887	975.1
448.262	969.9
448.636	964.71
449.01	1004.48
449.384	1000.19
449.758	981.43
450.132	1033.41
450.506	1016.46
450.88	1017.13
451.254	1026.17
451.628	1040.86
452.002	1044.03
452.376	1052.39
452.75	1077.47
453.123	1070.69
453.497	1085.61
453.871	1101.2
454.244	1099.39
454.618	1110.47
454.992	1153.63
455.365	1132.39
455.739	1178.03
456.112	1175.32
456.486	1181.65
456.859	1201.08
457.232	1213.51
457.606	1261.42
457.979	1239.28
458.352	1238.37
458.725	1271.36
459.099	1292.16
459.472	1267.3
459.845	1331.93
460.218	1328.99
460.591	1322.44
460.964	1377.12
461.337	1378.03
461.71	1391.81
462.083	1406.73
462.456	1427.07
462.829	1427.74
463.201	1455.77
463.574	1465.26
463.947	1489.44
464.32	1517.23
464.692	1512.71
465.065	1546.16
465.438	1570.79
465.81	1608.31
466.183	1621.86
466.555	1668.64
466.928	1665.93
467.3	1702.54
467.672	1726.95
468.045	1748.64
468.417	1757.91
468.789	1761.75
469.161	1767.62
469.534	1834.74
469.906	1876.77
470.278	1899.37
470.65	1940.5
471.022	1998.8
471.394	2014.62
471.766	2034.96
472.138	2074.28
472.51	2131
472.882	2174.39
473.253	2218.46
473.625	2249.64
473.997	2313.37
474.369	2382.07
474.74	2397.44
475.112	2450.77
475.484	2491.9
475.855	2554.49
476.227	2613.7
476.598	2716.98
476.97	2754.26
477.341	2813.47
477.713	2876.29
478.084	2929.85
478.455	3055.05
478.827	3087.36
479.198	3222.5
479.569	3237.41
479.94	3386.56
480.311	3437.64
480.682	3541.36
481.053	3647.57
481.424	3750.85
481.795	3815.7
482.166	3925.08
482.537	3988.58
482.908	4155.36
483.279	4210.95
483.65	4356.48
484.021	4510.83
484.391	4598.96
484.762	4676.93
485.133	4751.5
485.503	4925.05
485.874	5059.51
486.244	5150.36
486.615	5322.11
486.985	5446.62
487.356	5621.76
487.726	5677.35
488.097	5915.76
488.467	6006.16
488.837	6208.41
489.207	6308.29
489.578	6374.06
489.948	6598.23
490.318	6694.5
490.688	6798.45
491.058	7007.94
491.428	7176.52
491.798	7329.06
492.168	7483.4
492.538	7586.45
492.908	7780.57
493.278	7954.8
493.648	8010.85
494.017	8178.53
494.387	8335.81
494.757	8491.74
495.126	8625.07
495.496	8744.61
495.866	8863.93
496.235	9056.47
496.605	9217.6
496.974	9267.99
497.344	9395.67
497.713	9527.87
498.082	9640.18
498.452	9839.05
498.821	9942.32
499.19	10021.64
499.559	10181.19
499.928	10275.87
500.298	10386.61
500.667	10552.93
501.036	10556.54
501.405	10666.37
501.774	10790.21
502.143	10893.48
502.512	10962.86
502.88	11170.77
503.249	11181.16
503.618	11353.59
503.987	11408.27
504.356	11461.15
504.724	11495.5
505.093	11680.58
505.462	11707.93
505.83	11861.59
506.199	11927.13
506.567	12136.16
506.936	12058.43
507.304	12297.52
507.672	12345.42
508.041	12398.3
508.409	12398.53
508.777	12580.67
509.145	12641.46
509.514	12675.36
509.882	12760.78
510.25	12855.92
510.618	12913.09
510.986	12884.62
511.354	13091.39
511.722	13138.4
512.09	13231.95
512.458	13227.89
512.826	13359.63
513.193	13320.54
513.561	13456.36
513.929	13422.01
514.297	13588.1
514.664	13640.53
515.032	13702.45
515.4	13753.97
515.767	13827.87
516.135	13855.89
516.502	13793.75
516.869	13961.88
517.237	13997.81
517.604	13987.64
517.972	14008.43
518.339	14090.24
518.706	14079.16
519.073	14052.5
519.44	14212.49
519.808	14264.24
520.175	14287.75
520.542	14400.96
520.909	14352.83
521.276	14380.17
521.643	14484.8
522.009	14532.03
522.376	14630.56
522.743	14657
523.11	14756.89
523.477	14825.36
523.843	14834.62
524.21	14888.86
524.577	14890.44
524.943	14930.44
525.31	15002.98
525.676	15017.44
526.043	15017.9
526.409	15075.97
526.776	15155.97
527.142	15202.52
527.508	15212.02
527.874	15290.66
528.241	15324.1
528.607	15287.27
528.973	15390.77
529.339	15316.42
529.705	15388.73
530.071	15499.01
530.437	15265.12
530.803	15422.41
531.169	15445.23
531.535	15454.04
531.901	15426.47
532.267	15484.32
532.632	15467.15
532.998	15470.31
533.364	15470.54
533.73	15390.77
534.095	15475.51
534.461	15450.2
534.826	15414.04
535.192	15514.38
535.557	15468.96
535.923	15354.61
536.288	15408.39
536.653	15408.17
537.019	15361.62
537.384	15311.22
537.749	15364.33
538.114	15278.91
538.479	15243.65
538.845	15300.6
539.21	15247.04
539.575	15251.56
539.94	15200.94
540.305	15273.48
540.67	15114.62
541.034	15144.9
541.399	15182.64
541.764	15091.11
542.129	15080.95
542.494	15033.71
542.858	15033.04
543.223	14946.94
543.587	14962.98
543.952	14926.37
544.316	14928.18
544.681	14864.45
545.045	14831.46
545.41	14822.65
545.774	14903.1
546.138	14772.93
546.503	14767.73
546.867	14644.12
547.231	14751.01
547.595	14718.92
547.959	14689.09
548.324	14628.98
548.688	14619.26
549.052	14554.63
549.416	14592.14
549.779	14496.78
550.143	14472.15
550.507	14505.59
550.871	14540.39
551.235	14444.58
551.599	14453.17
551.962	14419.49
552.326	14400.74
552.689	14415.43
553.053	14299.72
553.417	14339.72
553.78	14480.28
554.143	14332.04
554.507	14314.41
554.87	14298.82
555.234	14333.85
555.597	14195.77
555.96	14250.68
556.323	14141.08
556.686	14224.02
557.05	14350.57
557.413	14239.84
557.776	14219.72
558.139	14279.61
558.502	14241.19
558.865	14236.67
559.228	14274.86
559.59	14205.71
559.953	14248.42
560.316	14280.29
560.679	14191.48
561.041	14378.82
561.404	14362.09
561.767	14316.22
562.129	14256.56
562.492	14348.54
562.854	14415.65
563.217	14277.58
563.579	14304.92
563.941	14372.72
564.304	14403
564.666	14402.09
565.028	14371.13
565.39	14452.26
565.753	14489.77
566.115	14488.64
566.477	14531.13
566.839	14550.34
567.201	14582.88
567.563	14563.44
567.925	14571.35
568.287	14601.64
568.648	14615.87
569.01	14694.51
569.372	14707.4
569.734	14620.62
570.095	14767.73
570.457	14739.94
570.819	14649.54
571.18	14741.07
571.542	14747.39
571.903	14776.09
572.265	14765.47
572.626	14834.85
572.987	14866.71
573.349	14886.37
573.71	14822.2
574.071	14832.14
574.432	14866.26
574.794	14913.94
575.155	14865.36
575.516	14851.35
575.877	14892.93
576.238	14890.67
576.599	14981.29
576.96	14944.9
577.32	14960.04
577.681	14953.49
578.042	14996.65
578.403	15004.79
578.763	15072.13
579.124	14997.11
579.485	14995.07
579.845	15049.53
580.206	14988.97
580.566	14951.23
580.927	15078.23
581.287	15081.4
581.648	14982.64
582.008	15100.38
582.368	15043.43
582.728	14959.14
583.089	15101.74
583.449	14980.38
583.809	14991
584.169	14964.56
584.529	14951.68
584.889	15060.83
585.249	14981.51
585.609	14863.55
585.969	14983.77
586.329	14907.62
586.688	14975.19
587.048	14926.15
587.408	14913.72
587.768	14826.71
588.127	14918.46
588.487	14873.72
588.846	15009.08
589.206	14848.18
589.565	14746.49
589.925	14953.27
590.284	14873.27
590.643	14901.29
591.003	14808.64
591.362	14892.48
591.721	14940.84
592.08	14874.85
592.44	14815.64
592.799	14792.59
593.158	14850.89
593.517	14826.71
593.876	14803.89
594.235	14756.89
594.593	14796.88
594.952	14871.69
595.311	14828.3
595.67	14805.7
596.029	14808.64
596.387	14865.81
596.746	14856.77
597.104	14742.42
597.463	14826.49
597.822	14812.93
598.18	14750.11
598.538	14809.31
598.897	14892.25
599.255	14637.12
599.613	14901.06
599.972	14784.46
600.33	14820.39
600.688	14812.25
601.046	14808.18
601.404	14834.62
601.762	14878.69
602.12	14905.81
602.478	14797.34
602.836	14782.87
603.194	14701.97
603.552	14844.12
603.91	14745.13
604.268	14735.87
604.625	14748.52
604.983	14820.16
605.341	14730.9
605.698	14894.96
606.056	14848.41
606.413	14858.8
606.771	14881.18
607.128	14914.4
607.485	14877.33
607.843	14880.72
608.2	14874.85
608.557	14887.05
608.914	14796.21
609.272	14883.89
609.629	14915.75
609.986	14895.87
610.343	14857.67
610.7	15004.34
611.057	14894.96
611.414	14958.01
611.771	14946.71
612.127	15024.22
612.484	15074.62
612.841	15048.63
613.198	14996.65
613.554	15031
613.911	15094.5
614.267	15129.53
614.624	15032.58
614.98	15097.44
615.337	15067.16
615.693	15093.83
616.05	15082.3
616.406	15170.89
616.762	15162.53
617.118	15112.81
617.475	15165.91
617.831	15192.13
618.187	15184.22
618.543	15206.37
618.899	15315.74
619.255	15198.23
619.611	15238.68
619.967	15352.35
620.323	15309.41
620.678	15308.74
621.034	15187.38
621.39	15204.78
621.746	15163.65
622.101	15351.9
622.457	15169.08
622.812	15278.91
623.168	15272.8
623.523	15265.8
623.879	15394.16
624.234	15228.74
624.589	15306.25
624.945	15269.87
625.3	15309.87
625.655	15244.1
626.01	15300.83
626.365	15337.21
626.72	15232.81
627.075	15243.88
627.43	15286.14
627.785	15160.72
628.14	15232.13
628.495	15246.59
628.85	15294.95
629.205	15181.28
629.559	15256.08
629.914	15227.16
630.269	15143.09
630.623	15140.83
630.978	15027.84
631.332	15217.21
631.687	15144.45
632.041	15150.55
632.396	15147.84
632.75	15148.06
633.104	15028.52
633.459	15030.78
633.813	15063.32
634.167	15008.18
634.521	14953.27
634.875	15000.72
635.229	15009.76
635.583	14862.19
635.937	14892.25
636.291	14926.83
636.645	14946.49
636.999	14868.97
637.352	14876.88
637.706	14851.12
638.06	14891.57
638.413	14852.93
638.767	14816.32
639.121	14807.73
639.474	14741.29
639.828	14816.09
640.181	14784
640.534	14689.77
640.888	14731.35
641.241	14607.96
641.594	14695.87
641.947	14734.97
642.301	14635.76
642.654	14672.82
643.007	14640.73
643.36	14687.28
643.713	14657.23
644.066	14652.93
644.419	14577
644.771	14473.05
645.124	14365.03
645.477	14361.64
645.83	14292.04
646.182	14195.77
646.535	14198.48
646.888	14151.25
647.24	14104.47
647.593	14165.72
647.945	14213.17
648.298	14078.26
648.65	14067.64
649.002	13997.58
649.355	14065.83
649.707	14140.63
650.059	14124.59
650.411	14283.9
650.763	14284.13
651.115	14488.64
651.467	14379.04
651.819	14460.62
652.171	14377.46
652.523	14422.43
652.875	14398.25
653.227	14313.51
653.578	14533.16
653.93	14355.99
654.282	14351.7
654.633	14393.05
654.985	14322.32
655.337	14356.9
655.688	14336.78
656.039	14425.37
656.391	14245.04
656.742	14295.66
657.094	14327.07
657.445	14385.37
657.796	14339.95
658.147	14330.23
658.498	14266.5
658.849	14322.55
659.2	14281.87
659.551	14275.54
659.902	14361.64
660.253	14304.69
660.604	14447.06
660.955	14263.79
661.306	14343.56
661.656	14355.54
662.007	14275.99
662.358	14354.86
662.708	14341.08
663.059	14347.86
663.409	14304.02
663.76	14412.26
664.11	14308.54
664.461	14441.64
664.811	14398.03
665.161	14368.65
665.511	14367.07
665.862	14350.79
666.212	14365.26
666.562	14408.42
666.912	14415.88
667.262	14378.82
667.612	14397.57
667.962	14473.05
668.312	14309.89
668.662	14533.62
669.011	14454.75
669.361	14449.1
669.711	14380.62
670.06	14348.54
670.41	14302.43
670.76	14351.25
671.109	14337.91
671.459	14402.09
671.808	14465.14
672.157	14404.8
672.507	14261.98
672.856	14283.45
673.205	14307.41
673.554	14325.71
673.904	14364.58
674.253	14379.95
674.602	14270.35
674.951	14097.69
675.3	13969.34
675.649	14220.4
675.998	14206.39
676.346	14259.05
676.695	14240.74
677.044	14133.85
677.393	14158.03
677.741	14246.84
678.09	14093.4
678.438	14099.95
678.787	14124.13
679.135	14108.32
679.484	14075.55
679.832	14146.51
680.181	13971.6
680.529	14014.98
680.877	13985.83
681.225	13939.96
681.573	13957.81
681.922	14020.63
682.27	13814.99
682.618	13791.94
682.966	13843.46
683.314	13925.72
683.661	13786.52
684.009	13711.26
684.357	13654.32
684.705	13734.09
685.053	13660.42
685.4	13599.85
685.748	13436.69
686.095	13513.08
686.443	13518.5
686.79	13437.37
687.138	13418.39
687.485	13567.31
687.832	13473.3
688.18	13487.09
688.527	13288.45
688.874	13321.67
689.221	13369.8
689.568	13313.99
689.915	13381.1
690.262	13206.87
690.609	13159.41
690.956	13084.84
691.303	13111.96
691.65	13003.71
691.997	13052.98
692.344	13003.03
692.69	12889.36
693.037	12858.18
693.383	12824.06
693.73	12829.48
694.077	12817.73
694.423	12668.81
694.769	12691.4
695.116	12641.91
695.462	12618.64
695.808	12600.78
696.155	12564.18
696.501	12418.42
696.847	12471.75
697.193	12388.59
697.539	12430.17
697.885	12269.72
698.231	12262.71
698.577	12243.51
698.923	12261.36
699.269	12196.5
699.614	12146.33
699.96	12081.93
700.306	12104.98
700.651	12060.23
700.997	11946.34
701.342	11918.54
701.688	11924.42
702.033	11923.97
702.379	11831.77
702.724	11741.15
703.069	11782.27
703.415	11679.45
703.76	11587.03
704.105	11648.95
704.45	11599.91
704.795	11503.64
705.14	11530.08
705.485	11478.55
705.83	11422.74
706.175	11444.66
706.52	11369.4
706.865	11342.74
707.209	11212.8
707.554	11284.66
707.899	11290.76
708.243	11221.61
708.588	11221.84
708.932	11185.91
709.277	11118.11
709.621	11058.9
709.966	11070.88
710.31	11127.6
710.654	10978.91
710.998	11027.49
711.342	11050.09
711.687	10954.73
712.031	10897.33
712.375	10875.41
712.719	10872.02
713.063	10859.14
713.407	10945.69
713.75	10824.56
714.094	10845.58
714.438	10717.9
714.782	10678.58
715.125	10728.97
715.469	10657.33
715.812	10697.78
716.156	10600.39
716.499	10630.21
716.843	10604.9
717.186	10557.67
717.53	10578.92
717.873	10575.08
718.216	10544.34
718.559	10480.16
718.902	10411.24
719.246	10479.03
719.589	10445.81
719.932	10417.57
720.275	10416.44
720.617	10440.16
720.96	10407.17
721.303	10451.24
721.646	10340.5
721.989	10319.71
722.331	10358.58
722.674	10319.26
723.016	10374.4
723.359	10298.25
723.701	10340.73
724.044	10287.62
724.386	10275.2
724.729	10283.78
725.071	10225.48
725.413	10185.03
725.755	10200.17
726.097	10255.76
726.439	10144.13
726.782	10178.93
727.124	10171.02
727.465	10096.44
727.807	10164.46
728.149	10164.46
728.491	10139.38
728.833	10244.24
729.175	10140.06
729.516	10116.1
729.858	10067.07
730.199	10097.35
730.541	10122.66
730.882	10112.49
731.224	10118.82
731.565	10073.39
731.906	10067.52
732.248	10083.34
732.589	9994.07
732.93	10011.25
733.271	10057.57
733.612	10037.69
733.953	10065.03
734.294	10011.93
734.635	9981.87
734.976	10039.27
735.317	10004.69
735.658	10087.18
735.999	10082.43
736.339	9984.13
736.68	10030.46
737.021	10046.95
737.361	10033.17
737.702	10138.7
738.042	10115.2
738.383	10039.27
738.723	10087.18
739.063	10044.02
739.404	10018.03
739.744	10152.26
740.084	10063.68
740.424	10093.05
740.764	10087.4
741.104	10119.27
741.444	10119.95
741.784	10024.13
742.124	10147.29
742.464	10147.52
742.804	10157.91
743.143	10142.09
743.483	10262.99
743.823	10170.34
744.162	10192.94
744.502	10214.63
744.841	10236.33
745.181	10344.8
745.52	10284.91
745.86	10369.66
746.199	10404.68
746.538	10407.17
746.877	10509.99
747.216	10467.06
747.556	10517.45
747.895	10650.1
748.234	10608.75
748.573	10715.64
748.911	10763.32
749.25	10888.29
749.589	10863.43
749.928	11023.42
750.267	11049.19
750.605	11090.99
750.944	11149.3
751.283	11170.54
751.621	11393.36
751.96	11387.26
752.298	11551.32
752.636	11612.79
752.975	11645.1
753.313	11751.99
753.651	11874.7
753.989	12036.05
754.327	12080.35
754.666	12166.9
755.004	12294.8
755.342	12533.44
755.679	12580.22
756.017	12674.23
