Data from hue_260_FLMS001491_00029.txt Node
Date: Tue Feb 07 15:58:47 GMT 2017
User: dcchb
Spectrometer: FLMS00149
Trigger mode: 0
Integration Time (sec): 2.000000E-2
Scans to average: 10
Electric dark correction enabled: true
Nonlinearity correction enabled: false
Boxcar width: 0
XAxis mode: Wavelengths
Number of Pixels in Spectrum: 2048
>>>>>Begin Spectral Data<<<<<
341.393	-6.78
341.776	-6.78
342.16	-6.78
342.543	-61.47
342.927	-57.85
343.31	-77.96
343.693	-55.82
344.077	-68.7
344.46	-39.77
344.843	-45.65
345.226	-48.59
345.61	-22.15
345.993	-28.93
346.376	-4.52
346.759	15.59
347.142	33.9
347.525	39.32
347.908	63.73
348.291	64.41
348.674	78.42
349.057	96.72
349.44	124.74
349.823	143.95
350.206	154.12
350.588	204.06
350.971	209.71
351.354	232.54
351.737	202.71
352.119	256.49
352.502	259.43
352.884	267.34
353.267	266.43
353.65	278.64
354.032	278.86
354.414	309.14
354.797	299.43
355.179	338.75
355.562	313.21
355.944	334.45
356.326	312.53
356.709	313.44
357.091	328.35
357.473	338.07
357.855	323.38
358.238	340.33
358.62	334.45
359.002	340.56
359.384	355.47
359.766	333.78
360.148	331.74
360.53	333.32
360.912	329.71
361.294	349.37
361.676	333.1
362.057	327.9
362.439	344.62
362.821	345.98
363.203	329.93
363.584	323.38
363.966	334.91
364.348	325.19
364.729	333.1
365.111	293.1
365.493	327.45
365.874	320.67
366.256	317.73
366.637	308.92
367.019	292.87
367.4	305.53
367.781	313.44
368.163	306.66
368.544	308.47
368.925	309.14
369.306	316.83
369.688	305.53
370.069	301.69
370.45	328.13
370.831	312.53
371.212	305.75
371.593	312.99
371.974	310.95
372.355	314.79
372.736	297.62
373.117	311.18
373.498	290.39
373.879	301.91
374.26	307.56
374.641	316.15
375.021	305.53
375.402	324.74
375.783	315.02
376.163	308.24
376.544	317.96
376.925	328.35
377.305	330.16
377.686	317.05
378.066	348.24
378.447	322.93
378.827	330.39
379.208	298.52
379.588	330.39
379.968	326.55
380.349	327.45
380.729	327.68
381.109	327.67
381.489	329.26
381.87	345.75
382.25	340.1
382.63	335.81
383.01	346.21
383.39	338.97
383.77	331.29
384.15	333.32
384.53	362.02
384.91	354.79
385.29	326.09
385.67	337.39
386.049	342.59
386.429	348.01
386.809	349.82
387.189	347.79
387.568	348.01
387.948	345.53
388.328	355.92
388.707	347.11
389.087	369.71
389.466	369.03
389.846	353.89
390.225	370.16
390.605	368.13
390.984	342.36
391.363	380.55
391.743	390.27
392.122	376.49
392.501	365.41
392.881	390.95
393.26	388.69
393.639	377.84
394.018	376.71
394.397	394.11
394.776	396.6
395.155	393.44
395.534	399.31
395.913	388.24
396.292	405.64
396.671	385.07
397.05	383.72
397.429	377.62
397.808	406.32
398.186	412.19
398.565	407.67
398.944	398.18
399.323	411.06
399.701	404.51
400.08	404.06
400.458	409.71
400.837	419.2
401.215	415.13
401.594	435.69
401.972	414.68
402.351	444.96
402.729	434.34
403.107	419.2
403.486	420.33
403.864	435.02
404.242	431.85
404.62	421.68
404.999	459.42
405.377	459.2
405.755	453.32
406.133	458.29
406.511	476.37
406.889	472.08
407.267	478.18
407.645	454
408.023	462.36
408.401	503.49
408.779	519.76
409.156	497.84
409.534	506.43
409.912	520.44
410.29	517.05
410.667	498.97
411.045	509.37
411.422	526.99
411.8	529.48
412.178	553.88
412.555	547.33
412.933	565.41
413.31	557.27
413.687	557.05
414.065	593.43
414.442	595.46
414.819	582.13
415.197	590.94
415.574	616.48
415.951	631.17
416.328	617.16
416.705	626.88
417.082	637.5
417.46	630.72
417.837	643.37
418.214	643.82
418.591	659.19
418.967	678.17
419.344	673.65
419.721	667.55
420.098	670.94
420.475	675.46
420.852	722.24
421.228	726.08
421.605	729.25
421.982	735.57
422.358	750.71
422.735	751.84
423.111	735.57
423.488	774.44
423.864	787.1
424.241	795.23
424.617	785.97
424.994	816.7
425.37	836.14
425.746	843.82
426.123	819.64
426.499	863.71
426.875	852.86
427.251	883.14
427.627	889.47
428.003	890.15
428.379	923.82
428.756	906.19
429.132	931.05
429.507	956.81
429.883	967.66
430.259	962.91
430.635	976.02
431.011	979.41
431.387	981.67
431.763	1020.31
432.138	1050.37
432.514	1038.62
432.89	1055.57
433.265	1087.2
433.641	1085.85
434.016	1080.65
434.392	1119.29
434.767	1136.24
435.143	1143.92
435.518	1164.04
435.894	1181.44
436.269	1209.23
436.644	1230.7
437.02	1238.39
437.395	1238.16
437.77	1270.02
438.145	1311.15
438.52	1321.77
438.895	1306.86
439.271	1312.96
439.646	1354.77
440.021	1345.5
440.395	1404.26
440.77	1397.93
441.145	1378.04
441.52	1394.09
441.895	1436.12
442.27	1443.35
442.645	1472.96
443.019	1486.29
443.394	1488.77
443.769	1485.16
444.143	1510.02
444.518	1531.03
444.892	1551.82
445.267	1536.68
445.641	1545.72
446.016	1545.72
446.39	1568.77
446.764	1590.92
447.139	1578.49
447.513	1610.81
447.887	1604.93
448.262	1616.45
448.636	1642.89
449.01	1660.75
449.384	1661.43
449.758	1695.1
450.132	1706.4
450.506	1692.38
450.88	1712.27
451.254	1736
451.628	1724.93
452.002	1778.48
452.376	1761.54
452.75	1812.16
453.123	1816.68
453.497	1815.55
453.871	1859.16
454.244	1851.02
454.618	1897.35
454.992	1902.77
455.365	1908.88
455.739	1938.93
456.112	1961.53
456.486	1995.88
456.859	1989.55
457.232	2036.78
457.606	2021.42
457.979	2059.83
458.352	2131.02
458.725	2095.99
459.099	2113.39
459.472	2147.97
459.845	2163.56
460.218	2209.43
460.591	2196.33
460.964	2206.04
461.337	2273.16
461.71	2280.39
462.083	2296.44
462.456	2326.27
462.829	2367.85
463.201	2373.5
463.574	2386.38
463.947	2409.88
464.32	2446.94
464.692	2456.21
465.065	2484.91
465.438	2533.04
465.81	2561.51
466.183	2578.24
466.555	2628.41
466.928	2645.81
467.3	2645.58
467.672	2666.37
468.045	2764.45
468.417	2759.93
468.789	2718.57
469.161	2771.9
469.534	2818.91
469.906	2863.2
470.278	2894.39
470.65	2897.78
471.022	2948.4
471.394	3018.45
471.766	3055.74
472.138	3079.69
472.51	3165.79
472.882	3171.67
473.253	3194.94
473.625	3203.76
473.997	3297.99
474.369	3307.71
474.74	3354.49
475.112	3340.7
475.484	3467.93
475.855	3453.47
476.227	3499.79
476.598	3624.76
476.97	3600.58
477.341	3663.86
477.713	3728.04
478.084	3749.05
478.455	3854.81
478.827	3850.97
479.198	3919.22
479.569	3928.71
479.94	4061.59
480.311	4032.21
480.682	4139.55
481.053	4199.44
481.424	4262.49
481.795	4313.56
482.166	4384.29
482.537	4388.36
482.908	4472.42
483.279	4525.3
483.65	4589.03
484.021	4694.57
484.391	4727.56
484.762	4782.25
485.133	4782.02
485.503	4837.39
485.874	4929.81
486.244	4957.38
486.615	5061.79
486.985	5074.67
487.356	5218.17
487.726	5208.68
488.097	5287.09
488.467	5316.47
488.837	5383.14
489.207	5441.21
489.578	5586.97
489.948	5566.86
490.318	5682.11
490.688	5666.07
491.058	5691.83
491.428	5747.19
491.798	5835.78
492.168	5881.2
492.538	5974.31
492.908	5971.59
493.278	6050.69
493.648	6051.82
494.017	6084.59
494.387	6155.77
494.757	6243.68
495.126	6242.32
495.496	6291.36
495.866	6357.35
496.235	6362.32
496.605	6414.52
496.974	6445.93
497.344	6506.5
497.713	6458.81
498.082	6498.13
498.452	6596.89
498.821	6630.33
499.19	6670.79
499.559	6696.77
499.928	6726.38
500.298	6736.09
500.667	6792.82
501.036	6731.8
501.405	6810.22
501.774	6857.45
502.143	6866.26
502.512	6891.8
502.88	6951.46
503.249	7012.25
503.618	6976.54
503.987	6980.83
504.356	7031
504.724	7054.05
505.093	7032.13
505.462	7083.66
505.83	7118
506.199	7144.44
506.567	7202.97
506.936	7171.56
507.304	7271.22
507.672	7283.88
508.041	7299.47
508.409	7314.38
508.777	7390.31
509.145	7391.9
509.514	7378.34
509.882	7386.02
510.25	7380.82
510.618	7476.64
510.986	7448.84
511.354	7475.51
511.722	7550.76
512.09	7549.63
512.458	7563.87
512.826	7607.26
513.193	7622.62
513.561	7645.67
513.929	7701.27
514.297	7668.72
514.664	7690.19
515.032	7738.78
515.4	7763.64
515.767	7754.82
516.135	7818.1
516.502	7738.33
516.869	7812
517.237	7811.09
517.604	7802.51
517.972	7858.1
518.339	7844.09
518.706	7877.08
519.073	7890.41
519.44	7892.45
519.808	7888.15
520.175	7976.29
520.542	8039.79
520.909	8028.26
521.276	7984.65
521.643	8049.05
522.009	8056.74
522.376	8028.26
522.743	8154.59
523.11	8165.66
523.477	8170.18
523.843	8187.36
524.21	8223.29
524.577	8220.35
524.943	8245.43
525.31	8262.16
525.676	8314.36
526.043	8354.58
526.409	8338.31
526.776	8320.69
527.142	8376.5
527.508	8374.02
527.874	8453.34
528.241	8444.52
528.607	8434.58
528.973	8523.62
529.339	8484.52
529.705	8500.79
530.071	8517.74
530.437	8541.92
530.803	8554.13
531.169	8583.28
531.535	8540.79
531.901	8555.03
532.267	8580.34
532.632	8588.7
532.998	8605.65
533.364	8590.96
533.73	8567.46
534.095	8625.99
534.461	8638.19
534.826	8668.25
535.192	8613.78
535.557	8615.37
535.923	8686.55
536.288	8631.86
536.653	8695.82
537.019	8616.5
537.384	8582.15
537.749	8642.71
538.114	8578.31
538.479	8586.89
538.845	8630.28
539.21	8610.4
539.575	8560.45
539.94	8546.22
540.305	8597.51
540.67	8537.18
541.034	8588.25
541.399	8612.43
541.764	8537.18
542.129	8527.69
542.494	8571.75
542.858	8607.23
543.223	8587.34
543.587	8637.29
543.952	8602.49
544.316	8562.94
544.681	8515.03
545.045	8532.21
545.41	8544.41
545.774	8580.79
546.138	8500.79
546.503	8624.18
546.867	8571.3
547.231	8550.28
547.595	8562.71
547.959	8508.25
548.324	8534.24
548.688	8554.13
549.052	8499.66
549.416	8469.38
549.779	8548.48
550.143	8519.55
550.507	8550.28
550.871	8497.4
551.235	8496.95
551.599	8540.79
551.962	8473.68
552.326	8501.02
552.689	8522.94
553.053	8508.02
553.417	8488.82
553.78	8513
554.143	8506.22
554.507	8485.88
554.87	8440
555.234	8554.13
555.597	8521.36
555.96	8465.99
556.323	8524.75
556.686	8480.68
557.05	8567.91
557.413	8453.79
557.776	8493.11
558.139	8504.18
558.502	8533.56
558.865	8580.11
559.228	8512.77
559.59	8568.81
559.953	8554.13
560.316	8630.28
560.679	8617.4
561.041	8614.91
561.404	8609.94
561.767	8701.69
562.129	8689.94
562.492	8746.66
562.854	8653.11
563.217	8674.57
563.579	8761.58
563.941	8691.97
564.304	8693.1
564.666	8787.57
565.028	8751.63
565.39	8793.89
565.753	8831.18
566.115	8837.28
566.477	8804.97
566.839	8873.21
567.201	8914.57
567.563	8885.19
567.925	8956.83
568.287	8947.11
568.648	8969.48
569.01	8963.61
569.372	9025.3
569.734	9011.06
570.095	9055.13
570.457	9111.4
570.819	9047.22
571.18	9167.22
571.542	9124.73
571.903	9101.68
572.265	9202.02
572.626	9142.13
572.987	9236.37
573.349	9150.04
573.71	9290.38
574.071	9289.47
574.432	9292.64
574.794	9358.4
575.155	9376.93
575.516	9327.44
575.877	9432.52
576.238	9423.03
576.599	9432.29
576.96	9454.67
577.32	9421.67
577.681	9468.68
578.042	9549.35
578.403	9555.23
578.763	9542.35
579.124	9513.42
579.485	9543.03
579.845	9670.03
580.206	9620.09
580.566	9649.69
580.927	9604.72
581.287	9654.89
581.648	9667.09
582.008	9736.47
582.368	9748.67
582.728	9731.04
583.089	9738.28
583.449	9742.57
583.809	9788.67
584.169	9845.62
584.529	9791.38
584.889	9907.08
585.249	9864.15
585.609	9801.55
585.969	9919.51
586.329	9821.44
586.688	9972.62
587.048	9883.81
587.408	9919.74
587.768	9910.47
588.127	9996.57
588.487	9969.46
588.846	10028.44
589.206	9957.25
589.565	10016.23
589.925	10064.59
590.284	10046.52
590.643	10078.61
591.003	10112.73
591.362	10102.56
591.721	10122.9
592.08	10131.49
592.44	10212.16
592.799	10186.4
593.158	10195.89
593.517	10159.05
593.876	10167.64
594.235	10192.5
594.593	10224.59
594.952	10227.08
595.311	10192.5
595.67	10215.55
596.029	10219.17
596.387	10307.98
596.746	10293.97
597.104	10275.89
597.463	10273.4
597.822	10356.34
598.18	10241.31
598.538	10302.55
598.897	10351.59
599.255	10340.07
599.613	10440.4
599.972	10325.38
600.33	10397.24
600.688	10338.03
601.046	10364.7
601.404	10368.31
601.762	10381.87
602.12	10439.73
602.478	10438.14
602.836	10446.96
603.194	10406.51
603.552	10422.32
603.91	10405.38
604.268	10402.66
604.625	10413.96
604.983	10432.04
605.341	10383.68
605.698	10394.3
606.056	10519.27
606.413	10478.59
606.771	10503.45
607.128	10557.69
607.485	10533.51
607.843	10523.11
608.2	10564.47
608.557	10641.75
608.914	10553.85
609.272	10623.45
609.629	10585.48
609.986	10664.13
610.343	10552.26
610.7	10618.93
611.057	10662.54
611.414	10630.68
611.771	10681.75
612.127	10723.11
612.484	10695.09
612.841	10746.84
613.198	10670
613.554	10719.49
613.911	10682.2
614.267	10695.76
614.624	10710
614.98	10783.9
615.337	10724.92
615.693	10805.37
616.05	10710.23
616.406	10837.91
616.762	10825.03
617.118	10766.95
617.475	10782.32
617.831	10844.01
618.187	10864.57
618.543	10909.09
618.899	10909.77
619.255	10883.56
619.611	10867.51
619.967	10964.68
620.323	10868.64
620.678	10840.39
621.034	10835.65
621.39	10877.45
621.746	10924.91
622.101	10973.27
622.457	10858.47
622.812	10832.71
623.168	10888.53
623.523	10886.49
623.879	10910.9
624.234	10823.22
624.589	10921.97
624.945	10868.64
625.3	10921.29
625.655	10902.31
626.01	10881.97
626.365	10882.2
626.72	10846.95
627.075	10850.34
627.43	10918.13
627.785	10876.78
628.14	10844.91
628.495	10802.88
628.85	10792.71
629.205	10738.02
629.559	10850.79
629.914	10773.28
630.269	10787.06
630.623	10778.47
630.978	10778.7
631.332	10768.08
631.687	10780.28
632.041	10775.08
632.396	10772.37
632.75	10733.96
633.104	10728.31
633.459	10680.17
633.813	10655.77
634.167	10691.47
634.521	10658.48
634.875	10646.95
635.229	10673.84
635.583	10600.85
635.937	10679.49
636.291	10629.78
636.645	10592.26
636.999	10540.97
637.352	10612.6
637.706	10481.98
638.06	10618.25
638.413	10550.68
638.767	10558.82
639.121	10529.44
639.474	10484.7
639.828	10476.11
640.181	10556.78
640.534	10470.46
640.888	10447.86
641.241	10382.1
641.594	10503.23
641.947	10454.64
642.301	10408.31
642.654	10465.94
643.007	10432.72
643.36	10387.3
643.713	10354.08
644.066	10438.37
644.419	10315.21
644.771	10278.37
645.124	10176
645.477	10194.99
645.83	10097.36
646.182	10092.84
646.535	9979.85
646.888	10031.15
647.24	9968.55
647.593	9995.67
647.945	9948.89
648.298	9999.96
648.65	9990.02
649.002	9939.4
649.355	9998.61
649.707	10013.3
650.059	10054.42
650.411	10183.01
650.763	10172.61
651.115	10299.16
651.467	10231.82
651.819	10243.12
652.171	10272.05
652.523	10181.2
652.875	10164.93
653.227	10172.39
653.578	10251.26
653.93	10234.31
654.282	10119.96
654.633	10191.14
654.985	10237.47
655.337	10131.26
655.688	10204.03
656.039	10194.31
656.391	10130.13
656.742	10156.57
657.094	10231.14
657.445	10262.56
657.796	10180.75
658.147	10132.16
658.498	10195.66
658.849	10242.67
659.2	10222.56
659.551	10192.73
659.902	10172.39
660.253	10157.02
660.604	10233.4
660.955	10106.63
661.306	10234.76
661.656	10243.12
662.007	10232.95
662.358	10258.71
662.708	10192.27
663.059	10300.29
663.409	10212.39
663.76	10225.04
664.11	10248.54
664.461	10190.92
664.811	10193.4
665.161	10249.67
665.511	10179.85
665.862	10284.02
666.212	10231.14
666.562	10226.17
666.912	10205.38
667.262	10183.01
667.612	10242.22
667.962	10247.87
668.312	10256.45
668.662	10285.61
669.011	10193.18
669.361	10178.49
669.711	10209.68
670.06	10176.46
670.41	10145.04
670.76	10202.67
671.109	10184.36
671.459	10216.45
671.808	10140.98
672.157	10220.52
672.507	10086.51
672.856	10173.07
673.205	10114.31
673.554	10163.12
673.904	10152.95
674.253	10181.65
674.602	10140.3
674.951	9964.26
675.3	9932.62
675.649	10035.89
675.998	10001.32
676.346	10067.98
676.695	10105.5
677.044	10013.52
677.393	10014.65
677.741	10002.9
678.09	10056.23
678.438	10027.53
678.787	10040.64
679.135	9990.7
679.484	9900.98
679.832	9961.32
680.181	9916.8
680.529	9893.53
680.877	9919.29
681.225	9861.21
681.573	9936.24
681.922	9942.34
682.27	9732.85
682.618	9863.92
682.966	9792.28
683.314	9804.94
683.661	9748.9
684.009	9723.36
684.357	9705.06
684.705	9693.3
685.053	9667.09
685.4	9703.7
685.748	9616.7
686.095	9571.5
686.443	9515.91
686.79	9517.94
687.138	9534.21
687.485	9524.95
687.832	9530.82
688.18	9432.29
688.527	9433.88
688.874	9435.68
689.221	9462.58
689.568	9329.02
689.915	9383.26
690.262	9340.32
690.609	9349.36
690.956	9289.02
691.303	9240.21
691.65	9226.65
691.997	9233.2
692.344	9169.93
692.69	9099.2
693.037	9184.84
693.383	9019.65
693.73	9095.13
694.077	9002.93
694.423	9009.25
694.769	9013.32
695.116	8906.88
695.462	8963.15
695.808	8875.47
696.155	8922.93
696.501	8871.41
696.847	8803.38
697.193	8717.51
697.539	8796.6
697.885	8712.77
698.231	8738.75
698.577	8727.23
698.923	8650.39
699.269	8596.16
699.614	8622.37
699.96	8489.95
700.306	8547.12
700.651	8488.36
700.997	8516.16
701.342	8450.85
701.688	8467.8
702.033	8400.23
702.379	8390.74
702.724	8312.32
703.069	8326.11
703.415	8226.22
703.76	8220.12
704.105	8247.01
704.45	8183.97
704.795	8162.27
705.14	8128.37
705.485	8118.43
705.83	8057.64
706.175	8102.16
706.52	8017.42
706.865	8023.97
707.209	8052.67
707.554	7953.24
707.899	7939.9
708.243	7940.81
708.588	7931.99
708.932	7841.6
709.277	7840.47
709.621	7853.58
709.966	7824.43
710.31	7774.71
710.654	7686.58
710.998	7818.55
711.342	7710.08
711.687	7741.72
712.031	7648.84
712.375	7664.43
712.719	7663.3
713.063	7660.36
713.407	7682.28
713.75	7593.47
714.094	7580.14
714.438	7532.23
714.782	7599.57
715.125	7483.65
715.469	7555.96
715.812	7527.26
716.156	7465.11
716.499	7465.79
716.843	7498.56
717.186	7381.73
717.53	7460.14
717.873	7507.37
718.216	7447.26
718.559	7457.88
718.902	7280.71
719.246	7401.84
719.589	7396.19
719.932	7333.59
720.275	7332.46
720.617	7334.72
720.96	7336.98
721.303	7335.17
721.646	7299.02
721.989	7271.22
722.331	7311.67
722.674	7254.27
723.016	7330.2
723.359	7240.04
723.701	7290.2
724.044	7201.39
724.386	7185.57
724.729	7234.39
725.071	7226.7
725.413	7170.66
725.755	7170.43
726.097	7126.14
726.439	7175.63
726.782	7141.28
727.124	7228.96
727.465	7174.95
727.807	7121.39
728.149	7205.23
728.491	7133.15
728.833	7141.06
729.175	7103.99
729.516	7126.82
729.858	7140.15
730.199	7141.51
730.541	7181.51
730.882	7109.19
731.224	7136.31
731.565	7099.47
731.906	7134.05
732.248	7144.44
732.589	7122.52
732.93	7064.22
733.271	7087.05
733.612	7106.03
733.953	7074.62
734.294	7080.27
734.635	7046.82
734.976	7068.06
735.317	7112.13
735.658	7085.69
735.999	7070.32
736.339	7044.56
736.68	7153.26
737.021	7134.73
737.361	7001.85
737.702	7124.78
738.042	7090.89
738.383	7107.38
738.723	7082.53
739.063	7126.82
739.404	7143.77
739.744	7129.3
740.084	7128.4
740.424	7138.12
740.764	7118.91
741.104	7123.65
741.444	7167.72
741.784	7131.11
742.124	7186.7
742.464	7202.75
742.804	7178.79
743.143	7202.07
743.483	7240.04
743.823	7189.64
744.162	7178.34
744.502	7209.08
744.841	7260.15
745.181	7270.32
745.52	7315.06
745.86	7304.89
746.199	7345.57
746.538	7361.39
746.877	7433.7
747.216	7480.26
747.556	7510.99
747.895	7500.59
748.234	7546.02
748.573	7613.59
748.911	7623.98
749.25	7675.73
749.589	7732.9
749.928	7801.6
750.267	7838.21
750.605	7915.27
750.944	7981.94
751.283	7967.7
751.621	8091.76
751.96	8075.04
752.298	8238.43
752.636	8259.44
752.975	8327.69
753.313	8388.48
753.651	8564.52
753.989	8574.01
754.327	8641.13
754.666	8666.44
755.004	8815.59
755.342	8958.86
755.679	8982.59
756.017	9093.09
756.355	9211.51
756.693	9304.61
757.031	9434.33
757.368	9536.02
757.706	9608.56
758.044	9685.85
758.381	9905.73
758.719	9960.19
759.056	10111.15
759.394	10199.51
759.731	10309.79
760.068	10468.88
760.405	10510.91
760.743	10654.18
761.08	10753.16
761.417	10896.44
761.754	11109.76
762.091	11130.33
762.428	11269.53
762.765	11447.83
763.102	11547.04
763.438	11610.99
763.775	11815.28
764.112	11916.75
