Data from hue_10_FLMS001491_47.txt Node
Date: Mon Feb 06 15:31:59 GMT 2017
User: dcchb
Spectrometer: FLMS00149
Trigger mode: 0
Integration Time (sec): 2.000000E-2
Scans to average: 10
Electric dark correction enabled: true
Nonlinearity correction enabled: false
Boxcar width: 0
XAxis mode: Wavelengths
Number of Pixels in Spectrum: 2048
>>>>>Begin Spectral Data<<<<<
341.393	-14.84
341.776	-14.84
342.16	-14.84
342.543	-75.41
342.927	-72.02
343.31	-66.82
343.693	-49.19
344.077	-77.67
344.46	-54.84
344.843	-45.8
345.226	-24.11
345.61	-38.12
345.993	-20.04
346.376	-11
346.759	14.53
347.142	10.92
347.525	39.62
347.908	36.23
348.291	78.03
348.674	105.6
349.057	102.67
349.44	113.51
349.823	118.49
350.206	153.29
350.588	191.93
350.971	204.81
351.354	218.14
351.737	213.85
352.119	256.34
352.502	271.48
352.884	256.56
353.267	288.2
353.65	292.72
354.032	303.34
354.414	296.56
354.797	320.06
355.179	313.51
355.562	308.54
355.944	325.03
356.326	325.94
356.709	338.37
357.091	339.95
357.473	310.12
357.855	331.59
358.238	330.68
358.62	329.55
359.002	315.77
359.384	329.55
359.766	334.3
360.148	312.15
360.53	347.18
360.912	329.1
361.294	339.27
361.676	326.16
362.057	322.32
362.439	341.08
362.821	321.64
363.203	327.52
363.584	315.32
363.966	323.45
364.348	318.71
364.729	305.83
365.111	297.01
365.493	327.75
365.874	306.05
366.256	318.25
366.637	295.88
367.019	295.2
367.4	316.9
367.781	304.02
368.163	301.31
368.544	301.53
368.925	314.64
369.306	308.99
369.688	312.83
370.069	302.21
370.45	308.31
370.831	310.12
371.212	331.36
371.593	318.48
371.974	310.12
372.355	311.93
372.736	313.96
373.117	300.18
373.498	307.63
373.879	301.53
374.26	326.16
374.641	304.7
375.021	293.17
375.402	317.35
375.783	297.01
376.163	316.45
376.544	318.48
376.925	307.41
377.305	328.42
377.686	298.37
378.066	322.32
378.447	331.14
378.827	323
379.208	312.38
379.588	329.78
379.968	328.88
380.349	348.54
380.729	340.4
381.109	334.98
381.489	316.9
381.87	336.11
382.25	312.15
382.63	318.93
383.01	314.41
383.39	329.33
383.77	349.21
384.15	344.47
384.53	342.43
384.91	330.68
385.29	326.84
385.67	354.19
386.049	332.49
386.429	344.92
386.809	355.32
387.189	334.3
387.568	336.33
387.948	353.06
388.328	344.92
388.707	352.6
389.087	364.58
389.466	344.69
389.846	353.96
390.225	339.27
390.605	343.79
390.984	351.47
391.363	349.44
391.743	365.71
392.122	344.02
392.501	359.61
392.881	343.56
393.26	370.23
393.639	346.28
394.018	351.7
394.397	373.85
394.776	362.55
395.155	367.74
395.534	358.48
395.913	364.35
396.292	377.91
396.671	359.16
397.05	350.34
397.429	344.69
397.808	399.38
398.186	370.68
398.565	342.21
398.944	369.78
399.323	371.81
399.701	403
400.08	374.98
400.458	367.29
400.837	375.88
401.215	396.44
401.594	365.26
401.972	376.33
402.351	386.5
402.729	413.62
403.107	382.43
403.486	387.63
403.864	390.12
404.242	415.43
404.62	381.76
404.999	385.82
405.377	424.92
405.755	386.73
406.133	391.47
406.511	411.36
406.889	413.85
407.267	403.45
407.645	404.81
408.023	419.72
408.401	397.57
408.779	412.72
409.156	417.23
409.534	433.28
409.912	427.86
410.29	429.44
410.667	434.41
411.045	428.08
411.422	429.21
411.8	426.95
412.178	455.2
412.555	419.04
412.933	438.03
413.31	448.19
413.687	443.9
414.065	466.05
414.442	452.26
414.819	447.06
415.197	431.7
415.574	468.08
415.951	433.28
416.328	456.56
416.705	471.47
417.082	454.52
417.46	462.66
417.837	466.05
418.214	478.93
418.591	471.02
418.967	469.44
419.344	462.21
419.721	476.22
420.098	488.42
420.475	481.87
420.852	490.23
421.228	488.42
421.605	487.06
421.982	504.46
422.358	489.55
422.735	473.28
423.111	508.53
423.488	500.85
423.864	500.4
424.241	520.06
424.617	505.37
424.994	513.28
425.37	500.4
425.746	529.55
426.123	538.81
426.499	528.42
426.875	519.6
427.251	522.77
427.627	532.94
428.003	544.92
428.379	546.04
428.756	537.68
429.132	572.26
429.507	572.26
429.883	575.65
430.259	561.64
430.635	581.07
431.011	569.77
431.387	574.52
431.763	597.57
432.138	599.83
432.514	592.37
432.89	584.46
433.265	592.37
433.641	609.55
434.016	614.97
434.392	590.56
434.767	623.33
435.143	606.61
435.518	631.69
435.894	651.35
436.269	622.43
436.644	644.8
437.02	646.16
437.395	671.01
437.77	640.51
438.145	666.72
438.52	660.17
438.895	670.11
439.271	658.58
439.646	680.5
440.021	693.61
440.395	685.93
440.77	676.44
441.145	682.09
441.52	679.15
441.895	698.36
442.27	692.71
442.645	704.23
443.019	694.52
443.394	679.6
443.769	728.64
444.143	706.94
444.518	698.36
444.892	694.29
445.267	694.06
445.641	736.1
446.016	708.98
446.39	727.06
446.764	724.12
447.139	709.43
447.513	734.97
447.887	728.19
448.262	739.03
448.636	740.62
449.01	740.84
449.384	745.59
449.758	751.69
450.132	753.72
450.506	799.82
450.88	760.05
451.254	767.73
451.628	784.23
452.002	785.59
452.376	771.35
452.75	793.5
453.123	786.04
453.497	821.52
453.871	798.02
454.244	840.5
454.618	810.44
454.992	837.79
455.365	805.93
455.739	835.53
456.112	869.2
456.486	850.9
456.859	872.59
457.232	867.84
457.606	879.82
457.979	882.99
458.352	888.41
458.725	906.71
459.099	906.49
459.472	906.26
459.845	937.67
460.218	927.73
460.591	932.93
460.964	937.22
461.337	973.6
461.71	992.59
462.083	969.54
462.456	990.1
462.829	972.02
463.201	1009.31
463.574	992.81
463.947	1034.85
464.32	1044.79
464.692	1030.33
465.065	1057.22
465.438	1043.21
465.81	1065.81
466.183	1089.31
466.555	1075.07
466.928	1118.01
467.3	1138.57
467.672	1131.11
468.045	1146.93
468.417	1125.46
468.789	1140.83
469.161	1190.55
469.534	1181.73
469.906	1211.79
470.278	1230.55
470.65	1240.49
471.022	1253.15
471.394	1293.14
471.766	1271.45
472.138	1313.93
472.51	1325.46
472.882	1352.35
473.253	1351.67
473.625	1401.84
473.997	1426.25
474.369	1416.53
474.74	1450.2
475.112	1469.64
475.484	1509.18
475.855	1535.4
476.227	1537.66
476.598	1599.58
476.97	1580.82
477.341	1605.23
477.713	1653.13
478.084	1653.36
478.455	1682.06
478.827	1718.9
479.198	1767.03
479.569	1788.27
479.94	1833.92
480.311	1865.56
480.682	1880.93
481.053	1948.04
481.424	1953.24
481.795	1999.11
482.166	2052.22
482.537	2072.56
482.908	2114.37
483.279	2160.01
483.65	2168.15
484.021	2218.54
484.391	2264.64
484.762	2275.27
485.133	2274.59
485.503	2362.27
485.874	2359.56
486.244	2449.05
486.615	2483.62
486.985	2515.48
487.356	2556.61
487.726	2581.25
488.097	2637.52
488.467	2645.42
488.837	2721.81
489.207	2750.96
489.578	2804.97
489.948	2814.23
490.318	2834.57
490.688	2902.59
491.058	2949.15
491.428	2987.34
491.798	3048.8
492.168	3075.92
492.538	3100.33
492.908	3153.43
493.278	3160.67
493.648	3237.5
494.017	3221.91
494.387	3264.17
494.757	3358.85
495.126	3338.29
495.496	3379.42
495.866	3391.62
496.235	3456.7
496.605	3484.05
496.974	3507.77
497.344	3518.62
497.713	3552.07
498.082	3606.53
498.452	3616.25
498.821	3623.03
499.19	3661.22
499.559	3751.84
499.928	3719.52
500.298	3765.17
500.667	3812.4
501.036	3779.63
501.405	3834.32
501.774	3854.66
502.143	3870.48
502.512	3904.15
502.88	3914.32
503.249	3921.1
503.618	3974.2
503.987	3958.16
504.356	4030.25
504.724	3998.84
505.093	4029.8
505.462	4021.21
505.83	4056.24
506.199	4096.46
506.567	4104.82
506.936	4175.33
507.304	4196.12
507.672	4178.94
508.041	4274.53
508.409	4217.36
508.777	4225.5
509.145	4311.37
509.514	4288.32
509.882	4352.27
510.25	4320.41
510.618	4331.48
510.986	4359.73
511.354	4397.7
511.722	4426.62
512.09	4435.66
512.458	4423.68
512.826	4455.77
513.193	4455.32
513.561	4459.61
513.929	4504.36
514.297	4566.5
514.664	4544.58
515.032	4561.53
515.4	4587.75
515.767	4533.28
516.135	4645.6
516.502	4621.42
516.869	4691.92
517.237	4638.82
517.604	4649.89
517.972	4734.64
518.339	4724.92
518.706	4752.26
519.073	4711.13
519.44	4766.5
519.808	4754.52
520.175	4754.3
520.542	4826.84
520.909	4887.85
521.276	4879.26
521.643	4888.3
522.009	4887.4
522.376	4897.57
522.743	4967.62
523.11	4948.42
523.477	5016.89
523.843	5067.06
524.21	5037.23
524.577	5122.42
524.943	5090.56
525.31	5142.53
525.676	5104.57
526.043	5202.42
526.409	5240.38
526.776	5289.2
527.142	5262.31
527.508	5273.6
527.874	5310.21
528.241	5248.07
528.607	5390.44
528.973	5405.58
529.339	5354.73
529.705	5407.39
530.071	5482.86
530.437	5471.79
530.803	5516.99
531.169	5547.5
531.535	5502.75
531.901	5542.52
532.267	5587.95
532.632	5568.51
532.998	5580.49
533.364	5669.98
533.73	5671.56
534.095	5695.97
534.461	5712.69
534.826	5713.59
535.192	5785
535.557	5768.28
535.923	5831.56
536.288	5827.94
536.653	5874.94
537.019	5868.84
537.384	5859.8
537.749	5891.67
538.114	5933.02
538.479	5959.24
538.845	6013.7
539.21	6037.43
539.575	5987.48
539.94	6013.7
540.305	6097.31
540.67	6119.46
541.034	6118.78
541.399	6140.7
541.764	6170.76
542.129	6218.44
542.494	6151.1
542.858	6249.4
543.223	6253.47
543.587	6363.29
543.952	6371.88
544.316	6339.79
544.681	6328.04
545.045	6388.83
545.41	6406
545.774	6493.01
546.138	6493.91
546.503	6505.21
546.867	6488.94
547.231	6535.04
547.595	6617.52
547.959	6599.67
548.324	6607.58
548.688	6678.77
549.052	6644.64
549.416	6676.05
549.779	6674.47
550.143	6743.62
550.507	6758.31
550.871	6791.3
551.235	6765.32
551.599	6840.79
551.962	6855.94
552.326	6870.4
552.689	6897.52
553.053	6901.36
553.417	6853
553.78	6984.29
554.143	6956.05
554.507	7031.07
554.87	6959.44
555.234	7012.32
555.597	7094.35
555.96	7065.65
556.323	7028.81
556.686	7111.52
557.05	7161.24
557.413	7128.7
557.776	7201.01
558.139	7193.55
558.502	7179.54
558.865	7218.64
559.228	7269.03
559.59	7298.18
559.953	7325.08
560.316	7337.5
560.679	7341.57
561.041	7402.59
561.404	7392.64
561.767	7518.52
562.129	7398.75
562.492	7549.25
562.854	7490.04
563.217	7542.25
563.579	7612.07
563.941	7609.36
564.304	7592.87
564.666	7629.7
565.028	7681.9
565.39	7716.48
565.753	7738.17
566.115	7784.5
566.477	7783.59
566.839	7797.83
567.201	7863.37
567.563	7868.56
567.925	7917.83
568.287	7903.37
568.648	7905.85
569.01	7976.13
569.372	8020.65
569.734	7996.02
570.095	8150.14
570.457	8133.87
570.819	8182.91
571.18	8238.27
571.542	8296.8
571.903	8261.55
572.265	8282.34
572.626	8342.45
572.987	8416.8
573.349	8479.62
573.71	8542.22
574.071	8522.78
574.432	8558.72
574.794	8705.38
575.155	8632.84
575.516	8723.91
575.877	8828.99
576.238	8817.24
576.599	8943.34
576.96	9035.31
577.32	9064.01
577.681	9189.21
578.042	9263.1
578.403	9319.37
578.763	9386.26
579.124	9478.69
579.485	9640.27
579.845	9801.85
580.206	9866.25
580.566	10014.72
580.927	10028.51
581.287	10159.13
581.648	10318.44
582.008	10462.39
582.368	10592.33
582.728	10750.07
583.089	10933.79
583.449	11028.26
583.809	11194.58
584.169	11405.87
584.529	11561.12
584.889	11876.14
585.249	11913.43
585.609	12148.45
585.969	12365.4
586.329	12624.82
586.688	12887.87
587.048	13050.57
587.408	13272.49
587.768	13486.95
588.127	13768.97
588.487	13985.92
588.846	14336.19
589.206	14470.2
589.565	14795.16
589.925	15123.74
590.284	15385.65
590.643	15615.03
591.003	15995.13
591.362	16282.35
591.721	16528.22
592.08	16839.18
592.44	17163.46
592.799	17512.38
593.158	17857.23
593.517	18175.19
593.876	18532.24
594.235	18760.26
594.593	19087.48
594.952	19464.42
595.311	19698.08
595.67	20074.8
596.029	20576.48
596.387	20901.44
596.746	21139.4
597.104	21357.48
597.463	21771.93
597.822	22255.53
598.18	22508.63
598.538	22797.21
598.897	23245.56
599.255	23297.99
599.613	24059.33
599.972	24202.6
600.33	24561.01
600.688	24790.15
601.046	25200.99
601.404	25597.36
601.762	25889.33
602.12	26395.31
602.478	26632.82
602.836	26932.02
603.194	27042.52
603.552	27536.75
603.91	27604.99
604.268	28080.01
604.625	28361.13
604.983	28816.94
605.341	28847.67
605.698	29282.69
606.056	29598.84
606.413	29839.96
606.771	30251.25
607.128	30593.84
607.485	30674.29
607.843	30915.19
608.2	31371.68
608.557	31656.19
608.914	31833.81
609.272	32127.59
609.629	32482.83
609.986	33066.55
610.343	32872.88
610.7	33455.01
611.057	33612.29
611.414	33725.74
611.771	34122.11
612.127	34299.06
612.484	34349.45
612.841	34759.16
613.198	34812.94
613.554	35000.28
613.911	35408.41
614.267	35659.92
614.624	35595.07
614.98	36083.42
615.337	36362.96
615.693	36381.49
616.05	36626.9
616.406	36882.94
616.762	36840.46
617.118	37074.58
617.475	37289.49
617.831	37574
618.187	37809.25
618.543	37870.71
618.899	38196.35
619.255	38262.12
619.611	38339.4
619.967	38557.93
620.323	38743.46
620.678	38773.97
621.034	38858.71
621.39	38983
621.746	39181.64
622.101	39591.8
622.457	39353.61
622.812	39626.83
623.168	39705.92
623.523	39851.68
623.879	40006.93
624.234	39817.1
624.589	40123.08
624.945	40294.83
625.3	40556.52
625.655	40542.28
626.01	40442.62
626.365	40704.09
626.72	40787.7
627.075	40667.02
627.43	40879
627.785	40791.31
628.14	41024.98
628.495	41087.58
628.85	41026.56
629.205	41010.97
629.559	41387.91
629.914	41299.32
630.269	41306.1
630.623	41248.25
630.978	41159.89
631.332	41473.78
631.687	41511.75
632.041	41406.44
632.396	41562.14
632.75	41353.56
633.104	41657.28
633.459	41347.91
633.813	41650.5
634.167	41562.59
634.521	41616.15
634.875	41577.96
635.229	41503.16
635.583	41446.21
635.937	41573.21
636.291	41456.83
636.645	41644.85
636.999	41450.73
637.352	41606.43
637.706	41473.56
638.06	41723.72
638.413	41470.17
638.767	41479.88
639.121	41628.81
639.474	41366.21
639.828	41399.43
640.181	41510.62
640.534	41609.82
640.888	41433.56
641.241	41303.39
641.594	41473.78
641.947	41468.13
642.301	41476.27
642.654	41518.75
643.007	41562.14
643.36	41491.41
643.713	41399.89
644.066	41571.18
644.419	41425.65
644.771	41034.02
645.124	40864.53
645.477	40798.55
645.83	40619.57
646.182	40322.4
646.535	40268.84
646.888	40343.87
647.24	40191.1
647.593	40486.24
647.945	40252.35
648.298	40107.49
648.65	40119.02
649.002	40066.14
649.355	40179.81
649.707	40194.04
650.059	40300.25
650.411	40695.72
650.763	40754.71
651.115	41135.03
651.467	41006
651.819	41155.15
652.171	40864.76
652.523	40957.86
652.875	40980.46
653.227	40759
653.578	41038.09
653.93	41094.81
654.282	40818.43
654.633	40720.81
654.985	40830.86
655.337	40807.13
655.688	40724.2
656.039	40920.12
656.391	40498.21
656.742	40736.17
657.094	40766.46
657.445	40868.6
657.796	40696.4
658.147	40605.78
658.498	40631.54
658.849	40850.52
659.2	40779.79
659.551	40640.81
659.902	40717.19
660.253	40787.92
660.604	40839
660.955	40600.13
661.306	40725.55
661.656	40571.21
662.007	40585.9
662.358	40678.78
662.708	40714.93
663.059	40528.27
663.409	40410.99
663.76	40657.31
664.11	40723.29
664.461	40748.15
664.811	40793.12
665.161	40702.05
665.511	40603.3
665.862	40735.5
666.212	40734.14
666.562	40686.46
666.912	40588.38
667.262	40558.78
667.612	40511.1
667.962	40588.38
668.312	40606.23
668.662	40679.23
669.011	40501.6
669.361	40500.47
669.711	40439.91
670.06	40427.26
670.41	40385.9
670.76	40411.89
671.109	40439.91
671.459	40387.03
671.808	40367.6
672.157	40477.65
672.507	40259.13
672.856	40257.54
673.205	40218.9
673.554	40380.25
673.904	40294.6
674.253	40442.4
674.602	40501.38
674.951	39537.56
675.3	39612.14
675.649	40207.83
675.998	40107.04
676.346	40116.08
676.695	40215.06
677.044	40008.06
677.393	40028.62
677.741	40175.96
678.09	40025.46
678.438	39928.96
678.787	39989.53
679.135	40025.01
679.484	39794.28
679.832	39786.82
680.181	39620.27
680.529	39821.62
680.877	39835.63
681.225	39766.71
681.573	39916.31
681.922	39612.81
682.27	39481.97
682.618	39515.42
682.966	39332.37
683.314	39460.5
683.661	39392.03
684.009	39267.74
684.357	39096.44
684.705	39156.1
685.053	39215.99
685.4	39072.72
685.748	38807.41
686.095	38869.78
686.443	38598.15
686.79	38769.22
687.138	38699.62
687.485	38721.99
687.832	38648.77
688.18	38561.99
688.527	38493.97
688.874	38417.59
689.221	38337.37
689.568	38211.5
689.915	38165.39
690.262	38211.04
690.609	38074.32
690.956	37946.87
691.303	37759.53
691.65	37761.34
691.997	37696.03
692.344	37624.39
692.69	37485.86
693.037	37525.19
693.383	37197.51
693.73	37438.63
694.077	37038.19
694.423	37171.3
694.769	37188.47
695.116	36965.88
695.462	36904.19
695.808	36677.75
696.155	36778.54
696.501	36597.75
696.847	36573.12
697.193	36277.08
697.539	36454.25
697.885	36137.65
698.231	36101.95
698.577	36096.07
698.923	36017.2
699.269	35795.51
699.614	35666.03
699.96	35669.19
700.306	35734.5
700.651	35502.87
700.997	35462.42
701.342	35355.3
701.688	35223.78
702.033	35121.41
702.379	35088.64
702.724	34948.76
703.069	35047.28
703.415	34751.25
703.76	34732.49
704.105	34724.58
704.45	34675.54
704.795	34506.51
705.14	34332.95
705.485	34444.14
705.83	34166.63
706.175	34195.56
706.52	34099.29
706.865	34012.74
707.209	33967.77
707.554	33912.85
707.899	33894.32
708.243	33768.67
708.588	33679.86
708.932	33441.45
709.277	33459.76
709.621	33474.67
709.966	33271.51
710.31	33285.3
710.654	33062.7
710.998	33114.91
711.342	33199.42
711.687	32921.24
712.031	32843.27
712.375	32764.86
712.719	32882.14
713.063	32791.98
713.407	32840.79
713.75	32617.07
714.094	32632.88
714.438	32462.27
714.782	32517.18
715.125	32370.97
715.469	32413.68
715.812	32223.63
716.156	32114.71
716.499	32082.84
716.843	32107.02
717.186	31878.55
717.53	32022.28
717.873	32071.54
718.216	32012.11
718.559	31809.63
718.902	31546.36
719.246	31668.84
719.589	31604.66
719.932	31412.8
720.275	31572.8
720.617	31482.41
720.96	31346.59
721.303	31431.79
721.646	31379.13
721.989	31154.28
722.331	31336.2
722.674	31195.86
723.016	31097.78
723.359	31128.97
723.701	31023.89
724.044	30882.42
724.386	30747.74
724.729	30872.25
725.071	30777.57
725.413	30721.75
725.755	30761.52
726.097	30569.89
726.439	30458.03
726.782	30503.9
727.124	30512.94
727.465	30386.84
727.807	30208.32
728.149	30305.49
728.491	30241.31
728.833	30303
729.175	30119.28
729.516	30079.96
729.858	29986.85
730.199	30102.56
730.541	30004.25
730.882	30076.34
731.224	30075.44
731.565	29851.26
731.906	29933.07
732.248	29818.72
732.589	29700.98
732.93	29693.98
733.271	29602.91
733.612	29611.72
733.953	29599.52
734.294	29518.39
734.635	29597.94
734.976	29467.54
735.317	29275.23
735.658	29438.84
735.999	29309.13
736.339	29354.1
736.68	29343.03
737.021	29208.34
737.361	29129.02
737.702	29274.78
738.042	29198.17
738.383	29112.53
738.723	29105.75
739.063	28988.91
739.404	29026.2
739.744	28913.66
740.084	28743.5
740.424	28963.83
740.764	28806.32
741.104	28799.54
741.444	28663.72
741.784	28571.52
742.124	28647.23
742.464	28493.33
742.804	28463.05
743.143	28563.84
743.483	28484.97
743.823	28299.67
744.162	28486.55
744.502	28317.52
744.841	28370.85
745.181	28339.21
745.52	28123.85
745.86	28312.32
746.199	28168.37
746.538	28109.16
746.877	28136.73
747.216	28269.16
747.556	28205.43
747.895	27980.35
748.234	28000.92
748.573	27874.14
748.911	27942.84
749.25	27940.35
749.589	27729.51
749.928	27773.8
750.267	27763.86
750.605	27643.86
750.944	27736.52
751.283	27553.47
751.621	27662.17
751.96	27416.52
752.298	27440.48
752.636	27432.57
752.975	27285.45
753.313	27176.53
753.651	27399.12
753.989	27111.9
754.327	27138.11
754.666	27170.88
755.004	27110.77
755.342	27158.68
755.679	27056.31
756.017	26904.67
756.355	26903.32
756.693	26824.22
757.031	26793.94
757.368	26552.14
757.706	26678.01
758.044	26623.33
758.381	26631.01
758.719	26425.36
759.056	26458.36
759.394	26371.81
759.731	26165.71
760.068	26210
760.405	26073.51
760.743	26109.67
761.08	26059.95
761.417	25986.28
