Data from hue_300_FLMS001491_00012.txt Node
Date: Tue Feb 07 15:50:21 GMT 2017
User: dcchb
Spectrometer: FLMS00149
Trigger mode: 0
Integration Time (sec): 2.000000E-2
Scans to average: 10
Electric dark correction enabled: true
Nonlinearity correction enabled: false
Boxcar width: 0
XAxis mode: Wavelengths
Number of Pixels in Spectrum: 2048
>>>>>Begin Spectral Data<<<<<
341.393	-20.97
341.776	-20.97
342.16	-20.97
342.543	-49.45
342.927	-53.52
343.31	-54.87
343.693	-70.24
344.077	-55.32
344.46	-52.84
344.843	-64.81
345.226	-46.51
345.61	-22.78
345.993	-3.57
346.376	-2.67
346.759	16.99
347.142	28.06
347.525	42.08
347.908	34.62
348.291	85.01
348.674	64.45
349.057	102.41
349.44	117.55
349.823	128.17
350.206	172.24
350.588	200.26
350.971	196.2
351.354	223.99
351.737	224.9
352.119	242.3
352.502	252.69
352.884	271.45
353.267	274.84
353.65	283.2
354.032	305.8
354.414	300.37
354.797	314.61
355.179	320.49
355.562	307.38
355.944	320.94
356.326	336.76
356.709	307.38
357.091	304.44
357.473	332.69
357.855	304.67
358.238	335.85
358.62	348.73
359.002	348.51
359.384	323.88
359.766	346.02
360.148	341.95
360.53	328.17
360.912	342.41
361.294	330.43
361.676	322.29
362.057	325.23
362.439	340.82
362.821	314.38
363.203	332.91
363.584	321.62
363.966	318
364.348	320.49
364.729	327.72
365.111	321.84
365.493	321.62
365.874	302.41
366.256	303.76
366.637	327.49
367.019	307.15
367.4	323.65
367.781	297.21
368.163	322.29
368.544	314.84
368.925	309.86
369.306	296.53
369.688	316.19
370.069	307.38
370.45	292.46
370.831	305.57
371.212	343.76
371.593	321.39
371.974	300.37
372.355	282.97
372.736	321.16
373.117	303.09
373.498	318
373.879	312.12
374.26	329.07
374.641	329.98
375.021	330.43
375.402	333.82
375.783	325.46
376.163	320.03
376.544	320.26
376.925	316.19
377.305	316.87
377.686	331.33
378.066	325.01
378.447	315.74
378.827	313.25
379.208	343.31
379.588	334.27
379.968	319.58
380.349	310.77
380.729	323.88
381.109	303.54
381.489	341.73
381.87	333.37
382.25	325.46
382.63	323.42
383.01	320.26
383.39	324.33
383.77	333.37
384.15	333.14
384.53	307.38
384.91	344.89
385.29	353.71
385.67	325.46
386.049	324.33
386.429	346.47
386.809	348.28
387.189	353.48
387.568	341.5
387.948	352.12
388.328	347.15
388.707	350.32
389.087	358
389.466	349.64
389.846	350.54
390.225	348.51
390.605	363.65
390.984	356.87
391.363	373.37
391.743	333.82
392.122	368.39
392.501	355.97
392.881	384.89
393.26	373.59
393.639	353.71
394.018	350.32
394.397	365.91
394.776	353.93
395.155	358.23
395.534	371.78
395.913	371.11
396.292	376.76
396.671	405.91
397.05	370.43
397.429	380.6
397.808	383.99
398.186	402.97
398.565	386.47
398.944	385.12
399.323	402.29
399.701	393.7
400.08	377.43
400.458	374.04
400.837	404.33
401.215	403.65
401.594	400.71
401.972	393.25
402.351	400.71
402.729	413.14
403.107	416.53
403.486	393.03
403.864	412.23
404.242	415.4
404.62	432.57
404.999	420.14
405.377	416.08
405.755	456.75
406.133	456.75
406.511	423.53
406.889	442.06
407.267	475.28
407.645	454.95
408.023	446.58
408.401	473.7
408.779	470.76
409.156	463.98
409.534	462.4
409.912	489.07
410.29	497.43
410.667	490.2
411.045	510.54
411.422	506.47
411.8	524.32
412.178	526.58
412.555	526.81
412.933	533.14
413.31	522.74
413.687	534.49
414.065	549.41
414.442	558.67
414.819	582.4
415.197	583.3
415.574	586.69
415.951	600.93
416.328	604.32
416.705	609.07
417.082	602.51
417.46	638.9
417.837	630.08
418.214	633.47
418.591	639.57
418.967	628.95
419.344	673.25
419.721	674.37
420.098	680.48
420.475	658.33
420.852	697.43
421.228	706.24
421.605	729.74
421.982	694.26
422.358	707.82
422.735	728.38
423.111	730.87
423.488	753.02
423.864	740.36
424.241	748.5
424.617	768.61
424.994	784.88
425.37	778.1
425.746	794.37
426.123	810.64
426.499	807.48
426.875	805.67
427.251	829.17
427.627	850.19
428.003	857.87
428.379	868.72
428.756	860.13
429.132	874.14
429.507	873.69
429.883	900.36
430.259	889.51
430.635	893.8
431.011	905.33
431.387	955.95
431.763	949.62
432.138	940.36
432.514	964.54
432.89	963.86
433.265	1002.28
433.641	984.65
434.016	1005.67
434.392	1019.68
434.767	1035.04
435.143	1017.42
435.518	1060.35
435.894	1084.08
436.269	1085.89
436.644	1108.49
437.02	1111.88
437.395	1092.44
437.77	1096.96
438.145	1145.32
438.52	1140.35
438.895	1145.55
439.271	1142.61
439.646	1171.09
440.021	1165.89
440.395	1187.13
440.77	1167.02
441.145	1169.5
441.52	1189.16
441.895	1170.41
442.27	1205.66
442.645	1201.14
443.019	1223.74
443.394	1233.91
443.769	1243.4
444.143	1209.28
444.518	1240.46
444.892	1235.49
445.267	1222.84
445.641	1288.37
446.016	1275.72
446.39	1257.41
446.764	1268.26
447.139	1251.31
447.513	1273.68
447.887	1251.99
448.262	1275.49
448.636	1263.96
449.01	1299.44
449.384	1305.32
449.758	1307.35
450.132	1326.34
450.506	1298.54
450.88	1303.74
451.254	1331.53
451.628	1323.17
452.002	1331.76
452.376	1356.39
452.75	1371.08
453.123	1330.85
453.497	1374.92
453.871	1373.11
454.244	1378.54
454.618	1385.54
454.992	1407.69
455.365	1410.17
455.739	1390.29
456.112	1410.17
456.486	1423.06
456.859	1452.43
457.232	1472.55
457.606	1468.93
457.979	1471.19
458.352	1485.88
458.725	1501.92
459.099	1494.24
459.472	1530.62
459.845	1528.82
460.218	1520.91
460.591	1544.41
460.964	1552.54
461.337	1589.61
461.71	1592.32
462.083	1592.99
462.456	1607.01
462.829	1588.93
463.201	1613.33
463.574	1640.23
463.947	1629.15
464.32	1635.48
464.692	1642.26
465.065	1658.08
465.438	1689.49
465.81	1691.52
466.183	1689.72
466.555	1723.16
466.928	1746.44
467.3	1743.73
467.672	1779.43
468.045	1792.76
468.417	1794.35
468.789	1777.85
469.161	1823.05
469.534	1811.97
469.906	1828.69
470.278	1855.13
470.65	1869.6
471.022	1895.81
471.394	1915.47
471.766	1896.72
472.138	1949.82
472.51	1966.09
472.882	1958.63
473.253	1981.91
473.625	1999.31
473.997	2041.12
474.369	2022.59
474.74	2019.2
475.112	2058.52
475.484	2092.42
475.855	2116.37
476.227	2118.63
476.598	2164.51
476.97	2178.29
477.341	2211.96
477.713	2226.42
478.084	2225.75
478.455	2273.88
478.827	2293.54
479.198	2311.62
479.569	2336.48
479.94	2327.66
480.311	2377.61
480.682	2415.35
481.053	2412.63
481.424	2466.87
481.795	2487.43
482.166	2488.79
482.537	2551.39
482.908	2527.89
483.279	2549.81
483.65	2555.68
484.021	2623.25
484.391	2630.93
484.762	2618.05
485.133	2655.79
485.503	2673.19
485.874	2713.64
486.244	2719.97
486.615	2782.34
486.985	2803.81
487.356	2810.36
487.726	2832.74
488.097	2886.97
488.467	2836.13
488.837	2865.28
489.207	2927.42
489.578	2985.5
489.948	2964.71
490.318	3023.01
490.688	3030.47
491.058	3002.68
491.428	3040.41
491.798	3089.45
492.168	3137.14
492.538	3155.89
492.908	3142.56
493.278	3179.62
493.648	3234.99
494.017	3180.75
494.387	3221.65
494.757	3219.17
495.126	3223.69
495.496	3228.88
495.866	3296.45
496.235	3358.15
496.605	3309.79
496.974	3361.31
497.344	3347.52
497.713	3377.81
498.082	3376.22
498.452	3389.56
498.821	3378.26
499.19	3375.77
499.559	3450.57
499.928	3434.75
500.298	3454.64
500.667	3457.35
501.036	3462.32
501.405	3477.01
501.774	3506.84
502.143	3496.22
502.512	3523.57
502.88	3570.57
503.249	3535.32
503.618	3521.31
503.987	3533.96
504.356	3556.33
504.724	3586.84
505.093	3570.34
505.462	3599.72
505.83	3601.08
506.199	3594.07
506.567	3665.03
506.936	3667.74
507.304	3691.24
507.672	3658.25
508.041	3664.58
508.409	3691.92
508.777	3734.18
509.145	3731.47
509.514	3712.71
509.882	3726.27
510.25	3706.16
510.618	3747.29
510.986	3747.74
511.354	3777.34
511.722	3822.31
512.09	3827.74
512.458	3810.79
512.826	3792.03
513.193	3793.16
513.561	3832.26
513.929	3848.75
514.297	3848.3
514.664	3881.3
515.032	3899.37
515.4	3866.61
515.767	3914.06
516.135	3891.47
516.502	3861.86
516.869	3923.1
517.237	3919.04
517.604	3871.13
517.972	3945.02
518.339	3920.84
518.706	3923.78
519.073	3968.53
519.44	3986.6
519.808	4011.69
520.175	3984.57
520.542	4018.02
520.909	3998.58
521.276	3981.18
521.643	4012.37
522.009	4067.05
522.376	4081.29
522.743	4109.09
523.11	4141.4
523.477	4137.11
523.843	4152.93
524.21	4202.64
524.577	4209.42
524.943	4170.33
525.31	4208.29
525.676	4213.94
526.043	4227.05
526.409	4288.29
526.776	4271.79
527.142	4293.26
527.508	4311.12
527.874	4339.59
528.241	4400.15
528.607	4352.7
528.973	4402.64
529.339	4357.67
529.705	4387.5
530.071	4434.5
530.437	4452.13
530.803	4444.67
531.169	4492.35
531.535	4518.57
531.901	4517.44
532.267	4529.87
532.632	4554.95
532.998	4590.43
533.364	4618
533.73	4604.22
534.095	4624.33
534.461	4659.35
534.826	4683.76
535.192	4708.39
535.557	4706.13
535.923	4738.9
536.288	4754.49
536.653	4745.23
537.019	4712.01
537.384	4786.36
537.749	4794.49
538.114	4773.02
538.479	4796.3
538.845	4801.5
539.21	4793.14
539.575	4865.45
539.94	4912.46
540.305	4924.21
540.67	4928.95
541.034	4916.3
541.399	4941.83
541.764	4973.47
542.129	5006.46
542.494	5017.54
542.858	5055.73
543.223	5086.91
543.587	5099.34
543.952	5119.46
544.316	5156.52
544.681	5151.32
545.045	5107.03
545.41	5172.56
545.774	5192.22
546.138	5182.28
546.503	5229.28
546.867	5192.45
547.231	5243.07
547.595	5297.53
547.959	5314.48
548.324	5366.23
548.688	5304.08
549.052	5369.62
549.416	5409.17
549.779	5386.34
550.143	5357.42
550.507	5437.87
550.871	5441.71
551.235	5425.89
551.599	5444.42
551.962	5489.62
552.326	5536.17
552.689	5489.16
553.053	5517.41
553.417	5544.53
553.78	5548.6
554.143	5570.74
554.507	5608.71
554.87	5592.44
555.234	5645.77
555.597	5598.54
555.96	5650.52
556.323	5703.17
556.686	5681.93
557.05	5754.02
557.413	5693.45
557.776	5695.71
558.139	5792.88
558.502	5730.29
558.865	5773.68
559.228	5794.01
559.59	5832.43
559.953	5841.7
560.316	5836.73
560.679	5858.87
561.041	5879.44
561.404	5887.57
561.767	5929.6
562.129	5967.8
562.492	5973.22
562.854	5954.69
563.217	5958.3
563.579	6003.27
563.941	6013.67
564.304	6012.99
564.666	6018.64
565.028	6088.02
565.39	6097.28
565.753	6123.05
566.115	6094.8
566.477	6141.58
566.839	6128.02
567.201	6192.2
567.563	6200.56
567.925	6241.91
568.287	6266.32
568.648	6227.45
569.01	6283.49
569.372	6344.51
569.734	6319.65
570.095	6317.84
570.457	6402.81
570.819	6416.37
571.18	6442.81
571.542	6512.64
571.903	6548.8
572.265	6521.45
572.626	6586.08
572.987	6653.2
573.349	6617.95
573.71	6686.87
574.071	6729.81
574.432	6804.38
574.794	6863.14
575.155	6842.57
575.516	6928.45
575.877	6976.13
576.238	7029.46
576.599	7097.03
576.96	7156.46
577.32	7259.96
577.681	7306.97
578.042	7391.49
578.403	7449.79
578.763	7553.29
579.124	7590.58
579.485	7685.26
579.845	7783.34
580.206	7910.34
580.566	8010.91
580.927	8073.05
581.287	8266.72
581.648	8386.71
582.008	8559.59
582.368	8645.01
582.728	8766.37
583.089	8941.05
583.449	9170.2
583.809	9266.69
584.169	9424.2
584.529	9602.5
584.889	9818.99
585.249	9987.12
585.609	10202.03
585.969	10402.93
586.329	10535.81
586.688	10759.08
587.048	10963.14
587.408	11164.49
587.768	11498.95
588.127	11644.71
588.487	11968.77
588.846	12151.59
589.206	12433.84
589.565	12623.67
589.925	12987.95
590.284	13225.91
590.643	13441.95
591.003	13827.48
591.362	14118.54
591.721	14331.87
592.08	14626.1
592.44	14873.55
592.799	15128.23
593.158	15420.43
593.517	15751.72
593.876	15945.39
594.235	16311.93
594.593	16680.51
594.952	16940.39
595.311	17146.26
595.67	17605
596.029	18043.41
596.387	18139.45
596.746	18618.76
597.104	18739.44
597.463	19099.65
597.822	19466.88
598.18	19715
598.538	19941.89
598.897	20387.98
599.255	20515.66
599.613	21013.73
599.972	21188.64
600.33	21520.15
600.688	21762.63
601.046	22076.98
601.404	22442.39
601.762	22605.55
602.12	23078.98
602.478	23302.48
602.836	23577.5
603.194	23620.66
603.552	24015.91
603.91	24124.83
604.268	24547.87
604.625	24733.4
604.983	25048.88
605.341	25167.52
605.698	25528.18
606.056	25883.88
606.413	26118.9
606.771	26425.56
607.128	26598.44
607.485	26761.15
607.843	26967.69
608.2	27309.38
608.557	27591.18
608.914	27717.05
609.272	28054.67
609.629	28237.04
609.986	28599.52
610.343	28591.83
610.7	28945.5
611.057	29147.07
611.414	29411.02
611.771	29552.71
612.127	29848.07
612.484	29909.99
612.841	30149.98
613.198	30260.94
613.554	30389.53
613.911	30732.57
614.267	30848.5
614.624	31103.18
614.98	31287.81
615.337	31455.49
615.693	31526.67
616.05	31718.08
616.406	31931.63
616.762	31999.2
617.118	32142.93
617.475	32366.2
617.831	32393.54
618.187	32691.39
618.543	32702.23
618.899	33093.18
619.255	32984.71
619.611	33127.53
619.967	33360.52
620.323	33419.73
620.678	33450.24
621.034	33554.19
621.39	33614.53
621.746	33765.03
622.101	34192.59
622.457	34008.64
622.812	34062.2
623.168	34361.62
623.523	34368.4
623.879	34561.39
624.234	34416.09
624.589	34654.27
624.945	34697.44
625.3	34766.36
625.655	34801.16
626.01	34964.32
626.365	35199.34
626.72	35019.69
627.075	35086.58
627.43	35233.47
627.785	35154.6
628.14	35277.08
628.495	35397.08
628.85	35407.7
629.205	35336.51
629.559	35664.87
629.914	35477.75
630.269	35563.4
630.623	35558.66
630.978	35379
631.332	35673.68
631.687	35782.83
632.041	35597.07
632.396	35711.87
632.75	35646.11
633.104	35728.37
633.459	35726.56
633.813	35673
634.167	35615.38
634.521	35791.87
634.875	35854.69
635.229	35895.37
635.583	35718.2
635.937	35800.46
636.291	35776.28
636.645	35769.5
636.999	35786.9
637.352	35844.75
637.706	35612.67
638.06	35843.62
638.413	35696.73
638.767	35828.48
639.121	35896.95
639.474	35638.43
639.828	35653.12
640.181	35894.01
640.534	35809.04
640.888	35675.26
641.241	35619.67
641.594	35666.68
641.947	35778.99
642.301	35750.74
642.654	35821.47
643.007	35777.41
643.36	35685.43
643.713	35610.86
644.066	35780.57
644.419	35545.1
644.771	35386.23
645.124	35058.78
645.477	34980.82
645.83	34784.44
646.182	34684.1
646.535	34657.44
646.888	34924.32
647.24	34514.39
647.593	34806.81
647.945	34657.89
648.298	34576.08
648.65	34461.06
649.002	34431.23
649.355	34684.33
649.707	34622.63
650.059	34706.93
650.411	35047.03
650.763	35105.79
651.115	35520.24
651.467	35484.76
651.819	35546.23
652.171	35363.41
652.523	35397.53
652.875	35284.99
653.227	35247.7
653.578	35428.49
653.93	35540.35
654.282	35320.92
654.633	35136.97
654.985	35240.02
655.337	35265.33
655.688	35294.26
656.039	35454.7
656.391	35155.73
656.742	35095.39
657.094	35136.97
657.445	35290.64
657.796	35264.65
658.147	35336.29
658.498	35176.52
658.849	35331.32
659.2	35254.93
659.551	35099.91
659.902	35269.17
660.253	35236.18
660.604	35169.74
660.955	35063.98
661.306	35244.09
661.656	35213.13
662.007	35081.15
662.358	35199.57
662.708	35085.45
663.059	35077.99
663.409	34949.63
663.76	35253.8
664.11	35056.52
664.461	35046.35
664.811	35140.36
665.161	35042.51
665.511	35151.89
665.862	34965
666.212	35197.53
666.562	35141.49
666.912	34990.31
667.262	35094.49
667.612	34976.07
667.962	35138.33
668.312	35050.65
668.662	35137.65
669.011	35124.77
669.361	35095.62
669.711	34910.76
670.06	34942.63
670.41	35007.71
670.76	34997.54
671.109	35095.62
671.459	34976.98
671.808	34948.5
672.157	34977.2
672.507	34725.46
672.856	34946.02
673.205	34777.66
673.554	34998.9
673.904	34801.84
674.253	35021.04
674.602	34874.15
674.951	34206.6
675.3	34148.3
675.649	34809.75
675.998	34710.54
676.346	34815.62
676.695	34856.98
677.044	34677.77
677.393	34770.65
677.741	34776.08
678.09	34638
678.438	34533.82
678.787	34622.18
679.135	34608.4
679.484	34395.3
679.832	34428.06
680.181	34285.92
680.529	34455.41
680.877	34319.82
681.225	34282.08
681.573	34522.07
681.922	34317.56
682.27	34205.24
682.618	34150.56
682.966	34146.94
683.314	34059.03
683.661	34019.03
684.009	33821.75
684.357	33834.86
684.705	33795.54
685.053	33856.55
685.4	33822.88
685.748	33516.45
686.095	33636.67
686.443	33472.38
686.79	33407.75
687.138	33542.89
687.485	33518.48
687.832	33343.57
688.18	33309.45
688.527	33123.01
688.874	33156.01
689.221	33040.76
689.568	33106.52
689.915	32984.94
690.262	32922.11
690.609	32802.12
690.956	32714.44
691.303	32687.09
691.65	32601.9
691.997	32537.04
692.344	32415.69
692.69	32366.65
693.037	32411.17
693.383	32150.38
693.73	32285.97
694.077	32124.62
694.423	32052.31
694.769	32016.15
695.116	31973.44
695.462	31889.37
695.808	31719.66
696.155	31775.48
696.501	31591.08
696.847	31592.21
697.193	31351.76
697.539	31364.42
697.885	31115.38
698.231	31106.8
698.577	31188.6
698.923	31098.89
699.269	30926.23
699.614	30737.09
699.96	30686.47
700.306	30736.64
700.651	30665.22
700.997	30533.48
701.342	30484.89
701.688	30516.75
702.033	30351.79
702.379	30286.25
702.724	30205.12
703.069	30204.67
703.415	30009.2
703.76	29966.26
704.105	30013.72
704.45	29814.4
704.795	29627.51
705.14	29637
705.485	29552.26
705.83	29441.53
706.175	29616.89
706.52	29448.53
706.865	29397.46
707.209	29398.59
707.554	29290.35
707.899	29188.2
708.243	29111.14
708.588	29086.51
708.932	28900.98
709.277	28849.68
709.621	28912.28
709.966	28639.52
710.31	28828.89
710.654	28565.84
710.998	28485.17
711.342	28565.39
711.687	28522.91
712.031	28317.94
712.375	28359.75
712.719	28435.68
713.063	28275.01
713.407	28458.73
713.75	28255.34
714.094	28202.01
714.438	27927.22
714.782	28090.6
715.125	27946.88
715.469	28056.25
715.812	27848.35
716.156	27682.93
716.499	27794.34
716.843	27743.27
717.186	27641.12
717.53	27722.03
717.873	27622.37
718.216	27553.44
718.559	27564.74
718.902	27382.83
719.246	27368.36
719.589	27223.73
719.932	27232.32
720.275	27206.11
720.617	27191.19
720.96	27084.98
721.303	27088.6
721.646	27142.15
721.989	26868.94
722.331	26904.42
722.674	26862.39
723.016	26977.64
723.359	26815.16
723.701	26901.48
724.044	26588.95
724.386	26523.86
724.729	26724.99
725.071	26569.29
725.413	26533.36
725.755	26453.58
726.097	26440.03
726.439	26291.78
726.782	26258.56
727.124	26328.62
727.465	26252.46
727.807	26205.46
728.149	26201.39
728.491	26070.32
728.833	26312.57
729.175	26150.99
729.516	26043.2
729.858	25981.51
730.199	25986.25
730.541	25884.33
730.882	26000.94
731.224	25950.77
731.565	25842.07
731.906	25809.31
732.248	25823.77
732.589	25788.97
732.93	25637.79
733.271	25629.88
733.612	25629.65
733.953	25651.12
734.294	25517.79
734.635	25521.41
734.976	25652.7
735.317	25370.9
735.658	25468.98
735.999	25418.13
736.339	25338.59
736.68	25349.21
737.021	25399.6
737.361	25290
737.702	25343.78
738.042	25302.2
738.383	25165.48
738.723	25212.26
739.063	25134.97
739.404	25236.44
739.744	25155.09
740.084	25054.07
740.424	25045.94
740.764	24944.92
741.104	25114.18
741.444	24974.53
741.784	24883.91
742.124	24971.36
742.464	24907.18
742.804	24779.05
743.143	24858.6
743.483	24820.63
743.823	24612.05
744.162	24680.07
744.502	24671.48
744.841	24691.14
745.181	24752.84
745.52	24584.48
745.86	24610.24
746.199	24506.52
746.538	24567.53
746.877	24508.32
747.216	24630.13
747.556	24545.39
747.895	24557.81
748.234	24479.4
748.573	24405.28
748.911	24398.95
749.25	24428.33
749.589	24377.25
749.928	24376.8
750.267	24440.08
750.605	24179.97
750.944	24093.65
751.283	24141.1
751.621	24228.11
751.96	24123.7
752.298	24043.25
752.636	24154.44
752.975	24026.3
753.313	23890.94
753.651	24136.36
753.989	23927.77
754.327	23839.19
754.666	23770.94
755.004	23804.61
755.342	23880.77
755.679	23767.33
756.017	23692.53
756.355	23804.84
756.693	23562.81
757.031	23669.48
757.368	23547.45
757.706	23534.79
758.044	23523.27
758.381	23583.83
758.719	23340.22
759.056	23585.18
759.394	23301.35
759.731	23246.66
