Data from hue_260_FLMS001491_00061.txt Node
Date: Tue Feb 07 15:59:23 GMT 2017
User: dcchb
Spectrometer: FLMS00149
Trigger mode: 0
Integration Time (sec): 2.000000E-2
Scans to average: 10
Electric dark correction enabled: true
Nonlinearity correction enabled: false
Boxcar width: 0
XAxis mode: Wavelengths
Number of Pixels in Spectrum: 2048
>>>>>Begin Spectral Data<<<<<
341.393	-17.33
341.776	-17.33
342.16	-17.33
342.543	-73.15
342.927	-70.21
343.31	-70.89
343.693	-67.72
344.077	-66.82
344.46	-59.36
344.843	-49.42
345.226	-36.31
345.61	-25.47
345.993	-8.29
346.376	2.33
346.759	1.65
347.142	32.61
347.525	16.57
347.908	47.75
348.291	78.03
348.674	91.82
349.057	113.51
349.44	111.71
349.823	127.3
350.206	142.44
350.588	181.99
350.971	181.31
351.354	213.17
351.737	232.15
352.119	212.72
352.502	259.05
352.884	261.31
353.267	258.14
353.65	280.29
354.032	284.58
354.414	284.13
354.797	292.04
355.179	294.53
355.562	319.61
355.944	318.71
356.326	326.16
356.709	311.47
357.091	306.96
357.473	307.41
357.855	313.73
358.238	344.02
358.62	325.26
359.002	321.87
359.384	319.61
359.766	318.71
360.148	319.84
360.53	328.2
360.912	324.58
361.294	322.77
361.676	340.4
362.057	288.65
362.439	334.53
362.821	315.54
363.203	315.32
363.584	299.95
363.966	313.28
364.348	299.05
364.729	312.6
365.111	301.76
365.493	294.07
365.874	291.14
366.256	296.79
366.637	300.85
367.019	329.55
367.4	309.89
367.781	308.99
368.163	299.27
368.544	300.18
368.925	293.17
369.306	306.73
369.688	306.96
370.069	302.21
370.45	284.36
370.831	299.5
371.212	298.59
371.593	305.83
371.974	292.94
372.355	299.5
372.736	304.47
373.117	300.4
373.498	308.31
373.879	296.79
374.26	290.23
374.641	314.86
375.021	285.03
375.402	293.17
375.783	311.25
376.163	317.12
376.544	309.89
376.925	312.38
377.305	314.41
377.686	314.64
378.066	314.41
378.447	299.05
378.827	315.09
379.208	309.67
379.588	324.36
379.968	301.08
380.349	305.6
380.729	311.25
381.109	332.04
381.489	333.62
381.87	339.5
382.25	321.19
382.63	338.14
383.01	332.27
383.39	341.98
383.77	340.4
384.15	339.72
384.53	343.79
384.91	336.56
385.29	320.06
385.67	322.55
386.049	335.43
386.429	335.88
386.809	325.71
387.189	339.27
387.568	352.15
387.948	325.71
388.328	351.02
388.707	324.36
389.087	360.97
389.466	357.58
389.846	348.76
390.225	359.38
390.605	349.21
390.984	369.55
391.363	353.73
391.743	346.95
392.122	365.48
392.501	380.63
392.881	369.55
393.26	366.16
393.639	378.82
394.018	355.09
394.397	388.31
394.776	363.22
395.155	345.6
395.534	353.96
395.913	368.2
396.292	378.14
396.671	383.11
397.05	382.89
397.429	391.25
397.808	381.53
398.186	382.21
398.565	355.77
398.944	368.87
399.323	386.73
399.701	386.95
400.08	394.86
400.458	392.6
400.837	384.24
401.215	400.74
401.594	414.97
401.972	404.81
402.351	404.81
402.729	424.69
403.107	442.09
403.486	441.41
403.864	409.33
404.242	427.86
404.62	425.14
404.999	431.7
405.377	438.93
405.755	435.54
406.133	444.35
406.511	438.48
406.889	455.65
407.267	468.98
407.645	453.62
408.023	468.53
408.401	476.89
408.779	459.95
409.156	468.53
409.534	493.39
409.912	499.49
410.29	490.45
410.667	513.73
411.045	508.53
411.422	507.18
411.8	508.76
412.178	504.24
412.555	541.53
412.933	536.33
413.31	526.61
413.687	577.23
414.065	559.38
414.442	567.51
414.819	569.77
415.197	556.89
415.574	577.68
415.951	579.94
416.328	594.41
416.705	592.15
417.082	603.67
417.46	628.08
417.837	634.63
418.214	628.75
418.591	628.75
418.967	627.17
419.344	678.24
419.721	641.64
420.098	634.4
420.475	657.68
420.852	666.04
421.228	672.82
421.605	712.37
421.982	706.27
422.358	737
422.735	739.94
423.111	724.12
423.488	748.98
423.864	746.27
424.241	763.44
424.617	761.41
424.994	789.43
425.37	817.68
425.746	790.56
426.123	840.05
426.499	839.37
426.875	842.53
427.251	858.81
427.627	869.2
428.003	846.15
428.379	875.75
428.756	880.95
429.132	905.13
429.507	937.22
429.883	948.07
430.259	920.95
430.635	933.61
431.011	929.54
431.387	954.17
431.763	969.08
432.138	998.69
432.514	986.49
432.89	1039.59
433.265	1035.52
433.641	1073.26
434.016	1067.16
434.392	1100.38
434.767	1100.38
435.143	1123.43
435.518	1136.31
435.894	1146.48
436.269	1155.07
436.644	1219.93
437.02	1194.84
437.395	1197.33
437.77	1194.39
438.145	1276.42
438.52	1234.61
438.895	1273.94
439.271	1301.96
439.646	1299.02
440.021	1303.54
440.395	1346.7
440.77	1345.57
441.145	1344.44
441.52	1402.52
441.895	1402.29
442.27	1404.1
442.645	1398
443.019	1430.77
443.394	1436.42
443.769	1469.41
444.143	1474.61
444.518	1473.25
444.892	1489.97
445.267	1497.21
445.641	1495.62
446.016	1491.56
446.39	1537.21
446.764	1523.19
447.139	1541.95
447.513	1553.48
447.887	1573.36
448.262	1567.04
448.636	1585.79
449.01	1583.98
449.384	1608.62
449.758	1624.43
450.132	1632.57
450.506	1653.13
450.88	1675.28
451.254	1681.61
451.628	1681.38
452.002	1696.07
452.376	1720.93
452.75	1721.16
453.123	1721.61
453.497	1776.07
453.871	1775.39
454.244	1826.01
454.618	1816.97
454.992	1854.26
455.365	1822.85
455.739	1866.46
456.112	1891.32
456.486	1896.52
456.859	1935.39
457.232	1979.68
457.606	1997.08
457.979	1949.85
458.352	2025.33
458.725	2033.01
459.099	2039.79
459.472	2099.9
459.845	2098.55
460.218	2101.03
460.591	2122.27
460.964	2091.09
461.337	2178.54
461.71	2196.85
462.083	2233.91
462.456	2242.5
462.829	2248.6
463.201	2246.79
463.574	2289.05
463.947	2291.99
464.32	2360.91
464.692	2404.75
465.065	2369.27
465.438	2414.02
465.81	2418.99
466.183	2463.06
466.555	2535.37
466.928	2519.78
467.3	2521.36
467.672	2554.35
468.045	2614.01
468.417	2647.23
468.789	2643.62
469.161	2689.27
469.534	2706.89
469.906	2721.58
470.278	2804.74
470.65	2800.45
471.022	2870.96
471.394	2917.06
471.766	2938.52
472.138	2995.02
472.51	3043.15
472.882	3046.54
473.253	3117.05
473.625	3101.46
473.997	3176.94
474.369	3202.7
474.74	3211.74
475.112	3292.87
475.484	3326.31
475.855	3404.95
476.227	3388.46
476.598	3457.61
476.97	3529.92
477.341	3552.07
477.713	3574.89
478.084	3616.7
478.455	3723.36
478.827	3752.06
479.198	3890.14
479.569	3889.69
479.94	3891.04
480.311	3943.47
480.682	4009.23
481.053	4109.12
481.424	4157.48
481.795	4129.45
482.166	4257.59
482.537	4239.06
482.908	4400.63
483.279	4404.02
483.65	4464.13
484.021	4501.2
484.391	4601.53
484.762	4580.74
485.133	4610.57
485.503	4722.88
485.874	4754.3
486.244	4802.88
486.615	4902.77
486.985	4953.84
487.356	4978.24
487.726	5037.9
488.097	5098.24
488.467	5168.97
488.837	5255.53
489.207	5244.68
489.578	5328.74
489.948	5361.51
490.318	5457.1
490.688	5443.09
491.058	5477.67
491.428	5600.6
491.798	5612.8
492.168	5764.89
492.538	5675.18
492.908	5827.04
493.278	5869.97
493.648	5884.66
494.017	5893.93
494.387	5966.92
494.757	5989.29
495.126	6044.21
495.496	6029.06
495.866	6090.53
496.235	6160.81
496.605	6135.28
496.974	6240.36
497.344	6234.26
497.713	6290.07
498.082	6338.89
498.452	6363.97
498.821	6379.79
499.19	6363.52
499.559	6441.94
499.928	6530.97
500.298	6521.03
500.667	6580.01
501.036	6555.15
501.405	6602.83
501.774	6614.59
502.143	6619.33
502.512	6666.11
502.88	6679.67
503.249	6653
503.618	6731.19
503.987	6753.11
504.356	6807.35
504.724	6841.25
505.093	6810.29
505.462	6844.64
505.83	6863.62
506.199	6900
506.567	7030.62
506.936	6968.02
507.304	7051.64
507.672	7071.52
508.041	7033.11
508.409	7106.78
508.777	7123.5
509.145	7106.32
509.514	7146.32
509.882	7132.09
510.25	7149.94
510.618	7252.99
510.986	7243.95
511.354	7233.33
511.722	7255.25
512.09	7333.66
512.458	7273.1
512.826	7386.54
513.193	7416.82
513.561	7332.31
513.929	7475.13
514.297	7476.48
514.664	7510.83
515.032	7441.91
515.4	7497.73
515.767	7556.48
516.135	7532.75
516.502	7477.16
516.869	7609.14
517.237	7595.13
517.604	7559.65
517.972	7574.33
518.339	7631.51
518.706	7617.27
519.073	7612.98
519.44	7609.81
519.808	7647.55
520.175	7662.69
520.542	7730.71
520.909	7688.91
521.276	7746.08
521.643	7760.54
522.009	7776.82
522.376	7833.31
522.743	7846.42
523.11	7876.02
523.477	7932.74
523.843	7907.89
524.21	7992.4
524.577	7900.43
524.943	8016.58
525.31	8009.58
525.676	8143.13
526.043	8058.84
526.409	8095.22
526.776	8130.48
527.142	8076.24
527.508	8117.15
527.874	8103.13
528.241	8148.78
528.607	8179.29
528.973	8177.03
529.339	8150.82
529.705	8245.5
530.071	8265.16
530.437	8211.61
530.803	8250.02
531.169	8258.38
531.535	8260.42
531.901	8217.03
532.267	8239.85
532.632	8262.45
532.998	8227.2
533.364	8324.15
533.73	8240.08
534.095	8313.52
534.461	8271.04
534.826	8302.45
535.192	8292.73
535.557	8338.38
535.923	8309
536.288	8293.64
536.653	8372.28
537.019	8262.9
537.384	8259.74
537.749	8255.67
538.114	8283.47
538.479	8261.55
538.845	8241.44
539.21	8259.51
539.575	8289.8
539.94	8217.93
540.305	8230.14
540.67	8223.13
541.034	8281.43
541.399	8222.68
541.764	8274.2
542.129	8250.48
542.494	8249.35
542.858	8211.61
543.223	8223.36
543.587	8256.8
543.952	8197.37
544.316	8193.98
544.681	8160.99
545.045	8245.5
545.41	8221.55
545.774	8252.28
546.138	8169.35
546.503	8131.61
546.867	8114.66
547.231	8222
547.595	8212.28
547.959	8196.24
548.324	8184.94
548.688	8124.15
549.052	8157.6
549.416	8171.16
549.779	8083.7
550.143	8159.86
550.507	8196.24
550.871	8095.68
551.235	8123.02
551.599	8133.19
551.962	8112.85
552.326	8112.63
552.689	8140.2
553.053	8106.52
553.417	8152.85
553.78	8137.94
554.143	8151.72
554.507	8180.87
554.87	8126.86
555.234	8181.1
555.597	8135.45
555.96	8097.94
556.323	8090.93
556.686	8106.3
557.05	8100.65
557.413	8131.83
557.776	8125.51
558.139	8214.77
558.502	8187.43
558.865	8174.77
559.228	8196.92
559.59	8225.84
559.953	8179.97
560.316	8294.32
560.679	8173.42
561.041	8222.91
561.404	8231.49
561.767	8337.25
562.129	8227.42
562.492	8294.77
562.854	8280.98
563.217	8311.04
563.579	8372.73
563.941	8308.78
564.304	8369.57
564.666	8428.78
565.028	8389.23
565.39	8430.13
565.753	8446.4
566.115	8427.42
566.477	8455.67
566.839	8504.48
567.201	8515.1
567.563	8442.11
567.925	8568.88
568.287	8548.55
568.648	8563.69
569.01	8589.9
569.372	8629.67
569.734	8622.67
570.095	8671.71
570.457	8678.03
570.819	8661.09
571.18	8635.55
571.542	8741.99
571.903	8751.03
572.265	8765.94
572.626	8826.28
572.987	8826.28
573.349	8772.04
573.71	8816.79
574.071	8874.87
574.432	8890.23
574.794	8958.03
575.155	8982.66
575.516	8874.19
575.877	8961.19
576.238	8991.7
576.599	8980.85
576.96	9006.39
577.32	9014.07
577.681	9070.11
578.042	9044.13
578.403	9089.32
578.763	9096.1
579.124	9090.68
579.485	9217.91
579.845	9145.82
580.206	9199.83
580.566	9168.19
580.927	9241.41
581.287	9254.52
581.648	9125.48
582.008	9249.09
582.368	9250
582.728	9246.83
583.089	9305.14
583.449	9295.19
583.809	9427.39
584.169	9377.23
584.529	9393.04
584.889	9403.44
585.249	9399.15
585.609	9419.94
585.969	9449.31
586.329	9381.52
586.688	9363.44
587.048	9450.9
587.408	9443.89
587.768	9483.89
588.127	9443.89
588.487	9448.64
588.846	9520.27
589.206	9454.51
589.565	9539.25
589.925	9558.92
590.284	9548.97
590.643	9602.53
591.003	9593.72
591.362	9566.6
591.721	9670.32
592.08	9588.52
592.44	9637.33
592.799	9693.15
593.158	9661.74
593.517	9711.45
593.876	9665.81
594.235	9643.43
594.593	9720.72
594.952	9749.42
595.311	9652.02
595.67	9750.32
596.029	9791
596.387	9842.98
596.746	9779.7
597.104	9732.24
597.463	9786.93
597.822	9809.08
598.18	9795.29
598.538	9788.51
598.897	9808.85
599.255	9739.25
599.613	9857.66
599.972	9856.08
600.33	9851.11
600.688	9814.5
601.046	9876.2
601.404	9921.84
601.762	9872.81
602.12	9880.94
602.478	9936.98
602.836	9951.67
603.194	9880.26
603.552	9881.39
603.91	9886.14
604.268	9872.35
604.625	9901.05
604.983	9879.81
605.341	9874.84
605.698	9950.32
606.056	10012.01
606.413	9833.94
606.771	9962.29
607.128	9944.44
607.485	9927.72
607.843	9931.11
608.2	9925.23
608.557	9993.93
608.914	9907.15
609.272	10062.63
609.629	10074.61
609.986	10148.96
610.343	9993.93
610.7	10128.17
611.057	10023.31
611.414	10112.12
611.771	10085.46
612.127	10133.14
612.484	10092.46
612.841	10155.96
613.198	10071.22
613.554	10075.51
613.911	10163.87
614.267	10159.8
614.624	10088.84
614.98	10120.93
615.337	10209.07
615.693	10168.16
616.05	10172.91
616.406	10245.68
616.762	10188.96
617.118	10240.48
617.475	10198.67
617.831	10108.96
618.187	10252.68
618.543	10225.79
618.899	10214.72
619.255	10316.18
619.611	10280.93
619.967	10308.27
620.323	10332
620.678	10247.71
621.034	10256.75
621.39	10194.15
621.746	10297.2
622.101	10381.94
622.457	10284.09
622.812	10324.09
623.168	10277.99
623.523	10264.21
623.879	10337.2
624.234	10265.79
624.589	10301.95
624.945	10351.89
625.3	10301.49
625.655	10308.73
626.01	10263.08
626.365	10283.87
626.72	10252.68
627.075	10224.43
627.43	10297.88
627.785	10160.93
628.14	10301.49
628.495	10235.73
628.85	10170.88
629.205	10165
629.559	10197.32
629.914	10207.94
630.269	10204.77
630.623	10125.45
630.978	10123.87
631.332	10131.56
631.687	10242.29
632.041	10182.63
632.396	10221.27
632.75	10131.78
633.104	10172.23
633.459	10089.52
633.813	10114.15
634.167	10139.24
634.521	10083.65
634.875	10090.65
635.229	10137.43
635.583	10051.11
635.937	9993.03
636.291	10028.73
636.645	10004.55
636.999	9967.94
637.352	9996.42
637.706	9982.86
638.06	10025.8
638.413	9977.44
638.767	9937.66
639.121	9954.84
639.474	9896.76
639.828	9857.66
640.181	9899.02
640.534	9879.13
640.888	9838.68
641.241	9822.64
641.594	9837.33
641.947	9892.92
642.301	9788.97
642.654	9798.01
643.007	9740.61
643.36	9851.34
643.713	9756.42
644.066	9797.78
644.419	9768.63
644.771	9689.31
645.124	9656.31
645.477	9585.13
645.83	9613.6
646.182	9511.46
646.535	9443.21
646.888	9552.59
647.24	9421.29
647.593	9485.24
647.945	9424.46
648.298	9478.92
648.65	9385.81
649.002	9400.73
649.355	9407.28
649.707	9468.07
650.059	9456.09
650.411	9591
650.763	9576.09
651.115	9694.96
651.467	9720.72
651.819	9688.4
652.171	9626.71
652.523	9588.52
652.875	9675.07
653.227	9580.61
653.578	9655.41
653.93	9675.75
654.282	9650.21
654.633	9609.99
654.985	9670.32
655.337	9619.93
655.688	9642.75
656.039	9640.04
656.391	9600.5
656.742	9583.1
657.094	9611.12
657.445	9576.54
657.796	9634.17
658.147	9570.89
658.498	9576.09
658.849	9568.63
659.2	9597.33
659.551	9603.43
659.902	9627.16
660.253	9626.48
660.604	9599.37
660.955	9624
661.306	9589.65
661.656	9568.63
662.007	9629.42
662.358	9584
662.708	9622.64
663.059	9631.68
663.409	9543.77
663.76	9655.64
664.11	9632.59
664.461	9649.76
664.811	9646.6
665.161	9613.15
665.511	9637.11
665.862	9605.47
666.212	9695.41
666.562	9625.35
666.912	9645.92
667.262	9663.55
667.612	9600.72
667.962	9618.8
668.312	9631.68
668.662	9622.64
669.011	9584.45
669.361	9535.87
669.711	9557.56
670.06	9550.1
670.41	9522.53
670.76	9556.2
671.109	9587.39
671.459	9586.49
671.808	9575.64
672.157	9569.08
672.507	9533.15
672.856	9501.52
673.205	9491.12
673.554	9614.96
673.904	9549.42
674.253	9565.24
674.602	9508.07
674.951	9343.55
675.3	9374.74
675.649	9532.25
675.998	9442.08
676.346	9474.62
676.695	9462.19
677.044	9400.73
677.393	9406.6
677.741	9487.05
678.09	9370.67
678.438	9445.02
678.787	9409.99
679.135	9389.65
679.484	9366.83
679.832	9329.99
680.181	9282.31
680.529	9300.84
680.877	9359.37
681.225	9268.3
681.573	9328.86
681.922	9227.62
682.27	9221.98
682.618	9269.43
682.966	9290.22
683.314	9249.54
683.661	9239.38
684.009	9116.44
684.357	9131.36
684.705	9027.63
685.053	9162.77
685.4	9074.41
685.748	9109.89
686.095	9080.28
686.443	8960.74
686.79	8947.86
687.138	9009.78
687.485	9014.3
687.832	8953.96
688.18	8906.73
688.527	8903.57
688.874	8896.79
689.221	8878.71
689.568	8819.73
689.915	8799.39
690.262	8787.64
690.609	8741.54
690.956	8769.78
691.303	8740.18
691.65	8670.13
691.997	8724.36
692.344	8561.2
692.69	8606.85
693.037	8610.69
693.383	8535.67
693.73	8513.29
694.077	8498.83
694.423	8514.2
694.769	8476.01
695.116	8468.1
695.462	8381.77
695.808	8412.28
696.155	8389.68
696.501	8332.05
696.847	8331.38
697.193	8273.75
697.539	8224.94
697.885	8179.29
698.231	8191.72
698.577	8167.09
698.923	8126.64
699.269	8093.19
699.614	8047.77
699.96	8003.25
700.306	8036.24
700.651	8031.05
700.997	7960.09
701.342	7950.37
701.688	7922.57
702.033	7883.71
702.379	7867.89
702.724	7820.2
703.069	7854.1
703.415	7787.66
703.76	7775.23
704.105	7784.5
704.45	7739.75
704.795	7649.14
705.14	7652.07
705.485	7673.09
705.83	7542.92
706.175	7605.52
706.52	7608.46
706.865	7557.61
707.209	7529.59
707.554	7492.53
707.899	7505.18
708.243	7461.8
708.588	7509.03
708.932	7356.04
709.277	7362.81
709.621	7431.06
709.966	7366.66
710.31	7356.26
710.654	7297.96
710.998	7298.86
711.342	7321.91
711.687	7274.23
712.031	7246.66
712.375	7194.23
712.719	7234.46
713.063	7160.11
713.407	7174.8
713.75	7120.56
714.094	7188.81
714.438	7108.13
714.782	7162.14
715.125	7099.09
715.469	7143.61
715.812	7061.35
716.156	7021.81
716.499	7002.6
716.843	7064.07
717.186	6989.27
717.53	7001.02
717.873	7052.54
718.216	7014.58
718.559	6895.93
718.902	6943.39
719.246	6951.3
719.589	6921.47
719.932	6921.02
720.275	6876.05
720.617	6878.99
720.96	6858.87
721.303	6867.91
721.646	6888.48
721.989	6847.8
722.331	6865.2
722.674	6865.88
723.016	6892.54
723.359	6887.35
723.701	6891.41
724.044	6813.68
724.386	6839.89
724.729	6806.9
725.071	6794.47
725.413	6765.54
725.755	6764.41
726.097	6722.61
726.439	6767.8
726.782	6699.33
727.124	6775.94
727.465	6756.5
727.807	6753.34
728.149	6696.62
728.491	6726.67
728.833	6727.8
729.175	6703.85
729.516	6703.62
729.858	6767.58
730.199	6681.25
730.541	6715.6
730.882	6722.38
731.224	6718.54
731.565	6653.45
731.906	6722.38
732.248	6681.7
732.589	6665.21
732.93	6692.78
733.271	6675.83
733.612	6637.86
733.953	6681.25
734.294	6653.68
734.635	6672.66
734.976	6697.07
735.317	6690.97
735.658	6611.42
735.999	6667.24
736.339	6614.13
736.68	6674.47
737.021	6724.19
737.361	6576.85
737.702	6693
738.042	6665.66
738.383	6670.86
738.723	6759.67
739.063	6682.83
739.404	6736.84
739.744	6722.15
740.084	6692.1
740.424	6718.54
740.764	6761.7
741.104	6751.53
741.444	6734.81
741.784	6735.03
742.124	6755.83
742.464	6757.18
742.804	6803.06
743.143	6769.16
743.483	6815.94
743.823	6788.82
744.162	6808.48
744.502	6758.54
744.841	6873.11
745.181	6879.66
745.52	6893.9
745.86	6936.16
746.199	6952.66
746.538	6972.77
746.877	7028.81
747.216	7051.41
747.556	7095.03
747.895	7016.84
748.234	7109.94
748.573	7161.01
748.911	7219.09
749.25	7255.25
749.589	7264.06
749.928	7363.49
750.267	7420.44
750.605	7438.07
750.944	7498.86
751.283	7475.58
751.621	7662.02
751.96	7651.62
752.298	7764.84
752.636	7861.11
752.975	7905.85
753.313	7975.91
753.651	8032.4
753.989	8102
754.327	8131.61
754.666	8210.48
755.004	8365.5
755.342	8513.75
755.679	8610.92
756.017	8605.27
756.355	8713.06
756.693	8831.93
757.031	8937.46
757.368	9018.14
757.706	9108.08
758.044	9253.39
758.381	9353.95
758.719	9467.17
759.056	9598.01
759.394	9683.66
759.731	9737.89
760.068	9960.49
760.405	10037.77
760.743	10126.13
761.08	10273.92
761.417	10352.57
761.754	10501.94
762.091	10629.17
762.428	10714.14
762.765	10847.24
763.102	10947.35
763.438	11012.21
763.775	11184.64
764.112	11352.31
764.449	11447.23
764.785	11513.21
765.122	11647
765.458	11709.82
765.795	11833.66
766.131	11927.89
766.467	12100.09
766.804	12137.15
767.14	12258.51
767.476	12391.38
767.812	12404.26
