Data from hue_70_FLMS001491_53.txt Node
Date: Mon Feb 06 15:21:07 GMT 2017
User: dcchb
Spectrometer: FLMS00149
Trigger mode: 0
Integration Time (sec): 2.000000E-2
Scans to average: 10
Electric dark correction enabled: true
Nonlinearity correction enabled: false
Boxcar width: 0
XAxis mode: Wavelengths
Number of Pixels in Spectrum: 2048
>>>>>Begin Spectral Data<<<<<
341.393	-6.34
341.776	-6.34
342.16	-6.34
342.543	-65.55
342.927	-63.52
343.31	-80.92
343.693	-66.91
344.077	-70.07
344.46	-60.8
344.843	-40.92
345.226	-56.51
345.61	-19.22
345.993	-22.16
346.376	-15.61
346.759	23.26
347.142	26.88
347.525	51.06
347.908	50.38
348.291	75.69
348.674	87.67
349.057	118.17
349.44	122.69
349.823	150.94
350.206	155.01
350.588	188.46
350.971	206.76
351.354	207.44
351.737	205.63
352.119	245.18
352.502	261.22
352.884	286.53
353.267	283.82
353.65	305.29
354.032	290.83
354.414	295.12
354.797	311.84
355.179	331.05
355.562	329.47
355.944	310.49
356.326	311.62
356.709	333.76
357.091	311.62
357.473	329.69
357.855	359.98
358.238	348.23
358.62	334.89
359.002	340.32
359.384	352.07
359.766	350.49
360.148	343.25
360.53	344.16
360.912	316.59
361.294	336.93
361.676	321.33
362.057	324.95
362.439	331.28
362.821	335.12
363.203	323.14
363.584	326.08
363.966	314.33
364.348	334.67
364.729	301.67
365.111	343.48
365.493	322.69
365.874	303.93
366.256	303.03
366.637	303.48
367.019	328.11
367.4	303.25
367.781	315.91
368.163	315.46
368.544	302.8
368.925	320.43
369.306	309.81
369.688	303.03
370.069	305.51
370.45	332.18
370.831	307.77
371.212	300.54
371.593	321.56
371.974	308.23
372.355	311.62
372.736	308.23
373.117	312.07
373.498	327.66
373.879	314.55
374.26	299.86
374.641	320.43
375.021	326.3
375.402	325.85
375.783	335.34
376.163	318.62
376.544	311.16
376.925	327.89
377.305	314.78
377.686	310.49
378.066	320.88
378.447	335.57
378.827	323.14
379.208	325.4
379.588	327.89
379.968	334.44
380.349	317.04
380.729	312.29
381.109	343.03
381.489	332.63
381.87	320.88
382.25	342.8
382.63	304.38
383.01	336.47
383.39	321.11
383.77	315.91
384.15	328.34
384.53	324.27
384.91	333.08
385.29	348
385.67	352.07
386.049	349.81
386.429	328.56
386.809	335.12
387.189	338.28
387.568	346.87
387.948	351.84
388.328	331.95
388.707	350.71
389.087	340.32
389.466	321.11
389.846	357.04
390.225	330.15
390.605	347.55
390.984	357.04
391.363	354.33
391.743	353.2
392.122	361.11
392.501	344.16
392.881	363.14
393.26	394.33
393.639	348
394.018	351.62
394.397	377.6
394.776	361.78
395.155	377.83
395.534	375.57
395.913	354.78
396.292	369.92
396.671	342.8
397.05	358.85
397.429	346.19
397.808	366.3
398.186	389.81
398.565	401.78
398.944	380.09
399.323	383.93
399.701	378.73
400.08	377.38
400.458	380.77
400.837	413.53
401.215	392.07
401.594	369.69
401.972	368.79
402.351	374.67
402.729	406.53
403.107	391.39
403.486	382.12
403.864	399.98
404.242	399.52
404.62	399.98
404.999	383.7
405.377	385.29
405.755	386.87
406.133	385.29
406.511	409.01
406.889	387.09
407.267	385.06
407.645	397.94
408.023	407.88
408.401	405.17
408.779	426.42
409.156	408.34
409.534	430.26
409.912	425.29
410.29	420.09
410.667	412.63
411.045	424.38
411.422	416.92
411.8	424.83
412.178	438.84
412.555	457.15
412.933	437.04
413.31	437.71
413.687	437.94
414.065	455.79
414.442	443.82
414.819	467.32
415.197	443.82
415.574	454.66
415.951	464.61
416.328	439.97
416.705	441.1
417.082	472.52
417.46	480.2
417.837	470.93
418.214	475.45
418.591	490.59
418.967	477.94
419.344	467.54
419.721	468
420.098	482.91
420.475	485.62
420.852	502.8
421.228	498.73
421.605	502.12
421.982	479.52
422.358	502.12
422.735	498.96
423.111	482.91
423.488	498.96
423.864	519.07
424.241	502.8
424.617	495.34
424.994	514.1
425.37	483.59
425.746	503.7
426.123	498.73
426.499	519.75
426.875	527.2
427.251	540.54
427.627	551.84
428.003	568.78
428.379	531.72
428.756	565.62
429.132	566.07
429.507	552.97
429.883	570.82
430.259	556.81
430.635	560.88
431.011	576.92
431.387	563.13
431.763	573.3
432.138	585.28
432.514	592.29
432.89	588.67
433.265	574.21
433.641	607.88
434.016	611.04
434.392	608.56
434.767	618.95
435.143	632.96
435.518	615.11
435.894	651.95
436.269	630.25
436.644	612.85
437.02	635.9
437.395	613.53
437.77	668.67
438.145	668.44
438.52	651.72
438.895	681.1
439.271	667.54
439.646	662.34
440.021	693.75
440.395	685.17
440.77	656.69
441.145	658.73
441.52	696.01
441.895	683.81
442.27	690.14
442.645	693.07
443.019	709.57
443.394	707.76
443.769	739.85
444.143	718.84
444.518	721.1
444.892	729.23
445.267	724.03
445.641	725.16
446.016	698.27
446.39	722.9
446.764	743.47
447.139	738.05
447.513	762.68
447.887	766.52
448.262	757.71
448.636	745.95
449.01	758.38
449.384	783.69
449.758	768.1
450.132	762.68
450.506	759.74
450.88	795.45
451.254	785.28
451.628	786.63
452.002	790.47
452.376	813.52
452.75	825.27
453.123	803.13
453.497	829.79
453.871	824.14
454.244	853.3
454.618	867.31
454.992	866.86
455.365	865.73
455.739	863.92
456.112	880.19
456.486	889
456.859	904.59
457.232	904.14
457.606	922.45
457.979	915.89
458.352	923.35
458.725	949.34
459.099	929.68
459.472	979.17
459.845	997.47
460.218	1002.67
460.591	950.92
460.964	993.41
461.337	1018.94
461.71	1049.68
462.083	1032.73
462.456	1024.82
462.829	1045.16
463.201	1070.69
463.574	1067.53
463.947	1066.17
464.32	1101.43
464.692	1138.49
465.065	1137.81
465.438	1145.94
465.81	1139.62
466.183	1166.28
466.555	1194.08
466.928	1202.21
467.3	1204.93
467.672	1204.02
468.045	1246.05
468.417	1283.12
468.789	1303.45
469.161	1301.42
469.534	1325.83
469.906	1350.46
470.278	1367.41
470.65	1376.45
471.022	1413.51
471.394	1448.76
471.766	1446.28
472.138	1478.82
472.51	1531.47
472.882	1564.46
473.253	1594.52
473.625	1619.83
473.997	1683.11
474.369	1705.03
474.74	1740.05
475.112	1771.24
475.484	1813.27
475.855	1900.27
476.227	1901.63
476.598	1923.33
476.97	1975.75
477.341	2055.53
477.713	2107.05
478.084	2111.79
478.455	2193.15
478.827	2265.46
479.198	2332.58
479.569	2378
479.94	2481.73
480.311	2502.97
480.682	2573.25
481.053	2644.89
481.424	2787.03
481.795	2823.87
482.166	2910.64
482.537	2955.84
482.908	3065.89
483.279	3115.61
483.65	3225.21
484.021	3329.62
484.391	3456.17
484.762	3490.97
485.133	3581.13
485.503	3685.31
485.874	3771.19
486.244	3902.48
486.615	4024.29
486.985	4147.22
487.356	4249.37
487.726	4339.98
488.097	4504.73
488.467	4545.18
488.837	4735.91
489.207	4876.47
489.578	4987.88
489.948	5090.93
490.318	5259.28
490.688	5331.37
491.058	5493.63
491.428	5620.63
491.798	5777.69
492.168	5938.81
492.538	6043.67
492.908	6182.2
493.278	6347.84
493.648	6464.22
494.017	6602.98
494.387	6769.3
494.757	6908.5
495.126	6961.84
495.496	7069.63
495.866	7239.12
496.235	7356.4
496.605	7513.01
496.974	7666.9
497.344	7820.8
497.713	7875.49
498.082	8147.12
498.452	8269.37
498.821	8326.77
499.19	8466.43
499.559	8591.4
499.928	8690.83
500.298	8854.22
500.667	8936.93
501.036	9030.48
501.405	9201.33
501.774	9286.97
502.143	9439.96
502.512	9571.71
502.88	9691.26
503.249	9778.03
503.618	9928.76
503.987	9990.68
504.356	10128.31
504.724	10257.57
505.093	10369.43
505.462	10435.87
505.83	10596.09
506.199	10672.7
506.567	10881.51
506.936	11012.58
507.304	11107.94
507.672	11180.26
508.041	11314.04
508.409	11376.64
508.777	11473.58
509.145	11622.28
509.514	11656.85
509.882	11837.41
510.25	11860.24
510.618	12038.09
510.986	12075.15
511.354	12183.39
511.722	12362.82
512.09	12502.26
512.458	12418.87
512.826	12611.18
513.193	12704.96
513.561	12756.71
513.929	12903.83
514.297	13082.35
514.664	13091.39
515.032	13215.91
515.4	13361.22
515.767	13322.8
516.135	13461.55
516.502	13486.64
516.869	13666.75
517.237	13753.97
517.604	13750.36
517.972	13860.19
518.339	14019.5
518.706	14000.07
519.073	14065.83
519.44	14192.38
519.808	14317.8
520.175	14350.12
520.542	14614.06
520.909	14692.93
521.276	14669.88
521.643	14772.03
522.009	14850.22
522.376	14899.26
522.743	15011.57
523.11	15185.58
523.477	15357.55
523.843	15421.28
524.21	15419.69
524.577	15595.96
524.943	15672.57
525.31	15725
525.676	15902.39
526.043	15901.71
526.409	16040.69
526.776	16153.23
527.142	16214.02
527.508	16286.56
527.874	16320.69
528.241	16427.8
528.607	16461.7
528.973	16665.99
529.339	16634.58
529.705	16673.45
530.071	16807
530.437	16852.42
530.803	16921.35
531.169	17058.29
531.535	17064.62
531.901	17048.13
532.267	17108.01
532.632	17225.3
532.998	17218.29
533.364	17275.92
533.73	17249.93
534.095	17438.85
534.461	17482.01
534.826	17434.33
535.192	17484.5
535.557	17646.3
535.923	17638.84
536.288	17661.67
536.653	17772.63
537.019	17669.8
537.384	17799.74
537.749	17873.87
538.114	17721.33
538.479	17838.84
538.845	17872.06
539.21	17835.68
539.575	17923.58
539.94	17938.95
540.305	18032.73
540.67	17953.86
541.034	17968.33
541.399	18020.75
541.764	18001.77
542.129	17979.4
542.494	18154.76
542.858	18230.69
543.223	18183.69
543.587	18090.81
543.952	18236.79
544.316	18289.9
544.681	18185.27
545.045	18267.08
545.41	18249
545.774	18299.84
546.138	18270.92
546.503	18272.05
546.867	18298.04
547.231	18399.73
547.595	18352.5
547.959	18398.37
548.324	18516.79
548.688	18397.47
549.052	18517.69
549.416	18519.27
549.779	18517.69
550.143	18465.49
550.507	18637.69
550.871	18561.31
551.235	18605.82
551.599	18618.25
551.962	18713.62
552.326	18733.73
552.689	18841.3
553.053	18736.89
553.417	18732.15
553.78	18902.54
554.143	18903.9
554.507	18838.59
554.87	18856.67
555.234	19084.46
555.597	18916.78
555.96	18973.27
556.323	19125.13
556.686	18980.28
557.05	19151.35
557.413	19190.89
557.776	19216.88
558.139	19281.29
558.502	19310.44
558.865	19332.81
559.228	19370.32
559.59	19387.27
559.953	19508.85
560.316	19573.48
560.679	19586.82
561.041	19698
561.404	19709.75
561.767	19789.75
562.129	19724.66
562.492	19931.21
562.854	19965.56
563.217	19980.48
563.579	19978.44
563.941	20049.4
564.304	20224.31
564.666	20242.17
565.028	20353.12
565.39	20290.07
565.753	20313.12
566.115	20421.14
566.477	20514.25
566.839	20563.51
567.201	20613
567.563	20681.25
567.925	20781.81
568.287	20662.49
568.648	20787.24
569.01	20878.53
569.372	20971.19
569.734	20879.21
570.095	20982.26
570.457	21027.91
570.819	21171.63
571.18	21039.66
571.542	21272.65
571.903	21286.66
572.265	21230.16
572.626	21360.33
572.987	21359.65
573.349	21387.45
573.71	21445.98
574.071	21537.05
574.432	21512.41
574.794	21750.15
575.155	21656.37
575.516	21602.58
575.877	21674.67
576.238	21817.72
576.599	21840.77
576.96	21780.88
577.32	21807.1
577.681	21862.46
578.042	21901.33
578.403	21888.68
578.763	21949.92
579.124	21997.83
579.485	21972.29
579.845	22099.74
580.206	22047.77
580.566	22040.76
580.927	22076.69
581.287	22153.75
581.648	22057.26
582.008	22139.97
582.368	22125.05
582.728	22095
583.089	22090.03
583.449	22018.84
583.809	22134.32
584.169	22104.04
584.529	21952.63
584.889	22219.29
585.249	22057.26
585.609	22161.89
585.969	22181.1
586.329	22128.67
586.688	22202.34
587.048	22234.43
587.408	22111.27
587.768	22203.7
588.127	22118.73
588.487	22109.24
588.846	22181.32
589.206	22110.59
589.565	21999.86
589.925	22159.18
590.284	22052.74
590.643	22099.29
591.003	22144.94
591.362	22132.96
591.721	22141.1
592.08	22169.57
592.44	22285.5
592.799	22171.83
593.158	22081.21
593.517	22242.79
593.876	22244.82
594.235	22161.44
594.593	22265.16
594.952	22296.57
595.311	22200.53
595.67	22153.75
596.029	22393.3
596.387	22215.45
596.746	22307.65
597.104	22245.5
597.463	22285.73
597.822	22437.14
598.18	22226.07
598.538	22273.52
598.897	22299.96
599.255	22140.87
599.613	22511.03
599.972	22307.65
600.33	22245.73
600.688	22375.22
601.046	22424.71
601.404	22466.74
601.762	22421.09
602.12	22487.53
602.478	22557.58
602.836	22577.47
603.194	22374.54
603.552	22517.81
603.91	22356.69
604.268	22497.7
604.625	22455.89
604.983	22597.58
605.341	22386.29
605.698	22589.22
606.056	22698.82
606.413	22548.77
606.771	22699.05
607.128	22631.71
607.485	22569.34
607.843	22630.13
608.2	22813.17
608.557	22864.92
608.914	22720.97
609.272	22842.55
609.629	22901.08
609.986	22973.17
610.343	22906.73
610.7	23014.3
611.057	22978.14
611.414	22986.27
611.771	22995.99
612.127	23084.58
612.484	23074.41
612.841	23092.94
613.198	23068.31
613.554	23125.48
613.911	23189.21
614.267	23268.53
614.624	23193.27
614.98	23282.99
615.337	23455.64
615.693	23384.68
616.05	23287.06
616.406	23513.72
616.762	23360.95
617.118	23362.76
617.475	23391.24
617.831	23471.69
618.187	23567.05
618.543	23575.41
618.899	23645.24
619.255	23626.71
619.611	23687.05
619.967	23622.87
620.323	23672.81
620.678	23712.36
621.034	23548.07
621.39	23562.98
621.746	23485.24
622.101	23804.78
622.457	23629.87
622.812	23768.4
623.168	23771.34
623.523	23874.16
623.879	23887.49
624.234	23579.48
624.589	23781.96
624.945	23926.14
625.3	23850.88
625.655	23807.95
626.01	23882.07
626.365	23841.62
626.72	23855.4
627.075	23783.99
627.43	23702.64
627.785	23796.87
628.14	23758.23
628.495	23807.95
628.85	23701.06
629.205	23743.77
629.559	23863.77
629.914	23707.16
630.269	23769.98
630.623	23781.06
630.978	23615.86
631.332	23801.85
631.687	23889.98
632.041	23692.02
632.396	23779.02
632.75	23670.32
633.104	23697.89
633.459	23584
633.813	23634.62
634.167	23565.47
634.521	23579.25
634.875	23627.61
635.229	23640.49
635.583	23339.49
635.937	23440.05
636.291	23460.39
636.645	23449.09
636.999	23381.74
637.352	23529.31
637.706	23311.92
638.06	23481.63
638.413	23408.86
638.767	23322.99
639.121	23243.67
639.474	23199.6
639.828	23384.23
640.181	23244.12
640.534	23260.62
640.888	23183.78
641.241	23128.87
641.594	23297.68
641.947	23273.72
642.301	23159.15
642.654	23154.63
643.007	23150.34
643.36	23153.73
643.713	23167.51
644.066	23215.65
644.419	23031.24
644.771	22900.4
645.124	22708.09
645.477	22649.33
645.83	22548.77
646.182	22365.95
646.535	22323.92
646.888	22329.79
647.24	22173.64
647.593	22320.75
647.945	22306.97
648.298	22269.46
648.65	22271.94
649.002	22245.95
649.355	22252.28
649.707	22202.57
650.059	22351.26
650.411	22685.04
650.763	22689.33
651.115	22827.63
651.467	22779.05
651.819	22740.63
652.171	22723.68
652.523	22733.63
652.875	22760.74
653.227	22565.04
653.578	22754.42
653.93	22767.97
654.282	22578.6
654.633	22564.82
654.985	22524.14
655.337	22798.26
655.688	22676.9
656.039	22680.29
656.391	22511.26
656.742	22566.4
657.094	22665.83
657.445	22683.23
657.796	22597.58
658.147	22605.04
658.498	22664.93
658.849	22745.38
659.2	22513.97
659.551	22598.26
659.902	22729.11
660.253	22666.51
660.604	22617.24
660.955	22555.1
661.306	22620.63
661.656	22654.98
662.007	22619.73
662.358	22686.85
662.708	22659.28
663.059	22539.28
663.409	22453.41
663.76	22603.69
664.11	22621.54
664.461	22650.69
664.811	22590.35
665.161	22614.98
665.511	22570.01
665.862	22550.35
666.212	22652.05
666.562	22572.27
666.912	22611.37
667.262	22692.27
667.612	22638.71
667.962	22620.41
668.312	22594.87
668.662	22673.97
669.011	22624.93
669.361	22511.48
669.711	22494.08
670.06	22466.74
670.41	22447.31
670.76	22457.02
671.109	22606.4
671.459	22524.82
671.808	22471.94
672.157	22536.79
672.507	22329.34
672.856	22319.85
673.205	22549.45
673.554	22516.46
673.904	22359.85
674.253	22444.37
674.602	22430.81
674.951	22166.41
675.3	22064.72
675.649	22254.09
675.998	22310.36
676.346	22286.18
676.695	22424.03
677.044	22206.86
677.393	22284.37
677.741	22234.66
678.09	22227.88
678.438	22197.14
678.787	22176.8
679.135	22149.91
679.484	22107.2
679.832	22227.88
680.181	21965.96
680.529	22069.91
680.877	21977.94
681.225	22039.41
681.573	22100.2
681.922	21798.28
682.27	21820.43
682.618	21781.79
682.966	21771.84
683.314	21769.58
683.661	21764.39
684.009	21696.82
684.357	21583.83
684.705	21624.05
685.053	21596.03
685.4	21601.45
685.748	21489.59
686.095	21479.42
686.443	21351.06
686.79	21301.57
687.138	21403.04
687.485	21555.35
687.832	21176.6
688.18	21202.59
688.527	21109.26
688.874	21136.15
689.221	21073.56
689.568	20968.93
689.915	20982.03
690.262	20979.32
690.609	20749.72
690.956	20785.88
691.303	20736.16
691.65	20720.12
691.997	20692.55
692.344	20561.25
692.69	20482.39
693.037	20534.36
693.383	20348.38
693.73	20486.9
694.077	20302.05
694.423	20198.55
694.769	20225.67
695.116	20119
695.462	20097.08
695.808	20086.24
696.155	20109.06
696.501	19986.35
696.847	20030.65
697.193	19817.32
697.539	19768.73
697.885	19624.78
698.231	19576.65
698.577	19554.95
698.923	19667.49
699.269	19428.63
699.614	19364
699.96	19297.33
700.306	19342.53
700.651	19209.2
700.997	19111.12
701.342	19184.34
701.688	19092.59
702.033	18950
702.379	19056.89
702.724	18831.36
703.069	18928.75
703.415	18729.89
703.76	18705.26
704.105	18705.26
704.45	18638.37
704.795	18423.46
705.14	18549.55
705.485	18485.15
705.83	18333.97
706.175	18467.07
706.52	18346.62
706.865	18248.55
707.209	18171.26
707.554	18083.35
707.899	18286.06
708.243	18099.85
708.588	18159.28
708.932	18021.43
709.277	17899.4
709.621	17910.93
709.966	17850.14
710.31	17920.64
710.654	17624.61
710.998	17699.41
711.342	17723.14
711.687	17674.55
712.031	17619.41
712.375	17512.75
712.719	17611.73
713.063	17470.49
713.407	17539.19
713.75	17397.04
714.094	17408.79
714.438	17353.88
714.782	17421.45
715.125	17326.54
715.469	17318.63
715.812	17160.44
716.156	17134.68
716.499	17092.42
716.843	17180.1
717.186	17052.64
717.53	17062.81
717.873	17094.9
718.216	17024.62
718.559	16968.58
718.902	16860.79
719.246	16939.2
719.589	16904.63
719.932	16794.12
720.275	16858.07
720.617	16774.69
720.96	16756.16
721.303	16708.47
721.646	16761.58
721.989	16616.72
722.331	16695.37
722.674	16590.06
723.016	16609.49
723.359	16651.75
723.701	16629.61
724.044	16585.31
724.386	16391.42
724.729	16549.16
725.071	16395.49
725.413	16407.69
725.755	16475.71
726.097	16362.04
726.439	16294.02
726.782	16295.38
727.124	16375.15
727.465	16269.84
727.807	16303.29
728.149	16297.41
728.491	16299.9
728.833	16268.26
729.175	16241.59
729.516	16279.78
729.858	16191.88
730.199	16204.31
730.541	16132.22
730.882	16177.19
731.224	16258.99
731.565	16051.99
731.906	16139.9
732.248	16124.53
732.589	16127.25
732.93	16059.45
733.271	16011.77
733.612	16059.45
733.953	16045.67
734.294	16049.51
734.635	16009.73
734.976	16014.93
735.317	15903.3
735.658	15889.06
735.999	16004.08
736.339	15958.44
736.68	15939.45
737.021	15923.18
737.361	15813.58
737.702	15986.91
738.042	15916.86
738.383	15891.55
738.723	15955.95
739.063	15857.65
739.404	15931.32
739.744	15933.58
740.084	15815.16
740.424	15917.08
740.764	15806.12
741.104	15946.91
741.444	15809.29
741.784	15765
742.124	15860.13
742.464	15780.14
742.804	15907.82
743.143	15884.99
743.483	15849.29
743.823	15790.53
744.162	15840.47
744.502	15884.99
744.841	15856.74
745.181	15911.21
745.52	15848.83
745.86	15911.43
746.199	15964.31
746.538	15927.48
746.877	16098.32
747.216	16077.76
747.556	16016.51
747.895	16086.79
748.234	16066.23
748.573	16056.06
748.911	16004.08
749.25	16116.85
749.589	16157.53
749.928	16217.41
750.267	16297.64
750.605	16273.68
750.944	16357.3
751.283	16342.16
751.621	16437.97
751.96	16344.19
752.298	16517.52
752.636	16607.46
752.975	16600
753.313	16557.52
753.651	16732.65
753.989	16711.64
754.327	16865.53
754.666	16917.28
755.004	16929.94
755.342	17022.82
755.679	17152.08
756.017	17105.07
756.355	17232.3
756.693	17191.17
757.031	17258.74
