Data from hue_110_FLMS001491_00049.txt Node
Date: Tue Feb 07 17:01:23 GMT 2017
User: dcchb
Spectrometer: FLMS00149
Trigger mode: 0
Integration Time (sec): 2.000000E-2
Scans to average: 10
Electric dark correction enabled: true
Nonlinearity correction enabled: false
Boxcar width: 0
XAxis mode: Wavelengths
Number of Pixels in Spectrum: 2048
>>>>>Begin Spectral Data<<<<<
341.393	-13.94
341.776	-13.94
342.16	-13.94
342.543	-48.52
342.927	-65.46
343.31	-64.56
343.693	-58.91
344.077	-62.98
344.46	-64.56
344.843	-64.79
345.226	-42.41
345.61	-28.63
345.993	-14.62
346.376	-5.35
346.759	1.2
347.142	11.6
347.525	50.69
347.908	61.76
348.291	61.76
348.674	100.86
349.057	118.94
349.44	133.17
349.823	149.9
350.206	166.62
350.588	201.42
350.971	196.45
351.354	233.74
351.737	252.95
352.119	237.8
352.502	266.05
352.884	277.58
353.267	282.55
353.65	309.44
354.032	294.07
354.414	297.46
354.797	311.02
355.179	292.49
355.562	318.71
355.944	338.59
356.326	332.72
356.709	333.17
357.091	335.43
357.473	331.14
357.855	344.47
358.238	357.8
358.62	337.01
359.002	343.56
359.384	325.03
359.766	329.78
360.148	347.18
360.53	336.56
360.912	354.19
361.294	355.99
361.676	339.5
362.057	342.66
362.439	365.94
362.821	323.68
363.203	325.26
363.584	335.2
363.966	331.36
364.348	337.69
364.729	322.32
365.111	316.45
365.493	324.13
365.874	310.8
366.256	334.07
366.637	315.32
367.019	340.85
367.4	333.62
367.781	316.67
368.163	316.9
368.544	316.45
368.925	328.88
369.306	324.13
369.688	324.81
370.069	328.42
370.45	313.96
370.831	338.59
371.212	317.35
371.593	300.85
371.974	323.23
372.355	326.39
372.736	320.74
373.117	316.67
373.498	331.36
373.879	322.77
374.26	329.33
374.641	337.69
375.021	307.18
375.402	339.27
375.783	344.92
376.163	342.21
376.544	339.04
376.925	330.01
377.305	325.03
377.686	333.62
378.066	347.41
378.447	326.39
378.827	310.34
379.208	350.57
379.588	333.85
379.968	352.15
380.349	339.5
380.729	351.25
381.109	344.92
381.489	364.58
381.87	338.59
382.25	334.3
382.63	353.96
383.01	341.3
383.39	348.76
383.77	335.88
384.15	345.37
384.53	342.89
384.91	363.68
385.29	368.42
385.67	345.82
386.049	364.81
386.429	358.25
386.809	358.03
387.189	358.71
387.568	348.54
387.948	378.59
388.328	406.16
388.707	368.2
389.087	389.44
389.466	372.94
389.846	349.67
390.225	377.91
390.605	371.36
390.984	379.04
391.363	382.43
391.743	388.31
392.122	382.43
392.501	395.54
392.881	367.97
393.26	381.76
393.639	401.87
394.018	402.55
394.397	397.57
394.776	374.07
395.155	400.51
395.534	414.75
395.913	417.46
396.292	422.43
396.671	397.8
397.05	417.01
397.429	433.05
397.808	428.76
398.186	412.26
398.565	402.55
398.944	414.75
399.323	423.11
399.701	418.14
400.08	421.53
400.458	422.43
400.837	429.89
401.215	417.23
401.594	418.36
401.972	410.91
402.351	436.9
402.729	459.27
403.107	426.95
403.486	440.96
403.864	418.59
404.242	428.99
404.62	445.48
404.999	454.52
405.377	435.77
405.755	437.8
406.133	427.4
406.511	457.69
406.889	455.88
407.267	475.99
407.645	468.31
408.023	461.75
408.401	461.53
408.779	463.56
409.156	479.15
409.534	484.8
409.912	475.99
410.29	494.52
410.667	469.89
411.045	477.57
411.422	493.39
411.8	491.36
412.178	504.92
412.555	507.85
412.933	520.28
413.31	517.35
413.687	543.33
414.065	550.56
414.442	538.81
414.819	531.81
415.197	536.55
415.574	548.98
415.951	561.64
416.328	554.63
416.705	538.81
417.082	538.59
417.46	537.23
417.837	558.47
418.214	559.38
418.591	562.32
418.967	578.13
419.344	568.42
419.721	572.03
420.098	593.73
420.475	597.8
420.852	583.56
421.228	597.57
421.605	570.68
421.982	595.08
422.358	616.1
422.735	616.33
423.111	610
423.488	628.75
423.864	616.78
424.241	651.35
424.617	617
424.994	636.66
425.37	635.99
425.746	630.34
426.123	646.61
426.499	657.68
426.875	641.18
427.251	667.4
427.627	682.09
428.003	672.82
428.379	686.83
428.756	679.37
429.132	693.16
429.507	675.08
429.883	708.75
430.259	709.88
430.635	710.11
431.011	689.77
431.387	722.31
431.763	712.82
432.138	762.54
432.514	743.78
432.89	725.93
433.265	748.53
433.641	754.4
434.016	798.92
434.392	787.39
434.767	812.7
435.143	778.81
435.518	821.29
435.894	805.47
436.269	817.68
436.644	812.7
437.02	831.69
437.395	814.96
437.77	831.24
438.145	857
438.52	843.89
438.895	878.92
439.271	850.67
439.646	868.97
440.021	900.84
440.395	892.7
440.77	895.64
441.145	897.67
441.52	910.78
441.895	925.47
442.27	931.8
442.645	946.49
443.019	948.75
443.394	932.25
443.769	966.82
444.143	925.24
444.518	961.4
444.892	954.17
445.267	954.62
445.641	974.06
446.016	991.23
446.39	971.8
446.764	1027.39
447.139	999.14
447.513	1018.8
447.887	1002.3
448.262	1024
448.636	1026.03
449.01	1030.55
449.384	1054.51
449.758	1072.58
450.132	1055.86
450.506	1088.18
450.88	1099.25
451.254	1078.23
451.628	1082.08
452.002	1100.61
452.376	1099.7
452.75	1120.27
453.123	1132.7
453.497	1139.02
453.871	1125.01
454.244	1161.62
454.618	1190.1
454.992	1203.2
455.365	1195.75
455.739	1215.86
456.112	1243.2
456.486	1271
456.859	1260.15
457.232	1277.55
457.606	1286.59
457.979	1313.93
458.352	1332.92
458.725	1342.63
459.099	1351
459.472	1386.02
459.845	1401.39
460.218	1407.04
460.591	1405.46
460.964	1451.56
461.337	1479.35
461.71	1480.71
462.083	1490.43
462.456	1540.82
462.829	1512.35
463.201	1539.92
463.574	1581.72
463.947	1603.64
464.32	1615.17
464.692	1623.3
465.065	1638.45
465.438	1692.23
465.81	1723.64
466.183	1728.84
466.555	1748.95
466.928	1812.45
467.3	1833.69
467.672	1816.75
468.045	1894.71
468.417	1862.17
468.789	1925.9
469.161	1952.56
469.534	1985.1
469.906	2026.01
470.278	2058.32
470.65	2088.6
471.022	2160.92
471.394	2194.59
471.766	2236.62
472.138	2293.8
472.51	2348.26
472.882	2354.36
473.253	2420.8
473.625	2496.5
473.997	2550.06
474.369	2579.44
474.74	2646.1
475.112	2719.77
475.484	2731.3
475.855	2804.97
476.227	2890.39
476.598	2978.52
476.97	3042.48
477.341	3136.26
477.713	3229.82
478.084	3249.02
478.455	3353.65
478.827	3428.23
479.198	3567.21
479.569	3585.74
479.94	3781.44
480.311	3824.15
480.682	3990.02
481.053	4090.13
481.424	4183.01
481.795	4252.16
482.166	4384.14
482.537	4507.97
482.908	4615.54
483.279	4731.47
483.65	4848.3
484.021	5037.9
484.391	5129.2
484.762	5240.16
485.133	5371.45
485.503	5430.44
485.874	5647.83
486.244	5735.06
486.615	5979.57
486.985	6070.42
487.356	6228.16
487.726	6408.26
488.097	6608.03
488.467	6688.03
488.837	6937.97
489.207	7044.41
489.578	7227.45
489.948	7392.87
490.318	7534.11
490.688	7625.63
491.058	7852.97
491.428	8020.42
491.798	8193.75
492.168	8410.92
492.538	8500.19
492.908	8709.45
493.278	8958.48
493.648	8947.86
494.017	9199.38
494.387	9361.41
494.757	9562.76
495.126	9707.84
495.496	9803.65
495.866	9967.94
496.235	10073.7
496.605	10263.98
496.974	10365
497.344	10548.27
497.713	10690.64
498.082	10818.54
498.452	11012.89
498.821	11128.37
499.19	11241.36
499.559	11302.82
499.928	11447.45
500.298	11577.39
500.667	11828.23
501.036	11757.05
501.405	11900.1
501.774	11987.33
502.143	12279.07
502.512	12371.04
502.88	12480.87
503.249	12474.32
503.618	12670.25
503.987	12726.74
504.356	12834.76
504.724	13011.93
505.093	13119.05
505.462	13173.06
505.83	13231.81
506.199	13383.45
506.567	13577.11
506.936	13566.95
507.304	13726.04
507.672	13784.34
508.041	13846.03
508.409	13979.14
508.777	14053.26
509.145	14199.47
509.514	14197.21
509.882	14308.85
510.25	14324.67
510.618	14557.88
510.986	14476.07
511.354	14586.35
511.722	14743.64
512.09	14853.01
512.458	14893.46
512.826	14930.3
513.193	15072.22
513.561	15028.15
513.929	15201.25
514.297	15235.83
514.664	15304.98
515.032	15339.1
515.4	15451.87
515.767	15550.17
516.135	15540.23
516.502	15457.29
516.869	15808.02
517.237	15719.88
517.604	15618.87
517.972	15803.72
518.339	15839.65
518.706	15888.92
519.073	15988.8
519.44	16061.12
519.808	16142.92
520.175	16055.69
520.542	16258.4
520.909	16350.83
521.276	16297.5
521.643	16309.25
522.009	16478.06
522.376	16368.91
522.743	16482.58
523.11	16593.08
523.477	16699.29
523.843	16791.72
524.21	16871.04
524.577	16878.27
524.943	16945.84
525.31	17004.14
525.676	17033.07
526.043	17098.6
526.409	17155.78
526.776	17209.34
527.142	17264.48
527.508	17251.14
527.874	17355.09
528.241	17364.59
528.607	17289.79
528.973	17401.65
529.339	17365.94
529.705	17461.98
530.071	17524.81
530.437	17472.15
530.803	17526.62
531.169	17589.44
531.535	17461.31
531.901	17465.37
532.267	17494.75
532.632	17465.83
532.998	17578.82
533.364	17551.93
533.73	17472.83
534.095	17586.5
534.461	17551.93
534.826	17560.29
535.192	17599.61
535.557	17625.37
535.923	17581.3
536.288	17476
536.653	17644.13
537.019	17411.14
537.384	17421.99
537.749	17488.88
538.114	17369.78
538.479	17439.16
538.845	17437.35
539.21	17303.12
539.575	17272.38
539.94	17266.28
540.305	17298.37
540.67	17171.6
541.034	17255.66
541.399	17249.56
541.764	17186.74
542.129	17162.56
542.494	17153.97
542.858	17152.84
543.223	17102.45
543.587	17117.59
543.952	17045.27
544.316	17024.03
544.681	16972.05
545.045	16908.78
545.41	16922.34
545.774	16899.29
546.138	16889.34
546.503	16864.71
546.867	16781.55
547.231	16861.77
547.595	16733.64
547.959	16666.07
548.324	16629.92
548.688	16637.83
549.052	16638.96
549.416	16570.48
549.779	16534.55
550.143	16515.79
550.507	16510.6
550.871	16520.31
551.235	16376.14
551.599	16408
551.962	16356.25
552.326	16432.86
552.689	16391.05
553.053	16283.03
553.417	16326.42
553.78	16409.58
554.143	16272.64
554.507	16306.31
554.87	16278.74
555.234	16405.51
555.597	16162.36
555.96	16166.2
556.323	16137.05
556.686	16081.91
557.05	16233.77
557.413	16187.44
557.776	16138.18
558.139	16134.56
558.502	16099.76
558.865	16094.34
559.228	16128.46
559.59	16207.55
559.953	16182.7
560.316	16229.02
560.679	16219.98
561.041	16254.11
561.404	16284.61
561.767	16306.53
562.129	16210.72
562.492	16326.2
562.854	16285.52
563.217	16204.84
563.579	16141.79
563.941	16287.1
564.304	16292.07
564.666	16369.36
565.028	16340.21
565.39	16370.49
565.753	16340.21
566.115	16349.25
566.477	16455.68
566.839	16403.26
567.201	16488.45
567.563	16313.09
567.925	16508.79
568.287	16511.5
568.648	16453.65
569.01	16532.52
569.372	16603.48
569.734	16514.66
570.095	16674.89
570.457	16616.58
570.819	16517.83
571.18	16633.76
571.542	16685.28
571.903	16550.37
572.265	16586.3
572.626	16678.73
572.987	16753.75
573.349	16774.54
573.71	16733.42
574.071	16686.64
574.432	16723.47
574.794	16857.25
575.155	16807.31
575.516	16786.75
575.877	16851.83
576.238	16859.29
576.599	16866.97
576.96	16846.86
577.32	16854.54
577.681	16882.79
578.042	16880.98
578.403	16822.23
578.763	16909.46
579.124	16853.41
579.485	16935.22
579.845	17007.53
580.206	16866.97
580.566	16772.28
580.927	16855.22
581.287	16835.56
581.648	16821.78
582.008	16860.87
582.368	16866.07
582.728	16835.33
583.089	16849.35
583.449	16885.05
583.809	16843.92
584.169	16745.39
584.529	16784.49
584.889	16909.91
585.249	16840.98
585.609	16756.69
585.969	16821.1
586.329	16740.65
586.688	16815.9
587.048	16782.91
587.408	16687.09
587.768	16629.24
588.127	16674.89
588.487	16602.35
588.846	16712.4
589.206	16612.74
589.565	16610.93
589.925	16654.32
590.284	16694.55
590.643	16663.14
591.003	16593.31
591.362	16735.45
591.721	16547.88
592.08	16645.06
592.44	16605.51
592.799	16655
593.158	16536.36
593.517	16493.42
593.876	16674.66
594.235	16507.21
594.593	16557.83
594.952	16464.04
595.311	16472.18
595.67	16501.78
596.029	16546.98
596.387	16588.79
596.746	16607.09
597.104	16515.12
597.463	16492.74
597.822	16528.68
598.18	16461.11
598.538	16467.21
598.897	16506.3
599.255	16366.42
599.613	16632.85
599.972	16505.17
600.33	16549.92
600.688	16389.7
601.046	16471.73
601.404	16507.66
601.762	16561.67
602.12	16587.88
602.478	16544.49
602.836	16591.27
603.194	16469.02
603.552	16448.9
603.91	16374.1
604.268	16440.77
604.625	16482.35
604.983	16521.44
605.341	16411.16
605.698	16593.31
606.056	16518.73
606.413	16498.85
606.771	16619.97
607.128	16515.57
607.485	16431.05
607.843	16452.29
608.2	16525.29
608.557	16540.2
608.914	16563.25
609.272	16564.83
609.629	16572.06
609.986	16655
610.343	16549.92
610.7	16699.52
611.057	16645.96
611.414	16632.63
611.771	16667.88
612.127	16788.56
612.484	16725.96
612.841	16754.43
613.198	16677.37
613.554	16694.55
613.911	16764.83
614.267	16783.81
614.624	16791.49
614.98	16787.43
615.337	16854.77
615.693	16800.98
616.05	16789.91
616.406	16882.56
616.762	16877.59
617.118	16786.75
617.475	16823.36
617.831	16834.43
618.187	16840.76
618.543	16918.95
618.899	16886.86
619.255	16886.41
619.611	16891.38
619.967	16949
620.323	17045.27
620.678	16853.19
621.034	16956.46
621.39	16874.43
621.746	16889.57
622.101	17046.63
622.457	16954.88
622.812	16981.77
623.168	16959.62
623.523	16977.25
623.879	16919.63
624.234	16948.55
624.589	17016.35
624.945	16985.84
625.3	17009.34
625.655	16986.52
626.01	16962.11
626.365	16906.07
626.72	16939.74
627.075	16862
627.43	16899.06
627.785	16911.94
628.14	16924.6
628.495	17076.46
628.85	16930.02
629.205	16835.33
629.559	16911.94
629.914	16819.74
630.269	16881.43
630.623	16839.85
630.978	16807.54
631.332	16832.4
631.687	16870.81
632.041	16772.74
632.396	16830.14
632.75	16739.29
633.104	16767.77
633.459	16695.68
633.813	16672.85
634.167	16709.46
634.521	16649.8
634.875	16682.34
635.229	16709.01
635.583	16605.51
635.937	16607.32
636.291	16561.67
636.645	16619.75
636.999	16473.99
637.352	16581.33
637.706	16416.36
638.06	16468.79
638.413	16379.53
638.767	16410.94
639.121	16379.53
639.474	16303.6
639.828	16375.69
640.181	16299.3
640.534	16311.05
640.888	16386.98
641.241	16250.26
641.594	16255.46
641.947	16386.53
642.301	16240.77
642.654	16247.33
643.007	16296.14
643.36	16308.79
643.713	16261.79
644.066	16237.84
644.419	16102.47
644.771	16121.23
645.124	16012.08
645.477	15927.79
645.83	15796.04
646.182	15809.15
646.535	15754.68
646.888	15749.94
647.24	15649.83
647.593	15741.58
647.945	15711.97
648.298	15646.89
648.65	15573.45
649.002	15584.97
649.355	15694.57
649.707	15660.68
650.059	15775.93
650.411	15942.25
650.763	15931.4
651.115	16153.09
651.467	16100.44
651.819	16067.44
652.171	15977.73
652.523	16015.92
652.875	16018.41
653.227	15908.13
653.578	16057.73
653.93	16056.6
654.282	16041.23
654.633	15982.93
654.985	15928.47
655.337	15998.29
655.688	16017.73
656.039	16168.01
656.391	15939.54
656.742	16024.51
657.094	16037.84
657.445	16101.79
657.796	16010.72
658.147	15943.15
658.498	16003.72
658.849	16018.41
659.2	16031.29
659.551	16015.02
659.902	16000.1
660.253	15993.32
660.604	16038.74
660.955	15998.29
661.306	16104.28
661.656	16061.8
662.007	16041.46
662.358	16077.16
662.708	16046.88
663.059	16071.51
663.409	16019.54
663.76	16243.71
664.11	16005.07
664.461	16040.78
664.811	16082.36
665.161	16010.5
665.511	16035.58
665.862	16083.94
666.212	16126.2
666.562	16189.48
666.912	16134.79
667.262	16093.21
667.612	16102.47
667.962	16164.17
668.312	16052.76
668.662	16196.71
669.011	16210.49
669.361	16128.01
669.711	16099.31
670.06	16074.68
670.41	16040.33
670.76	16016.15
671.109	16023.83
671.459	16119.65
671.808	16003.27
672.157	16119.42
672.507	15836.94
672.856	15849.6
673.205	15959.2
673.554	16063.6
673.904	15949.03
674.253	16000.78
674.602	15880.56
674.951	15719.88
675.3	15534.8
675.649	15857.28
675.998	15847.56
676.346	15770.28
676.695	15878.75
677.044	15710.17
677.393	15805.53
677.741	15849.37
678.09	15728.92
678.438	15686.89
678.787	15784.74
679.135	15810.95
679.484	15646.89
679.832	15776.15
680.181	15585.88
680.529	15706.78
680.877	15546.1
681.225	15614.8
681.573	15616.84
681.922	15427.91
682.27	15432.89
682.618	15518.76
682.966	15461.81
683.314	15399.67
683.661	15347.69
684.009	15337.52
684.357	15344.07
684.705	15324.87
685.053	15302.72
685.4	15309.5
685.748	15152.44
686.095	15129.84
686.443	15119.22
686.79	15104.53
687.138	15080.13
687.485	15109.28
687.832	15012.56
688.18	15045.32
688.527	14939.79
688.874	14892.79
689.221	14894.59
689.568	14841.94
689.915	14809.4
690.262	14739.12
690.609	14728.72
690.956	14692.79
691.303	14584.32
691.65	14489.63
691.997	14504.55
692.344	14446.02
692.69	14312.91
693.037	14464.1
693.383	14231.79
693.73	14224.1
694.077	14107.27
694.423	14203.99
694.769	14150.21
695.116	14112.24
695.462	14091.23
695.808	14076.54
696.155	13968.97
696.501	13862.76
696.847	13912.7
697.193	13753.61
697.539	13822.76
697.885	13719.94
698.231	13664.57
698.577	13631.8
698.923	13580.05
699.269	13484.01
699.614	13415.54
699.96	13410.34
700.306	13391.81
700.651	13345.48
700.997	13283.34
701.342	13224.36
701.688	13274.07
702.033	13166.96
702.379	13159.27
702.724	13074.08
703.069	13072.5
703.415	12880.64
703.76	12899.62
704.105	12885.83
704.45	12899.84
704.795	12821.65
705.14	12729
705.485	12795.44
705.83	12630.7
706.175	12735.33
706.52	12721.77
706.865	12627.31
707.209	12552.73
707.554	12512.06
707.899	12524.94
708.243	12463.02
708.588	12428.67
708.932	12340.76
709.277	12325.17
709.621	12355.23
709.966	12218.05
710.31	12284.27
710.654	12152.97
710.998	12146.42
711.342	12178.73
711.687	12102.35
712.031	12079.98
712.375	12012.18
712.719	12027.32
713.063	11982.58
713.407	12066.42
713.75	11950.94
714.094	11895.35
714.438	11900.1
714.782	11889.48
715.125	11808.12
715.469	11833.66
715.812	11792.53
716.156	11770.38
716.499	11680.89
716.843	11698.75
717.186	11741.91
717.53	11721.57
717.873	11681.35
718.216	11674.57
718.559	11637.96
718.902	11585.08
719.246	11558.64
719.589	11601.57
719.932	11447.23
720.275	11513.89
720.617	11469.83
720.96	11471.86
721.303	11469.15
721.646	11438.87
721.989	11449.71
722.331	11412.65
722.674	11436.15
723.016	11415.36
723.359	11419.21
723.701	11443.16
724.044	11297.4
724.386	11325.65
724.729	11360.22
725.071	11328.13
725.413	11272.77
725.755	11284.29
726.097	11235.03
726.439	11241.36
726.782	11222.6
727.124	11312.99
727.465	11192.09
727.807	11235.03
728.149	11190.51
728.491	11209.49
728.833	11182.6
729.175	11216.72
729.516	11185.31
729.858	11152.77
730.199	11215.59
730.541	11107.12
730.882	11130.4
731.224	11216.27
731.565	11069.16
731.906	11169.49
732.248	11168.36
732.589	11113.9
732.93	11104.41
733.271	11182.6
733.612	11127.91
733.953	11127.24
734.294	11113.22
734.635	11163.84
734.976	11156.39
735.317	11143.96
735.658	11099.89
735.999	11139.44
736.339	11060.57
736.68	11200.68
737.021	11200
737.361	11129.72
737.702	11199.55
738.042	11237.74
738.383	11107.35
738.723	11216.72
739.063	11165.43
739.404	11237.06
739.744	11179.89
740.084	11165.43
740.424	11234.13
740.764	11236.61
741.104	11282.03
741.444	11250.17
741.784	11214.47
742.124	11278.19
742.464	11349.6
742.804	11357.96
743.143	11349.15
743.483	11352.31
743.823	11326.55
744.162	11431.18
744.502	11492.2
744.841	11448.36
745.181	11622.59
745.52	11473.44
745.86	11601.35
746.199	11673.89
746.538	11667.11
746.877	11814
747.216	11870.72
747.556	11865.07
747.895	11973.32
748.234	11931.28
748.573	11990.72
748.911	12083.14
749.25	12146.19
749.589	12225.51
749.928	12370.37
750.267	12431.61
750.605	12475.67
750.944	12624.37
751.283	12669.79
751.621	12777.36
751.96	12841.54
752.298	12985.72
752.636	13246.05
752.975	13120.4
753.313	13249.21
753.651	13465.25
753.989	13528.98
754.327	13641.07
754.666	13761.74
755.004	13970.78
755.342	14139.13
755.679	14159.7
756.017	14406.47
