Data from hue_260_FLMS001491_00005.txt Node
Date: Tue Feb 07 15:58:29 GMT 2017
User: dcchb
Spectrometer: FLMS00149
Trigger mode: 0
Integration Time (sec): 2.000000E-2
Scans to average: 10
Electric dark correction enabled: true
Nonlinearity correction enabled: false
Boxcar width: 0
XAxis mode: Wavelengths
Number of Pixels in Spectrum: 2048
>>>>>Begin Spectral Data<<<<<
341.393	-19.21
341.776	-19.21
342.16	-19.21
342.543	-75.25
342.927	-82.71
343.31	-66.44
343.693	-70.05
344.077	-62.37
344.46	-60.79
344.843	-63.5
345.226	-38.64
345.61	-39.55
345.993	-15.82
346.376	-21.47
346.759	1.36
347.142	40.45
347.525	37.97
347.908	75.7
348.291	75.48
348.674	102.37
349.057	105.31
349.44	130.84
349.823	127.68
350.206	162.26
350.588	207
350.971	205.64
351.354	226.21
351.737	207.9
352.119	240.22
352.502	256.72
352.884	267.34
353.267	272.76
353.65	288.58
354.032	287
354.414	304.85
354.797	315.92
355.179	343.72
355.562	313.89
355.944	302.59
356.326	322.48
356.709	341.46
357.091	335.58
357.473	337.39
357.855	331.06
358.238	342.59
358.62	333.55
359.002	334.68
359.384	338.3
359.766	317.51
360.148	339.43
360.53	323.83
360.912	345.53
361.294	318.41
361.676	338.97
362.057	322.93
362.439	324.29
362.821	301.01
363.203	321.12
363.584	327.9
363.966	302.36
364.348	314.34
364.729	321.35
365.111	323.61
365.493	298.3
365.874	317.28
366.256	315.02
366.637	320.67
367.019	312.99
367.4	308.69
367.781	311.18
368.163	304.85
368.544	302.59
368.925	329.03
369.306	312.76
369.688	308.92
370.069	308.47
370.45	313.21
370.831	302.36
371.212	329.48
371.593	296.49
371.974	314.12
372.355	319.99
372.736	328.13
373.117	306.21
373.498	292.87
373.879	327.45
374.26	298.75
374.641	303.27
375.021	321.57
375.402	323.83
375.783	325.42
376.163	317.73
376.544	333.55
376.925	313.44
377.305	309.82
377.686	321.57
378.066	314.12
378.447	331.06
378.827	340.33
379.208	338.75
379.588	342.82
379.968	318.18
380.349	321.8
380.729	337.62
381.109	317.73
381.489	318.41
381.87	315.47
382.25	343.27
382.63	334.23
383.01	338.07
383.39	356.15
383.77	348.69
384.15	359.31
384.53	353.66
384.91	336.04
385.29	347.34
385.67	343.72
386.049	362.7
386.429	348.24
386.809	352.53
387.189	345.98
387.568	352.76
387.948	331.74
388.328	352.53
388.707	368.58
389.087	355.02
389.466	344.4
389.846	350.95
390.225	381.91
390.605	364.96
390.984	375.58
391.363	369.26
391.743	380.33
392.122	358.41
392.501	370.16
392.881	392.53
393.26	385.53
393.639	396.6
394.018	376.94
394.397	385.53
394.776	378.75
395.155	369.93
395.534	392.31
395.913	398.63
396.292	401.35
396.671	398.41
397.05	391.85
397.429	405.64
397.808	397.73
398.186	414.9
398.565	390.27
398.944	392.98
399.323	409.25
399.701	397.28
400.08	418.52
400.458	427.11
400.837	409.93
401.215	399.54
401.594	408.58
401.972	440.89
402.351	428.69
402.729	441.12
403.107	431.4
403.486	446.77
403.864	432.08
404.242	439.76
404.62	431.4
404.999	468.46
405.377	457.84
405.755	455.81
406.133	472.98
406.511	449.25
406.889	446.54
407.267	484.73
407.645	480.21
408.023	496.94
408.401	504.17
408.779	502.81
409.156	492.64
409.534	487.67
409.912	516.6
410.29	535.81
410.667	507.78
411.045	520.21
411.422	545.97
411.8	549.14
412.178	547.33
412.555	564.73
412.933	567.22
413.31	570.15
413.687	588.46
414.065	590.72
414.442	580.78
414.819	597.05
415.197	605.41
415.574	606.09
415.951	616.25
416.328	623.03
416.705	652.64
417.082	634.11
417.46	644.73
417.837	644.73
418.214	695.8
418.591	674.56
418.967	674.11
419.344	695.12
419.721	691.28
420.098	687.21
420.475	705.52
420.852	727.89
421.228	735.8
421.605	757.27
421.982	736.93
422.358	771.96
422.735	754.56
423.111	776.02
423.488	777.15
423.864	793.65
424.241	814.67
424.617	807.21
424.994	809.47
425.37	840.88
425.746	843.82
426.123	876.14
426.499	861.22
426.875	906.64
427.251	891.73
427.627	903.71
428.003	887.66
428.379	961.78
428.756	971.27
429.132	953.2
429.507	965.17
429.883	983.7
430.259	999.3
430.635	996.13
431.011	1018.28
431.387	1008.11
431.763	1042.91
432.138	1038.39
432.514	1094.43
432.89	1055.11
433.265	1073.87
433.641	1102.34
434.016	1131.27
434.392	1153.64
434.767	1162.46
435.143	1162
435.518	1190.7
435.894	1232.51
436.269	1210.36
436.644	1237.48
437.02	1270.25
437.395	1284.03
437.77	1272.06
438.145	1341.66
438.52	1335.56
438.895	1355.67
439.271	1364.71
439.646	1396.35
440.021	1399.51
440.395	1385.95
440.77	1389.34
441.145	1406.97
441.52	1467.31
441.895	1456.01
442.27	1517.93
442.645	1475.44
443.019	1499.62
443.394	1498.72
443.769	1527.19
444.143	1561.09
444.518	1561.99
444.892	1573.97
445.267	1586.17
445.641	1581.88
446.016	1606.06
446.39	1617.58
446.764	1625.72
447.139	1616.68
447.513	1658.71
447.887	1644.48
448.262	1671.82
448.636	1689.9
449.01	1703.23
449.384	1679.73
449.758	1696.23
450.132	1748.88
450.506	1725.38
450.88	1735.55
451.254	1759.73
451.628	1765.6
452.002	1817.13
452.376	1820.07
452.75	1814.19
453.123	1816.68
453.497	1871.36
453.871	1859.39
454.244	1928.08
454.618	1914.3
454.992	1936.22
455.365	1937.35
455.739	2007.63
456.112	2011.92
456.486	1996.78
456.859	2030.23
457.232	2068.65
457.606	2093.28
457.979	2101.64
458.352	2125.14
458.725	2191.58
459.099	2168.98
459.472	2203.33
459.845	2211.02
460.218	2248.3
460.591	2232.94
460.964	2279.49
461.337	2310
461.71	2350.45
462.083	2352.93
462.456	2359.94
462.829	2384.12
463.201	2413.04
463.574	2420.95
463.947	2457.11
464.32	2509.09
464.692	2540.72
465.065	2547.73
465.438	2597.67
465.81	2625.69
466.183	2617.78
466.555	2691.91
466.928	2694.39
467.3	2714.05
467.672	2726.26
468.045	2796.31
468.417	2824.11
468.789	2801.96
469.161	2840.38
469.534	2895.07
469.906	2945.91
470.278	2947.04
470.65	3008.51
471.022	3050.99
471.394	3081.95
471.766	3120.82
472.138	3144.1
472.51	3209.18
472.882	3252.34
473.253	3281.95
473.625	3326.01
473.997	3372.11
474.369	3403.3
474.74	3431.55
475.112	3470.19
475.484	3508.16
475.855	3562.84
476.227	3610.07
476.598	3743.86
476.97	3746.12
477.341	3825.21
477.713	3826.79
478.084	3850.52
478.455	3942.04
478.827	3975.94
479.198	4015.04
479.569	4093.68
479.94	4132.09
480.311	4218.65
480.682	4290.28
481.053	4336.61
481.424	4452.31
481.795	4464.29
482.166	4529.6
482.537	4540.22
482.908	4575.47
483.279	4672.87
483.65	4753.32
484.021	4818.18
484.391	4848.01
484.762	4892.3
485.133	4934.79
485.503	4991.06
485.874	5091.62
486.244	5160.09
486.615	5247.09
486.985	5260.88
487.356	5329.13
487.726	5369.12
488.097	5502
488.467	5451.83
488.837	5580.42
489.207	5613.19
489.578	5684.82
489.948	5720.98
490.318	5804.59
490.688	5826.06
491.058	5911.71
491.428	6013.4
491.798	5979.73
492.168	6106.05
492.538	6117.58
492.908	6168.65
493.278	6216.79
493.648	6247.75
494.017	6315.31
494.387	6376.56
494.757	6395.54
495.126	6461.07
495.496	6480.73
495.866	6459.94
496.235	6591.69
496.605	6590.34
496.974	6635.98
497.344	6663.78
497.713	6716.43
498.082	6735.19
498.452	6769.77
498.821	6786.94
499.19	6796.66
499.559	6874.4
499.928	6948.97
500.298	6925.02
500.667	7028.29
501.036	7030.78
501.405	7045.24
501.774	7048.4
502.143	7103.32
502.512	7104.22
502.88	7121.17
503.249	7118.68
503.618	7199.13
503.987	7256.98
504.356	7287.49
504.724	7247.04
505.093	7325.23
505.462	7355.96
505.83	7310.09
506.199	7394.38
506.567	7432.35
506.936	7452.91
507.304	7513.47
507.672	7509.63
508.041	7615.84
508.409	7579.46
508.777	7639.8
509.145	7589.4
509.514	7652.23
509.882	7682.28
510.25	7665.11
510.618	7708.5
510.986	7682.06
511.354	7773.35
511.722	7806.35
512.09	7911.43
512.458	7852.67
512.826	7934.71
513.193	7924.76
513.561	7906.91
513.929	7980.58
514.297	8025.1
514.664	8016.96
515.032	8026.46
515.4	7990.98
515.767	8025.55
516.135	8049.28
516.502	8031.43
516.869	8102.39
517.237	8169.95
517.604	8065.78
517.972	8192.33
518.339	8223.74
518.706	8223.29
519.073	8262.16
519.44	8229.61
519.808	8200.69
520.175	8272.55
520.542	8301.93
520.909	8384.41
521.276	8296.96
521.643	8361.36
522.009	8394.58
522.376	8393.9
522.743	8489.49
523.11	8524.3
523.477	8468.25
523.843	8556.16
524.21	8570.4
524.577	8622.37
524.943	8616.27
525.31	8648.36
525.676	8693.56
526.043	8668.25
526.409	8687.23
526.776	8769.26
527.142	8762.93
527.508	8772.2
527.874	8803.38
528.241	8859.43
528.607	8837.73
528.973	8882.25
529.339	8855.36
529.705	8908.47
530.071	8937.39
530.437	8899.43
530.803	8944.17
531.169	8985.07
531.535	8959.54
531.901	8945.53
532.267	8918.64
532.632	8985.07
532.998	9007.22
533.364	8985.3
533.73	9040.44
534.095	9092.19
534.461	9004.06
534.826	9026.43
535.192	8998.86
535.557	9097.16
535.923	9040.89
536.288	9065.75
536.653	9105.75
537.019	9031.4
537.384	9048.8
537.749	9032.3
538.114	9030.72
538.479	8974.45
538.845	9061.46
539.21	9019.65
539.575	9044.73
539.94	9086.31
540.305	9130.61
540.67	9064.85
541.034	9041.8
541.399	9078.86
541.764	8985.3
542.129	9049.25
542.494	9028.69
542.858	9094
543.223	9046.77
543.587	9076.37
543.952	9007.22
544.316	9020.78
544.681	8997.73
545.045	9086.77
545.41	9062.13
545.774	9013.32
546.138	8965.41
546.503	8973.55
546.867	9028.69
547.231	9005.19
547.595	9049.93
547.959	9064.17
548.324	9014.23
548.688	9034.56
549.052	8955.47
549.416	9045.41
549.779	9010.38
550.143	8981.23
550.507	9051.51
550.871	9051.74
551.235	8950.5
551.599	9068.46
551.962	8981.46
552.326	9015.13
552.689	9040.21
553.053	8938.52
553.417	8995.24
553.78	9063.04
554.143	8984.85
554.507	9032.08
554.87	9070.5
555.234	9069.14
555.597	9037.95
555.96	9045.41
556.323	9065.07
556.686	8998.63
557.05	9076.15
557.413	9090.38
557.776	9039.08
558.139	9089.93
558.502	9100.1
558.865	9090.16
559.228	9186.2
559.59	9130.83
559.953	9157.5
560.316	9212.41
560.679	9188.23
561.041	9188.01
561.404	9171.74
561.767	9236.59
562.129	9293.09
562.492	9301.22
562.854	9244.28
563.217	9271.39
563.579	9305.52
563.941	9317.5
564.304	9370.6
564.666	9381.45
565.028	9390.04
565.39	9388.23
565.753	9442.69
566.115	9448.57
566.477	9441.33
566.839	9561.78
567.201	9550.03
567.563	9487.66
567.925	9555.45
568.287	9612.4
568.648	9646.3
569.01	9649.24
569.372	9656.24
569.734	9639.52
570.095	9678.62
570.457	9711.16
570.819	9796.35
571.18	9758.39
571.542	9826.41
571.903	9819.85
572.265	9757.71
572.626	9872.73
572.987	9839.06
573.349	9888.55
573.71	9910.93
574.071	10013.52
574.432	10052.84
574.794	10084.03
575.155	10056.91
575.516	9990.02
575.877	10137.13
576.238	10083.8
576.599	10107.76
576.96	10126.51
577.32	10129.45
577.681	10161.09
578.042	10226.62
578.403	10248.09
578.763	10202.22
579.124	10254.42
579.485	10300.75
579.845	10395.66
580.206	10301.88
580.566	10350.24
580.927	10352.5
581.287	10414.87
581.648	10406.73
582.008	10418.26
582.368	10391.82
582.728	10479.72
583.089	10433.17
583.449	10529.89
583.809	10414.87
584.169	10523.34
584.529	10467.75
584.889	10630.91
585.249	10494.19
585.609	10530.8
585.969	10614.64
586.329	10634.52
586.688	10643.34
587.048	10635.88
587.408	10621.87
587.768	10646.5
588.127	10645.6
588.487	10632.26
588.846	10682.88
589.206	10650.12
589.565	10674.07
589.925	10742.54
590.284	10736.89
590.643	10754.29
591.003	10796.1
591.362	10806.72
591.721	10828.87
592.08	10769.21
592.44	10917
592.799	10865.7
593.158	10888.53
593.517	10868.19
593.876	10858.02
594.235	10887.17
594.593	10917.68
594.952	10967.4
595.311	10904.57
595.67	10907.74
596.029	10986.15
596.387	10985.93
596.746	10966.72
597.104	10919.94
597.463	10996.55
597.822	10988.64
598.18	10968.3
598.538	11012.82
598.897	11014.63
599.255	10895.76
599.613	11079.03
599.972	11002.42
600.33	11084.91
600.688	11067.05
601.046	11057.79
601.404	11079.93
601.762	11043.33
602.12	11137.33
602.478	11131.23
602.836	11161.74
603.194	11152.93
603.552	11153.61
603.91	11143.89
604.268	11116.09
604.625	11194.96
604.983	11121.29
605.341	11152.02
605.698	11164.68
606.056	11182.98
606.413	11155.41
606.771	11221.17
607.128	11270.44
607.485	11180.5
607.843	11164.45
608.2	11309.76
608.557	11254.62
608.914	11214.39
609.272	11227.73
609.629	11257.78
609.986	11371.45
610.343	11321.96
610.7	11363.77
611.057	11362.64
611.414	11381.62
611.771	11381.17
612.127	11446.25
612.484	11356.31
612.841	11426.59
613.198	11383.43
613.554	11402.64
613.911	11459.81
614.267	11447.16
614.624	11482.18
614.98	11550.2
615.337	11491
615.693	11554.72
616.05	11467.72
616.406	11503.88
616.762	11549.75
617.118	11465.24
617.475	11454.61
617.831	11520.83
618.187	11527.61
618.543	11526.25
618.899	11603.99
619.255	11491.22
619.611	11539.36
619.967	11615.97
620.323	11520.15
620.678	11550.2
621.034	11549.98
621.39	11552.92
621.746	11560.6
622.101	11735.74
622.457	11565.35
622.812	11596.08
623.168	11582.07
623.523	11606.7
623.879	11659.13
624.234	11572.35
624.589	11626.36
624.945	11650.99
625.3	11626.81
625.655	11653.03
626.01	11617.77
626.365	11590.43
626.72	11577.55
627.075	11545.23
627.43	11579.36
627.785	11567.83
628.14	11610.09
628.495	11525.12
628.85	11540.04
629.205	11524.89
629.559	11616.87
629.914	11501.17
630.269	11530.32
630.623	11553.37
630.978	11467.27
631.332	11555.63
631.687	11490.09
632.041	11453.03
632.396	11471.11
632.75	11366.03
633.104	11406.93
633.459	11421.62
633.813	11362.19
634.167	11316.54
634.521	11326.71
634.875	11310.21
635.229	11412.81
635.583	11357.22
635.937	11412.81
636.291	11274.28
636.645	11372.13
636.999	11221.63
637.352	11287.39
637.706	11217.33
638.06	11197.9
638.413	11267.27
638.767	11212.36
639.121	11183.43
639.474	11161.74
639.828	11102.31
640.181	11182.08
640.534	11166.94
640.888	11055.98
641.241	11078.8
641.594	11165.58
641.947	11136.43
642.301	11096.21
642.654	11102.98
643.007	11106.6
643.36	11090.1
643.713	11007.17
644.066	11081.97
644.419	11018.02
644.771	11019.82
645.124	10931.69
645.477	10875.87
645.83	10836.55
646.182	10714.97
646.535	10740.51
646.888	10751.36
647.24	10621.42
647.593	10778.25
647.945	10712.49
648.298	10718.14
648.65	10624.58
649.002	10618.7
649.355	10722.88
649.707	10681.75
650.059	10658.93
650.411	10851.01
650.763	10836.78
651.115	10931.01
651.467	10916.78
651.819	10904.8
652.171	10927.85
652.523	10860.73
652.875	10840.17
653.227	10804.46
653.578	10897.57
653.93	10816.21
654.282	10888.53
654.633	10813.05
654.985	10905.02
655.337	10888.98
655.688	10830.45
656.039	10931.24
656.391	10810.56
656.742	10844.23
657.094	10893.5
657.445	10901.63
657.796	10861.18
658.147	10804.46
658.498	10810.11
658.849	10891.01
659.2	10829.77
659.551	10799.94
659.902	10863.44
660.253	10913.16
660.604	10811.92
660.955	10792.94
661.306	10818.02
661.656	10877.91
662.007	10824.57
662.358	10885.59
662.708	10822.54
663.059	10823.22
663.409	10821.64
663.76	10895.98
664.11	10947.73
664.461	10882.65
664.811	10876.32
665.161	10943.67
665.511	10906.15
665.862	10893.27
666.212	10853.27
666.562	10957
666.912	10803.78
667.262	10803.11
667.612	10913.61
667.962	10936.89
668.312	10851.01
668.662	10918.58
669.011	10879.04
669.361	10868.41
669.711	10867.96
670.06	10764.69
670.41	10812.15
670.76	10805.14
671.109	10861.41
671.459	10761.07
671.808	10729.89
672.157	10803.33
672.507	10766.5
672.856	10752.26
673.205	10810.11
673.554	10767.85
673.904	10715.65
674.253	10708.19
674.602	10750.9
674.951	10580.06
675.3	10552.94
675.649	10669.78
675.998	10645.14
676.346	10671.36
676.695	10666.84
677.044	10578.93
677.393	10695.31
677.741	10620.74
678.09	10656.67
678.438	10613.96
678.787	10623.45
679.135	10566.95
679.484	10515.66
679.832	10539.16
680.181	10578.7
680.529	10545.49
680.877	10492.83
681.225	10459.39
681.573	10533.96
681.922	10495.77
682.27	10384.59
682.618	10441.31
682.966	10436.11
683.314	10404.92
683.661	10358.6
684.009	10287.64
684.357	10278.83
684.705	10282.44
685.053	10284.93
685.4	10247.87
685.748	10199.51
686.095	10225.27
686.443	10113.18
686.79	10114.76
687.138	10160.41
687.485	10176.68
687.832	10081.54
688.18	10132.61
688.527	9966.07
688.874	10015.1
689.221	9974.65
689.568	9961.55
689.915	9919.97
690.262	9944.15
690.609	9850.59
690.956	9867.76
691.303	9837.48
691.65	9815.11
691.997	9760.2
692.344	9739.63
692.69	9733.53
693.037	9731.04
693.383	9564.72
693.73	9638.62
694.077	9581.22
694.423	9555.23
694.769	9517.72
695.116	9529.92
695.462	9466.19
695.808	9467.1
696.155	9488.11
696.501	9405.4
696.847	9288.57
697.193	9255.35
697.539	9354.56
697.885	9301.68
698.231	9198.63
698.577	9238.4
698.923	9187.1
699.269	9221.68
699.614	9137.84
699.96	9062.59
700.306	9058.07
700.651	9069.37
700.997	9005.86
701.342	9029.37
701.688	8960.89
702.033	8912.76
702.379	8902.59
702.724	8885.87
703.069	8887.45
703.415	8831.41
703.76	8706.89
704.105	8755.7
704.45	8746.89
704.795	8749.15
705.14	8698.3
705.485	8691.3
705.83	8599.32
706.175	8640.68
706.52	8569.49
706.865	8538.98
707.209	8511.64
707.554	8471.42
707.899	8447.24
708.243	8388.25
708.588	8422.15
708.932	8327.69
709.277	8327.92
709.621	8338.76
709.966	8324.07
710.31	8262.83
710.654	8183.74
710.998	8241.37
711.342	8310.29
711.687	8226.45
712.031	8169.28
712.375	8190.75
712.719	8150.75
713.063	8137.64
713.407	8218.77
713.75	8114.81
714.094	8089.5
714.438	8118.43
714.782	8142.84
715.125	7986.68
715.469	8084.76
715.812	8013.35
716.156	8028.72
716.499	7976.06
716.843	8003.63
717.186	7918.21
717.53	7964.99
717.873	7967.7
718.216	7980.36
718.559	7930.19
718.902	7877.76
719.246	7911.88
719.589	7856.74
719.932	7845.44
720.275	7824.65
720.617	7855.61
720.96	7854.71
721.303	7760.47
721.646	7833.24
721.989	7765.67
722.331	7850.64
722.674	7833.24
723.016	7818.78
723.359	7810.19
723.701	7837.08
724.044	7773.58
724.386	7736.97
724.729	7774.94
725.071	7754.15
725.413	7751.43
725.755	7722.06
726.097	7638.22
726.439	7660.36
726.782	7625.34
727.124	7683.64
727.465	7640.7
727.807	7645
728.149	7645.22
728.491	7572.91
728.833	7573.59
729.175	7632.12
729.516	7637.77
729.858	7622.17
730.199	7692.91
730.541	7619.01
730.882	7592.34
731.224	7641.16
731.565	7570.42
731.906	7661.72
732.248	7581.95
732.589	7568.61
732.93	7533.81
733.271	7598.44
733.612	7537.2
733.953	7619.01
734.294	7513.02
734.635	7505.11
734.976	7580.14
735.317	7541.72
735.658	7513.47
735.999	7522.51
736.339	7531.1
736.68	7574.49
737.021	7529.07
737.361	7515.51
737.702	7557.99
738.042	7555.28
738.383	7554.6
738.723	7529.97
739.063	7565.22
739.404	7607.26
739.744	7508.05
740.084	7591.66
740.424	7605.22
740.764	7606.35
741.104	7652.45
741.444	7559.35
741.784	7616.52
742.124	7579.91
742.464	7666.24
742.804	7631.21
743.143	7696.75
743.483	7667.82
743.823	7622.62
744.162	7685.67
744.502	7703.07
744.841	7702.17
745.181	7786.24
745.52	7747.14
745.86	7885.67
746.199	7820.81
746.538	7831.21
746.877	7873.47
747.216	7992.33
747.556	7982.39
747.895	7994.59
748.234	8047.02
748.573	8041.14
748.911	8114.36
749.25	8158.66
749.589	8141.48
749.928	8267.13
750.267	8277.97
750.605	8342.61
750.944	8361.14
751.283	8419.21
751.621	8524.75
751.96	8539.89
752.298	8675.48
752.636	8679.77
752.975	8765.65
753.313	8773.55
753.651	8918.86
753.989	8989.59
754.327	9058.29
754.666	9154.34
755.004	9291.28
755.342	9382.35
755.679	9437.94
756.017	9446.53
756.355	9620.99
756.693	9729.46
757.031	9891.27
757.368	9952.73
757.706	10057.59
758.044	10166.96
758.381	10348.2
758.719	10369.22
759.056	10579.16
759.394	10661.64
759.731	10734.63
760.068	10868.41
760.405	10930.11
760.743	11102.08
761.08	11244.45
761.417	11349.98
761.754	11400.83
762.091	11608.73
762.428	11716.08
