Data from hue_170_FLMS001491_00033.txt Node
Date: Tue Feb 07 16:48:36 GMT 2017
User: dcchb
Spectrometer: FLMS00149
Trigger mode: 0
Integration Time (sec): 2.000000E-2
Scans to average: 10
Electric dark correction enabled: true
Nonlinearity correction enabled: false
Boxcar width: 0
XAxis mode: Wavelengths
Number of Pixels in Spectrum: 2048
>>>>>Begin Spectral Data<<<<<
341.393	-13.42
341.776	-13.42
342.16	-13.42
342.543	-73.08
342.927	-90.48
343.31	-60.2
343.693	-70.82
344.077	-64.04
344.46	-53.42
344.843	-61.33
345.226	-39.18
345.61	-26.3
345.993	-12.06
346.376	-6.64
346.759	7.82
347.142	20.48
347.525	43.53
347.908	57.31
348.291	49.18
348.674	92.57
349.057	123.08
349.44	123.3
349.823	162.4
350.206	175.5
350.588	182.96
350.971	215.73
351.354	218.21
351.737	236.07
352.119	249.63
352.502	248.04
352.884	287.14
353.267	265.9
353.65	284.88
354.032	277.2
354.414	317.42
354.797	304.31
355.179	339.79
355.562	324.2
355.944	329.62
356.326	302.28
356.709	325.78
357.091	339.79
357.473	321.71
357.855	341.83
358.238	334.82
358.62	350.87
359.002	345.89
359.384	325.1
359.766	334.82
360.148	342.05
360.53	332.79
360.912	305.22
361.294	341.83
361.676	345.89
362.057	343.86
362.439	344.99
362.821	326.01
363.203	322.84
363.584	351.54
363.966	321.94
364.348	312.45
364.729	314.71
365.111	309.96
365.493	314.48
365.874	306.57
366.256	300.47
366.637	312.45
367.019	293.24
367.4	318.78
367.781	289.63
368.163	314.03
368.544	305.9
368.925	310.64
369.306	302.28
369.688	306.8
370.069	294.82
370.45	309.06
370.831	336.4
371.212	306.12
371.593	314.03
371.974	303.64
372.355	295.73
372.736	322.39
373.117	311.77
373.498	301.38
373.879	319.45
374.26	307.93
374.641	320.58
375.021	318.1
375.402	319.45
375.783	335.27
376.163	334.82
376.544	312.9
376.925	327.59
377.305	319
377.686	307.48
378.066	323.3
378.447	320.13
378.827	344.09
379.208	340.25
379.588	322.84
379.968	343.18
380.349	322.17
380.729	333.69
381.109	310.42
381.489	333.24
381.87	339.79
382.25	355.16
382.63	326.23
383.01	339.79
383.39	330.53
383.77	326.69
384.15	353.8
384.53	324.2
384.91	349.74
385.29	349.06
385.67	361.71
386.049	349.96
386.429	334.37
386.809	363.3
387.189	336.4
387.568	363.75
387.948	354.03
388.328	353.58
388.707	339.12
389.087	363.52
389.466	356.52
389.846	381.83
390.225	381.83
390.605	386.57
390.984	383.63
391.363	358.1
391.743	375.95
392.122	364.88
392.501	386.57
392.881	371.66
393.26	368.04
393.639	380.92
394.018	375.72
394.397	355.61
394.776	364.2
395.155	387.7
395.534	375.72
395.913	387.02
396.292	379.57
396.671	382.5
397.05	392.22
397.429	402.84
397.808	365.56
398.186	394.48
398.565	383.18
398.944	388.15
399.323	418.21
399.701	425.67
400.08	420.24
400.458	417.53
400.837	405.1
401.215	407.59
401.594	429.96
401.972	401.26
402.351	410.07
402.729	413.01
403.107	427.7
403.486	427.02
403.864	407.59
404.242	429.28
404.62	438.1
404.999	424.99
405.377	429.73
405.755	436.06
406.133	434.25
406.511	435.38
406.889	441.49
407.267	453.91
407.645	471.77
408.023	465.21
408.401	445.33
408.779	474.93
409.156	472.67
409.534	460.69
409.912	481.71
410.29	477.64
410.667	487.59
411.045	480.81
411.422	514.25
411.8	515.61
412.178	504.08
412.555	499.79
412.933	509.73
413.31	534.59
413.687	528.94
414.065	537.3
414.442	540.92
414.819	539.11
415.197	577.75
415.574	534.14
415.951	545.89
416.328	546.34
416.705	541.14
417.082	578.21
417.46	572.1
417.837	571.43
418.214	564.65
418.591	585.44
418.967	595.61
419.344	600.8
419.721	601.71
420.098	608.03
420.475	604.19
420.852	629.28
421.228	626.11
421.605	631.31
421.982	629.5
422.358	644.19
422.735	639.22
423.111	676.96
423.488	666.11
423.864	679.9
424.241	686.22
424.617	679.67
424.994	676.06
425.37	672.44
425.746	676.73
426.123	722.38
426.499	723.29
426.875	707.69
427.251	719.44
427.627	745.43
428.003	749.05
428.379	749.27
428.756	753.34
429.132	765.77
429.507	766.67
429.883	778.88
430.259	798.99
430.635	794.7
431.011	822.94
431.387	796.05
431.763	852.77
432.138	823.17
432.514	822.94
432.89	837.18
433.265	869.04
433.641	861.81
434.016	897.97
434.392	912.89
434.767	921.02
435.143	916.95
435.518	962.6
435.894	942.94
436.269	941.81
436.644	937.07
437.02	995.6
437.395	975.03
437.77	1002.83
438.145	1018.19
438.52	1013.67
438.895	1033.33
439.271	1039.89
439.646	1069.72
440.021	1062.03
440.395	1056.61
440.77	1057.51
441.145	1071.98
441.52	1100.9
441.895	1111.98
442.27	1112.2
442.645	1130.06
443.019	1146.33
443.394	1166.66
443.769	1158.08
444.143	1150.17
444.518	1182.93
444.892	1155.59
445.267	1190.39
445.641	1187.68
446.016	1196.27
446.39	1190.17
446.764	1212.54
447.139	1209.83
447.513	1228.13
447.887	1234.01
448.262	1240.56
448.636	1270.16
449.01	1279.66
449.384	1290.5
449.758	1291.41
450.132	1327.79
450.506	1309.94
450.88	1324.63
451.254	1327.11
451.628	1366.21
452.002	1379.09
452.376	1391.52
452.75	1404.4
453.123	1415.92
453.497	1416.15
453.871	1463.38
454.244	1469.93
454.618	1465.19
454.992	1490.27
455.365	1492.08
455.739	1548.58
456.112	1565.98
456.486	1568.01
456.859	1580.21
457.232	1617.27
457.606	1595.81
457.979	1624.05
458.352	1666.76
458.725	1699.98
459.099	1689.36
459.472	1744.05
459.845	1779.76
460.218	1744.95
460.591	1791.05
460.964	1767.1
461.337	1856.59
461.71	1853.88
462.083	1899.53
462.456	1898.62
462.829	1908.57
463.201	1932.97
463.574	1941.33
463.947	1975.91
464.32	2055.45
464.692	2061.56
465.065	2060.2
465.438	2103.36
465.81	2116.02
466.183	2165.96
466.555	2249.8
466.928	2267.43
467.3	2241.21
467.672	2294.77
468.045	2353.3
468.417	2364.82
468.789	2407.76
469.161	2398.72
469.534	2471.49
469.906	2546.97
470.278	2568.66
470.65	2594.88
471.022	2648.66
471.394	2695.66
471.766	2770.46
472.138	2794.19
472.51	2836.22
472.882	2902.21
473.253	2973.4
473.625	3019.27
473.997	3094.07
474.369	3110.57
474.74	3176.55
475.112	3222.2
475.484	3366.61
475.855	3379.26
476.227	3418.36
476.598	3565.47
476.97	3585.13
477.341	3711.46
477.713	3821.51
478.084	3794.84
478.455	3998.68
478.827	3976.08
479.198	4162.74
479.569	4198.9
479.94	4291.33
480.311	4350.31
480.682	4509.4
481.053	4664.2
481.424	4750.07
481.795	4816.29
482.166	4906.45
482.537	4971.54
482.908	5092.44
483.279	5206.11
483.65	5328.14
484.021	5468.25
484.391	5586.89
484.762	5676.38
485.133	5748.01
485.503	5866.43
485.874	6085.18
486.244	6113.43
486.615	6337.83
486.985	6402.68
487.356	6556.35
487.726	6598.39
488.097	6842.22
488.467	6846.97
488.837	7067.98
489.207	7174.19
489.578	7300.97
489.948	7378.03
490.318	7542.09
490.688	7614.86
491.058	7798.35
491.428	7953.38
491.798	8057.78
492.168	8250.09
492.538	8275.4
492.908	8429.07
493.278	8582.06
493.648	8621.61
494.017	8770.31
494.387	8869.29
494.757	8963.97
495.126	9105.66
495.496	9119
495.866	9271.54
496.235	9406.22
496.605	9445.32
496.974	9580
497.344	9657.06
497.713	9725.31
498.082	9820
498.452	9908.58
498.821	10057.05
499.19	10123.26
499.559	10197.84
499.928	10210.95
500.298	10367.55
500.667	10441.67
501.036	10434.9
501.405	10632.86
501.774	10578.39
502.143	10667.43
502.512	10818.61
502.88	10833.98
503.249	10872.17
503.618	10913.53
503.987	10938.38
504.356	11048.89
504.724	11152.84
505.093	11143.58
505.462	11211.6
505.83	11245.72
506.199	11284.36
506.567	11478.03
506.936	11482.33
507.304	11558.71
507.672	11574.07
508.041	11666.5
508.409	11660.63
508.777	11777.23
509.145	11807.51
509.514	11907.62
509.882	11993.72
510.25	11987.85
510.618	12006.15
510.986	12007.74
511.354	12158.47
511.722	12205.92
512.09	12271.01
512.458	12207.73
512.826	12357.56
513.193	12347.39
513.561	12258.35
513.929	12410.89
514.297	12532.02
514.664	12522.07
515.032	12538.79
515.4	12620.37
515.767	12541.05
516.135	12623.31
516.502	12582.64
516.869	12694.27
517.237	12719.35
517.604	12601.17
517.972	12798.45
518.339	12827.37
518.706	12710.32
519.073	12821.95
519.44	12868.73
519.808	12905.56
520.175	12913.47
520.542	13023.53
520.909	12999.35
521.276	12951.21
521.643	12970.65
522.009	13058.78
522.376	13095.62
522.743	13095.62
523.11	13133.81
523.477	13243.86
523.843	13260.81
524.21	13276.18
524.577	13374.48
524.943	13405.89
525.31	13372.67
525.676	13459.22
526.043	13442.73
526.409	13470.07
526.776	13469.84
527.142	13526.11
527.508	13528.15
527.874	13614.25
528.241	13581.48
528.607	13456.28
528.973	13549.39
529.339	13476.17
529.705	13561.37
530.071	13641.59
530.437	13555.27
530.803	13646.11
531.169	13644.98
531.535	13545.55
531.901	13461.71
532.267	13531.99
532.632	13610.18
532.998	13532.89
533.364	13525.89
533.73	13522.27
534.095	13608.15
534.461	13495.15
534.826	13548.03
535.192	13474.36
535.557	13523.18
535.923	13468.94
536.288	13395.72
536.653	13409.51
537.019	13396.63
537.384	13309.17
537.749	13335.61
538.114	13320.92
538.479	13244.99
538.845	13272.33
539.21	13153.92
539.575	13112.34
539.94	13175.84
540.305	13185.33
540.67	13023.08
541.034	13048.16
541.399	13045.45
541.764	12948.73
542.129	13008.84
542.494	12876.64
542.858	12901.95
543.223	12902.85
543.587	12857.2
543.952	12718.9
544.316	12741.05
544.681	12676.19
545.045	12727.94
545.41	12696.08
545.774	12616.98
546.138	12609.3
546.503	12581.96
546.867	12444.11
547.231	12514.84
547.595	12450.66
547.959	12443.88
548.324	12447.95
548.688	12246.82
549.052	12347.61
549.416	12349.87
549.779	12317.33
550.143	12221.74
550.507	12196.2
550.871	12182.19
551.235	12153.27
551.599	12116.43
551.962	12144.45
552.326	12090.67
552.689	12076.89
553.053	12012.48
553.417	11952.6
553.78	12095.19
554.143	11978.81
554.507	11962.99
554.87	11915.53
555.234	11980.39
555.597	11842.77
555.96	11854.07
556.323	11823.11
556.686	11742.66
557.05	11827.63
557.413	11795.09
557.776	11762.09
558.139	11821.07
558.502	11778.81
558.865	11689.33
559.228	11720.74
559.59	11756.89
559.953	11773.62
560.316	11835.99
560.679	11674.64
561.041	11781.98
561.404	11784.46
561.767	11772.71
562.129	11702.66
562.492	11824.92
562.854	11725.71
563.217	11733.84
563.579	11653.62
563.941	11710.57
564.304	11775.2
564.666	11828.76
565.028	11806.61
565.39	11729.1
565.753	11767.97
566.115	11747.4
566.477	11785.14
566.839	11834.41
567.201	11834.86
567.563	11774.52
567.925	11916.89
568.287	11799.15
568.648	11843.9
569.01	11915.08
569.372	11853.39
569.734	11891.81
570.095	11922.77
570.457	11867.17
570.819	11917.12
571.18	11901.75
571.542	11913.95
571.903	11940.84
572.265	11893.84
572.626	11948.08
572.987	11878.02
573.349	11971.35
573.71	11936.32
574.071	11979.49
574.432	11933.84
574.794	12052.25
575.155	11969.77
575.516	11966.61
575.877	11994.18
576.238	11962.76
576.599	12019.03
576.96	12046.38
577.32	12046.38
577.681	11974.97
578.042	12021.97
578.403	12019.49
578.763	12013.84
579.124	11992.82
579.485	12084.12
579.845	12029.88
580.206	12048.41
580.566	12043.89
580.927	12026.49
581.287	12014.97
581.648	11938.36
582.008	12021.29
582.368	11926.16
582.728	12050.67
583.089	11945.82
583.449	11978.36
583.809	11895.65
584.169	11940.39
584.529	11853.84
584.889	12027.62
585.249	11903.56
585.609	11879.83
585.969	11924.8
586.329	11860.39
586.688	11935.19
587.048	11929.09
587.408	11868.3
587.768	11852.26
588.127	11852.03
588.487	11782.88
588.846	11895.2
589.206	11841.19
589.565	11855.42
589.925	11875.31
590.284	11790.79
590.643	11837.34
591.003	11876.44
591.362	11819.27
591.721	11750.79
592.08	11803.67
592.44	11781.75
592.799	11738.14
593.158	11698.59
593.517	11647.97
593.876	11762.32
594.235	11713.96
594.593	11700.4
594.952	11810.68
595.311	11674.64
595.67	11683.22
596.029	11789.44
596.387	11712.38
596.746	11729.55
597.104	11707.4
597.463	11618.14
597.822	11668.08
598.18	11654.75
598.538	11686.61
598.897	11711.7
599.255	11626.95
599.613	11765.03
599.972	11697.46
600.33	11698.82
600.688	11643.22
601.046	11642.1
601.404	11677.12
601.762	11612.27
602.12	11700.62
602.478	11626.95
602.836	11692.04
603.194	11618.82
603.552	11631.02
603.91	11562.78
604.268	11628.08
604.625	11563.9
604.983	11674.18
605.341	11579.72
605.698	11567.75
606.056	11626.28
606.413	11582.44
606.771	11651.13
607.128	11686.84
607.485	11634.86
607.843	11622.21
608.2	11752.15
608.557	11686.39
608.914	11668.76
609.272	11713.28
609.629	11733.84
609.986	11750.11
610.343	11706.5
610.7	11723.9
611.057	11752.15
611.414	11773.84
611.771	11745.37
612.127	11750.11
612.484	11757.8
612.841	11753.73
613.198	11784.69
613.554	11737.46
613.911	11769.78
614.267	11716.9
614.624	11768.65
614.98	11777.91
615.337	11827.63
615.693	11824.46
616.05	11835.54
616.406	11885.03
616.762	11828.08
617.118	11797.35
617.475	11852.94
617.831	11927.51
618.187	11862.88
618.543	11933.84
618.899	11895.2
619.255	11925.7
619.611	11970.22
619.967	11976.1
620.323	11971.13
620.678	11945.82
621.034	11896.55
621.39	11885.03
621.746	11877.57
622.101	11967.28
622.457	11827.63
622.812	11975.42
623.168	11993.05
623.523	11907.85
623.879	12056.55
624.234	11910.34
624.589	11923.9
624.945	11844.12
625.3	11923.44
625.655	11909.88
626.01	11888.19
626.365	11884.57
626.72	11842.32
627.075	11912.14
627.43	11917.79
627.785	11878.7
628.14	11858.13
628.495	11870.11
628.85	11849.32
629.205	11885.7
629.559	11850.23
629.914	11883.9
630.269	11869.66
630.623	11795.76
630.978	11795.09
631.332	11834.18
631.687	11814.75
632.041	11772.94
632.396	11853.16
632.75	11762.09
633.104	11820.85
633.459	11700.62
633.813	11735.2
634.167	11723.67
634.521	11701.3
634.875	11739.95
635.229	11627.63
635.583	11641.19
635.937	11595.99
636.291	11611.36
636.645	11569.55
636.999	11541.08
637.352	11624.69
637.706	11550.8
638.06	11552.61
638.413	11496.11
638.767	11510.12
639.121	11560.74
639.474	11523.45
639.828	11438.03
640.181	11450.69
640.534	11516.9
640.888	11466.96
641.241	11403.91
641.594	11481.2
641.947	11405.94
642.301	11462.21
642.654	11479.39
643.007	11421.54
643.36	11464.25
643.713	11403.01
644.066	11435.77
644.419	11385.38
644.771	11340.63
645.124	11209.56
645.477	11181.09
645.83	11150.81
646.182	11131.83
646.535	11083.69
646.888	11106.74
647.24	11096.57
647.593	11116.46
647.945	11069.45
648.298	11029.23
648.65	10959.85
649.002	10929.35
649.355	11052.96
649.707	11075.1
650.059	11109.91
650.411	11180.86
650.763	11192.84
651.115	11290.01
651.467	11190.81
651.819	11274.2
652.171	11203.69
652.523	11238.26
652.875	11260.18
653.227	11136.12
653.578	11272.16
653.93	11249.56
654.282	11233.97
654.633	11191.03
654.985	11221.99
655.337	11229.45
655.688	11210.47
656.039	11265.38
656.391	11175.67
656.742	11268.09
657.094	11231.26
657.445	11256.34
657.796	11176.12
658.147	11201.65
658.498	11236.23
658.849	11299.51
659.2	11275.32
659.551	11265.83
659.902	11320.52
660.253	11241.88
660.604	11268.09
660.955	11241.65
661.306	11290.69
661.656	11348.77
662.007	11334.31
662.358	11299.96
662.708	11315.55
663.059	11284.82
663.409	11279.39
663.76	11342.22
664.11	11383.8
664.461	11356
664.811	11401.2
665.161	11337.02
665.511	11266.96
665.862	11318.04
666.212	11395.32
666.562	11364.81
666.912	11367.53
667.262	11370.46
667.612	11327.98
667.962	11336.79
668.312	11307.41
668.662	11382.21
669.011	11322.78
669.361	11287.75
669.711	11302.89
670.06	11365.04
670.41	11317.58
670.76	11284.59
671.109	11329.79
671.459	11265.38
671.808	11245.04
672.157	11280.07
672.507	11166.18
672.856	11208.66
673.205	11264.48
673.554	11265.38
673.904	11251.82
674.253	11224.03
674.602	11218.15
674.951	11080.08
675.3	11032.85
675.649	11151.03
675.998	11176.12
676.346	11129.34
676.695	11163.24
677.044	11081.21
677.393	11152.62
677.741	11130.02
678.09	11094.09
678.438	11024.26
678.787	11069.68
679.135	11059.06
679.484	11039.62
679.832	11049.34
680.181	10970.93
680.529	11068.55
680.877	10932.51
681.225	10996.69
681.573	11007.99
681.922	10936.12
682.27	10796.02
682.618	10911.94
682.966	10869.01
683.314	10907.2
683.661	10867.88
684.009	10745.85
684.357	10822.46
684.705	10704.49
685.053	10781.55
685.4	10677.6
685.748	10626.98
686.095	10651.61
686.443	10591.73
686.79	10539.75
687.138	10649.8
687.485	10553.99
687.832	10573.87
688.18	10550.37
688.527	10471.05
688.874	10440.09
689.221	10420.21
689.568	10375.91
689.915	10406.2
690.262	10376.59
690.609	10360.77
690.956	10291.4
691.303	10245.97
691.65	10184.96
691.997	10103.6
692.344	10178.18
692.69	10146.77
693.037	10142.47
693.383	10016.83
693.73	10055.24
694.077	10050.5
694.423	9951.97
694.769	9928.92
695.116	9902.93
695.462	9897.51
695.808	9801.47
696.155	9896.6
696.501	9730.51
696.847	9766.66
697.193	9612.77
697.539	9725.08
697.885	9678.3
698.231	9546.78
698.577	9596.27
698.923	9535.26
699.269	9522.6
699.614	9436.5
699.96	9409.61
700.306	9466.78
700.651	9347.69
700.997	9292.1
701.342	9285.55
701.688	9248.94
702.033	9251.65
702.379	9270.18
702.724	9205.55
703.069	9265.21
703.415	9043.52
703.76	9056.17
704.105	9042.39
704.45	9059.34
704.795	8996.97
705.14	8881.26
705.485	8893.24
705.83	8954.03
706.175	8917.42
706.52	8868.83
706.865	8867.03
707.209	8857.54
707.554	8766.01
707.899	8739.57
708.243	8769.85
708.588	8706.35
708.932	8657.09
709.277	8604.89
709.621	8701.16
709.966	8582.51
710.31	8603.76
710.654	8549.97
710.998	8554.72
711.342	8539.8
711.687	8480.37
712.031	8401.73
712.375	8392.24
712.719	8453.48
713.063	8378.45
713.407	8399.47
713.75	8389.53
714.094	8344.78
714.438	8317.89
714.782	8383.42
715.125	8313.37
715.469	8359.7
715.812	8292.8
716.156	8213.71
716.499	8205.8
716.843	8212.81
717.186	8192.24
717.53	8220.49
717.873	8163.77
718.216	8187.72
718.559	8134.39
718.902	8126.26
719.246	8118.35
719.589	8102.3
719.932	8042.64
720.275	8117.22
720.617	8116.76
720.96	8089.87
721.303	8107.27
721.646	8048.52
721.989	8036.31
722.331	8026.82
722.674	8035.86
723.016	8126.26
723.359	8020.95
723.701	8024.56
724.044	8014.17
724.386	7945.7
724.729	8013.72
725.071	8000.61
725.413	8014.62
725.755	7954.73
726.097	7912.02
726.439	7887.84
726.782	7973.49
727.124	7900.95
727.465	7930.78
727.807	7949.54
728.149	7884.23
728.491	7915.19
728.833	7922.19
729.175	7921.29
729.516	7808.52
729.858	7940.27
730.199	7918.58
730.541	7884.23
730.882	7889.2
731.224	7902.76
731.565	7853.49
731.906	7861.86
732.248	7894.17
732.589	7861.63
732.93	7844.23
733.271	7884.45
733.612	7828.64
733.953	7841.97
734.294	7826.15
734.635	7827.96
734.976	7885.13
735.317	7771.69
735.658	7894.62
735.999	7893.04
736.339	7858.24
736.68	7884.68
737.021	7884.23
737.361	7930.33
737.702	7899.14
738.042	7906.15
738.383	7920.38
738.723	7908.18
739.063	7874.74
739.404	7961.74
739.744	7869.76
740.084	7925.81
740.424	7988.63
740.764	7954.06
741.104	8032.02
741.444	8048.74
741.784	7990.89
742.124	8035.41
742.464	8063.43
742.804	8065.24
743.143	8096.43
743.483	8077.89
743.823	8102.3
744.162	8139.59
744.502	8187.27
744.841	8152.47
745.181	8266.59
745.52	8233.37
745.86	8309.53
746.199	8271.11
746.538	8402.86
746.877	8382.52
747.216	8455.06
747.556	8542.29
747.895	8561.5
748.234	8570.99
748.573	8625.9
748.911	8693.25
749.25	8707.48
749.589	8870.64
749.928	8913.13
750.267	9007.14
750.605	9041.26
750.944	9074.7
751.283	9124.42
751.621	9218.2
751.96	9261.82
752.298	9408.26
752.636	9511.76
752.975	9531.19
753.313	9628.14
753.651	9801.92
753.989	9971.86
754.327	9945.42
754.666	10075.36
755.004	10236.03
755.342	10408.91
755.679	10426.76
756.017	10556.7
756.355	10752.17
756.693	10839.63
757.031	10970.47
757.368	11042.34
757.706	11219.28
758.044	11349.22
758.381	11525.49
758.719	11694.97
