Data from hue_230_FLMS001491_00045.txt Node
Date: Tue Feb 07 16:37:17 GMT 2017
User: dcchb
Spectrometer: FLMS00149
Trigger mode: 0
Integration Time (sec): 2.000000E-2
Scans to average: 10
Electric dark correction enabled: true
Nonlinearity correction enabled: false
Boxcar width: 0
XAxis mode: Wavelengths
Number of Pixels in Spectrum: 2048
>>>>>Begin Spectral Data<<<<<
341.393	-3.28
341.776	-3.28
342.16	-3.28
342.543	-70.85
342.927	-69.72
343.31	-68.81
343.693	-62.71
344.077	-79.66
344.46	-66.78
344.843	-50.51
345.226	-47.57
345.61	-27.23
345.993	-9.15
346.376	-8.7
346.759	15.93
347.142	33.11
347.525	46.44
347.908	52.09
348.291	79.88
348.674	94.8
349.057	98.87
349.44	136.38
349.823	119.21
350.206	154.01
350.588	191.52
350.971	189.94
351.354	217.96
351.737	231.75
352.119	233.1
352.502	249.37
352.884	274.91
353.267	276.49
353.65	277.85
354.032	274.46
354.414	299.31
354.797	324.4
355.179	321.46
355.562	314.68
355.944	334.34
356.326	329.82
356.709	326.43
357.091	329.82
357.473	352.65
357.855	313.1
358.238	342.48
358.62	337.96
359.002	339.77
359.384	329.14
359.766	326.88
360.148	318.52
360.53	323.27
360.912	326.43
361.294	333.21
361.676	318.97
362.057	322.59
362.439	316.26
362.821	337.28
363.203	321.23
363.584	309.48
363.966	340.22
364.348	319.88
364.729	312.87
365.111	317.17
365.493	304.51
365.874	293.44
366.256	301.57
366.637	303.16
367.019	302.93
367.4	306.77
367.781	321.46
368.163	290.27
368.544	285.08
368.925	285.98
369.306	299.09
369.688	301.12
370.069	314.68
370.45	309.71
370.831	300.22
371.212	288.02
371.593	281.01
371.974	299.54
372.355	307.9
372.736	302.7
373.117	306.09
373.498	303.61
373.879	310.39
374.26	314.46
374.641	292.99
375.021	309.48
375.402	323.04
375.783	318.75
376.163	302.93
376.544	317.62
376.925	319.43
377.305	297.51
377.686	305.19
378.066	322.36
378.447	323.72
378.827	323.27
379.208	303.61
379.588	319.43
379.968	315.58
380.349	309.71
380.729	343.83
381.109	318.97
381.489	342.7
381.87	321.46
382.25	345.19
382.63	343.15
383.01	330.95
383.39	343.38
383.77	319.43
384.15	344.28
384.53	354.91
384.91	339.77
385.29	351.29
385.67	335.7
386.049	346.32
386.429	331.4
386.809	329.82
387.189	341.12
387.568	348.58
387.948	330.95
388.328	344.74
388.707	340.89
389.087	343.38
389.466	355.36
389.846	351.06
390.225	349.03
390.605	335.7
390.984	362.82
391.363	342.02
391.743	346.09
392.122	380.22
392.501	364.4
392.881	363.04
393.26	351.06
393.639	358.97
394.018	364.4
394.397	354
394.776	387.22
395.155	371.4
395.534	349.03
395.913	367.33
396.292	363.95
396.671	361.01
397.05	369.59
397.429	376.15
397.808	372.98
398.186	380.22
398.565	399.65
398.944	388.35
399.323	390.39
399.701	393.32
400.08	386.32
400.458	370.27
400.837	394.68
401.215	411.4
401.594	375.24
401.972	405.75
402.351	400.33
402.729	407.79
403.107	417.28
403.486	411.85
403.864	412.53
404.242	405.75
404.62	407.79
404.999	419.54
405.377	428.8
405.755	418.41
406.133	421.34
406.511	426.32
406.889	450.95
407.267	456.82
407.645	434.9
408.023	446.43
408.401	448.91
408.779	460.21
409.156	468.12
409.534	444.85
409.912	463.15
410.29	496.82
410.667	477.39
411.045	506.09
411.422	478.74
411.8	485.07
412.178	509.93
412.555	525.75
412.933	518.29
413.31	518.07
413.687	535.92
414.065	543.83
414.442	539.53
414.819	529.36
415.197	556.26
415.574	579.08
415.951	553.09
416.328	561.68
416.705	586.31
417.082	599.65
417.46	613.2
417.837	588.8
418.214	603.03
418.591	592.19
418.967	622.7
419.344	604.62
419.721	612.3
420.098	641.68
420.475	625.18
420.852	666.08
421.228	637.84
421.605	670.6
421.982	664.5
422.358	711.51
422.735	697.5
423.111	697.5
423.488	731.85
423.864	708.34
424.241	741.79
424.617	752.86
424.994	744.73
425.37	766.42
425.746	768.23
426.123	776.59
426.499	787.44
426.875	793.31
427.251	823.37
427.627	819.07
428.003	830.83
428.379	831.5
428.756	830.83
429.132	865.4
429.507	858.85
429.883	859.75
430.259	899.07
430.635	909.24
431.011	896.81
431.387	923.25
431.763	915.57
432.138	939.98
432.514	951.73
432.89	950.6
433.265	987.66
433.641	1019.75
434.016	1012.29
434.392	1019.3
434.767	1034.21
435.143	1034.21
435.518	1053.64
435.894	1096.36
436.269	1113.98
436.644	1125.73
437.02	1127.54
437.395	1175.68
437.77	1150.37
438.145	1200.31
438.52	1205.05
438.895	1219.97
439.271	1216.13
439.646	1229.91
440.021	1259.06
440.395	1280.53
440.77	1283.47
441.145	1288.21
441.52	1307.2
441.895	1329.8
442.27	1341.55
442.645	1346.29
443.019	1364.82
443.394	1347.42
443.769	1374.77
444.143	1360.53
444.518	1417.02
444.892	1400.75
445.267	1409.57
445.641	1451.83
446.016	1450.92
446.39	1428.55
446.764	1460.64
447.139	1468.77
447.513	1490.92
447.887	1457.02
448.262	1486.18
448.636	1485.72
449.01	1506.06
449.384	1524.14
449.758	1542.9
450.132	1566.63
450.506	1567.76
450.88	1587.42
451.254	1562.11
451.628	1593.52
452.002	1618.83
452.376	1615.89
452.75	1625.61
453.123	1647.08
453.497	1691.37
453.871	1699.28
454.244	1711.93
454.618	1695.66
454.992	1737.92
455.365	1727.98
455.739	1757.58
456.112	1809.56
456.486	1826.96
456.859	1826.96
457.232	1831.48
457.606	1830.8
457.979	1872.61
458.352	1896.79
458.725	1937.24
459.099	1924.13
459.472	1954.64
459.845	1979.5
460.218	2007.29
460.591	2031.47
460.964	2017.01
461.337	2094.07
461.71	2114.63
462.083	2098.81
462.456	2088.65
462.829	2113.05
463.201	2164.58
463.574	2158.7
463.947	2179.72
464.32	2265.36
464.692	2263.33
465.065	2250.9
465.438	2275.76
465.81	2326.38
466.183	2366.83
466.555	2403.21
466.928	2402.31
467.3	2395.3
467.672	2403.89
468.045	2507.62
468.417	2486.15
468.789	2509.65
469.161	2542.65
469.534	2561.18
469.906	2664.68
470.278	2639.37
470.65	2666.94
471.022	2717.33
471.394	2727.72
471.766	2757.33
472.138	2795.52
472.51	2876.65
472.882	2885.46
473.253	2920.26
473.625	2973.82
473.997	2998.9
474.369	3016.53
474.74	2994.61
475.112	3065.12
475.484	3140.14
475.855	3187.83
476.227	3164.1
476.598	3235.06
476.97	3268.5
477.341	3328.39
477.713	3377.88
478.084	3409.06
478.455	3509.4
478.827	3511.21
479.198	3585.1
479.569	3614.03
479.94	3716.4
480.311	3710.07
480.682	3799.79
481.053	3775.83
481.424	3917.07
481.795	3898.09
482.166	3979.44
482.537	4006.56
482.908	4075.26
483.279	4125.65
483.65	4185.77
484.021	4249.49
484.391	4307.57
484.762	4288.14
485.133	4332.65
485.503	4377.4
485.874	4450.39
486.244	4503.27
486.615	4611.97
486.985	4608.13
487.356	4679.76
487.726	4746.2
488.097	4816.48
488.467	4799.53
488.837	4927.67
489.207	4963.15
489.578	4995.01
489.948	5086.98
490.318	5054.44
490.688	5091.73
491.058	5208.79
491.428	5266.42
491.798	5230.26
492.168	5376.69
492.538	5364.49
492.908	5445.39
493.278	5492.62
493.648	5483.36
494.017	5512.06
494.387	5573.75
494.757	5654.43
495.126	5718.61
495.496	5650.13
495.866	5720.87
496.235	5799.06
496.605	5791.37
496.974	5793.86
497.344	5865.27
497.713	5910.01
498.082	5874.76
498.452	5943.69
498.821	5977.58
499.19	5957.92
499.559	6036.79
499.928	6063.68
500.298	6070.46
500.667	6096.45
501.036	6107.75
501.405	6141.87
501.774	6149.33
502.143	6249.44
502.512	6207.41
502.88	6242.21
503.249	6287.18
503.618	6255.09
503.987	6335.99
504.356	6315.2
504.724	6314.52
505.093	6352.04
505.462	6376.89
505.83	6412.15
506.199	6400.62
506.567	6446.5
506.936	6474.52
507.304	6537.12
507.672	6558.36
508.041	6502.54
508.409	6628.87
508.777	6592.71
509.145	6646.72
509.514	6652.37
509.882	6645.14
510.25	6675.19
510.618	6690.78
510.986	6657.11
511.354	6729.43
511.722	6746.6
512.09	6765.58
512.458	6770.78
512.826	6799.93
513.193	6832.48
513.561	6799.93
513.929	6865.24
514.297	6871.34
514.664	6907.73
515.032	6879.25
515.4	6871.12
515.767	6943.21
516.135	6896.88
516.502	6897.33
516.869	6957.9
517.237	6958.8
517.604	6945.24
517.972	7052.36
518.339	7004
518.706	6960.16
519.073	6944.11
519.44	7020.27
519.808	7047.16
520.175	7041.51
520.542	7082.41
520.909	7047.39
521.276	6989.08
521.643	7097.78
522.009	7079.7
522.376	7087.16
522.743	7149.3
523.11	7132.35
523.477	7215.29
523.843	7222.97
524.21	7195.18
524.577	7221.84
524.943	7286.25
525.31	7275.18
525.676	7337.1
526.043	7319.02
526.409	7311.33
526.776	7290.09
527.142	7361.28
527.508	7330.77
527.874	7367.6
528.241	7385.23
528.607	7302.97
528.973	7388.85
529.339	7337.1
529.705	7369.64
530.071	7433.59
530.437	7384.1
530.803	7408.96
531.169	7424.55
531.535	7452.12
531.901	7329.41
532.267	7312.69
532.632	7413.7
532.998	7376.87
533.364	7430.2
533.73	7331.22
534.095	7443.08
534.461	7402.63
534.826	7364.67
535.192	7405.57
535.557	7422.97
535.923	7372.12
536.288	7299.13
536.653	7345.91
537.019	7291.9
537.384	7328.73
537.749	7348.17
538.114	7338.9
538.479	7283.31
538.845	7289.19
539.21	7267.49
539.575	7210.77
539.94	7230.43
540.305	7255.52
540.67	7213.26
541.034	7255.29
541.399	7237.66
541.764	7207.16
542.129	7223.43
542.494	7256.65
542.858	7183.88
543.223	7129.19
543.587	7200.6
543.952	7107.72
544.316	7186.36
544.681	7105.91
545.045	7168.74
545.41	7117.67
545.774	7091.68
546.138	7092.13
546.503	7071.57
546.867	7030.44
547.231	7074.96
547.595	7061.62
547.959	7036.54
548.324	6987.95
548.688	6964.45
549.052	7013.04
549.416	6999.7
549.779	6987.05
550.143	6956.77
550.507	6952.92
550.871	6963.09
551.235	6924.68
551.599	6900.5
551.962	6923.32
552.326	6868.63
552.689	6909.31
553.053	6915.41
553.417	6794.74
553.78	6899.37
554.143	6829.31
554.507	6865.24
554.87	6858.24
555.234	6883.32
555.597	6821.85
555.96	6843.32
556.323	6836.09
556.686	6844.45
557.05	6851.68
557.413	6866.15
557.776	6838.58
558.139	6814.85
558.502	6818.01
558.865	6811.91
559.228	6829.54
559.59	6911.8
559.953	6845.36
560.316	6913.6
560.679	6902.53
561.041	6880.38
561.404	6867.28
561.767	6935.3
562.129	6867.28
562.492	6907.73
562.854	6923.55
563.217	6893.94
563.579	6867.5
563.941	6886.49
564.304	6936.88
564.666	6941.17
565.028	6938.24
565.39	7001.51
565.753	6963.32
566.115	6999.7
566.477	7061.17
566.839	7003.09
567.201	7093.71
567.563	7029.53
567.925	7080.38
568.287	7146.82
568.648	7103.66
569.01	7085.58
569.372	7107.27
569.734	7112.69
570.095	7144.11
570.457	7112.24
570.819	7193.37
571.18	7205.57
571.542	7182.07
571.903	7162.18
572.265	7221.39
572.626	7211.9
572.987	7267.72
573.349	7252.13
573.71	7292.35
574.071	7240.37
574.432	7314.04
574.794	7367.38
575.155	7346.13
575.516	7329.41
575.877	7383.65
576.238	7325.12
576.599	7421.16
576.96	7420.48
577.32	7345.46
577.681	7464.55
578.042	7422.74
578.403	7451.44
578.763	7526.69
579.124	7526.02
579.485	7511.78
579.845	7544.55
580.206	7547.26
580.566	7587.48
580.927	7518.11
581.287	7516.98
581.648	7511.1
582.008	7630.19
582.368	7620.48
582.728	7625
583.089	7589.74
583.449	7628.61
583.809	7637.2
584.169	7672.68
584.529	7618.22
584.889	7725.11
585.249	7697.31
585.609	7703.19
585.969	7708.16
586.329	7677.2
586.688	7702.51
587.048	7749.51
587.408	7686.69
587.768	7780.7
588.127	7812.56
588.487	7756.29
588.846	7826.8
589.206	7737.99
589.565	7771.43
589.925	7830.64
590.284	7841.04
590.643	7873.13
591.003	7911.77
591.362	7872.67
591.721	7893.01
592.08	7876.06
592.44	7893.01
592.799	7923.07
593.158	7952.45
593.517	7897.08
593.876	7922.62
594.235	7919
594.593	7908.61
594.952	7932.11
595.311	7973.46
595.67	7966.23
596.029	7968.72
596.387	7956.74
596.746	8020.02
597.104	8019.56
597.463	7948.83
597.822	7983.18
598.18	8016.4
598.538	8000.58
598.897	8037.42
599.255	7993.35
599.613	8014.14
599.972	8051.65
600.33	8086.45
600.688	8028.83
601.046	8099.56
601.404	8052.1
601.762	8113.57
602.12	8097.3
602.478	8135.49
602.836	8117.19
603.194	8085.78
603.552	8104.31
603.91	8004.65
604.268	8098.21
604.625	8049.84
604.983	8159.45
605.341	8145.44
605.698	8097.53
606.056	8167.81
606.413	8146.34
606.771	8175.94
607.128	8188.15
607.485	8116.74
607.843	8215.49
608.2	8217.98
608.557	8249.39
608.914	8170.97
609.272	8261.36
609.629	8237.18
609.986	8259.1
610.343	8231.76
610.7	8313.34
611.057	8222.27
611.414	8241.93
611.771	8272.21
612.127	8271.53
612.484	8236.73
612.841	8291.87
613.198	8274.25
613.554	8217.3
613.911	8358.76
614.267	8297.07
614.624	8311.76
614.98	8348.14
615.337	8406.22
615.693	8343.85
616.05	8346.33
616.406	8431.98
616.762	8367.35
617.118	8391.53
617.475	8382.04
617.831	8420.91
618.187	8381.81
618.543	8404.86
618.899	8448.7
619.255	8421.13
619.611	8406.45
619.967	8477.4
620.323	8448.7
620.678	8474.92
621.034	8472.88
621.39	8362.6
621.746	8465.65
622.101	8559.89
622.457	8486.9
622.812	8495.71
623.168	8524.63
623.523	8458.87
623.879	8493.22
624.234	8382.49
624.589	8466.56
624.945	8467.91
625.3	8454.13
625.655	8474.47
626.01	8492.55
626.365	8438.31
626.72	8502.94
627.075	8491.87
627.43	8421.13
627.785	8427.46
628.14	8488.7
628.495	8458.65
628.85	8434.47
629.205	8410.74
629.559	8436.95
629.914	8377.75
630.269	8380.23
630.623	8371.42
630.978	8423.17
631.332	8404.64
631.687	8405.32
632.041	8391.76
632.396	8382.04
632.75	8403.73
633.104	8361.93
633.459	8305.43
633.813	8295.04
634.167	8299.78
634.521	8289.84
634.875	8370.51
635.229	8326
635.583	8245.09
635.937	8278.54
636.291	8168.71
636.645	8273.79
636.999	8203.74
637.352	8238.31
637.706	8181.59
638.06	8238.54
638.413	8122.61
638.767	8199.67
639.121	8232.44
639.474	8158.77
639.828	8091.65
640.181	8161.93
640.534	8123.74
640.888	8102.72
641.241	8074.02
641.594	8053.23
641.947	8141.37
642.301	8066.79
642.654	8104.08
643.007	8096.4
643.36	8097.3
643.713	8111.09
644.066	8090.52
644.419	8108.83
644.771	7986.34
645.124	7975.27
645.477	7925.1
645.83	7861.38
646.182	7807.59
646.535	7844.2
646.888	7817.31
647.24	7784.54
647.593	7786.8
647.945	7791.32
648.298	7773.02
648.65	7758.1
649.002	7804.65
649.355	7776.41
649.707	7777.54
650.059	7797.2
650.411	7907.25
650.763	7936.63
651.115	7970.98
651.467	7984.99
651.819	8000.58
652.171	7966.01
652.523	7974.82
652.875	7879.45
653.227	7962.84
653.578	7978.66
653.93	7900.24
654.282	7959
654.633	7892.33
654.985	7946.34
655.337	7968.94
655.688	7950.19
656.039	7989.51
656.391	7923.52
656.742	7929.85
657.094	7969.17
657.445	7970.75
657.796	7917.64
658.147	7943.41
658.498	7933.69
658.849	7919.45
659.2	7949.06
659.551	7919.45
659.902	7998.77
660.253	7962.84
660.604	7935.95
660.955	7935.95
661.306	7966.91
661.656	7891.2
662.007	7924.88
662.358	7988.83
662.708	7962.16
663.059	7966.68
663.409	7906.12
663.76	7996.29
664.11	7926.68
664.461	7969.39
664.811	7974.82
665.161	7968.72
665.511	7902.96
665.862	7906.57
666.212	7966.23
666.562	7983.86
666.912	7970.07
667.262	7935.72
667.612	8011.2
667.962	8024.31
668.312	7954.71
668.662	8017.3
669.011	7968.04
669.361	7982.5
669.711	7929.4
670.06	7934.82
670.41	7936.4
670.76	7888.72
671.109	7893.01
671.459	7917.64
671.808	7933.92
672.157	7873.13
672.507	7870.19
672.856	7895.72
673.205	7875.39
673.554	7914.71
673.904	7878.78
674.253	7870.87
674.602	7906.35
674.951	7776.18
675.3	7730.53
675.649	7811.21
675.998	7819.34
676.346	7895.95
676.695	7784.77
677.044	7760.36
677.393	7841.71
677.741	7792.9
678.09	7806.24
678.438	7778.67
678.787	7853.47
679.135	7796.07
679.484	7751.1
679.832	7808.5
680.181	7693.24
680.529	7703.87
680.877	7678.33
681.225	7668.61
681.573	7730.98
681.922	7667.03
682.27	7676.75
682.618	7588.39
682.966	7622.51
683.314	7611.66
683.661	7599.91
684.009	7560.82
684.357	7542.51
684.705	7577.31
685.053	7544.55
685.4	7541.38
685.748	7454.38
686.095	7506.36
686.443	7499.8
686.79	7429.52
687.138	7429.75
687.485	7459.35
687.832	7440.37
688.18	7375.74
688.527	7361.95
688.874	7335.51
689.221	7301.39
689.568	7294.61
689.915	7269.3
690.262	7301.62
690.609	7246.48
690.956	7188.4
691.303	7194.05
691.65	7164.67
691.997	7197.44
692.344	7183.43
692.69	7099.81
693.037	7053.94
693.383	7065.46
693.73	7088.29
694.077	7003.54
694.423	7000.83
694.769	6989.76
695.116	6892.14
695.462	6977.33
695.808	6957.67
696.155	6912.47
696.501	6895.07
696.847	6874.51
697.193	6865.24
697.539	6845.13
697.885	6827.96
698.231	6725.81
698.577	6794.74
698.923	6788.41
699.269	6704.8
699.614	6674.97
699.96	6679.26
700.306	6678.81
700.651	6606.04
700.997	6607.62
701.342	6597.45
701.688	6510.22
702.033	6552.48
702.379	6522.2
702.724	6477.23
703.069	6513.61
703.415	6447.63
703.76	6424.12
704.105	6456.67
704.45	6402.88
704.795	6314.98
705.14	6375.99
705.485	6267.29
705.83	6317.69
706.175	6281.98
706.52	6318.14
706.865	6225.49
707.209	6242.43
707.554	6201.98
707.899	6209.22
708.243	6210.12
708.588	6246.73
708.932	6174.64
709.277	6130.35
709.621	6144.36
709.966	6090.35
710.31	6114.98
710.654	6078.37
710.998	6081.99
711.342	6061.87
711.687	5993.4
712.031	6011.03
712.375	6013.06
712.719	6030.69
713.063	6019.16
713.407	6012.84
713.75	5983.46
714.094	5962.89
714.438	5938.26
714.782	5955.66
715.125	5896.68
715.469	5908.43
715.812	5940.75
716.156	5852.84
716.499	5825.5
716.843	5848.09
717.186	5811.94
717.53	5837.25
717.873	5841.99
718.216	5838.38
718.559	5793.86
718.902	5797.02
719.246	5834.76
719.589	5763.8
719.932	5758.83
720.275	5749.57
720.617	5759.74
720.96	5741.43
721.303	5762.67
721.646	5772.16
721.989	5710.92
722.331	5725.61
722.674	5765.84
723.016	5702.79
723.359	5741.66
723.701	5746.63
724.044	5670.02
724.386	5662.11
724.729	5702.11
725.071	5744.37
725.413	5635.67
725.755	5680.87
726.097	5679.74
726.439	5658.27
726.782	5627.31
727.124	5689
727.465	5655.56
727.807	5613.07
728.149	5636.35
728.491	5600.42
728.833	5628.67
729.175	5635.67
729.516	5619.85
729.858	5679.74
730.199	5648.55
730.541	5648.55
730.882	5635.67
731.224	5707.53
731.565	5599.97
731.906	5657.59
732.248	5686.74
732.589	5575.11
732.93	5588.21
733.271	5647.2
733.612	5642.22
733.953	5584.37
734.294	5631.15
734.635	5609.46
734.976	5626.41
735.317	5591.83
735.658	5583.24
735.999	5610.13
736.339	5638.83
736.68	5629.8
737.021	5647.2
737.361	5602.45
737.702	5632.96
738.042	5637.93
738.383	5604.49
738.723	5599.06
739.063	5677.25
739.404	5652.85
739.744	5679.74
740.084	5680.64
740.424	5642.45
740.764	5629.8
741.104	5716.57
741.444	5699.4
741.784	5697.14
742.124	5726.06
742.464	5701.88
742.804	5735.78
743.143	5753.86
743.483	5752.5
743.823	5726.74
744.162	5751.6
744.502	5803.58
744.841	5816.01
745.181	5806.74
745.52	5854.87
745.86	5900.97
746.199	5893.52
746.538	5946.85
746.877	5993.85
747.216	5960.63
747.556	6041.99
747.895	6058.48
748.234	6092.16
748.573	6134.19
748.911	6188.2
749.25	6224.81
749.589	6248.76
749.928	6252.6
750.267	6322.66
750.605	6361.08
750.944	6439.49
751.283	6472.03
751.621	6534.4
751.96	6577.79
752.298	6650.79
752.636	6702.99
752.975	6766.94
753.313	6774.4
753.651	6920.83
753.989	6967.61
754.327	7078.34
754.666	7011.91
755.004	7159.25
755.342	7375.96
755.679	7391.78
756.017	7462.74
756.355	7539.58
756.693	7712.45
757.031	7841.26
757.368	7839
757.706	7981.37
758.044	8047.36
758.381	8191.99
758.719	8253.91
759.056	8430.17
759.394	8444.41
759.731	8635.82
760.068	8763.05
760.405	8764.63
760.743	8956.26
761.08	9069.48
761.417	9131.85
761.754	9323.26
762.091	9440.77
762.428	9529.58
762.765	9556.02
763.102	9781.55
763.438	9903.58
763.775	9904.26
764.112	10158.94
764.449	10237.58
764.785	10289.56
765.122	10373.4
765.458	10490.91
765.795	10635.99
766.131	10725.93
766.467	10801.86
766.804	10901.97
767.14	11005.7
767.476	11104.91
767.812	11184
768.148	11269.65
768.485	11354.62
768.821	11404.56
769.157	11478
769.492	11567.27
769.828	11712.12
