Data from hue_300_FLMS001491_00037.txt Node
Date: Tue Feb 07 15:50:39 GMT 2017
User: dcchb
Spectrometer: FLMS00149
Trigger mode: 0
Integration Time (sec): 2.000000E-2
Scans to average: 10
Electric dark correction enabled: true
Nonlinearity correction enabled: false
Boxcar width: 0
XAxis mode: Wavelengths
Number of Pixels in Spectrum: 2048
>>>>>Begin Spectral Data<<<<<
341.393	-15.47
341.776	-15.47
342.16	-15.47
342.543	-75.13
342.927	-62.7
343.31	-84.39
343.693	-70.61
344.077	-61.57
344.46	-62.92
344.843	-52.75
345.226	-38.06
345.61	-10.95
345.993	-1.91
346.376	5.78
346.759	16.17
347.142	21.82
347.525	27.25
347.908	72.67
348.291	57.75
348.674	77.19
349.057	104.53
349.44	116.51
349.823	135.72
350.206	156.28
350.588	173.46
350.971	207.35
351.354	215.94
351.737	222.72
352.119	243.06
352.502	231.53
352.884	258.2
353.267	254.58
353.65	295.94
354.032	296.39
354.414	311.08
354.797	321.25
355.179	307.24
355.562	298.88
355.944	299.33
356.326	343.39
356.709	315.6
357.091	335.94
357.473	334.58
357.855	341.59
358.238	328.25
358.62	328.71
359.002	338.42
359.384	330.51
359.766	337.97
360.148	327.12
360.53	333.9
360.912	343.17
361.294	331.87
361.676	345.88
362.057	336.39
362.439	304.75
362.821	317.63
363.203	304.53
363.584	314.47
363.966	319.44
364.348	318.76
364.729	320.34
365.111	299.1
365.493	313.57
365.874	308.37
366.256	311.98
366.637	310.4
367.019	307.24
367.4	314.47
367.781	292.77
368.163	330.97
368.544	314.47
368.925	317.86
369.306	314.7
369.688	309.72
370.069	287.13
370.45	317.63
370.831	292.32
371.212	295.71
371.593	299.78
371.974	307.92
372.355	310.4
372.736	325.99
373.117	311.76
373.498	295.94
373.879	290.74
374.26	322.38
374.641	299.33
375.021	315.83
375.402	344.07
375.783	325.54
376.163	327.58
376.544	324.19
376.925	303.17
377.305	313.79
377.686	322.6
378.066	302.49
378.447	311.31
378.827	309.27
379.208	327.8
379.588	328.03
379.968	350.4
380.349	306.11
380.729	334.13
381.109	304.53
381.489	338.2
381.87	327.58
382.25	331.64
382.63	319.21
383.01	320.57
383.39	342.27
383.77	321.7
384.15	324.41
384.53	350.17
384.91	332.55
385.29	341.81
385.67	334.13
386.049	345.43
386.429	322.83
386.809	358.54
387.189	337.29
387.568	347.91
387.948	332.55
388.328	344.75
388.707	367.35
389.087	374.35
389.466	358.08
389.846	367.8
390.225	354.02
390.605	351.53
390.984	346.56
391.363	372.55
391.743	373.9
392.122	364.86
392.501	349.5
392.881	359.89
393.26	371.87
393.639	371.64
394.018	358.54
394.397	374.35
394.776	388.14
395.155	372.77
395.534	376.39
395.913	387.91
396.292	368.03
396.671	390.17
397.05	387.24
397.429	392.89
397.808	391.53
398.186	400.79
398.565	368.7
398.944	391.98
399.323	386.78
399.701	386.33
400.08	408.25
400.458	404.18
400.837	418.87
401.215	406.67
401.594	379.78
401.972	405.31
402.351	403.96
402.729	400.12
403.107	429.95
403.486	428.59
403.864	426.33
404.242	421.81
404.62	411.87
404.999	441.7
405.377	443.96
405.755	443.73
406.133	444.64
406.511	451.87
406.889	463.39
407.267	451.87
407.645	475.82
408.023	439.21
408.401	474.92
408.779	452.09
409.156	480.34
409.534	488.7
409.912	499.77
410.29	498.42
410.667	475.82
411.045	499.77
411.422	512.66
411.8	512.2
412.178	535.93
412.555	519.21
412.933	543.62
413.31	577.51
413.687	560.34
414.065	557.4
414.442	566.44
414.819	587.68
415.197	596.72
415.574	580.68
415.951	607.34
416.328	629.26
416.705	614.12
417.082	621.58
417.46	630.84
417.837	640.56
418.214	627.91
418.591	649.83
418.967	645.08
419.344	676.04
419.721	681.69
420.098	689.83
420.475	695.02
420.852	708.36
421.228	725.53
421.605	715.81
421.982	723.5
422.358	758.07
422.735	765.76
423.111	739.09
423.488	770.95
423.864	782.03
424.241	791.97
424.617	826.55
424.994	795.36
425.37	806.89
425.746	820.9
426.123	840.78
426.499	826.09
426.875	845.98
427.251	845.53
427.627	899.99
428.003	861.57
428.379	888.47
428.756	893.89
429.132	916.04
429.507	915.13
429.883	908.8
430.259	885.98
430.635	943.61
431.011	948.8
431.387	956.94
431.763	980.44
432.138	988.8
432.514	976.15
432.89	993.32
433.265	1025.64
433.641	1007.78
434.016	1048.24
434.392	1055.47
434.767	1038.74
435.143	1075.81
435.518	1095.24
435.894	1092.08
436.269	1118.29
436.644	1140.21
437.02	1127.33
437.395	1158.51
437.77	1134.33
438.145	1152.87
438.52	1163.49
438.895	1175.92
439.271	1211.39
439.646	1191.28
440.021	1229.93
440.395	1219.08
440.77	1206.42
441.145	1219.98
441.52	1252.07
441.895	1238.74
442.27	1265.18
442.645	1245.97
443.019	1275.57
443.394	1260.88
443.769	1258.17
444.143	1288
444.518	1298.4
444.892	1279.19
445.267	1289.81
445.641	1291.62
446.016	1291.17
446.39	1300.43
446.764	1344.5
447.139	1310.15
447.513	1327.1
447.887	1328.91
448.262	1325.74
448.636	1318.74
449.01	1354.22
449.384	1354.89
449.758	1346.31
450.132	1351.5
450.506	1359.87
450.88	1398.51
451.254	1383.14
451.628	1399.41
452.002	1385.18
452.376	1403.03
452.75	1407.32
453.123	1405.74
453.497	1419.98
453.871	1427.21
454.244	1457.72
454.618	1442.8
454.992	1472.86
455.365	1475.12
455.739	1485.06
456.112	1500.65
456.486	1526.41
456.859	1516.47
457.232	1528
457.606	1550.82
457.979	1551.5
458.352	1540.2
458.725	1557.37
459.099	1595.11
459.472	1610.71
459.845	1591.05
460.218	1615
460.591	1622.46
460.964	1641.21
461.337	1671.04
461.71	1687.77
462.083	1681.66
462.456	1693.42
462.829	1711.72
463.201	1713.75
463.574	1709.91
463.947	1719.4
464.32	1748.33
464.692	1756.47
465.065	1780.42
465.438	1781.78
465.81	1813.64
466.183	1845.5
466.555	1835.79
466.928	1836.46
467.3	1845.05
467.672	1841.21
468.045	1878.95
468.417	1863.35
468.789	1891.38
469.161	1927.53
469.534	1941.54
469.906	1938.61
470.278	1982.45
470.65	1988.78
471.022	1989.45
471.394	2027.87
471.766	2090.02
472.138	2067.19
472.51	2103.57
472.882	2097.47
473.253	2148.55
473.625	2144.48
473.997	2169.56
474.369	2183.35
474.74	2193.97
475.112	2224.25
475.484	2241.65
475.855	2250.69
476.227	2264.25
476.598	2305.6
476.97	2370.46
477.341	2396
477.713	2402.55
478.084	2395.09
478.455	2464.7
478.827	2486.84
479.198	2535.2
479.569	2469.21
479.94	2530
480.311	2520.06
480.682	2584.01
481.053	2668.53
481.424	2664.69
481.795	2679.83
482.166	2733.16
482.537	2732.94
482.908	2738.59
483.279	2796.66
483.65	2805.7
484.021	2832.14
484.391	2849.77
484.762	2890.9
485.133	2896.1
485.503	2904.01
485.874	2954.17
486.244	3003.89
486.615	3039.37
486.985	3019.71
487.356	3101.29
487.726	3083.21
488.097	3152.13
488.467	3148.52
488.837	3211.57
489.207	3204.56
489.578	3231.45
489.948	3267.61
490.318	3331.79
490.688	3286.59
491.058	3336.76
491.428	3321.62
491.798	3362.98
492.168	3444.78
492.538	3434.61
492.908	3493.37
493.278	3558.9
493.648	3486.36
494.017	3531.11
494.387	3596.87
494.757	3612.24
495.126	3605.23
495.496	3595.51
495.866	3635.96
496.235	3635.06
496.605	3644.33
496.974	3660.82
497.344	3653.14
497.713	3686.36
498.082	3694.27
498.452	3750.99
498.821	3738.11
499.19	3725.9
499.559	3796.19
499.928	3848.39
500.298	3759.8
500.667	3849.29
501.036	3801.61
501.405	3855.39
501.774	3854.49
502.143	3894.71
502.512	3934.71
502.88	3936.29
503.249	3886.8
503.618	3941.49
503.987	3964.32
504.356	4006.58
504.724	3973.58
505.093	4037.76
505.462	4016.97
505.83	4045.44
506.199	4040.92
506.567	4031.66
506.936	4087.7
507.304	4105.56
507.672	4083.41
508.041	4115.05
508.409	4155.27
508.777	4131.54
509.145	4179
509.514	4188.94
509.882	4193.46
510.25	4194.59
510.618	4222.39
510.986	4214.03
511.354	4238.66
511.722	4261.94
512.09	4291.77
512.458	4301.71
512.826	4262.39
513.193	4313.69
513.561	4302.16
513.929	4377.19
514.297	4354.14
514.664	4385.1
515.032	4401.37
515.4	4387.13
515.767	4367.92
516.135	4421.25
516.502	4400.69
516.869	4447.02
517.237	4446.11
517.604	4385.1
517.972	4459.44
518.339	4474.59
518.706	4488.82
519.073	4474.59
519.44	4493.57
519.808	4524.75
520.175	4558.88
520.542	4544.64
520.909	4607.24
521.276	4552.78
521.643	4591.87
522.009	4631.64
522.376	4627.8
522.743	4691.53
523.11	4638.65
523.477	4721.13
523.843	4726.56
524.21	4770.4
524.577	4786.67
524.943	4787.12
525.31	4792.54
525.676	4816.72
526.043	4806.78
526.409	4857.63
526.776	4837.51
527.142	4906.66
527.508	4881.58
527.874	4984.85
528.241	4989.37
528.607	5000
528.973	4985.76
529.339	5071.63
529.705	5040.45
530.071	5110.28
530.437	5188.92
530.803	5119.54
531.169	5101.46
531.535	5141.69
531.901	5186.88
532.267	5228.01
532.632	5211.06
532.998	5203.83
533.364	5225.98
533.73	5245.64
534.095	5327.44
534.461	5332.64
534.826	5337.16
535.192	5428.91
535.557	5373.77
535.923	5385.07
536.288	5456.93
536.653	5482.24
537.019	5467.33
537.384	5478.18
537.749	5431.85
538.114	5512.75
538.479	5532.19
538.845	5496.71
539.21	5516.37
539.575	5558.85
539.94	5648.11
540.305	5623.71
540.67	5604.95
541.034	5662.8
541.399	5706.19
541.764	5708.9
542.129	5767.66
542.494	5802.69
542.858	5802.01
543.223	5826.41
543.587	5837.04
543.952	5895.34
544.316	5885.85
544.681	5851.05
545.045	5896.24
545.41	5959.52
545.774	5959.29
546.138	5976.02
546.503	5995.45
546.867	5999.52
547.231	6078.39
547.595	6046.3
547.959	6114.54
548.324	6134.66
548.688	6132.62
549.052	6180.3
549.416	6207.42
549.779	6150.7
550.143	6230.25
550.507	6231.83
550.871	6226.18
551.235	6205.39
551.599	6328.77
551.962	6284.71
552.326	6289.68
552.689	6367.19
553.053	6343.24
553.417	6353.18
553.78	6471.82
554.143	6394.08
554.507	6449.68
554.87	6432.27
555.234	6491.71
555.597	6464.14
555.96	6540.07
556.323	6524.25
556.686	6541.65
557.05	6563.12
557.413	6546.62
557.776	6623
558.139	6583.91
558.502	6623.91
558.865	6626.17
559.228	6673.62
559.59	6653.51
559.953	6743.9
560.316	6756.11
560.679	6818.7
561.041	6797.69
561.404	6878.14
561.767	6851.02
562.129	6816.22
562.492	6876.78
562.854	6892.15
563.217	6859.83
563.579	6905.93
563.941	6945.03
564.304	6926.27
564.666	7032.71
565.028	6979.6
565.39	7081.07
565.753	7055.53
566.115	7122.88
566.477	7102.99
566.839	7113.39
567.201	7126.72
567.563	7197.23
567.925	7263.21
568.287	7190.45
568.648	7260.5
569.01	7287.39
569.372	7316.77
569.734	7325.58
570.095	7338.92
570.457	7407.62
570.819	7457.33
571.18	7435.86
571.542	7584.56
571.903	7561.74
572.265	7618.68
572.626	7618.46
572.987	7688.06
573.349	7661.85
573.71	7774.84
574.071	7790.43
574.432	7873.82
574.794	7981.16
575.155	7999.46
575.516	7983.65
575.877	8039.24
576.238	8137.54
576.599	8178.67
576.96	8232.23
577.32	8375.05
577.681	8420.47
578.042	8525.78
578.403	8556.96
578.763	8704.98
579.124	8776.39
579.485	8890.29
579.845	8993.11
580.206	9100
580.566	9159.89
580.927	9269.94
581.287	9458.41
581.648	9560.78
582.008	9675.35
582.368	9844.61
582.728	9975.46
583.089	10115.57
583.449	10293.42
583.809	10470.36
584.169	10718.04
584.529	10817.92
584.889	11062.21
585.249	11155.09
585.609	11399.38
585.969	11647.73
586.329	11823.55
586.688	11914.39
587.048	12231.67
587.408	12406.58
587.768	12579.23
588.127	12816.74
588.487	13044.3
588.846	13402.71
589.206	13523.16
589.565	13788.47
589.925	14108.46
590.284	14322.91
590.643	14528.11
591.003	14882.22
591.362	15219.39
591.721	15355.43
592.08	15765.81
592.44	15969.88
592.799	16337.78
593.158	16560.37
593.517	16861.6
593.876	17100.69
594.235	17397.41
594.593	17717.18
594.952	18002.14
595.311	18269.25
595.67	18662.91
596.029	18963.7
596.387	19288.43
596.746	19641.42
597.104	19813.17
597.463	20116.66
597.822	20425.35
598.18	20676.65
598.538	20864.21
598.897	21407.25
599.255	21380.36
599.613	22039.32
599.972	22017.85
600.33	22486.32
600.688	22617.39
601.046	22954.33
601.404	23394.54
601.762	23520.64
602.12	23897.58
602.478	24132.6
602.836	24455.53
603.194	24530.33
603.552	24894.84
603.91	25027.72
604.268	25441.04
604.625	25482.17
604.983	25817.75
605.341	26006.22
605.698	26373.22
606.056	26659.77
606.413	26823.15
606.771	27101.34
607.128	27299.97
607.485	27377.26
607.843	27731.15
608.2	27983.8
608.557	28328.65
608.914	28315.09
609.272	28657.9
609.629	28904.68
609.986	29177.89
610.343	29353.71
610.7	29679.35
611.057	29656.97
611.414	29858.33
611.771	30020.81
612.127	30379.22
612.484	30449.95
612.841	30708.7
613.198	30825.53
613.554	31013.1
613.911	31265.97
614.267	31390.49
614.624	31485.63
614.98	31769.24
615.337	31941.66
615.693	32213.07
616.05	32173.07
616.406	32562.21
616.762	32531.02
617.118	32593.17
617.475	32710.23
617.831	33032.7
618.187	33167.16
618.543	33246.94
618.899	33525.35
619.255	33524.67
619.611	33552.69
619.967	33744.55
620.323	33954.71
620.678	34036.52
621.034	34106.35
621.39	34175.27
621.746	34148.61
622.101	34717.63
622.457	34551.99
622.812	34635.6
623.168	34844.41
623.523	34872.43
623.879	35125.53
624.234	34874.01
624.589	35104.29
624.945	35101.58
625.3	35224.06
625.655	35381.12
626.01	35423.6
626.365	35534.11
626.72	35501.34
627.075	35527.1
627.43	35560.77
627.785	35680.32
628.14	35613.65
628.495	35828.79
628.85	35849.13
629.205	35762.12
629.559	35985.85
629.914	35932.29
630.269	36072.85
630.623	35971.16
630.978	35846.42
631.332	36078.5
631.687	36061.78
632.041	36001.44
632.396	36194.66
632.75	36092.96
633.104	35996.92
633.459	36084.6
633.813	36007.77
634.167	36111.49
634.521	36144.04
634.875	36245.73
635.229	36114.66
635.583	36012.06
635.937	35997.37
636.291	36170.25
636.645	36222.45
636.999	36110.82
637.352	36216.58
637.706	35986.75
638.06	36296.12
638.413	36151.94
638.767	36130.93
639.121	36198.95
639.474	35986.98
639.828	36130.93
640.181	36169.8
640.534	36130.02
640.888	35987.66
641.241	35932.74
641.594	36052.51
641.947	36256.35
642.301	36066.98
642.654	36226.07
643.007	36189.23
643.36	36101.1
643.713	36090.03
644.066	36136.35
644.419	35953.08
644.771	35733.65
645.124	35461.79
645.477	35295.02
645.83	35252.76
646.182	35050.73
646.535	35009.15
646.888	35076.04
647.24	34963.5
647.593	35024.52
647.945	35129.6
648.298	34943.39
648.65	34845.54
649.002	34895.03
649.355	34932.09
649.707	34923.95
650.059	35040.34
650.411	35528.91
650.763	35494.79
651.115	35878.96
651.467	35806.87
651.819	35904.95
652.171	35625.41
652.523	35637.61
652.875	35722.13
653.227	35483.71
653.578	35719.19
653.93	35688.68
654.282	35505.18
654.633	35636.03
654.985	35537.95
655.337	35633.31
655.688	35673.77
656.039	35723.93
656.391	35589.47
656.742	35517.16
657.094	35591.73
657.445	35817.94
657.796	35666.99
658.147	35500.21
658.498	35660.43
658.849	35661.56
659.2	35513.09
659.551	35504.28
659.902	35562.36
660.253	35495.24
660.604	35629.47
660.955	35386.77
661.306	35491.62
661.656	35371.63
662.007	35351.51
662.358	35506.31
662.708	35389.48
663.059	35341.57
663.409	35281.01
663.76	35536.82
664.11	35460.66
664.461	35493.43
664.811	35523.71
665.161	35415.24
665.511	35435.13
665.862	35432.42
666.212	35496.59
666.562	35490.49
666.912	35413.43
667.262	35371.4
667.612	35318.07
667.962	35478.52
668.312	35372.98
668.662	35480.78
669.011	35397.84
669.361	35312.64
669.711	35341.34
670.06	35276.04
670.41	35286.43
670.76	35198.98
671.109	35381.8
671.459	35331.4
671.808	35261.57
672.157	35192.65
672.507	34967.57
672.856	35192.42
673.205	35085.98
673.554	35144.29
673.904	35186.32
674.253	35333.44
674.602	35094.57
674.951	34583.4
675.3	34512.21
675.649	35020.9
675.998	34883.73
676.346	35140.22
676.695	35125.08
677.044	34889.15
677.393	34994.91
677.741	35143.16
678.09	34890.28
678.438	34907.01
678.787	34855.93
679.135	34857.06
679.484	34723.28
679.832	34818.65
680.181	34503.4
680.529	34741.59
680.877	34575.72
681.225	34547.69
681.573	34743.62
681.922	34477.41
682.27	34486.23
682.618	34463.18
682.966	34503.4
683.314	34509.28
683.661	34382.95
684.009	34243.75
684.357	34195.84
684.705	34051.89
685.053	34190.41
685.4	34041.04
685.748	33947.26
686.095	33885.79
686.443	33895.73
686.79	33776.87
687.138	33791.33
687.485	33749.75
687.832	33625.01
688.18	33724.89
688.527	33455.07
688.874	33452.58
689.221	33385.46
689.568	33282.42
689.915	33297.1
690.262	33253.94
690.609	33101.18
690.956	32985.7
691.303	33116.54
691.65	32895.99
691.997	32815.08
692.344	32665.03
692.69	32672.04
693.037	32651.92
693.383	32397.92
693.73	32591.59
694.077	32440.4
694.423	32407.64
694.769	32272.95
695.116	32126.06
695.462	32190.24
695.808	32112.05
696.155	32172.16
696.501	31889.01
696.847	31903.24
697.193	31565.62
697.539	31728.78
697.885	31426.42
698.231	31381.67
698.577	31464.84
698.923	31293.99
699.269	31185.07
699.614	31099.87
699.96	31143.04
700.306	31105.3
700.651	30984.85
700.997	30861.01
701.342	30724.97
701.688	30716.83
702.033	30637.06
702.379	30569.49
702.724	30567.46
703.069	30697.85
703.415	30373.79
703.76	30353.45
704.105	30215.38
704.45	30201.14
704.795	30001.82
705.14	29833.92
705.485	29898.32
705.83	29733.36
706.175	29862.17
706.52	29711.21
706.865	29750.53
707.209	29527.94
707.554	29450.43
707.899	29448.84
708.243	29337.21
708.588	29515.51
708.932	29145.58
709.277	29053.6
709.621	29148.74
709.966	28971.34
710.31	29057.44
710.654	28791.69
710.998	28860.16
711.342	28777.22
711.687	28745.59
712.031	28667.17
712.375	28565.93
712.719	28590.79
713.063	28442.09
713.407	28633.72
713.75	28461.3
714.094	28414.97
714.438	28235.09
714.782	28275.99
715.125	28163.68
715.469	28257.01
715.812	28137.47
716.156	27920.97
716.499	27904.25
716.843	27959.62
717.186	27916.23
717.53	27904.93
717.873	27932.5
718.216	27826.97
718.559	27673.3
718.902	27464.94
719.246	27520.99
719.589	27516.92
719.932	27434.89
720.275	27455.22
720.617	27328.45
720.96	27269.24
721.303	27283.48
721.646	27302.69
721.989	27052.3
722.331	27171.62
722.674	26989.02
723.016	27190.37
723.359	27145.18
723.701	27062.69
724.044	26814.79
724.386	26709.93
724.729	26818.86
725.071	26786.32
725.413	26759.88
725.755	26712.19
726.097	26604.63
726.439	26554.01
726.782	26502.71
727.124	26685.75
727.465	26500.67
727.807	26579.32
728.149	26528.02
728.491	26403.05
728.833	26487.34
729.175	26322.82
729.516	26288.48
729.858	26323.95
730.199	26182.26
730.541	26233.56
730.882	26117.86
731.224	26303.84
731.565	26088.25
731.906	26129.38
732.248	26078.99
732.589	25965.32
732.93	25943.4
733.271	26006
733.612	25955.38
733.953	25870.18
734.294	25882.84
734.635	25918.99
734.976	25753.35
735.317	25775.27
735.658	25663.41
735.999	25759.22
736.339	25636.97
736.68	25642.62
737.021	25585.44
737.361	25470.19
737.702	25574.37
738.042	25485.56
738.383	25444.66
738.723	25441.04
739.063	25297.09
739.404	25349.52
739.744	25389.74
740.084	25196.98
740.424	25223.42
740.764	25134.38
741.104	25279.69
741.444	25030.66
741.784	25084.67
742.124	25085.12
742.464	24966.7
742.804	24941.62
743.143	25005.12
743.483	25090.31
743.823	24822.3
744.162	24905.01
744.502	24847.84
744.841	24778.46
745.181	24966.02
745.52	24758.57
745.86	24825.24
746.199	24694.39
746.538	24764.9
746.877	24747.95
747.216	24710.89
747.556	24679.25
747.895	24586.83
748.234	24471.12
748.573	24516.32
748.911	24599.25
749.25	24491.91
749.589	24394.97
749.928	24530.1
750.267	24540.05
750.605	24443.55
750.944	24325.82
751.283	24331.92
751.621	24391.35
751.96	24280.62
752.298	24307.51
752.636	24309.77
752.975	24098.02
753.313	23981.42
753.651	24194.97
753.989	23974.41
754.327	24075.65
754.666	23985.94
755.004	23949.33
755.342	23959.72
755.679	24070.91
756.017	23839.95
756.355	23924.47
756.693	23730.8
757.031	23814.64
757.368	23675.21
757.706	23662.33
758.044	23661.43
758.381	23725.83
758.719	23544.82
759.056	23560.64
759.394	23507.98
