Data from hue_150_FLMS001491_00083.txt Node
Date: Tue Feb 07 16:54:39 GMT 2017
User: dcchb
Spectrometer: FLMS00149
Trigger mode: 0
Integration Time (sec): 2.000000E-2
Scans to average: 10
Electric dark correction enabled: true
Nonlinearity correction enabled: false
Boxcar width: 0
XAxis mode: Wavelengths
Number of Pixels in Spectrum: 2048
>>>>>Begin Spectral Data<<<<<
341.393	-26.09
341.776	-26.09
342.16	-26.09
342.543	-74
342.927	-56.14
343.31	-45.52
343.693	-62.47
344.077	-56.14
344.46	-73.09
344.843	-75.35
345.226	-46.65
345.61	-34.45
345.993	-12.3
346.376	-2.81
346.759	17.75
347.142	22.27
347.525	55.49
347.908	54.81
348.291	63.63
348.674	91.2
349.057	103.63
349.44	126.45
349.823	158.77
350.206	151.76
350.588	215.04
350.971	211.87
351.354	229.95
351.737	233.79
352.119	232.89
352.502	266.56
352.884	264.75
353.267	274.47
353.65	286.9
354.032	296.62
354.414	315.15
354.797	311.76
355.179	331.42
355.562	325.99
355.944	329.38
356.326	314.02
356.709	345.43
357.091	345.2
357.473	367.8
357.855	350.63
358.238	365.77
358.62	338.2
359.002	343.39
359.384	327.35
359.766	357.41
360.148	349.5
360.53	334.13
360.912	358.76
361.294	334.58
361.676	328.93
362.057	340.23
362.439	329.16
362.821	313.57
363.203	338.88
363.584	339.78
363.966	315.37
364.348	333
364.729	334.58
365.111	349.27
365.493	329.84
365.874	320.34
366.256	326.45
366.637	319.67
367.019	303.85
367.4	332.55
367.781	311.31
368.163	323.28
368.544	344.98
368.925	318.08
369.306	315.83
369.688	315.83
370.069	328.25
370.45	316.73
370.831	310.4
371.212	314.47
371.593	312.66
371.974	325.54
372.355	328.03
372.736	314.92
373.117	335.03
373.498	322.15
373.879	313.11
374.26	317.86
374.641	308.82
375.021	326.45
375.402	338.65
375.783	325.54
376.163	316.95
376.544	346.11
376.925	331.42
377.305	333.9
377.686	344.52
378.066	352.66
378.447	330.51
378.827	334.81
379.208	347.46
379.588	335.03
379.968	335.71
380.349	343.17
380.729	341.59
381.109	349.72
381.489	371.42
381.87	336.16
382.25	337.52
382.63	350.17
383.01	343.62
383.39	351.3
383.77	344.75
384.15	359.67
384.53	356.05
384.91	345.88
385.29	344.75
385.67	344.52
386.049	343.62
386.429	368.25
386.809	355.82
387.189	354.47
387.568	359.44
387.948	357.86
388.328	380.91
388.707	371.19
389.087	371.64
389.466	367.35
389.846	371.64
390.225	350.17
390.605	371.87
390.984	361.02
391.363	368.48
391.743	389.72
392.122	384.07
392.501	391.53
392.881	396.95
393.26	398.31
393.639	394.92
394.018	395.6
394.397	399.44
394.776	371.87
395.155	404.41
395.534	380.91
395.913	372.09
396.292	387.46
396.671	390.17
397.05	419.33
397.429	404.18
397.808	408.48
398.186	386.33
398.565	393.79
398.944	409.38
399.323	410.96
399.701	420.46
400.08	407.35
400.458	398.08
400.837	419.33
401.215	404.86
401.594	415.48
401.972	414.13
402.351	417.52
402.729	410.96
403.107	414.35
403.486	412.77
403.864	440.57
404.242	443.96
404.62	451.19
404.999	437.18
405.377	430.85
405.755	444.64
406.133	432.66
406.511	411.64
406.889	449.15
407.267	442.38
407.645	450.74
408.023	468.59
408.401	467.46
408.779	473.34
409.156	453
409.534	452.09
409.912	464.75
410.29	469.27
410.667	480.79
411.045	492.09
411.422	494.58
411.8	485.99
412.178	489.15
412.555	486.89
412.933	505.2
413.31	503.62
413.687	508.81
414.065	506.78
414.442	500.23
414.819	484.63
415.197	507.46
415.574	509.49
415.951	515.82
416.328	518.76
416.705	507.23
417.082	535.03
417.46	542.03
417.837	545.42
418.214	539.1
418.591	547.68
418.967	540.23
419.344	557.4
419.721	542.71
420.098	553.78
420.475	569.6
420.852	560.34
421.228	543.84
421.605	585.65
421.982	543.84
422.358	566.89
422.735	590.85
423.111	580
423.488	595.82
423.864	606.66
424.241	612.77
424.617	622.26
424.994	615.93
425.37	615.25
425.746	604.41
426.123	615.7
426.499	637.17
426.875	614.8
427.251	636.95
427.627	636.04
428.003	653.9
428.379	653.44
428.756	662.93
429.132	671.52
429.507	675.59
429.883	677.17
430.259	677.17
430.635	687.34
431.011	686.21
431.387	673.78
431.763	689.15
432.138	709.04
432.514	707.45
432.89	710.16
433.265	734.12
433.641	721.01
434.016	723.72
434.392	763.5
434.767	765.76
435.143	745.19
435.518	760.56
435.894	779.77
436.269	785.19
436.644	796.94
437.02	800.11
437.395	787.68
437.77	816.15
438.145	789.71
438.52	815.02
438.895	838.3
439.271	841.91
439.646	845.3
440.021	845.08
440.395	880.56
440.77	840.33
441.145	859.77
441.52	889.6
441.895	875.36
442.27	891.18
442.645	888.47
443.019	905.64
443.394	904.96
443.769	888.69
444.143	904.74
444.518	912.65
444.892	914.45
445.267	934.11
445.641	933.89
446.016	941.12
446.39	936.83
446.764	943.38
447.139	952.64
447.513	958.29
447.887	973.89
448.262	951.74
448.636	947.9
449.01	999.2
449.384	1000.78
449.758	998.29
450.132	1016.15
450.506	1012.08
450.88	1033.32
451.254	1015.92
451.628	1026.54
452.002	1059.08
452.376	1050.72
452.75	1050.72
453.123	1094.11
453.497	1091.85
453.871	1077.84
454.244	1132.98
454.618	1083.26
454.992	1142.47
455.365	1138.18
455.739	1185.63
456.112	1193.32
456.486	1181.79
456.859	1208
457.232	1223.37
457.606	1196.93
457.979	1247.55
458.352	1248.91
458.725	1277.61
459.099	1270.15
459.472	1300.88
459.845	1325.52
460.218	1313.76
460.591	1341.79
460.964	1351.96
461.337	1369.58
461.71	1413.2
462.083	1394.21
462.456	1421.33
462.829	1433.08
463.201	1497.26
463.574	1470.37
463.947	1507.43
464.32	1498.84
464.692	1523.25
465.065	1526.87
465.438	1569.35
465.81	1606.41
466.183	1585.17
466.555	1654.77
466.928	1666.98
467.3	1683.92
467.672	1738.61
468.045	1746.75
468.417	1762.34
468.789	1774.54
469.161	1797.14
469.534	1825.16
469.906	1889.12
470.278	1915.56
470.65	1939.06
471.022	1999.85
471.394	2007.08
471.766	2055.21
472.138	2095.89
472.51	2130.69
472.882	2193.74
473.253	2224.02
473.625	2266.96
473.997	2317.13
474.369	2322.55
474.74	2385.83
475.112	2424.24
475.484	2472.83
475.855	2576.33
476.227	2549.21
476.598	2673.96
476.97	2717.34
477.341	2816.78
477.713	2864.01
478.084	2906.72
478.455	3009.54
478.827	3052.93
479.198	3186.71
479.569	3232.13
479.94	3283.43
480.311	3340.15
480.682	3471.67
481.053	3589.64
481.424	3672.35
481.795	3755.51
482.166	3874.6
482.537	3894.49
482.908	4064.88
483.279	4133.58
483.65	4228.26
484.021	4406.34
484.391	4424.87
484.762	4523.17
485.133	4619.44
485.503	4774.46
485.874	4852.43
486.244	4965.65
486.615	5162.93
486.985	5262.59
487.356	5351.85
487.726	5478.4
488.097	5630.49
488.467	5708.9
488.837	5872.29
489.207	6010.82
489.578	6134.88
489.948	6293.07
490.318	6371.03
490.688	6486.74
491.058	6602.44
491.428	6792.94
491.798	6953.16
492.168	7078.81
492.538	7201.29
492.908	7348.18
493.278	7495.98
493.648	7602.19
494.017	7698
494.387	7836.98
494.757	7981.84
495.126	8107.48
495.496	8195.17
495.866	8359
496.235	8431.77
496.605	8562.84
496.974	8653.01
497.344	8807.13
497.713	8873.11
498.082	9011.64
498.452	9144.07
498.821	9232.88
499.19	9276.72
499.559	9398.75
499.928	9520.1
500.298	9640.33
500.667	9750.83
501.036	9801.23
501.405	9879.42
501.774	9956.25
502.143	10122.57
502.512	10172.06
502.88	10311.95
503.249	10274.89
503.618	10349.23
503.987	10484.82
504.356	10574.76
504.724	10588.32
505.093	10656.12
505.462	10751.03
505.83	10856.79
506.199	10898.82
506.567	11087.75
506.936	11111.02
507.304	11149.21
507.672	11204.8
508.041	11302.43
508.409	11345.82
508.777	11487.96
509.145	11557.56
509.514	11609.99
509.882	11612.48
510.25	11660.61
510.618	11811.79
510.986	11755.52
511.354	11965.69
511.722	11991.45
512.09	12037.32
512.458	11999.36
512.826	12179.02
513.193	12207.94
513.561	12166.36
513.929	12283.87
514.297	12376.52
514.664	12437.54
515.032	12465.79
515.4	12557.76
515.767	12547.82
516.135	12643.41
516.502	12496.75
516.869	12708.49
517.237	12695.39
517.604	12603.19
517.972	12780.81
518.339	12857.87
518.706	12797.08
519.073	12859
519.44	12887.7
519.808	12978.77
520.175	12951.65
520.542	13126.11
520.909	13028.26
521.276	13075.04
521.643	13166.79
522.009	13149.84
522.376	13275.94
522.743	13265.99
523.11	13380.57
523.477	13397.06
523.843	13414.24
524.21	13507.79
524.577	13549.38
524.943	13560
525.31	13601.35
525.676	13660.33
526.043	13648.81
526.409	13609.71
526.776	13782.14
527.142	13797.96
527.508	13787.56
527.874	13816.94
528.241	13856.26
528.607	13799.99
528.973	13896.26
529.339	13869.82
529.705	13886.54
530.071	13942.59
530.437	13961.34
530.803	13917.05
531.169	13927.9
531.535	13909.59
531.901	13886.09
532.267	13926.54
532.632	13988.69
532.998	13942.36
533.364	13956.6
533.73	13952.3
534.095	13983.94
534.461	14001.11
534.826	13976.71
535.192	13905.52
535.557	13978.97
535.923	13912.76
536.288	13957.95
536.653	13876.37
537.019	13849.25
537.384	13830.5
537.749	13896.26
538.114	13775.13
538.479	13801.8
538.845	13768.8
539.21	13724.96
539.575	13679.77
539.94	13710.5
540.305	13691.74
540.67	13637.06
541.034	13638.64
541.399	13565.87
541.764	13639.99
542.129	13544.86
542.494	13548.7
542.858	13559.77
543.223	13507.12
543.587	13506.44
543.952	13421.24
544.316	13381.24
544.681	13403.84
545.045	13334.47
545.41	13369.04
545.774	13393.45
546.138	13312.09
546.503	13208.82
546.867	13113.68
547.231	13228.03
547.595	13186
547.959	13170.63
548.324	13236.39
548.688	13100.35
549.052	13058.54
549.416	13018.54
549.779	13027.58
550.143	13040.24
550.507	12969.5
550.871	13049.28
551.235	13006.79
551.599	13052.89
551.962	12965.66
552.326	12992.33
552.689	13045.89
553.053	12876.4
553.417	12894.03
553.78	12938.77
554.143	12882.5
554.507	12817.42
554.87	12830.3
555.234	12895.83
555.597	12837.76
555.96	12815.38
556.323	12739.23
556.686	12782.62
557.05	12834.37
557.413	12769.73
557.776	12844.31
558.139	12790.3
558.502	12793.46
558.865	12709.62
559.228	12793.69
559.59	12809.28
559.953	12727.25
560.316	12820.35
560.679	12778.55
561.041	12785.78
561.404	12780.81
561.767	12921.14
562.129	12755.05
562.492	12873.46
562.854	12887.7
563.217	12821.03
563.579	12845.67
563.941	12859.68
564.304	12883.86
564.666	12974.48
565.028	12946.45
565.39	12949.39
565.753	13001.82
566.115	13047.47
566.477	12981.93
566.839	12950.07
567.201	13027.58
567.563	12991.2
567.925	13129.5
568.287	13108.71
568.648	13076.17
569.01	13115.26
569.372	13221.93
569.734	13118.43
570.095	13208.59
570.457	13122.72
570.819	13106
571.18	13120.01
571.542	13159.56
571.903	13237.97
572.265	13204.53
572.626	13267.35
572.987	13250.63
573.349	13350.51
573.71	13310.06
574.071	13362.04
574.432	13289.5
574.794	13370.17
575.155	13414.24
575.516	13242.26
575.877	13345.54
576.238	13370.17
576.599	13392.09
576.96	13371.98
577.32	13349.83
577.681	13393.67
578.042	13442.94
578.403	13444.75
578.763	13370.17
579.124	13391.19
579.485	13444.29
579.845	13489.72
580.206	13457.63
580.566	13451.07
580.927	13444.07
581.287	13489.26
581.648	13390.51
582.008	13499.43
582.368	13417.85
582.728	13449.94
583.089	13440.68
583.449	13453.78
583.809	13471.41
584.169	13517.51
584.529	13415.82
584.889	13505.76
585.249	13439.55
585.609	13395.03
585.969	13384.41
586.329	13248.37
586.688	13365.88
587.048	13360.23
587.408	13357.29
587.768	13318.65
588.127	13256.05
588.487	13261.47
588.846	13316.61
589.206	13256.95
589.565	13272.32
589.925	13267.57
590.284	13237.52
590.643	13308.25
591.003	13219.44
591.362	13305.09
591.721	13343.05
592.08	13265.09
592.44	13243.85
592.799	13273.22
593.158	13258.08
593.517	13308.03
593.876	13325.43
594.235	13216.73
594.593	13240.91
594.952	13326.33
595.311	13198.2
595.67	13244.98
596.029	13316.84
596.387	13358.19
596.746	13327.69
597.104	13263.28
597.463	13271.87
597.822	13320.45
598.18	13218.08
598.538	13193.9
598.897	13276.16
599.255	13049.28
599.613	13317.07
599.972	13138.99
600.33	13117.52
600.688	13134.25
601.046	13275.71
601.404	13187.8
601.762	13194.81
602.12	13239.1
602.478	13260.34
602.836	13230.29
603.194	13161.59
603.552	13209.5
603.91	13161.14
604.268	13228.48
604.625	13200.01
604.983	13165.43
605.341	13140.8
605.698	13257.41
606.056	13258.76
606.413	13203.4
606.771	13209.5
607.128	13282.04
607.485	13234.13
607.843	13270.74
608.2	13307.57
608.557	13326.78
608.914	13273
609.272	13287.91
609.629	13294.92
609.986	13324.75
610.343	13246.78
610.7	13381.02
611.057	13395.93
611.414	13323.17
611.771	13362.71
612.127	13405.2
612.484	13487.46
612.841	13442.94
613.198	13412.88
613.554	13460.79
613.911	13506.66
614.267	13503.95
614.624	13457.17
614.98	13461.92
615.337	13543.95
615.693	13432.99
616.05	13461.92
616.406	13538.08
616.762	13501.47
617.118	13560
617.475	13491.75
617.831	13544.63
618.187	13543.5
618.543	13504.86
618.899	13610.62
619.255	13538.53
619.611	13624.63
619.967	13611.52
620.323	13719.09
620.678	13606.1
621.034	13606.77
621.39	13587.79
621.746	13596.83
622.101	13758.86
622.457	13638.41
622.812	13591.41
623.168	13708.24
623.523	13630.05
623.879	13677.28
624.234	13608.13
624.589	13597.51
624.945	13697.17
625.3	13659.88
625.655	13647.68
626.01	13558.19
626.365	13641.58
626.72	13582.37
627.075	13659.2
627.43	13546.21
627.785	13514.57
628.14	13583.95
628.495	13653.33
628.85	13514.8
629.205	13551.86
629.559	13675.7
629.914	13546.89
630.269	13591.41
630.623	13524.07
630.978	13522.26
631.332	13478.19
631.687	13543.05
632.041	13456.5
632.396	13437.29
632.75	13520.45
633.104	13489.04
633.459	13487
633.813	13340.34
634.167	13351.19
634.521	13361.58
634.875	13408.14
635.229	13374.46
635.583	13364.52
635.937	13326.33
636.291	13269.16
636.645	13266.67
636.999	13297.63
637.352	13338.53
637.706	13265.99
638.06	13303.73
638.413	13203.4
638.767	13136.5
639.121	13217.86
639.474	13150.29
639.828	13101.25
640.181	13154.58
640.534	13140.35
640.888	13137.18
641.241	13073.91
641.594	13064.64
641.947	13136.73
642.301	13099.9
642.654	13100.12
643.007	13150.06
643.36	13080.01
643.713	13002.95
644.066	13073
644.419	13045.21
644.771	12944.87
645.124	12908.26
645.477	12880.69
645.83	12790.3
646.182	12633.69
646.535	12660.13
646.888	12630.98
647.24	12567.93
647.593	12628.72
647.945	12597.99
648.298	12557.31
648.65	12535.84
649.002	12572.9
649.355	12590.08
649.707	12555.5
650.059	12691.32
650.411	12825.55
650.763	12793.01
651.115	12977.19
651.467	12899.45
651.819	12805.67
652.171	12807.7
652.523	12827.36
652.875	12876.62
653.227	12814.03
653.578	12960.01
653.93	12915.95
654.282	12710.98
654.633	12708.95
654.985	12793.46
655.337	12772.67
655.688	12787.81
656.039	12820.58
656.391	12735.16
656.742	12718.44
657.094	12742.84
657.445	12806.12
657.796	12790.07
658.147	12780.58
658.498	12747.81
658.849	12780.36
659.2	12778.55
659.551	12797.3
659.902	12810.86
660.253	12784.42
660.604	12788.72
660.955	12755.72
661.306	12810.19
661.656	12702.84
662.007	12813.12
662.358	12805.67
662.708	12809.06
663.059	12787.59
663.409	12748.27
663.76	12839.79
664.11	12790.98
664.461	12896.06
664.811	12928.83
665.161	12848.38
665.511	12746.46
665.862	12888.83
666.212	12898.55
666.562	12872.11
666.912	12826.46
667.262	12807.93
667.612	12801.6
667.962	12840.69
668.312	12802.73
668.662	12843.86
669.011	12800.47
669.361	12812.22
669.711	12830.3
670.06	12789.62
670.41	12743.07
670.76	12821.94
671.109	12787.36
671.459	12805.89
671.808	12766.8
672.157	12791.43
672.507	12687.93
672.856	12728.61
673.205	12764.76
673.554	12883.86
673.904	12698.32
674.253	12795.04
674.602	12746.23
674.951	12575.62
675.3	12495.39
675.649	12634.82
675.998	12650.19
676.346	12667.82
676.695	12710.08
677.044	12578.55
677.393	12615.16
677.741	12632.79
678.09	12580.36
678.438	12564.32
678.787	12628.27
679.135	12548.72
679.484	12480.48
679.832	12624.2
680.181	12491.32
680.529	12507.37
680.877	12439.8
681.225	12409.74
681.573	12487.71
681.922	12393.7
682.27	12408.84
682.618	12426.02
682.966	12308.73
683.314	12294.49
683.661	12334.94
684.009	12251.56
684.357	12214.5
684.705	12229.86
685.053	12262.86
685.4	12198
685.748	12077.32
686.095	12067.61
686.443	12051.56
686.79	12023.99
687.138	12052.24
687.485	12112.13
687.832	12006.37
688.18	12043.65
688.527	11893.37
688.874	11906.25
689.221	11858.8
689.568	11815.64
689.915	11808.86
690.262	11768.86
690.609	11792.13
690.956	11714.4
691.303	11798.69
691.65	11656.77
691.997	11699.93
692.344	11611.57
692.69	11611.8
693.037	11570.44
693.383	11448.41
693.73	11495.19
694.077	11409.77
694.423	11370
694.769	11332.03
695.116	11306.72
695.462	11293.62
695.808	11214.97
696.155	11291.36
696.501	11258.59
696.847	11179.27
697.193	11032.38
697.539	11062.89
697.885	11021.53
698.231	10961.87
698.577	10945.6
698.923	10977.24
699.269	10811.59
699.614	10800.52
699.96	10696.57
700.306	10841.42
700.651	10690.92
700.997	10617.02
701.342	10734.99
701.688	10720.75
702.033	10544.48
702.379	10509
702.724	10508.55
703.069	10584.93
703.415	10419.51
703.76	10397.37
704.105	10457.71
704.45	10383.81
704.795	10324.6
705.14	10246.41
705.485	10297.48
705.83	10171.84
706.175	10177.94
706.52	10153.76
706.865	10145.4
707.209	10104.95
707.554	10029.47
707.899	10034.44
708.243	10088
708.588	10025.85
708.932	9958.28
709.277	9920.09
709.621	9937.04
709.966	9853.2
710.31	9906.31
710.654	9862.92
710.998	9821.56
711.342	9844.61
711.687	9772.53
712.031	9801.68
712.375	9737.5
712.719	9692.08
713.063	9694.56
713.407	9766.88
713.75	9649.14
714.094	9615.02
714.438	9624.28
714.782	9561.01
715.125	9525.07
715.469	9620.67
715.812	9538.41
716.156	9530.5
716.499	9492.31
716.843	9528.46
717.186	9396.94
717.53	9479.65
717.873	9472.87
718.216	9425.19
718.559	9359.2
718.902	9346.77
719.246	9363.72
719.589	9295.48
719.932	9261.58
720.275	9277.85
720.617	9313.1
720.96	9306.32
721.303	9314.46
721.646	9303.61
721.989	9236.49
722.331	9296.38
722.674	9268.81
723.016	9207.79
723.359	9184.29
723.701	9189.72
724.044	9109.72
724.386	9086.67
724.729	9143.39
725.071	9145.42
725.413	9133.67
725.755	9156.04
726.097	9078.76
726.439	9030.62
726.782	9107.01
727.124	9094.35
727.465	8993.34
727.807	9056.39
728.149	9012.55
728.491	9027.91
728.833	8998.08
729.175	8991.3
729.516	9024.07
729.858	9022.94
730.199	9011.19
730.541	9053.45
730.882	8942.49
731.224	8997.63
731.565	8920.8
731.906	8985.43
732.248	8969.38
732.589	8945.65
732.93	8981.36
733.271	8942.04
733.612	8964.86
733.953	8978.65
734.294	8939.55
734.635	8972.55
734.976	8907.92
735.317	8898.2
735.658	8909.5
735.999	8915.6
736.339	8944.75
736.68	8995.37
737.021	8988.37
737.361	8984.07
737.702	8973.22
738.042	9028.36
738.383	8975.94
738.723	9005.31
739.063	8996.05
739.404	8981.36
739.744	8972.55
740.084	8946.56
740.424	8983.62
740.764	8953.56
741.104	9008.25
741.444	8962.83
741.784	8965.32
742.124	9074.46
742.464	9078.76
742.804	9083.73
743.143	9055.26
743.483	9125.99
743.823	9101.58
744.162	9177.06
744.502	9165.31
744.841	9216.38
745.181	9262.93
745.52	9168.25
745.86	9307.23
746.199	9276.04
746.538	9356.27
746.877	9379.99
747.216	9423.16
747.556	9430.39
747.895	9516.49
748.234	9459.54
748.573	9537.96
748.911	9637.16
749.25	9690.95
749.589	9668.57
749.928	9783.82
750.267	9810.26
750.605	9896.36
750.944	9951.05
751.283	10045.51
751.621	10169.8
751.96	10219.75
752.298	10325.96
752.636	10402.34
752.975	10421.55
753.313	10464.71
753.651	10635.1
753.989	10681.2
754.327	10720.98
754.666	10847.75
755.004	10984.02
755.342	11097.01
755.679	11167.74
756.017	11169.32
756.355	11534.51
756.693	11471.69
757.031	11727.05
757.368	11827.16
757.706	11883.88
758.044	12021.28
758.381	12203.42
758.719	12315.28
