Data from hue_26_FLMS001491_00045.txt Node
Date: Tue Feb 07 17:14:03 GMT 2017
User: dcchb
Spectrometer: FLMS00149
Trigger mode: 0
Integration Time (sec): 2.000000E-2
Scans to average: 10
Electric dark correction enabled: true
Nonlinearity correction enabled: false
Boxcar width: 0
XAxis mode: Wavelengths
Number of Pixels in Spectrum: 2048
>>>>>Begin Spectral Data<<<<<
341.393	-23.66
341.776	-23.66
342.16	-23.66
342.543	-56.43
342.927	-59.36
343.31	-75.18
343.693	-65.92
344.077	-73.15
344.46	-71.57
344.843	-50.78
345.226	-40.61
345.61	-41.06
345.993	-12.58
346.376	18.6
346.759	9.56
347.142	17.92
347.525	29.45
347.908	62.44
348.291	79.16
348.674	109.67
349.057	104.02
349.44	127.07
349.823	151.93
350.206	180.86
350.588	195.55
350.971	206.84
351.354	219.05
351.737	236.9
352.119	263.57
352.502	262.44
352.884	275.77
353.267	300.85
353.65	306.5
354.032	302.66
354.414	323
354.797	303.34
355.179	334.07
355.562	320.74
355.944	333.62
356.326	341.3
356.709	338.82
357.091	336.56
357.473	355.77
357.855	361.64
358.238	344.69
358.62	336.33
359.002	342.43
359.384	327.97
359.766	354.64
360.148	343.79
360.53	348.76
360.912	349.89
361.294	326.84
361.676	328.88
362.057	331.59
362.439	327.52
362.821	325.03
363.203	347.63
363.584	346.05
363.966	332.72
364.348	348.99
364.729	301.98
365.111	342.66
365.493	318.48
365.874	333.62
366.256	330.23
366.637	352.6
367.019	329.55
367.4	323.45
367.781	322.32
368.163	314.86
368.544	336.78
368.925	334.53
369.306	341.98
369.688	305.83
370.069	325.03
370.45	317.12
370.831	313.06
371.212	316.67
371.593	338.82
371.974	334.53
372.355	323.23
372.736	351.25
373.117	293.62
373.498	343.56
373.879	336.11
374.26	326.39
374.641	323.45
375.021	309.89
375.402	306.05
375.783	330.91
376.163	325.49
376.544	343.79
376.925	330.68
377.305	317.35
377.686	326.84
378.066	337.01
378.447	328.65
378.827	320.51
379.208	340.4
379.588	318.93
379.968	351.7
380.349	334.75
380.729	327.07
381.109	366.39
381.489	342.43
381.87	335.88
382.25	357.8
382.63	349.67
383.01	350.57
383.39	336.78
383.77	339.95
384.15	346.5
384.53	367.74
384.91	358.71
385.29	351.93
385.67	352.6
386.049	350.57
386.429	348.99
386.809	354.41
387.189	342.66
387.568	369.55
387.948	359.61
388.328	376.11
388.707	384.47
389.087	339.95
389.466	395.31
389.846	375.65
390.225	369.1
390.605	370.23
390.984	380.17
391.363	396.67
391.743	364.13
392.122	350.12
392.501	355.77
392.881	380.4
393.26	357.35
393.639	395.09
394.018	359.61
394.397	378.82
394.776	379.95
395.155	405.03
395.534	397.12
395.913	378.59
396.292	396.67
396.671	393.73
397.05	383.34
397.429	387.18
397.808	396.22
398.186	385.82
398.565	389.44
398.944	376.78
399.323	390.57
399.701	397.35
400.08	379.95
400.458	379.04
400.837	400.29
401.215	409.1
401.594	424.01
401.972	399.16
402.351	415.43
402.729	413.39
403.107	402.09
403.486	398.93
403.864	403
404.242	393.73
404.62	396.22
404.999	411.13
405.377	426.95
405.755	400.51
406.133	425.6
406.511	431.47
406.889	425.82
407.267	424.01
407.645	416.56
408.023	421.98
408.401	440.74
408.779	435.09
409.156	431.92
409.534	451.81
409.912	438.7
410.29	442.77
410.667	454.3
411.045	458.14
411.422	457.23
411.8	472.15
412.178	441.19
412.555	467.18
412.933	480.96
413.31	456.56
413.687	476.22
414.065	477.12
414.442	467.85
414.819	463.34
415.197	480.51
415.574	468.53
415.951	482.32
416.328	483
416.705	467.4
417.082	463.79
417.46	533.84
417.837	495.65
418.214	499.94
418.591	510.79
418.967	491.13
419.344	504.46
419.721	524.8
420.098	517.35
420.475	532.26
420.852	525.25
421.228	519.15
421.605	532.49
421.982	529.32
422.358	534.52
422.735	527.97
423.111	531.36
423.488	549.89
423.864	554.86
424.241	553.73
424.617	543.56
424.994	548.08
425.37	543.79
425.746	558.02
426.123	574.74
426.499	570.45
426.875	551.92
427.251	590.79
427.627	577.68
428.003	585.82
428.379	585.37
428.756	609.09
429.132	592.6
429.507	588.53
429.883	593.73
430.259	607.96
430.635	608.42
431.011	618.36
431.387	617.23
431.763	622.88
432.138	656.55
432.514	626.27
432.89	636.44
433.265	643.67
433.641	640.05
434.016	665.36
434.392	653.61
434.767	645.93
435.143	662.43
435.518	669.21
435.894	665.36
436.269	683.44
436.644	691.58
437.02	707.62
437.395	713.27
437.77	705.14
438.145	714.63
438.52	699.71
438.895	730.45
439.271	713.95
439.646	728.87
440.021	737.23
440.395	739.26
440.77	730.45
441.145	742.65
441.52	738.81
441.895	736.1
442.27	755.3
442.645	771.58
443.019	760.28
443.394	744.68
443.769	765.02
444.143	777
444.518	796.21
444.892	776.32
445.267	777.23
445.641	770.67
446.016	789.2
446.39	806.6
446.764	809.09
447.139	797.79
447.513	804.8
447.887	816.09
448.262	805.02
448.636	807.28
449.01	821.07
449.384	838.92
449.758	837.11
450.132	840.5
450.506	836.21
450.88	826.04
451.254	851.35
451.628	853.16
452.002	847.73
452.376	871.91
452.75	892.25
453.123	877.79
453.497	922.31
453.871	882.99
454.244	895.64
454.618	927.5
454.992	908.97
455.365	914.4
455.739	947.84
456.112	980.61
456.486	935.19
456.859	914.62
457.232	989.88
457.606	1000.72
457.979	969.99
458.352	1002.08
458.725	983.55
459.099	1001.4
459.472	1030.1
459.845	1018.57
460.218	1029.2
460.591	1046.6
460.964	1070.1
461.337	1056.54
461.71	1084.56
462.083	1133.37
462.456	1097.67
462.829	1110.78
463.201	1115.75
463.574	1132.47
463.947	1147.61
464.32	1157.78
464.692	1169.31
465.065	1169.98
465.438	1209.76
465.81	1199.59
466.183	1236.42
466.555	1230.77
466.928	1237.55
467.3	1244.11
467.672	1284.56
468.045	1293.37
468.417	1305.12
468.789	1308.74
469.161	1324.33
469.534	1344.44
469.906	1356.87
470.278	1372.24
470.65	1409.3
471.022	1408.4
471.394	1430.09
471.766	1460.82
472.138	1485.91
472.51	1512.35
472.882	1512.12
473.253	1579.01
473.625	1593.25
473.997	1599.58
474.369	1612.23
474.74	1637.77
475.112	1683.64
475.484	1669.63
475.855	1727.93
476.227	1749.4
476.598	1796.18
476.97	1804.99
477.341	1851.1
477.713	1889.29
478.084	1889.96
478.455	1930.42
478.827	2004.31
479.198	2019.9
479.569	1995.5
479.94	2092.22
480.311	2120.92
480.682	2173.57
481.053	2225.32
481.424	2266.68
481.795	2315.04
482.166	2359.56
482.537	2362.72
482.908	2454.47
483.279	2463.73
483.65	2505.32
484.021	2559.33
484.391	2607.23
484.762	2630.96
485.133	2682.26
485.503	2736.72
485.874	2767
486.244	2814.46
486.615	2871.18
486.985	2884.29
487.356	2976.04
487.726	3028.24
488.097	3051.97
488.467	3100.78
488.837	3181.91
489.207	3181.23
489.578	3252.64
489.948	3291.28
490.318	3362.69
490.688	3383.26
491.058	3456.48
491.428	3497.15
491.798	3500.32
492.168	3557.94
492.538	3623.7
492.908	3669.13
493.278	3730.59
493.648	3738.5
494.017	3786.19
494.387	3868.22
494.757	3875.9
495.126	3914.32
495.496	3960.87
495.866	3933.75
496.235	4066.86
496.605	4058.27
496.974	4116.57
497.344	4162.22
497.713	4192.95
498.082	4243.12
498.452	4283.57
498.821	4272.95
499.19	4315.66
499.559	4335.55
499.928	4404.47
500.298	4404.7
500.667	4428.43
501.036	4472.5
501.405	4498.48
501.774	4488.54
502.143	4549.1
502.512	4586.39
502.88	4552.27
503.249	4603.11
503.618	4676.11
503.987	4725.82
504.356	4688.08
504.724	4742.77
505.093	4791.13
505.462	4789.1
505.83	4859.6
506.199	4863.67
506.567	4941.18
506.936	4934.63
507.304	4923.56
507.672	4936.89
508.041	5016.89
508.409	5004.68
508.777	5085.36
509.145	5095.3
509.514	5112.93
509.882	5141.18
510.25	5102.08
510.618	5126.94
510.986	5180.5
511.354	5255.75
511.722	5288.75
512.09	5306.6
512.458	5312.47
512.826	5319.03
513.193	5330.33
513.561	5394.05
513.929	5377.33
514.297	5406.26
514.664	5463.2
515.032	5503.65
515.4	5482.19
515.767	5539.13
516.135	5524.9
516.502	5496.65
516.869	5559.92
517.237	5625.91
517.604	5596.08
517.972	5652.13
518.339	5643.31
518.706	5669.98
519.073	5732.35
519.44	5799.24
519.808	5759.47
520.175	5743.2
520.542	5863.65
520.909	5856.19
521.276	5851.89
521.643	5876.75
522.009	5890.54
522.376	5929.41
522.743	5929.41
523.11	6008.27
523.477	6018.9
523.843	6053.24
524.21	6135.95
524.577	6183.41
524.943	6150.87
525.31	6209.4
525.676	6227.7
526.043	6282.84
526.409	6326.91
526.776	6416.85
527.142	6396.06
527.508	6402.16
527.874	6463.18
528.241	6511.54
528.607	6531.65
528.973	6559.9
529.339	6535.72
529.705	6552.21
530.071	6661.14
530.437	6680.35
530.803	6681.7
531.169	6734.58
531.535	6751.53
531.901	6742.04
532.267	6820.91
532.632	6814.81
532.998	6875.82
533.364	6933.45
533.73	6912.43
534.095	6973.45
534.461	7003.73
534.826	7033.78
535.192	7058.64
535.557	7105.65
535.923	7132.76
536.288	7174.8
536.653	7159.88
537.019	7151.52
537.384	7184.74
537.749	7256.15
538.114	7303.83
538.479	7241.91
538.845	7322.59
539.21	7271.07
539.575	7366.88
539.94	7464.06
540.305	7445.75
540.67	7427.67
541.034	7482.36
541.399	7553.32
541.764	7523.49
542.129	7601.68
542.494	7546.31
542.858	7628.12
543.223	7680.55
543.587	7652.07
543.952	7734.1
544.316	7758.06
544.681	7763.93
545.045	7834.67
545.41	7904.5
545.774	7894.1
546.138	7909.47
546.503	7982.46
546.867	7931.16
547.231	8019.07
547.595	8100.87
547.959	8088.9
548.324	8090.48
548.688	8127.09
549.052	8128.9
549.416	8154.43
549.779	8133.64
550.143	8149.46
550.507	8349
550.871	8250.02
551.235	8326.86
551.599	8292.28
551.962	8320.98
552.326	8429
552.689	8421.32
553.053	8403.69
553.417	8447.31
553.78	8558.04
554.143	8553.74
554.507	8545.61
554.87	8528.66
555.234	8683.91
555.597	8575.66
555.96	8629
556.323	8717.13
556.686	8719.39
557.05	8767.98
557.413	8769.33
557.776	8799.61
558.139	8827.18
558.502	8824.47
558.865	8899.5
559.228	8965.94
559.59	8927.97
559.953	8951.7
560.316	9066.5
560.679	9020.17
561.041	9018.14
561.404	9125.48
561.767	9206.83
562.129	9090.45
562.492	9238.02
562.854	9238.7
563.217	9177.23
563.579	9258.81
563.941	9433.04
564.304	9312.59
564.666	9386.94
565.028	9426.49
565.39	9447.28
565.753	9520.05
566.115	9518.01
566.477	9498.13
566.839	9568.63
567.201	9587.16
567.563	9602.98
567.925	9782.64
568.287	9713.94
568.648	9737.67
569.01	9785.12
569.372	9899.7
569.734	9896.76
570.095	9917.55
570.457	9967.27
570.819	9967.94
571.18	10026.02
571.542	10078.9
571.903	10134.49
572.265	10238.22
572.626	10254.49
572.987	10250.87
573.349	10341.95
573.71	10442.51
574.071	10465.11
574.432	10499.91
574.794	10579.91
575.155	10628.04
575.516	10553.92
575.877	10735.83
576.238	10777.41
576.599	10914.59
576.96	11026.45
577.32	11035.26
577.681	11156.84
578.042	11179.89
578.403	11173.34
578.763	11351.86
579.124	11467.79
579.485	11624.62
579.845	11721.57
580.206	11811.06
580.566	11875.69
580.927	12052.86
581.287	12185.29
581.648	12235.68
582.008	12446.75
582.368	12574.88
582.728	12718.83
583.089	12903.91
583.449	13080.18
583.809	13217.8
584.169	13396.55
584.529	13578.47
584.889	13823.89
585.249	13867.5
585.609	14052.58
585.969	14306.36
586.329	14530.08
586.688	14836.52
587.048	14899.57
587.408	15156.96
587.768	15385.43
588.127	15567.34
588.487	15795.59
588.846	16134.34
589.206	16269.47
589.565	16556.25
589.925	16859.51
590.284	17079.4
590.643	17452.27
591.003	17700.17
591.362	18039.82
591.721	18285.24
592.08	18494.05
592.44	18905.56
592.799	19127.25
593.158	19352.78
593.517	19609.5
593.876	19982.6
594.235	20160.44
594.593	20579.64
594.952	20864.83
595.311	21142.57
595.67	21517.47
596.029	21812.6
596.387	22212.37
596.746	22385.47
597.104	22699.81
597.463	22933.7
597.822	23417.08
598.18	23597.19
598.538	23963.96
598.897	24288.25
599.255	24437.85
599.613	24961.67
599.972	25219.97
600.33	25521.89
600.688	25614.76
601.046	26013.4
601.404	26504.46
601.762	26633.72
602.12	26971.56
602.478	27315.28
602.836	27470.08
603.194	27621.04
603.552	28092.89
603.91	28195.94
604.268	28593.67
604.625	28690.16
604.983	29230.49
605.341	29264.84
605.698	29658.27
606.056	30048.32
606.413	30196.11
606.771	30448.31
607.128	30743.67
607.485	30918.81
607.843	31146.6
608.2	31433.59
608.557	31791.33
608.914	31797.43
609.272	32142.5
609.629	32395.38
609.986	32815.03
610.343	32755.82
610.7	33260.44
611.057	33342.92
611.414	33463.82
611.771	33800.31
612.127	34077.37
612.484	34139.96
612.841	34482.78
613.198	34600.29
613.554	34740.4
613.911	35109.88
614.267	35268.07
614.624	35314.4
614.98	35460.16
615.337	35752.35
615.693	35987.37
616.05	35991.21
616.406	36558.43
616.762	36445.21
617.118	36369.51
617.475	36692.21
617.831	36945.31
618.187	37027.8
618.543	37105.99
618.899	37508.69
619.255	37423.49
619.611	37601.12
619.967	37811.96
620.323	37990.48
620.678	38026.64
621.034	38039.3
621.39	38067.09
621.746	38207.2
622.101	38802.44
622.457	38413.98
622.812	38744.36
623.168	38852.16
623.523	38907.07
623.879	38980.74
624.234	38934.87
624.589	39142.09
624.945	39194.52
625.3	39278.13
625.655	39512.93
626.01	39458.24
626.365	39580.72
626.72	39610.55
627.075	39745.24
627.43	39675.64
627.785	39633.83
628.14	39864.56
628.495	40032.24
628.85	39964.22
629.205	39953.14
629.559	40259.58
629.914	40009.64
630.269	40169.18
630.623	40056.64
630.978	40223.65
631.332	40277.88
631.687	40496.18
632.041	40326.69
632.396	40481.27
632.75	40294.6
633.104	40414.6
633.459	40214.83
633.813	40315.62
634.167	40319.69
634.521	40249.86
634.875	40494.37
635.229	40403.08
635.583	40125.34
635.937	40153.14
636.291	40262.51
636.645	40329.41
636.999	40258
637.352	40354.72
637.706	40235.17
638.06	40482.17
638.413	40374.15
638.767	40259.58
639.121	40473.36
639.474	40170.09
639.828	40282.4
640.181	40327.6
640.534	40390.87
640.888	40118.56
641.241	39959.47
641.594	40271.78
641.947	40489.85
642.301	40312.91
642.654	40272.68
643.007	40359.46
643.36	40338.22
643.713	40166.7
644.066	40434.71
644.419	40059.36
644.771	39805.13
645.124	39693.04
645.477	39437
645.83	39267.29
646.182	39114.07
646.535	39078.37
646.888	39189.77
647.24	38933.96
647.593	39145.48
647.945	39090.79
648.298	38982.77
648.65	38786.62
649.002	38750.92
649.355	38974.64
649.707	38956.11
650.059	39119.95
650.411	39492.37
650.763	39640.84
651.115	39905.91
651.467	39872.24
651.819	39949.98
652.171	39807.39
652.523	39710.21
652.875	39866.59
653.227	39562.87
653.578	39797.89
653.93	39689.87
654.282	39545.47
654.633	39532.82
654.985	39603.78
655.337	39675.64
655.688	39645.13
656.039	39794.73
656.391	39455.3
656.742	39447.17
657.094	39524.91
657.445	39638.35
657.796	39691
658.147	39573.49
658.498	39583.21
658.849	39566.49
659.2	39458.24
659.551	39446.27
659.902	39540.73
660.253	39739.36
660.604	39572.14
660.955	39331.01
661.306	39468.86
661.656	39418.7
662.007	39420.73
662.358	39320.84
662.708	39530.1
663.059	39425.47
663.409	39203.79
663.76	39419.83
664.11	39413.95
664.461	39506.83
664.811	39445.81
665.161	39444.01
665.511	39328.08
665.862	39371.46
666.212	39518.58
666.562	39442.42
666.912	39560.16
667.262	39426.38
667.612	39399.71
667.962	39468.86
668.312	39250.34
668.662	39479.26
669.011	39390.9
669.361	39311.35
669.711	39192.49
670.06	39211.92
670.41	39348.41
670.76	39291.47
671.109	39225.71
671.459	39160.17
671.808	39184.35
672.157	39255.31
672.507	38962.89
672.856	39078.14
673.205	39046.05
673.554	39242.2
673.904	39096.9
674.253	39201.3
674.602	39160.4
674.951	38522
675.3	38397.03
675.649	39026.84
675.998	39037.46
676.346	38996.56
676.695	38989.1
677.044	38741.65
677.393	38936.22
677.741	38918.82
678.09	38877.69
678.438	38706.4
678.787	38882.44
679.135	38881.08
679.484	38573.97
679.832	38784.36
680.181	38548.44
680.529	38573.52
680.877	38385.05
681.225	38403.13
681.573	38688.09
681.922	38312.96
682.27	38290.59
682.618	38296.92
682.966	38152.97
683.314	38337.82
683.661	38169.69
684.009	37907.1
684.357	38058.5
684.705	37813.54
685.053	37977.6
685.4	37913.42
685.748	37620.78
686.095	37756.59
686.443	37691.51
686.79	37639.08
687.138	37587.78
687.485	37595.47
687.832	37374.91
688.18	37545.3
688.527	37293.33
688.874	37289.26
689.221	37183.95
689.568	37171.3
689.915	37016.05
690.262	37037.51
690.609	36971.3
690.956	36934.47
691.303	36895.15
691.65	36507.59
691.997	36534.25
692.344	36431.2
692.69	36367.02
693.037	36381.03
693.383	36055.39
693.73	36189.4
694.077	36128.84
694.423	36125.9
694.769	35866.02
695.116	35814.04
695.462	35805
695.808	35643.43
696.155	35797.77
696.501	35457.9
696.847	35426.71
697.193	35262.87
697.539	35419.48
697.885	35181.97
698.231	35069.21
698.577	35139.26
698.923	34915.31
699.269	34882.77
699.614	34572.04
699.96	34580.18
700.306	34689.78
700.651	34456.57
700.997	34363.23
701.342	34287.53
701.688	34259.06
702.033	34094.09
702.379	34100.64
702.724	34017.93
703.069	34095.45
703.415	33852.06
703.76	33713.08
704.105	33831.95
704.45	33759.86
704.795	33536.14
705.14	33489.81
705.485	33352.19
705.83	33159.2
706.175	33223.15
706.52	33164.4
706.865	33000.56
707.209	33022.93
707.554	32817.06
707.899	32864.29
708.243	32865.87
708.588	32796.04
708.932	32573.23
709.277	32507.69
709.621	32521.02
709.966	32377.75
710.31	32340.69
710.654	32201.71
710.998	32208.49
711.342	32124.2
711.687	32065.67
712.031	32058.89
712.375	31858.89
712.719	31944.09
713.063	31804.88
713.407	32027.7
713.75	31758.33
714.094	31768.05
714.438	31484.89
714.782	31517.89
715.125	31363.09
715.469	31479.24
715.812	31366.7
716.156	31189.53
716.499	31015.3
716.843	31313.37
717.186	31039.93
717.53	31154.28
717.873	31185.92
718.216	30907.51
718.559	30871.8
718.902	30728.75
719.246	30680.85
719.589	30641.07
719.932	30456.67
720.275	30631.58
720.617	30566.95
720.96	30319.05
721.303	30475.65
721.646	30260.74
721.989	30303
722.331	30298.03
722.674	30344.58
723.016	30329.89
723.359	30199.28
723.701	30117.7
724.044	30099.39
724.386	29915.67
724.729	30072.5
725.071	29862.56
725.413	29968.55
725.755	29846.52
726.097	29747.54
726.439	29710.25
726.782	29712.51
727.124	29748.21
727.465	29591.16
727.807	29510.26
728.149	29658.95
728.491	29334.67
728.833	29384.61
729.175	29301.22
729.516	29310.71
729.858	29258.06
730.199	29296.25
730.541	29101.9
730.882	29167.89
731.224	29173.54
731.565	29088.57
731.906	29019.65
732.248	29100.32
732.589	28910.95
732.93	28863.04
733.271	28827.34
733.612	28798.64
733.953	28876.83
734.294	28699.2
734.635	28707.34
734.976	28793.66
735.317	28652.65
735.658	28662.14
735.999	28588.47
736.339	28584.18
736.68	28644.52
737.021	28469.38
737.361	28316.16
737.702	28469.38
738.042	28417.85
738.383	28340.34
738.723	28480
739.063	28221.48
739.404	28256.5
739.744	28203.62
740.084	28016.51
740.424	28098.54
740.764	28150.74
741.104	28110.74
741.444	27859.9
741.784	27924.99
742.124	28047.24
742.464	27977.19
742.804	27832.11
743.143	27755.27
743.483	27814.03
743.823	27519.57
744.162	27573.13
744.502	27674.15
744.841	27580.81
745.181	27559.35
745.52	27502.17
745.86	27498.33
746.199	27432.8
746.538	27355.06
746.877	27429.63
747.216	27401.16
747.556	27382.63
747.895	27374.49
748.234	27246.81
748.573	27192.8
748.911	27141.5
749.25	27184.67
749.589	27082.52
749.928	27093.37
750.267	27198.23
750.605	27148.74
750.944	27062.86
751.283	26927.05
751.621	26931.34
751.96	26838.01
752.298	26739.93
752.636	26761.63
752.975	26756.66
753.313	26634.17
753.651	26690.89
753.989	26631.91
754.327	26511.01
754.666	26393.5
755.004	26516.89
755.342	26492.48
755.679	26470.56
756.017	26259.72
756.355	26332.71
756.693	26207.07
757.031	26256.56
757.368	26141.98
757.706	25913.51
758.044	25971.59
758.381	26027.18
758.719	25906.28
759.056	25906.73
759.394	25842.33
759.731	25705.16
760.068	25623.13
760.405	25520.76
760.743	25443.02
