Data from hue_30_FLMS001491_88.txt Node
Date: Mon Feb 06 15:06:12 GMT 2017
User: dcchb
Spectrometer: FLMS00149
Trigger mode: 0
Integration Time (sec): 2.000000E-2
Scans to average: 10
Electric dark correction enabled: true
Nonlinearity correction enabled: false
Boxcar width: 0
XAxis mode: Wavelengths
Number of Pixels in Spectrum: 2048
>>>>>Begin Spectral Data<<<<<
341.393	3.88
341.776	3.88
342.16	3.88
342.543	-77.24
342.927	-69.11
343.31	-51.03
343.693	-83.57
344.077	-69.56
344.46	-56.91
344.843	-71.82
345.226	-34.98
345.61	-27.08
345.993	-17.58
346.376	-11.93
346.759	26.03
347.142	24.67
347.525	39.36
347.908	54.5
348.291	69.42
348.674	78.23
349.057	132.24
349.44	122.53
349.823	148.74
350.206	144.9
350.588	195.74
350.971	193.03
351.354	237.1
351.737	231
352.119	256.98
352.502	272.8
352.884	278.23
353.267	282.29
353.65	288.85
354.032	288.17
354.414	325.23
354.797	305.8
355.179	336.76
355.562	318.23
355.944	350.32
356.326	339.24
356.709	351.45
357.091	337.89
357.473	336.08
357.855	360.26
358.238	349.64
358.62	340.15
359.002	345.57
359.384	317.1
359.766	340.15
360.148	327.49
360.53	359.35
360.912	337.89
361.294	333.59
361.676	338.34
362.057	314.16
362.439	322.52
362.821	339.24
363.203	323.2
363.584	348.06
363.966	325.91
364.348	334.5
364.729	330.43
365.111	329.53
365.493	320.03
365.874	318.9
366.256	323.65
366.637	296.31
367.019	334.72
367.4	335.85
367.781	331.56
368.163	327.94
368.544	308.96
368.925	305.12
369.306	331.11
369.688	306.93
370.069	320.03
370.45	316.87
370.831	321.39
371.212	320.71
371.593	336.53
371.974	320.03
372.355	318.23
372.736	320.71
373.117	320.71
373.498	299.92
373.879	305.8
374.26	326.81
374.641	324.78
375.021	321.39
375.402	334.27
375.783	341.5
376.163	332.91
376.544	355.97
376.925	340.37
377.305	341.73
377.686	317.55
378.066	333.59
378.447	323.42
378.827	328.17
379.208	327.49
379.588	345.8
379.968	334.04
380.349	362.29
380.729	331.33
381.109	343.76
381.489	342.63
381.87	353.03
382.25	337.89
382.63	341.73
383.01	348.73
383.39	358.45
383.77	360.71
384.15	369.07
384.53	357.1
384.91	359.13
385.29	351.67
385.67	360.71
386.049	356.87
386.429	355.06
386.809	365.68
387.189	379.69
387.568	371.56
387.948	360.71
388.328	372.24
388.707	374.95
389.087	351.45
389.466	368.39
389.846	381.05
390.225	379.47
390.605	375.4
390.984	382.63
391.363	379.69
391.743	387.83
392.122	360.03
392.501	384.44
392.881	377.66
393.26	395.06
393.639	395.51
394.018	388.05
394.397	388.51
394.776	387.83
395.155	391.22
395.534	411.78
395.913	399.58
396.292	406.13
396.671	422.18
397.05	414.95
397.429	410.88
397.808	408.62
398.186	413.14
398.565	393.93
398.944	411.33
399.323	429.41
399.701	416.75
400.08	418.56
400.458	393.03
400.837	418.11
401.215	424.44
401.594	409.07
401.972	433.93
402.351	422.86
402.729	433.03
403.107	445
403.486	419.69
403.864	436.19
404.242	426.02
404.62	453.14
404.999	436.42
405.377	445.45
405.755	456.08
406.133	446.81
406.511	452.69
406.889	468.73
407.267	467.6
407.645	469.41
408.023	470.09
408.401	452.23
408.779	461.95
409.156	474.83
409.534	463.98
409.912	469.63
410.29	469.41
410.667	486.36
411.045	489.75
411.422	494.04
411.8	495.17
412.178	496.53
412.555	506.02
412.933	498.33
413.31	508.05
413.687	498.79
414.065	511.67
414.442	506.92
414.819	492.01
415.197	525.45
415.574	521.84
415.951	548.5
416.328	524.1
416.705	545.79
417.082	545.56
417.46	555.06
417.837	558.45
418.214	557.54
418.591	559.35
418.967	542.85
419.344	548.28
419.721	556.86
420.098	564.1
420.475	553.02
420.852	554.15
421.228	573.36
421.605	575.85
421.982	600.48
422.358	599.35
422.735	573.59
423.111	614.94
423.488	581.27
423.864	588.28
424.241	600.03
424.617	606.81
424.994	574.72
425.37	628.27
425.746	632.34
426.123	618.56
426.499	621.49
426.875	642.74
427.251	649.52
427.627	643.19
428.003	640.48
428.379	676.86
428.756	651.78
429.132	668.73
429.507	692
429.883	682.06
430.259	713.24
430.635	684.32
431.011	698.56
431.387	706.69
431.763	739.68
432.138	717.31
432.514	699.01
432.89	734.49
433.265	730.64
433.641	735.84
434.016	746.24
434.392	777.65
434.767	766.35
435.143	763.64
435.518	777.88
435.894	769.06
436.269	800.7
436.644	805.44
437.02	807.48
437.395	797.76
437.77	809.96
438.145	830.98
438.52	831.66
438.895	821.49
439.271	833.01
439.646	854.71
440.021	870.08
440.395	862.39
440.77	855.39
441.145	873.69
441.52	875.95
441.895	870.98
442.27	886.57
442.645	875.27
443.019	889.96
443.394	898.55
443.769	932
444.143	916.4
444.518	924.54
444.892	919.11
445.267	902.39
445.641	917.53
446.016	940.36
446.39	928.61
446.764	945.78
447.139	938.77
447.513	939.68
447.887	950.3
448.262	963.18
448.636	960.24
449.01	983.07
449.384	970.19
449.758	996.85
450.132	1001.15
450.506	983.97
450.88	1009.73
451.254	1023.97
451.628	1031.43
452.002	1024.65
452.376	1043.63
452.75	1033.69
453.123	1059
453.497	1044.76
453.871	1071.65
454.244	1082.73
454.618	1084.53
454.992	1114.59
455.365	1117.3
455.739	1139.9
456.112	1132.44
456.486	1125.21
456.859	1148.94
457.232	1196.85
457.606	1189.16
457.979	1193.46
458.352	1183.06
458.725	1227.13
459.099	1218.99
459.472	1226.68
459.845	1245.89
460.218	1270.29
460.591	1282.27
460.964	1285.66
461.337	1301.93
461.71	1341.93
462.083	1362.49
462.456	1359.55
462.829	1363.4
463.201	1388.71
463.574	1368.14
463.947	1399.33
464.32	1443.62
464.692	1452.21
465.065	1433
465.438	1500.12
465.81	1510.06
466.183	1536.73
466.555	1564.75
466.928	1559.55
467.3	1559.78
467.672	1568.81
468.045	1580.57
468.417	1636.61
468.789	1649.49
469.161	1636.84
469.534	1664.41
469.906	1732.2
470.278	1733.56
470.65	1722.93
471.022	1785.31
471.394	1828.47
471.766	1829.37
472.138	1863.04
472.51	1905.08
472.882	1963.15
473.253	1959.76
473.625	1989.82
473.997	2060.78
474.369	2048.35
474.74	2059.88
475.112	2098.97
475.484	2185.07
475.855	2217.16
476.227	2224.16
476.598	2313.43
476.97	2300.55
477.341	2395.91
477.713	2395.46
478.084	2417.38
478.455	2497.38
478.827	2536.47
479.198	2600.65
479.569	2662.8
479.94	2724.04
480.311	2758.16
480.682	2800.42
481.053	2906.86
481.424	2915.9
481.795	2975.33
482.166	3027.53
482.537	3043.8
482.908	3154.54
483.279	3206.29
483.65	3243.35
484.021	3322.21
484.391	3395.43
484.762	3462.32
485.133	3507.29
485.503	3581.19
485.874	3657.8
486.244	3733.73
486.615	3739.61
486.985	3818.93
487.356	3932.59
487.726	3986.15
488.097	4062.99
488.467	4113.38
488.837	4239.48
489.207	4308.63
489.578	4404.22
489.948	4397.44
490.318	4488.74
490.688	4537.1
491.058	4671.11
491.428	4718.56
491.798	4780.03
492.168	4843.08
492.538	4952.23
492.908	4995.17
493.278	5091.43
493.648	5116.97
494.017	5218.89
494.387	5254.37
494.757	5294.37
495.126	5444.87
495.496	5430.63
495.866	5452.1
496.235	5584.3
496.605	5613.68
496.974	5666.33
497.344	5758.99
497.713	5828.59
498.082	5835.82
498.452	5959.66
498.821	5995.59
499.19	6032.88
499.559	6090.73
499.928	6113.33
500.298	6180.22
500.667	6252.76
501.036	6256.83
501.405	6334.34
501.774	6318.07
502.143	6386.54
502.512	6433.77
502.88	6525.97
503.249	6537.05
503.618	6565.07
503.987	6631.05
504.356	6676.93
504.724	6728.68
505.093	6768.9
505.462	6784.95
505.83	6831.05
506.199	6927.54
506.567	7053.64
506.936	6975.68
507.304	7096.58
507.672	7155.33
508.041	7173.64
508.409	7175.22
508.777	7270.81
509.145	7332.28
509.514	7286.4
509.882	7402.79
510.25	7461.32
510.618	7460.86
510.986	7498.38
511.354	7547.64
511.722	7588.09
512.09	7678.94
512.458	7655.89
512.826	7720.74
513.193	7818.37
513.561	7749.67
513.929	7839.84
514.297	7854.07
514.664	7956.44
515.032	7985.14
515.4	8048.87
515.767	8148.75
516.135	8101.3
516.502	8057.91
516.869	8227.17
517.237	8242.76
517.604	8188.53
517.972	8328.64
518.339	8347.85
518.706	8375.64
519.073	8382.65
519.44	8447.05
519.808	8576.99
520.175	8537.22
520.542	8672.36
520.909	8652.92
521.276	8702.19
521.643	8787.16
522.009	8831.9
522.376	8796.87
522.743	8880.26
523.11	8942.63
523.477	9010.2
523.843	9075.51
524.21	9187.82
524.577	9193.7
524.943	9241.38
525.31	9329.74
525.676	9314.83
526.043	9406.8
526.409	9522.5
526.776	9611.32
527.142	9578.55
527.508	9649.05
527.874	9641.82
528.241	9709.39
528.607	9758.43
528.973	9856.28
529.339	9857.18
529.705	9926.79
530.071	10018.08
530.437	10078.42
530.803	10112.54
531.169	10153.67
531.535	10172.2
531.901	10207.46
532.267	10176.05
532.632	10300.11
532.998	10381.46
533.364	10405.87
533.73	10467.34
534.095	10501.24
534.461	10535.81
534.826	10661.23
535.192	10607
535.557	10734
535.923	10736.94
536.288	10741
536.653	10809.02
537.019	10861.23
537.384	10938.29
537.749	10958.4
538.114	11020.09
538.479	11070.49
538.845	11062.12
539.21	11082.01
539.575	11146.42
539.94	11164.72
540.305	11272.97
540.67	11310.71
541.034	11379.4
541.399	11404.49
541.764	11435
542.129	11463.92
542.494	11532.85
542.858	11636.12
543.223	11562.9
543.587	11607.42
543.952	11677.93
544.316	11717.7
544.681	11736.46
545.045	11821.88
545.41	11899.84
545.774	11938.26
546.138	11959.95
546.503	11964.02
546.867	11957.69
547.231	12153.62
547.595	12117.92
547.959	12189.33
548.324	12180.06
548.688	12261.41
549.052	12290.57
549.416	12251.25
549.779	12312.71
550.143	12314.52
550.507	12478.13
550.871	12511.13
551.235	12569.88
551.599	12662.08
551.962	12657.79
552.326	12661.86
552.689	12785.24
553.053	12656.43
553.417	12765.58
553.78	12919.48
554.143	12834.06
554.507	12912.47
554.87	13003.77
555.234	13035.63
555.597	13087.16
555.96	13068.63
556.323	13142.75
556.686	13094.84
557.05	13220.26
557.413	13235.85
557.776	13323.08
558.139	13378
558.502	13476.98
558.865	13437.2
559.228	13576.86
559.59	13585.9
559.953	13610.98
560.316	13704.09
560.679	13752.45
561.041	13808.27
561.404	13804.43
561.767	13959.22
562.129	13904.99
562.492	14060.46
562.854	14019.56
563.217	14072.21
563.579	14013.69
563.941	14136.62
564.304	14220.01
564.666	14307.69
565.028	14276.28
565.39	14408.93
565.753	14445.54
566.115	14428.36
566.477	14524.86
566.839	14630.62
567.201	14596.04
567.563	14652.54
567.925	14774.8
568.287	14756.26
568.648	14790.61
569.01	14926.66
569.372	15087.78
569.734	14967.33
570.095	15017.27
570.457	15153.54
570.819	15222.69
571.18	15253.2
571.542	15373.2
571.903	15407.32
572.265	15441.67
572.626	15573.87
572.987	15599.41
573.349	15624.26
573.71	15822.23
574.071	15783.58
574.432	15873.07
574.794	15991.94
575.155	15934.76
575.516	16116.68
575.877	16139.51
576.238	16244.14
576.599	16356.22
576.96	16429.67
577.32	16509.44
577.681	16677.8
578.042	16832.59
578.403	16874.17
578.763	16977
579.124	17149.65
579.485	17290.21
579.845	17489.3
580.206	17497.66
580.566	17688.39
580.927	17814.49
581.287	18007.93
581.648	18045.22
582.008	18373.8
582.368	18534.7
582.728	18657.63
583.089	18822.6
583.449	19063.27
583.809	19231.18
584.169	19403.83
584.529	19458.29
584.889	19905.73
585.249	19964.04
585.609	20172.17
585.969	20448.77
586.329	20613.51
586.688	20929.89
587.048	21088.75
587.408	21330.1
587.768	21550.21
588.127	21868.17
588.487	22099.57
588.846	22470.86
589.206	22447.59
589.565	22794.47
589.925	23191.3
590.284	23289.83
590.643	23647.1
591.003	23883.03
591.362	24286.86
591.721	24482.34
592.08	24737.25
592.44	25095.65
592.799	25408.64
593.158	25657.22
593.517	25897.21
593.876	26247.94
594.235	26484.09
594.593	26764.99
594.952	27208.59
595.311	27255.82
595.67	27701.91
596.029	28165.18
596.387	28380.31
596.746	28639.52
597.104	28821.66
597.463	29230.01
597.822	29563.33
598.18	29787.73
598.538	29969.42
598.897	30439.02
599.255	30392.24
599.613	31048.04
599.972	31203.52
600.33	31462.27
600.688	31669.72
601.046	32062.93
601.404	32347.67
601.762	32555.8
602.12	33037.37
602.478	33225.16
602.836	33365.49
603.194	33511.48
603.552	33970.9
603.91	33954.4
604.268	34340.16
604.625	34517.1
604.983	34955.06
605.341	34943.53
605.698	35323.18
606.056	35641.14
606.413	35812.21
606.771	36119.32
607.128	36360.22
607.485	36315.47
607.843	36547.33
608.2	37037.71
608.557	37222.11
608.914	37378.49
609.272	37730.35
609.629	37789.78
609.986	38267.28
610.343	38267.06
610.7	38699.14
611.057	38710.66
611.414	38930.77
611.771	39031.56
612.127	39328.27
612.484	39383.41
612.841	39796.74
613.198	39853.23
613.554	39824.08
613.911	40083.73
614.267	40408.25
614.624	40450.5
614.98	40551.52
615.337	40845.97
615.693	40913.54
616.05	40935.69
616.406	41304.04
616.762	41426.52
617.118	41327.77
617.475	41640.76
617.831	41901.77
618.187	41949.22
618.543	42083.68
618.899	42450.68
619.255	42412.49
619.611	42517.79
619.967	42699.03
620.323	42749.2
620.678	42842.53
621.034	42769.99
621.39	42973.6
621.746	42959.14
622.101	43388.96
622.457	43145.8
622.812	43343.31
623.168	43539.24
623.523	43654.49
623.879	43817.87
624.234	43435.28
624.589	43695.84
624.945	43779.68
625.3	43918.21
625.655	43956.85
626.01	44125.66
626.365	44167.69
626.72	44024.2
627.075	44176.28
627.43	44228.03
627.785	44252.89
628.14	44409.04
628.495	44439.1
628.85	44474.58
629.205	44247.47
629.559	44698.3
629.914	44557.51
630.269	44533.33
630.623	44405.88
630.978	44378.54
631.332	44403.85
631.687	44767.45
632.041	44556.84
632.396	44645.65
632.75	44541.7
633.104	44689.04
633.459	44624.41
633.813	44557.51
634.167	44615.59
634.521	44613.78
634.875	44607.01
635.229	44667.79
635.583	44348.48
635.937	44554.13
636.291	44506.67
636.645	44671.41
636.999	44484.75
637.352	44672.31
637.706	44362.27
638.06	44510.96
638.413	44487.69
638.767	44511.64
639.121	44498.76
639.474	44353.9
639.828	44385.77
640.181	44421.25
640.534	44390.29
640.888	44316.17
641.241	44247.69
641.594	44267.13
641.947	44414.69
642.301	44201.82
642.654	44280.91
643.007	44189.16
643.36	44185.77
643.713	44141.48
644.066	44369.95
644.419	44036.4
644.771	43894.93
645.124	43378.79
645.477	43429.18
645.83	43236.65
646.182	42864
646.535	43009.08
646.888	43002.98
647.24	42816.32
647.593	43061.51
647.945	43049.31
648.298	42837.79
648.65	42818.58
649.002	42559.6
649.355	42911.91
649.707	42752.14
650.059	42979.7
650.411	43377.88
650.763	43467.6
651.115	43847.48
651.467	43738.1
651.819	43806.12
652.171	43668.95
652.523	43526.13
652.875	43647.48
653.227	43482.74
653.578	43682.96
653.93	43639.8
654.282	43536.98
654.633	43363.65
654.985	43472.8
655.337	43426.92
655.688	43389.64
656.039	43701.04
656.391	43154.16
656.742	43412.23
657.094	43306.25
657.445	43563.42
657.796	43464.21
658.147	43323.42
658.498	43332.91
658.849	43280.94
659.2	43279.58
659.551	43251.11
659.902	43347.38
660.253	43187.83
660.604	43437.32
660.955	43034.17
661.306	43197.78
661.656	43228.51
662.007	43256.08
662.358	43231.45
662.708	43216.53
663.059	43088.63
663.409	43001.4
663.76	43196.42
664.11	43223.76
664.461	43195.52
664.811	43145.57
665.161	43107.61
665.511	43142.64
665.862	43197.78
666.212	43213.14
666.562	43320.94
666.912	43207.27
667.262	42955.52
667.612	43199.58
667.962	43184.67
668.312	42952.81
668.662	43253.37
669.011	43066.25
669.361	43027.39
669.711	42979.03
670.06	42948.97
670.41	42787.62
670.76	42834.17
671.109	43096.54
671.459	43082.3
671.808	42830.33
672.157	42962.53
672.507	42695.42
672.856	42785.13
673.205	42618.36
673.554	42898.35
673.904	42758.69
674.253	43000.49
674.602	42840.27
674.951	42183.57
675.3	42143.57
675.649	42643.21
675.998	42714.63
676.346	42728.18
676.695	42909.42
677.044	42549.21
677.393	42650.45
677.741	42682.76
678.09	42410.68
678.438	42430.11
678.787	42458.59
679.135	42598.92
679.484	42261.08
679.832	42533.61
680.181	42307.4
680.529	42419.04
680.877	42268.76
681.225	42086.39
681.573	42441.86
681.922	42178.82
682.27	41819.51
682.618	41916.23
682.966	41840.07
683.314	41956.23
683.661	41741.54
684.009	41502.68
684.357	41608.67
684.705	41477.14
685.053	41539.06
685.4	41498.16
685.748	41396.92
686.095	41280.31
686.443	41053.65
686.79	41134.78
687.138	41308.11
687.485	41310.82
687.832	40823.6
688.18	41075.57
688.527	40807.78
688.874	40761.68
689.221	40680.55
689.568	40688.01
689.915	40547.22
690.262	40563.27
690.609	40430.17
690.956	40238.53
691.303	40322.6
691.65	40148.59
691.997	40156.5
692.344	40021.36
692.69	39854.36
693.037	39940.69
693.383	39545.22
693.73	39677.19
694.077	39382.96
694.423	39516.07
694.769	39285.34
695.116	39315.84
695.462	39308.84
695.808	39112.69
696.155	39123.76
696.501	38900.94
696.847	38825.46
697.193	38522.19
697.539	38682.42
697.885	38404.91
698.231	38293.27
698.577	38448.52
698.923	38344.34
699.269	38232.94
699.614	37918.14
699.96	37845.83
700.306	37979.83
700.651	37749.11
700.997	37678.6
701.342	37607.87
701.688	37611.03
702.033	37409.68
702.379	37463.69
702.724	37243.36
703.069	37410.13
703.415	36841.79
703.76	36986.41
704.105	36946.42
704.45	36964.95
704.795	36640.21
705.14	36530.61
705.485	36587.1
705.83	36466.88
706.175	36463.26
706.52	36303.95
706.865	36225.98
707.209	36189.83
707.554	36109.15
707.899	36140.34
708.243	35826.22
708.588	35868.7
708.932	35615.15
709.277	35704.41
709.621	35707.35
709.966	35402.73
710.31	35510.97
710.654	35285.67
710.998	35205.22
711.342	35338.32
711.687	35272.56
712.031	35118.22
712.375	34899.24
712.719	35006.81
713.063	34797.09
713.407	34972.68
713.75	34758.22
714.094	34619.7
714.438	34637.55
714.782	34525.01
715.125	34468.06
715.469	34568.17
715.812	34354.39
716.156	34189.2
716.499	34171.12
716.843	34193.04
717.186	33896.78
717.53	33890.9
717.873	34061.29
718.216	33970.45
718.559	33889.55
718.902	33629.21
719.246	33672.6
719.589	33669.67
719.932	33616.79
720.275	33544.7
720.617	33491.14
720.96	33382.22
721.303	33534.3
721.646	33370.46
721.989	33169.34
722.331	33340.41
722.674	33225.38
723.016	33286.4
723.359	33145.39
723.701	33194.42
724.044	32805.51
724.386	32677.83
724.729	32825.17
725.071	32753.76
725.413	32771.61
725.755	32732.52
726.097	32570.26
726.439	32440.55
726.782	32410.72
727.124	32597.15
727.465	32454.33
727.807	32420.21
728.149	32222.7
728.491	32216.82
728.833	32298.63
729.175	32166.2
729.516	32091.18
729.858	32055.92
730.199	32021.57
730.541	32000.78
730.882	31960.33
731.224	32012.76
731.565	31889.6
731.906	31912.42
732.248	31834.91
732.589	31755.59
732.93	31622.71
733.271	31586.33
733.612	31625.2
733.953	31587.01
734.294	31379.33
734.635	31389.05
734.976	31484.86
735.317	31310.63
735.658	31253.91
735.999	31243.97
736.339	31157.42
736.68	31361.7
737.021	31242.84
737.361	31025.89
737.702	31277.19
738.042	30990.64
738.383	30960.13
738.723	31117.42
739.063	30854.6
739.404	30864.99
739.744	30878.78
740.084	30817.31
740.424	30610.54
740.764	30585.23
741.104	30844.43
741.444	30529.18
741.784	30523.31
742.124	30560.59
742.464	30463.65
742.804	30395.4
743.143	30396.76
743.483	30334.84
743.823	30276.08
744.162	30133.49
744.502	30194.95
744.841	30100.27
745.181	30300.04
745.52	29988.18
745.86	30113.15
746.199	29993.83
746.538	29905.92
746.877	30040.83
747.216	29946.15
747.556	29890.33
747.895	29867.96
748.234	29720.84
748.573	29721.52
748.911	29600.85
749.25	29731.46
749.589	29543.9
749.928	29604.01
750.267	29622.09
750.605	29418.03
750.944	29425.48
751.283	29208.99
751.621	29383.68
751.96	29221.42
752.298	29190.46
752.636	29233.62
752.975	28998.6
753.313	28912.73
753.651	29033.4
753.989	28761.55
754.327	28888.55
754.666	28780.3
755.004	28739.63
755.342	28787.08
755.679	28734.65
756.017	28592.74
756.355	28619.18
756.693	28460.76
757.031	28503.93
757.368	28311.84
757.706	28292.41
758.044	28278.62
