Data from hue_340_FLMS001491_10.txt Node
Date: Mon Feb 06 15:42:13 GMT 2017
User: dcchb
Spectrometer: FLMS00149
Trigger mode: 0
Integration Time (sec): 2.000000E-2
Scans to average: 10
Electric dark correction enabled: true
Nonlinearity correction enabled: false
Boxcar width: 0
XAxis mode: Wavelengths
Number of Pixels in Spectrum: 2048
>>>>>Begin Spectral Data<<<<<
341.393	-23.93
341.776	-23.93
342.16	-23.93
342.543	-65.28
342.927	-77.94
343.31	-59.18
343.693	-60.31
344.077	-63.92
344.46	-71.38
344.843	-53.3
345.226	-53.3
345.61	-39.52
345.993	-11.04
346.376	0.03
346.759	28.95
347.142	6.58
347.525	57.65
347.908	55.85
348.291	58.33
348.674	99.46
349.057	105.11
349.44	135.17
349.823	149.18
350.206	165.22
350.588	202.51
350.971	200.02
351.354	204.09
351.737	230.3
352.119	249.51
352.502	253.13
352.884	265.33
353.267	271.43
353.65	309.4
354.032	281.38
354.414	299
354.797	319.12
355.179	301.26
355.562	320.02
355.944	323.86
356.326	341.49
356.709	330.19
357.091	308.04
357.473	331.32
357.855	326.35
358.238	341.71
358.62	328.16
359.002	331.77
359.384	338.78
359.766	315.95
360.148	335.61
360.53	325.22
360.912	316.18
361.294	317.53
361.676	317.08
362.057	324.31
362.439	318.89
362.821	329.06
363.203	330.19
363.584	309.62
363.966	321.15
364.348	311.66
364.729	329.06
365.111	331.09
365.493	301.49
365.874	324.31
366.256	299.46
366.637	314.37
367.019	301.49
367.4	309.62
367.781	304.43
368.163	313.24
368.544	316.63
368.925	306.46
369.306	315.27
369.688	312.79
370.069	295.61
370.45	294.71
370.831	308.27
371.212	306.23
371.593	321.38
371.974	300.36
372.355	294.94
372.736	312.79
373.117	314.6
373.498	308.72
373.879	318.44
374.26	321.15
374.641	308.72
375.021	325.67
375.402	327.03
375.783	301.26
376.163	313.24
376.544	303.75
376.925	319.79
377.305	316.63
377.686	329.74
378.066	317.99
378.447	334.03
378.827	337.42
379.208	324.54
379.588	327.93
379.968	348.49
380.349	318.44
380.729	342.62
381.109	332.22
381.489	332.9
381.87	340.58
382.25	366.35
382.63	322.05
383.01	332.67
383.39	338.1
383.77	339.91
384.15	341.94
384.53	326.57
384.91	332
385.29	342.17
385.67	341.94
386.049	350.08
386.429	350.75
386.809	347.82
387.189	342.62
387.568	343.3
387.948	329.74
388.328	365.44
388.707	353.69
389.087	352.34
389.466	362.5
389.846	360.24
390.225	377.65
390.605	360.47
390.984	367.93
391.363	368.61
391.743	338.32
392.122	355.05
392.501	367.7
392.881	363.63
393.26	364.09
393.639	361.37
394.018	375.61
394.397	384.2
394.776	374.71
395.155	375.16
395.534	365.44
395.913	383.52
396.292	380.13
396.671	392.56
397.05	388.72
397.429	383.3
397.808	395.27
398.186	395.72
398.565	385.1
398.944	377.65
399.323	387.36
399.701	401.37
400.08	395.95
400.458	392.11
400.837	390.07
401.215	397.76
401.594	385.55
401.972	400.92
402.351	408.83
402.729	403.41
403.107	394.37
403.486	410.86
403.864	414.25
404.242	421.03
404.62	421.71
404.999	419.45
405.377	386.23
405.755	416.74
406.133	409.06
406.511	421.49
406.889	419
407.267	424.42
407.645	422.39
408.023	436.63
408.401	446.8
408.779	429.62
409.156	467.81
409.534	452.45
409.912	456.29
410.29	454.71
410.667	474.37
411.045	468.94
411.422	507.36
411.8	455.38
412.178	500.35
412.555	494.48
412.933	476.4
413.31	456.74
413.687	484.54
414.065	488.6
414.442	494.48
414.819	492.67
415.197	508.49
415.574	478.21
415.951	537.42
416.328	517.98
416.705	527.7
417.082	509.39
417.46	550.07
417.837	543.52
418.214	546
418.591	539.22
418.967	545.78
419.344	576.28
419.721	567.02
420.098	564.08
420.475	582.39
420.852	598.2
421.228	571.54
421.605	586.91
421.982	597.98
422.358	578.54
422.735	604.98
423.111	596.62
423.488	601.59
423.864	609.28
424.241	627.36
424.617	636.4
424.994	611.31
425.37	617.41
425.746	639.11
426.123	640.92
426.499	643.18
426.875	635.04
427.251	649.95
427.627	675.26
428.003	675.49
428.379	667.81
428.756	689.95
429.132	666.68
429.507	673.68
429.883	697.86
430.259	677.3
430.635	725.66
431.011	707.35
431.387	701.93
431.763	732.66
432.138	729.27
432.514	739.44
432.89	741.7
433.265	754.13
433.641	761.14
434.016	782.38
434.392	781.25
434.767	800.01
435.143	783.28
435.518	794.58
435.894	821.25
436.269	827.8
436.644	814.24
437.02	837.29
437.395	802.49
437.77	829.38
438.145	852.66
438.52	847.24
438.895	870.97
439.271	850.63
439.646	859.44
440.021	847.24
440.395	890.63
440.77	861.47
441.145	895.82
441.52	896.73
441.895	887.69
442.27	898.08
442.645	912.09
443.019	896.28
443.394	929.27
443.769	920.91
444.143	911.19
444.518	915.48
444.892	947.12
445.267	961.58
445.641	926.11
446.016	942.15
446.39	940.12
446.764	951.42
447.139	962.71
447.513	965.2
447.887	963.62
448.262	966.1
448.636	972.43
449.01	975.6
449.384	987.35
449.758	981.92
450.132	1006.56
450.506	1016.95
450.88	999.78
451.254	1011.53
451.628	1037.74
452.002	1039.32
452.376	1024.63
452.75	1043.84
453.123	1045.88
453.497	1058.76
453.871	1079.55
454.244	1105.08
454.618	1093.11
454.992	1081.58
455.365	1108.02
455.739	1130.62
456.112	1115.03
456.486	1143.73
456.859	1146.21
457.232	1149.6
457.606	1124.52
457.979	1160.68
458.352	1183.5
458.725	1196.15
459.099	1185.31
459.472	1211.3
459.845	1204.06
460.218	1238.19
460.591	1233.89
460.964	1235.93
461.337	1278.86
461.71	1296.04
462.083	1266.89
462.456	1296.72
462.829	1266.44
463.201	1293.78
463.574	1316.38
463.947	1347.79
464.32	1376.72
464.692	1358.18
465.065	1364.74
465.438	1370.16
465.81	1395.47
466.183	1412.87
466.555	1458.07
466.928	1428.47
467.3	1437.5
467.672	1443.38
468.045	1502.14
468.417	1481.12
468.789	1504.62
469.161	1528.8
469.534	1557.95
469.906	1584.39
470.278	1563.15
470.65	1558.63
471.022	1630.95
471.394	1616.48
471.766	1648.12
472.138	1688.12
472.51	1728.57
472.882	1714.11
473.253	1707.78
473.625	1733.09
473.997	1796.82
474.369	1807.66
474.74	1820.32
475.112	1850.83
475.484	1884.95
475.855	1903.03
476.227	1915.91
476.598	1942.8
476.97	1948.23
477.341	2028
477.713	2035.68
478.084	2055.79
478.455	2075.45
478.827	2107.77
479.198	2169.91
479.569	2187.99
479.94	2236.35
480.311	2261.44
480.682	2282
481.053	2310.02
481.424	2352.28
481.795	2380.53
482.166	2399.06
482.537	2416.24
482.908	2451.49
483.279	2481.54
483.65	2570.81
484.021	2603.35
484.391	2612.39
484.762	2627.76
485.133	2650.81
485.503	2696.91
485.874	2777.13
486.244	2735.78
486.615	2801.31
486.985	2872.5
487.356	2921.76
487.726	2904.36
488.097	2992.72
488.467	2977.35
488.837	3053.51
489.207	3053.96
489.578	3148.42
489.948	3175.54
490.318	3201.75
490.688	3197.91
491.058	3260.06
491.428	3276.1
491.798	3286.27
492.168	3375.31
492.538	3375.08
492.908	3419.15
493.278	3474.74
493.648	3479.26
494.017	3498.47
494.387	3543.44
494.757	3587.73
495.126	3613.49
495.496	3638.12
495.866	3681.74
496.235	3684.45
496.605	3728.29
496.974	3759.48
497.344	3755.64
497.713	3798.12
498.082	3789.31
498.452	3829.98
498.821	3834.73
499.19	3885.58
499.559	3882.64
499.928	3901.62
500.298	3977.32
500.667	3977.32
501.036	3971.45
501.405	4008.51
501.774	4025.46
502.143	4034.95
502.512	4101.16
502.88	4079.92
503.249	4146.59
503.618	4135.74
503.987	4187.04
504.356	4159.92
504.724	4215.74
505.093	4202.4
505.462	4280.37
505.83	4212.12
506.199	4289.18
506.567	4336.41
506.936	4274.27
507.304	4381.38
507.672	4341.38
508.041	4374.6
508.409	4377.77
508.777	4402.85
509.145	4449.4
509.514	4407.14
509.882	4488.72
510.25	4457.54
510.618	4514.71
510.986	4523.98
511.354	4550.42
511.722	4540.25
512.09	4650.75
512.458	4594.94
512.826	4635.39
513.193	4617.76
513.561	4648.72
513.929	4681.04
514.297	4676.97
514.664	4722.62
515.032	4771.2
515.4	4764.2
515.767	4762.84
516.135	4773.69
516.502	4733.92
516.869	4819.34
517.237	4817.3
517.604	4850.07
517.972	4863.18
518.339	4859.11
518.706	4846.91
519.073	4893.46
519.44	4934.81
519.808	4936.62
520.175	4927.58
520.542	5008.48
520.909	5015.26
521.276	4982.5
521.643	5015.49
522.009	5048.94
522.376	5104.53
522.743	5109.27
523.11	5200.57
523.477	5180.46
523.843	5155.15
524.21	5257.52
524.577	5255.94
524.943	5254.58
525.31	5278.76
525.676	5318.31
526.043	5355.82
526.409	5366.89
526.776	5384.75
527.142	5469.71
527.508	5452.31
527.874	5484.4
528.241	5534.57
528.607	5491.86
528.973	5569.6
529.339	5572.99
529.705	5643.04
530.071	5621.35
530.437	5684.4
530.803	5675.13
531.169	5749.26
531.535	5742.7
531.901	5721.23
532.267	5758.52
532.632	5810.5
532.998	5792.42
533.364	5882.81
533.73	5886.43
534.095	5936.6
534.461	5942.47
534.826	5962.81
535.192	6022.92
535.557	6002.58
535.923	6059.76
536.288	6075.57
536.653	6076.03
537.019	6063.82
537.384	6088.91
537.749	6137.49
538.114	6216.59
538.479	6181.79
538.845	6217.27
539.21	6184.72
539.575	6232.63
539.94	6304.04
540.305	6302.91
540.67	6360.99
541.034	6288.9
541.399	6336.58
541.764	6390.37
542.129	6420.65
542.494	6443.7
542.858	6473.98
543.223	6484.38
543.587	6491.61
543.952	6529.35
544.316	6562.79
544.681	6563.7
545.045	6682.34
545.41	6679.85
545.774	6676.91
546.138	6716.24
546.503	6690.7
546.867	6730.02
547.231	6805.95
547.595	6735.44
547.959	6872.16
548.324	6834.88
548.688	6823.35
549.052	6862.9
549.416	6925.27
549.779	6978.38
550.143	6885.5
550.507	6943.12
550.871	7050.24
551.235	7005.04
551.599	7091.82
551.962	7136.34
552.326	7118.26
552.689	7106.96
553.053	7135.43
553.417	7165.49
553.78	7268.76
554.143	7220.63
554.507	7276.67
554.87	7242.55
555.234	7331.13
555.597	7319.16
555.96	7314.41
556.323	7356.22
556.686	7383.11
557.05	7398.48
557.413	7379.72
557.776	7437.12
558.139	7500.85
558.502	7448.19
558.865	7522.54
559.228	7581.07
559.59	7572.26
559.953	7610
560.316	7674.63
560.679	7666.49
561.041	7682.09
561.404	7657.45
561.767	7753.95
562.129	7758.69
562.492	7811.8
562.854	7778.35
563.217	7833.27
563.579	7815.87
563.941	7822.65
564.304	7953.49
564.666	7955.75
565.028	7981.29
565.39	8022.42
565.753	8039.36
566.115	8034.39
566.477	8114.84
566.839	8121.4
567.201	8184.45
567.563	8174.95
567.925	8217.89
568.287	8141.28
568.648	8213.37
569.01	8279.36
569.372	8328.85
569.734	8297.89
570.095	8454.27
570.457	8411.33
570.819	8470.31
571.18	8486.58
571.542	8530.88
571.903	8600.48
572.265	8618.56
572.626	8684.32
572.987	8690.87
573.349	8693.81
573.71	8801.15
574.071	8833.02
574.432	8807.25
574.794	9029.17
575.155	9010.41
575.516	9039.34
575.877	9091.09
576.238	9143.97
576.599	9279.78
576.96	9268.94
577.32	9373.34
577.681	9433.45
578.042	9555.94
578.403	9615.82
578.763	9723.84
579.124	9727.91
579.485	9913.21
579.845	10007.45
580.206	10095.13
580.566	10122.93
580.927	10303.03
581.287	10382.35
581.648	10493.99
582.008	10686.98
582.368	10764.49
582.728	10895.79
583.089	11043.58
583.449	11264.59
583.809	11411.25
584.169	11581.42
584.529	11686.95
584.889	11991.8
585.249	12105.7
585.609	12283.1
585.969	12542.52
586.329	12710.43
586.688	12899.35
587.048	13108.61
587.408	13229.06
587.768	13554.25
588.127	13680.35
588.487	13985.65
588.846	14220.22
589.206	14397.16
589.565	14740.88
589.925	14986.98
590.284	15184.04
590.643	15480.3
591.003	15778.6
591.362	16027.4
591.721	16295.42
592.08	16599.37
592.44	16915.97
592.799	17176.75
593.158	17383.98
593.517	17642.95
593.876	17960.46
594.235	18260.34
594.593	18532.65
594.952	18889.25
595.311	19040.21
595.67	19455.79
596.029	19923.12
596.387	20163.57
596.746	20473.84
597.104	20587.51
597.463	20931.91
597.822	21219.58
598.18	21522.17
598.538	21779.34
598.897	22151.99
599.255	22314.47
599.613	22845.3
599.972	22970.27
600.33	23339.08
600.688	23504.95
601.046	23772.96
601.404	24186.28
601.762	24437.35
602.12	24805.25
602.478	25028.75
602.836	25317.33
603.194	25488.85
603.552	25753.7
603.91	25963.41
604.268	26397.75
604.625	26470.07
604.983	26876.16
605.341	27072.76
605.698	27354.79
606.056	27692.41
606.413	27811.73
606.771	28220.3
607.128	28373.97
607.485	28507.98
607.843	28666.17
608.2	29135.08
608.557	29380.27
608.914	29554.51
609.272	29837.21
609.629	30077.88
609.986	30398.33
610.343	30317.88
610.7	30832.21
611.057	30940.46
611.414	31132.77
611.771	31287.57
612.127	31592.87
612.484	31726.65
612.841	32053.2
613.198	32054.55
613.554	32266.07
613.911	32618.83
614.267	32818.15
614.624	32863.34
614.98	33088.88
615.337	33328.64
615.693	33475.53
616.05	33468.98
616.406	33723.89
616.762	33809.08
617.118	33884.56
617.475	34104.22
617.831	34379.69
618.187	34455.85
618.543	34637.76
618.899	34942.16
619.255	34955.49
619.611	34978.77
619.967	35183.96
620.323	35277.29
620.678	35411.98
621.034	35391.87
621.39	35604.74
621.746	35733.55
622.101	36063.94
622.457	35879.08
622.812	36045.63
623.168	36364.95
623.523	36307.55
623.879	36545.51
624.234	36270.49
624.589	36536.02
624.945	36566.98
625.3	36823.24
625.655	36840.87
626.01	36909.79
626.365	36960.19
626.72	36995.44
627.075	37018.94
627.43	37150.01
627.785	37027.76
628.14	37153.4
628.495	37275.21
628.85	37287.64
629.205	37187.53
629.559	37489.89
629.914	37398.82
630.269	37514.07
630.623	37499.38
630.978	37464.81
631.332	37534.41
631.687	37655.54
632.041	37594.97
632.396	37732.6
632.75	37525.14
633.104	37725.59
633.459	37679.26
633.813	37648.98
634.167	37792.03
634.521	37572.83
634.875	37731.69
635.229	37682.2
635.583	37631.81
635.937	37735.31
636.291	37737.34
636.645	37651.02
636.999	37611.02
637.352	37620.73
637.706	37419.16
638.06	37712.26
638.413	37578.25
638.767	37604.01
639.121	37667.74
639.474	37499.83
639.828	37688.98
640.181	37570.79
640.534	37691.47
640.888	37677.23
641.241	37462.55
641.594	37413.28
641.947	37782.99
642.301	37573.96
642.654	37633.39
643.007	37625.71
643.36	37670.68
643.713	37501.87
644.066	37797
644.419	37425.71
644.771	37213.06
645.124	36957.7
645.477	36910.7
645.83	36620.53
646.182	36596.13
646.535	36516.58
646.888	36609.91
647.24	36293.09
647.593	36482.23
647.945	36477.49
648.298	36375.57
648.65	36250.37
649.002	36077.5
649.355	36399.75
649.707	36306.42
650.059	36475.23
650.411	36796.35
650.763	36891.26
651.115	37263.68
651.467	37205.83
651.819	37310.23
652.171	37214.87
652.523	37110.01
652.875	37190.01
653.227	36943.92
653.578	37197.69
653.93	37114.98
654.282	36869.12
654.633	36843.58
654.985	37016.23
655.337	37016.46
655.688	36955.89
656.039	37163.12
656.391	36870.47
656.742	36894.43
657.094	36979.62
657.445	36992.95
657.796	36896.23
658.147	36847.19
658.498	36788.67
658.849	36869.34
659.2	36781.43
659.551	36663.47
659.902	36841.55
660.253	36752.51
660.604	36853.3
660.955	36679.52
661.306	36855.1
661.656	36709.57
662.007	36723.81
662.358	36799.74
662.708	36726.97
663.059	36658.5
663.409	36468.9
663.76	36812.17
664.11	36764.26
664.461	36842.45
664.811	36767.88
665.161	36659.86
665.511	36649.91
665.862	36823.47
666.212	36678.39
666.562	36691.27
666.912	36603.13
667.262	36652.62
667.612	36563.81
667.962	36606.07
668.312	36615.11
668.662	36813.75
669.011	36637.26
669.361	36567.65
669.711	36624.6
670.06	36567.88
670.41	36414.21
670.76	36353.65
671.109	36649.01
671.459	36619.4
671.808	36603.36
672.157	36614.88
672.507	36200.21
672.856	36409.47
673.205	36482.68
673.554	36616.47
673.904	36499.41
674.253	36591.38
674.602	36486.53
674.951	36056.48
675.3	35768.13
675.649	36290.83
675.998	36311.84
676.346	36322.69
676.695	36405.85
677.044	36119.76
677.393	36275.46
677.741	36301.67
678.09	36124.95
678.438	36034.11
678.787	36104.16
679.135	36225.06
679.484	35886.32
679.832	36084.28
680.181	35879.08
680.529	35962.92
680.877	35924.28
681.225	35776.71
681.573	36103.94
681.922	35798.63
682.27	35748.47
682.618	35689.03
682.966	35489.04
683.314	35614.91
683.661	35654.68
684.009	35392.09
684.357	35356.61
684.705	35324.75
685.053	35301.47
685.4	35201.59
685.748	35103.51
686.095	35215.83
686.443	35029.16
686.79	34995.04
687.138	35045.89
687.485	35068.48
687.832	34929.05
688.18	34800.24
688.527	34636.86
688.874	34720.7
689.221	34646.8
689.568	34581.27
689.915	34431.44
690.262	34442.51
690.609	34433.47
690.956	34285.91
691.303	34286.13
691.65	34039.59
691.997	34017.89
692.344	33920.04
692.69	33936.99
693.037	33903.77
693.383	33698.35
693.73	33744
694.077	33547.39
694.423	33685.02
694.769	33384.91
695.116	33355.54
695.462	33299.49
695.808	33234.18
696.155	33283.67
696.501	32918.48
696.847	33050.68
697.193	32839.39
697.539	32963.68
697.885	32688.89
698.231	32668.55
698.577	32541.09
698.923	32542.9
699.269	32313.98
699.614	32313.75
699.96	32165.96
700.306	32328.67
700.651	32038.28
700.997	31982.24
701.342	32023.59
701.688	31887.78
702.033	31724.62
702.379	31761.68
702.724	31638.74
703.069	31627.22
703.415	31342.25
703.76	31331.63
704.105	31285.08
704.45	31138.64
704.795	31025.2
705.14	30997.63
705.485	31017.74
705.83	30976.39
706.175	30847.13
706.52	30759.9
706.865	30606.91
707.209	30653.69
707.554	30576.4
707.899	30597.87
708.243	30442.39
708.588	30287.37
708.932	30205.79
709.277	30225.22
709.621	30210.31
709.966	30019.35
710.31	30082.85
710.654	29794.73
710.998	29904.78
711.342	29914.04
711.687	29889.41
712.031	29728.74
712.375	29601.96
712.719	29722.64
713.063	29655.07
713.407	29646.71
713.75	29469.54
714.094	29496.43
714.438	29324.23
714.782	29339.37
715.125	29206.94
715.469	29151.35
715.812	29146.15
716.156	28968.53
716.499	28937.8
716.843	29011.92
717.186	28708.65
717.53	28980.28
717.873	28990.45
718.216	28921.98
718.559	28589.33
718.902	28482.67
719.246	28688.77
719.589	28570.35
719.932	28338.04
720.275	28419.17
720.617	28439.05
720.96	28384.37
721.303	28444.48
721.646	28358.15
721.989	28108.89
722.331	28310.7
722.674	28210.59
723.016	28194.77
723.359	28176.69
723.701	28078.16
724.044	27831.84
724.386	27654.44
724.729	27894.44
725.071	27730.82
725.413	27825.51
725.755	27768.34
726.097	27633.2
726.439	27539.87
726.782	27622.35
727.124	27691.96
727.465	27482.24
727.807	27409.7
728.149	27433.66
728.491	27380.78
728.833	27418.97
729.175	27200.22
729.516	27236.15
729.858	27252.65
730.199	27164.29
730.541	27117.51
730.882	27204.51
731.224	27178.97
731.565	26932.2
731.906	27028.24
732.248	27020.56
732.589	26847.01
732.93	26776.95
733.271	26851.3
733.612	26804.75
733.953	26823.73
734.294	26673.68
734.635	26585.54
734.976	26635.94
735.317	26590.29
735.658	26501.7
735.999	26483.63
736.339	26514.36
736.68	26360.24
737.021	26413.35
737.361	26324.76
737.702	26508.94
738.042	26366.11
738.383	26287.47
738.723	26331.77
739.063	26272.33
739.404	26214.93
739.744	26127.02
740.084	26002.28
740.424	26168.83
740.764	25938.1
741.104	26104.43
741.444	25883.87
741.784	25898.1
742.124	25898.1
742.464	25908.27
742.804	25725.23
743.143	25688.62
743.483	25734.94
743.823	25689.3
744.162	25492.69
744.502	25623.08
744.841	25606.36
745.181	25625.57
745.52	25630.31
745.86	25445.46
746.199	25364.79
746.538	25366.82
746.877	25536.31
747.216	25386.93
747.556	25335.63
747.895	25339.02
748.234	25242.75
748.573	25195.3
748.911	25070.33
749.25	25115.53
749.589	25013.83
749.928	25034.85
750.267	25070.33
750.605	24978.58
750.944	24932.48
751.283	24813.16
751.621	24984.46
751.96	24762.99
752.298	24696.1
752.636	24671.02
752.975	24699.04
753.313	24511.93
753.651	24655.65
753.989	24467.18
754.327	24402.55
754.666	24341.08
755.004	24502.43
755.342	24275.77
755.679	24286.4
756.017	24134.76
756.355	24157.81
756.693	24156
757.031	24126.63
757.368	23947.65
757.706	23880.98
758.044	23822.23
758.381	23846.41
758.719	23694.77
759.056	23800.53
759.394	23770.25
759.731	23590.82
760.068	23578.84
