Data from hue_220_FLMS001491_00025.txt Node
Date: Tue Feb 07 16:39:11 GMT 2017
User: dcchb
Spectrometer: FLMS00149
Trigger mode: 0
Integration Time (sec): 2.000000E-2
Scans to average: 10
Electric dark correction enabled: true
Nonlinearity correction enabled: false
Boxcar width: 0
XAxis mode: Wavelengths
Number of Pixels in Spectrum: 2048
>>>>>Begin Spectral Data<<<<<
341.393	-9.82
341.776	-9.82
342.16	-9.82
342.543	-56.14
342.927	-67.67
343.31	-67.22
343.693	-48.23
344.077	-73.32
344.46	-60.66
344.843	-52.3
345.226	-45.75
345.61	-28.12
345.993	-8.23
346.376	-3.71
346.759	6.45
347.142	24.08
347.525	36.74
347.908	49.62
348.291	74.02
348.674	90.97
349.057	105.66
349.44	134.36
349.823	161.48
350.206	173.46
350.588	199.9
350.971	205.55
351.354	240.57
351.737	235.15
352.119	253.45
352.502	267.46
352.884	269.27
353.267	263.62
353.65	283.06
354.032	291.64
354.414	306.33
354.797	322.83
355.179	324.41
355.562	328.93
355.944	327.12
356.326	321.25
356.709	336.16
357.091	330.97
357.473	344.98
357.855	323.51
358.238	359.89
358.62	317.41
359.002	325.99
359.384	337.97
359.766	347.01
360.148	320.57
360.53	336.39
360.912	325.32
361.294	339.78
361.676	306.33
362.057	326.67
362.439	319.89
362.821	317.18
363.203	309.72
363.584	329.38
363.966	316.05
364.348	320.34
364.729	315.15
365.111	311.08
365.493	318.08
365.874	329.38
366.256	308.37
366.637	307.01
367.019	306.56
367.4	301.81
367.781	313.11
368.163	310.4
368.544	304.3
368.925	298.2
369.306	305.2
369.688	295.03
370.069	314.92
370.45	307.01
370.831	330.06
371.212	292.1
371.593	292.77
371.974	318.31
372.355	312.66
372.736	323.06
373.117	297.75
373.498	312.89
373.879	328.71
374.26	308.59
374.641	328.25
375.021	324.86
375.402	305.43
375.783	314.92
376.163	323.96
376.544	322.6
376.925	304.53
377.305	324.19
377.686	318.99
378.066	311.76
378.447	322.38
378.827	342.72
379.208	308.14
379.588	333.9
379.968	323.96
380.349	330.06
380.729	323.06
381.109	314.24
381.489	338.42
381.87	318.08
382.25	333
382.63	330.51
383.01	322.38
383.39	329.38
383.77	325.09
384.15	336.16
384.53	326.45
384.91	323.28
385.29	327.8
385.67	331.19
386.049	345.88
386.429	354.47
386.809	365.32
387.189	339.78
387.568	358.54
387.948	333
388.328	333.45
388.707	345.2
389.087	360.8
389.466	332.1
389.846	361.47
390.225	363.06
390.605	361.93
390.984	364.64
391.363	370.51
391.743	376.16
392.122	373
392.501	363.28
392.881	354.24
393.26	353.56
393.639	357.86
394.018	385.43
394.397	373.9
394.776	367.12
395.155	391.76
395.534	358.31
395.913	368.48
396.292	386.78
396.671	377.07
397.05	379.55
397.429	381.36
397.808	392.43
398.186	383.85
398.565	354.92
398.944	371.64
399.323	405.99
399.701	379.55
400.08	397.18
400.458	416.61
400.837	396.5
401.215	407.12
401.594	420.46
401.972	402.83
402.351	409.61
402.729	426.33
403.107	427.91
403.486	438.53
403.864	423.39
404.242	422.26
404.62	426.78
404.999	431.53
405.377	441.47
405.755	431.75
406.133	452.09
406.511	432.43
406.889	445.09
407.267	445.77
407.645	446.22
408.023	469.04
408.401	479.89
408.779	488.93
409.156	478.08
409.534	489.61
409.912	495.26
410.29	510.85
410.667	479.44
411.045	499.55
411.422	522.83
411.8	540.23
412.178	533.67
412.555	538.64
412.933	561.02
413.31	558.3
413.687	557.17
414.065	559.21
414.442	581.13
414.819	579.09
415.197	593.33
415.574	598.08
415.951	603.73
416.328	616.61
416.705	628.13
417.082	605.53
417.46	627.46
417.837	628.13
418.214	619.77
418.591	635.36
418.967	662.48
419.344	675.14
419.721	687.34
420.098	713.55
420.475	685.98
420.852	710.62
421.228	734.57
421.605	748.36
421.982	744.51
422.358	742.25
422.735	755.59
423.111	745.19
423.488	797.17
423.864	821.57
424.241	807.56
424.617	818.86
424.994	841.46
425.37	818.64
425.746	839.43
426.123	881.91
426.499	890.73
426.875	883.04
427.251	900.44
427.627	895.7
428.003	928.46
428.379	956.49
428.756	949.25
429.132	956.26
429.507	992.42
429.883	975.47
430.259	989.93
430.635	994.9
431.011	1020.67
431.387	1061.57
431.763	1081.91
432.138	1043.72
432.514	1078.52
432.89	1086.65
433.265	1130.49
433.641	1133.88
434.016	1137.95
434.392	1158.29
434.767	1197.61
435.143	1194.45
435.518	1244.84
435.894	1226.76
436.269	1249.59
436.644	1279.19
437.02	1306.53
437.395	1325.06
437.77	1343.59
438.145	1370.49
438.52	1387.89
438.895	1402.35
439.271	1417.04
439.646	1444.83
440.021	1457.04
440.395	1507.43
440.77	1469.24
441.145	1498.62
441.52	1543.14
441.895	1569.58
442.27	1573.19
442.645	1555.57
443.019	1584.72
443.394	1600.54
443.769	1627.88
444.143	1610.71
444.518	1684.6
444.892	1618.62
445.267	1670.37
445.641	1683.7
446.016	1711.49
446.39	1715.56
446.764	1722.12
447.139	1723.47
447.513	1729.35
447.887	1737.48
448.262	1760.08
448.636	1777.26
449.01	1805.73
449.384	1816.12
449.758	1827.88
450.132	1840.98
450.506	1850.47
450.88	1872.39
451.254	1883.69
451.628	1929.34
452.002	1900.64
452.376	1942.9
452.75	1930.92
453.123	1985.84
453.497	1995.55
453.871	2017.7
454.244	2078.49
454.618	2061.09
454.992	2072.39
455.365	2078.49
455.739	2130.01
456.112	2131.6
456.486	2136.12
456.859	2170.01
457.232	2204.36
457.606	2226.96
457.979	2219.28
458.352	2297.47
458.725	2321.42
459.099	2332.04
459.472	2323
459.845	2356.45
460.218	2417.92
460.591	2427.63
460.964	2423.79
461.337	2477.12
461.71	2496.56
462.083	2532.94
462.456	2532.04
462.829	2573.17
463.201	2576.78
463.574	2583.11
463.947	2645.71
464.32	2679.83
464.692	2719.83
465.065	2696.33
465.438	2760.73
465.81	2796.44
466.183	2791.92
466.555	2843.44
466.928	2872.37
467.3	2850.45
467.672	2944
468.045	2985.59
468.417	2990.78
468.789	3009.54
469.161	3050.89
469.534	3089.76
469.906	3151
470.278	3139.71
470.65	3181.29
471.022	3244.56
471.394	3299.48
471.766	3322.53
472.138	3340.38
472.51	3434.16
472.882	3427.16
473.253	3480.26
473.625	3534.5
473.997	3585.34
474.369	3619.69
474.74	3656.53
475.112	3710.31
475.484	3774.27
475.855	3819.91
476.227	3855.17
476.598	3940.14
476.97	3946.24
477.341	4012
477.713	4018.1
478.084	4121.15
478.455	4199.11
478.827	4194.59
479.198	4318.66
479.569	4357.3
479.94	4439.11
480.311	4415.38
480.682	4498.54
481.053	4658.31
481.424	4662.83
481.795	4715.94
482.166	4722.26
482.537	4766.78
482.908	4832.09
483.279	4941.24
483.65	5046.77
484.021	5056.94
484.391	5129.26
484.762	5143.49
485.133	5160.9
485.503	5268.69
485.874	5360.66
486.244	5353.21
486.615	5481.11
486.985	5485.41
487.356	5592.3
487.726	5630.26
488.097	5730.15
488.467	5737.38
488.837	5871.84
489.207	5863.02
489.578	5949.12
489.948	6029.35
490.318	6118.16
490.688	6074.09
491.058	6176.69
491.428	6247.42
491.798	6302.56
492.168	6355.44
492.538	6370.13
492.908	6395.44
493.278	6527.87
493.648	6484.7
494.017	6623
494.387	6632.5
494.757	6650.35
495.126	6707.3
495.496	6711.82
495.866	6745.71
496.235	6878.82
496.605	6859.16
496.974	6895.09
497.344	6955.88
497.713	6968.76
498.082	7018.02
498.452	7074.97
498.821	7079.49
499.19	7079.26
499.559	7150.22
499.928	7136.44
500.298	7203.78
500.667	7229.54
501.036	7209.66
501.405	7248.07
501.774	7286.94
502.143	7245.81
502.512	7267.05
502.88	7292.82
503.249	7348.41
503.618	7406.71
503.987	7378.46
504.356	7413.49
504.724	7418.24
505.093	7465.02
505.462	7479.03
505.83	7511.12
506.199	7545.24
506.567	7574.84
506.936	7605.8
507.304	7697.78
507.672	7610.55
508.041	7695.74
508.409	7694.61
508.777	7737.55
509.145	7757.21
509.514	7695.74
509.882	7779.36
510.25	7763.54
510.618	7783.43
510.986	7840.82
511.354	7823.65
511.722	7835.4
512.09	7917.43
512.458	7899.13
512.826	7886.7
513.193	7873.59
513.561	7869.3
513.929	7895.29
514.297	7975.28
514.664	7951.1
515.032	8040.37
515.4	8017.77
515.767	8036.53
516.135	8049.18
516.502	7942.07
516.869	8057.32
517.237	8083.98
517.604	7988.39
517.972	8009.18
518.339	8017.54
518.706	8041.5
519.073	8033.81
519.44	8048.28
519.808	8090.31
520.175	8057.54
520.542	8109.29
520.909	8095.96
521.276	8070.42
521.643	8153.59
522.009	8176.64
522.376	8154.49
522.743	8154.04
523.11	8088.5
523.477	8183.41
523.843	8189.74
524.21	8258.67
524.577	8199.91
524.943	8202.4
525.31	8225.9
525.676	8251.44
526.043	8239.23
526.409	8257.54
526.776	8256.41
527.142	8302.51
527.508	8243.07
527.874	8250.31
528.241	8297.08
528.607	8249.4
528.973	8288.95
529.339	8218.44
529.705	8290.08
530.071	8337.76
530.437	8302.28
530.803	8302.73
531.169	8273.81
531.535	8214.6
531.901	8176.64
532.267	8232.9
532.632	8210.76
532.998	8192
533.364	8213.47
533.73	8145.45
534.095	8186.35
534.461	8181.61
534.826	8267.93
535.192	8143.64
535.557	8179.35
535.923	8112.68
536.288	8174.83
536.653	8018.9
537.019	8100.48
537.384	8064.55
537.749	8026.58
538.114	7993.59
538.479	8027.26
538.845	8012.12
539.21	7941.39
539.575	7915.4
539.94	7978.22
540.305	7922.4
540.67	7873.59
541.034	7908.62
541.399	7857.1
541.764	7879.92
542.129	7844.21
542.494	7813.03
542.858	7745.46
543.223	7745.23
543.587	7803.76
543.952	7750.21
544.316	7762.63
544.681	7700.72
545.045	7670.89
545.41	7688.96
545.774	7623.88
546.138	7600.15
546.503	7627.27
546.867	7523.09
547.231	7542.3
547.595	7535.97
547.959	7505.01
548.324	7509.08
548.688	7505.69
549.052	7443.1
549.416	7419.82
549.779	7370.33
550.143	7357.45
550.507	7412.59
550.871	7321.29
551.235	7326.04
551.599	7318.58
551.962	7281.97
552.326	7225.47
552.689	7243.33
553.053	7250.33
553.417	7176.89
553.78	7240.61
554.143	7190.22
554.507	7181.63
554.87	7209.43
555.234	7178.7
555.597	7105.03
555.96	7147.06
556.323	7147.74
556.686	7083.33
557.05	7158.36
557.413	7098.47
557.776	7100.73
558.139	7131.01
558.502	7048.08
558.865	7041.07
559.228	7131.01
559.59	7082.88
559.953	7075.2
560.316	7075.87
560.679	7046.5
561.041	7095.08
561.404	7081.75
561.767	7055.31
562.129	7091.92
562.492	7098.92
562.854	7011.02
563.217	7041.98
563.579	6999.49
563.941	7053.95
564.304	7054.18
564.666	7095.08
565.028	7061.64
565.39	7096.89
565.753	7154.06
566.115	7163.55
566.477	7159.49
566.839	7101.86
567.201	7177.34
567.563	7107.74
567.925	7160.39
568.287	7089.21
568.648	7145.48
569.01	7162.42
569.372	7225.25
569.734	7159.03
570.095	7202.2
570.457	7199.03
570.819	7232.48
571.18	7215.08
571.542	7225.7
571.903	7192.25
572.265	7233.38
572.626	7277.9
572.987	7271.8
573.349	7268.86
573.71	7224.12
574.071	7251.24
574.432	7352.48
574.794	7391.35
575.155	7399.03
575.516	7325.36
575.877	7365.13
576.238	7370.33
576.599	7418.46
576.96	7432.93
577.32	7424.56
577.681	7401.06
578.042	7436.77
578.403	7453.04
578.763	7455.07
579.124	7435.64
579.485	7509.08
579.845	7570.1
580.206	7524.68
580.566	7554.96
580.927	7553.83
581.287	7582.98
581.648	7580.04
582.008	7657.1
582.368	7617.1
582.728	7678.57
583.089	7718.34
583.449	7604.45
583.809	7726.03
584.169	7664.33
584.529	7692.58
584.889	7758.57
585.249	7699.36
585.609	7650.32
585.969	7750.66
586.329	7721.51
586.688	7761.5
587.048	7756.53
587.408	7799.24
587.768	7767.38
588.127	7796.98
588.487	7785.46
588.846	7803.76
589.206	7892.35
589.565	7802.18
589.925	7805.8
590.284	7887.15
590.643	7886.02
591.003	7857.77
591.362	7909.98
591.721	7947.94
592.08	7925.57
592.44	7938.45
592.799	7956.53
593.158	7938.68
593.517	7982.97
593.876	7961.27
594.235	7934.38
594.593	7942.07
594.952	8015.74
595.311	7933.93
595.67	7999.92
596.029	8055.73
596.387	7999.69
596.746	8072.01
597.104	8020.71
597.463	8057.32
597.822	8072.46
598.18	8013.25
598.538	8004.66
598.897	8119.24
599.255	8058.45
599.613	8152.68
599.972	8115.62
600.33	8111.55
600.688	8046.02
601.046	8144.55
601.404	8213.92
601.762	8130.31
602.12	8196.3
602.478	8107.71
602.836	8170.08
603.194	8168.95
603.552	8194.71
603.91	8134.38
604.268	8220.25
604.625	8144.32
604.983	8140.7
605.341	8138.44
605.698	8163.08
606.056	8187.71
606.413	8227.03
606.771	8198.56
607.128	8203.75
607.485	8145.22
607.843	8131.44
608.2	8222.96
608.557	8200.14
608.914	8138.22
609.272	8272.23
609.629	8240.14
609.986	8315.16
610.343	8268.84
610.7	8342.05
611.057	8288.95
611.414	8264.99
611.771	8259.8
612.127	8352.22
612.484	8316.07
612.841	8430.19
613.198	8330.76
613.554	8348.61
613.911	8367.36
614.267	8339.79
614.624	8330.08
614.98	8327.82
615.337	8450.53
615.693	8377.99
616.05	8388.38
616.406	8439.91
616.762	8360.59
617.118	8375.5
617.475	8330.08
617.831	8459.34
618.187	8343.18
618.543	8453.46
618.899	8485.33
619.255	8480.58
619.611	8370.98
619.967	8448.72
620.323	8480.36
620.678	8425.22
621.034	8479.23
621.39	8474.48
621.746	8465.44
622.101	8449.62
622.457	8378.66
622.812	8416.85
623.168	8428.38
623.523	8525.55
623.879	8446.91
624.234	8462.05
624.589	8474.25
624.945	8442.17
625.3	8485.33
625.655	8472.9
626.01	8494.14
626.365	8480.36
626.72	8461.6
627.075	8441.04
627.43	8451.66
627.785	8453.69
628.14	8446.68
628.495	8444.2
628.85	8447.59
629.205	8380.47
629.559	8510.64
629.914	8415.5
630.269	8387.25
630.623	8415.05
630.978	8370.53
631.332	8432.9
631.687	8429.51
632.041	8348.16
632.396	8414.14
632.75	8402.39
633.104	8349.96
633.459	8282.85
633.813	8314.48
634.167	8357.87
634.521	8302.28
634.875	8269.51
635.229	8310.19
635.583	8286.24
635.937	8248.72
636.291	8253.7
636.645	8254.15
636.999	8264.54
637.352	8243.98
637.706	8207.82
638.06	8219.12
638.413	8232
638.767	8238.78
639.121	8203.75
639.474	8155.84
639.828	8174.6
640.181	8170.99
640.534	8191.1
640.888	8142.29
641.241	8120.37
641.594	8117.65
641.947	8096.86
642.301	8075.4
642.654	8106.35
643.007	8107.71
643.36	8137.99
643.713	8069.07
644.066	8108.39
644.419	8065.45
644.771	8004.44
645.124	7970.31
645.477	7971.22
645.83	7904.78
646.182	7900.71
646.535	7838.34
646.888	7874.72
647.24	7881.28
647.593	7883.76
647.945	7805.35
648.298	7791.56
648.65	7835.18
649.002	7760.38
649.355	7844.21
649.707	7817.1
650.059	7859.13
650.411	7992.23
650.763	8006.24
651.115	8058.9
651.467	8039.01
651.819	8005.11
652.171	8044.89
652.523	7960.6
652.875	7921.5
653.227	7973.93
653.578	7993.36
653.93	8031.55
654.282	7971.89
654.633	7999.24
654.985	8012.57
655.337	8006.92
655.688	7978
656.039	8034.49
656.391	7926.92
656.742	7977.09
657.094	7963.99
657.445	8001.72
657.796	7988.84
658.147	8015.06
658.498	8004.21
658.849	8045.57
659.2	8038.11
659.551	8023.19
659.902	8033.36
660.253	7996.08
660.604	8002.18
660.955	8060.93
661.306	8111.33
661.656	8013.25
662.007	8047.15
662.358	8047.37
662.708	8081.27
663.059	8114.49
663.409	8057.77
663.76	8081.04
664.11	8073.59
664.461	8125.11
664.811	8116.98
665.161	8035.85
665.511	8046.02
665.862	8073.14
666.212	8118.56
666.562	8079.69
666.912	8046.02
667.262	8074.04
667.612	8083.53
667.962	8079.01
668.312	8080.59
668.662	8139.12
669.011	8107.03
669.361	8043.98
669.711	8053.93
670.06	8018.22
670.41	8066.13
670.76	8003.08
671.109	8055.06
671.459	8057.54
671.808	8063.87
672.157	8032.46
672.507	7969.41
672.856	7940.03
673.205	8023.87
673.554	8030.65
673.904	8007.6
674.253	8017.32
674.602	8030.2
674.951	7846.02
675.3	7823.42
675.649	7950.65
675.998	7945.91
676.346	7913.14
676.695	8008.96
677.044	7957.43
677.393	7993.36
677.741	7980.71
678.09	7968.28
678.438	7874.5
678.787	7848.73
679.135	7914.04
679.484	7796.31
679.832	7833.59
680.181	7815.51
680.529	7818.68
680.877	7861.16
681.225	7775.52
681.573	7863.65
681.922	7780.49
682.27	7730.09
682.618	7720.38
682.966	7721.51
683.314	7722.86
683.661	7693.03
684.009	7731.68
684.357	7643.32
684.705	7616.42
685.053	7669.76
685.4	7657.1
685.748	7639.25
686.095	7616.2
686.443	7564.67
686.79	7538.46
687.138	7623.43
687.485	7546.82
687.832	7482.42
688.18	7505.24
688.527	7448.52
688.874	7465.92
689.221	7404.45
689.568	7400.84
689.915	7329.88
690.262	7393.83
690.609	7407.62
690.956	7295.3
691.303	7299.14
691.65	7258.92
691.997	7241.07
692.344	7188.86
692.69	7159.26
693.037	7154.52
693.383	7089.43
693.73	7175.76
694.077	7102.54
694.423	7098.25
694.769	7073.39
695.116	7037.91
695.462	7012.82
695.808	6983.67
696.155	6971.92
696.501	6923.56
696.847	6945.93
697.193	6927.63
697.539	6915.65
697.885	6884.24
698.231	6828.87
698.577	6792.49
698.923	6781.19
699.269	6743
699.614	6757.46
699.96	6677.47
700.306	6709.78
700.651	6686.28
700.997	6641.76
701.342	6583.68
701.688	6628.65
702.033	6583.23
702.379	6558.82
702.724	6497.58
703.069	6611.03
703.415	6456.23
703.76	6435.66
704.105	6458.49
704.45	6485.15
704.795	6387.76
705.14	6417.81
705.485	6351.37
705.83	6324.25
706.175	6270.02
706.52	6314.99
706.865	6316.35
707.209	6285.39
707.554	6241.54
707.899	6283.58
708.243	6200.87
708.588	6210.59
708.932	6152.28
709.277	6135.78
709.621	6125.39
709.966	6123.36
710.31	6114.77
710.654	6049.91
710.998	6063.7
711.342	6077.71
711.687	6057.59
712.031	6063.24
712.375	5980.08
712.719	6011.27
713.063	6005.39
713.407	5987.54
713.75	5900.08
714.094	5938.73
714.438	5937.37
714.782	5900.99
715.125	5953.64
715.469	5906.19
715.812	5882.01
716.156	5871.39
716.499	5922.91
716.843	5877.49
717.186	5851.05
717.53	5877.03
717.873	5864.61
718.216	5873.42
718.559	5797.94
718.902	5753.65
719.246	5795.23
719.589	5797.94
719.932	5825.96
720.275	5753.87
720.617	5764.04
720.96	5788.68
721.303	5768.11
721.646	5775.12
721.989	5709.36
722.331	5781.22
722.674	5738.73
723.016	5741.45
723.359	5715.68
723.701	5744.16
724.044	5733.76
724.386	5686.31
724.729	5688.11
725.071	5686.53
725.413	5713.2
725.755	5658.06
726.097	5642.01
726.439	5677.49
726.782	5700.32
727.124	5687.21
727.465	5665.97
727.807	5680.66
728.149	5674.55
728.491	5617.38
728.833	5692.41
729.175	5602.92
729.516	5582.13
729.858	5647.44
730.199	5632.3
730.541	5597.72
730.882	5628.91
731.224	5674.55
731.565	5657.38
731.906	5654.22
732.248	5661.9
732.589	5664.84
732.93	5632.3
733.271	5640.88
733.612	5622.35
733.953	5664.16
734.294	5620.09
734.635	5614.89
734.976	5635.91
735.317	5626.42
735.658	5646.08
735.999	5718.17
736.339	5642.92
736.68	5639.07
737.021	5656.93
737.361	5649.02
737.702	5684.5
738.042	5680.2
738.383	5691.28
738.723	5741.22
739.063	5706.19
739.404	5714.33
739.744	5699.41
740.084	5684.72
740.424	5735.8
740.764	5699.64
741.104	5790.26
741.444	5769.69
741.784	5791.16
742.124	5716.36
742.464	5827.09
742.804	5811.95
743.143	5855.34
743.483	5852.18
743.823	5817.6
744.162	5851.95
744.502	5904.83
744.841	5921.1
745.181	6010.14
745.52	5982.57
745.86	5985.73
746.199	6033.64
746.538	6019.18
746.877	6117.93
747.216	6191.38
747.556	6222.11
747.895	6246.52
748.234	6251.49
748.573	6296.68
748.911	6396.34
749.25	6420.52
749.589	6487.87
749.928	6557.69
750.267	6597.92
750.605	6650.12
750.944	6668.2
751.283	6779.38
751.621	6887.4
751.96	6931.7
752.298	6985.25
752.636	7067.96
752.975	7157.91
753.313	7302.08
753.651	7392.02
753.989	7422.3
754.327	7587.5
754.666	7612.58
755.004	7826.81
755.342	7880.37
755.679	8034.27
756.017	8176.18
756.355	8231.55
756.693	8352.9
757.031	8572.56
757.368	8653.01
757.706	8782.04
758.044	8927.8
758.381	9039.66
758.719	9224.97
759.056	9423.61
759.394	9538.86
759.731	9612.76
760.068	9845.97
760.405	9968.45
760.743	10150.82
761.08	10372.28
761.417	10449.57
761.754	10654.54
762.091	10797.58
762.428	10968.88
762.765	11117.12
763.102	11325.03
763.438	11483.67
763.775	11609.31
764.112	11750.78
764.449	11951.9
764.785	12084.56
765.122	12262.63
765.458	12360.03
765.795	12566.8
766.131	12677.31
766.467	12911.88
766.804	12971.31
767.14	13107.58
767.476	13315.71
767.812	13408.36
768.148	13547.12
768.485	13624.85
768.821	13777.62
769.157	13829.14
