Data from hue_190_FLMS001491_00001.txt Node
Date: Tue Feb 07 16:44:42 GMT 2017
User: dcchb
Spectrometer: FLMS00149
Trigger mode: 0
Integration Time (sec): 2.000000E-2
Scans to average: 10
Electric dark correction enabled: true
Nonlinearity correction enabled: false
Boxcar width: 0
XAxis mode: Wavelengths
Number of Pixels in Spectrum: 2048
>>>>>Begin Spectral Data<<<<<
341.393	-14.7
341.776	-14.7
342.16	-14.7
342.543	-57.87
342.927	-70.97
343.31	-62.61
343.693	-65.55
344.077	-45.44
344.46	-63.52
344.843	-40.92
345.226	-50.18
345.61	-20.35
345.993	-10.41
346.376	-31.88
346.759	-0.92
347.142	29.59
347.525	32.08
347.908	53.32
348.291	63.71
348.674	99.19
349.057	113.88
349.44	138.06
349.823	121.56
350.206	154.78
350.588	188.46
350.971	199.75
351.354	210.38
351.737	231.84
352.119	247.89
352.502	261.22
352.884	282.69
353.267	279.3
353.65	295.57
354.032	302.8
354.414	324.95
354.797	307.77
355.179	319.75
355.562	344.84
355.944	306.87
356.326	363.14
356.709	329.02
357.091	328.56
357.473	330.15
357.855	342.58
358.238	347.55
358.62	329.47
359.002	351.62
359.384	340.99
359.766	336.93
360.148	335.57
360.53	343.03
360.912	318.17
361.294	319.07
361.676	341.67
362.057	317.04
362.439	334.89
362.821	325.18
363.203	319.3
363.584	334.89
363.966	337.38
364.348	317.49
364.729	330.6
365.111	287.66
365.493	317.49
365.874	312.97
366.256	305.29
366.637	321.56
367.019	310.03
367.4	316.14
367.781	300.54
368.163	300.54
368.544	310.03
368.925	317.27
369.306	342.12
369.688	315.01
370.069	315.23
370.45	300.54
370.831	289.02
371.212	307.77
371.593	298.96
371.974	301.67
372.355	305.74
372.736	305.29
373.117	317.72
373.498	307.1
373.879	314.33
374.26	312.97
374.641	307.1
375.021	324.27
375.402	314.55
375.783	312.97
376.163	330.37
376.544	324.27
376.925	310.94
377.305	325.63
377.686	344.16
378.066	322.92
378.447	321.33
378.827	304.84
379.208	337.6
379.588	308.68
379.968	319.07
380.349	333.76
380.729	338.96
381.109	322.46
381.489	340.77
381.87	336.02
382.25	340.09
382.63	340.77
383.01	329.24
383.39	322.46
383.77	353.42
384.15	322.46
384.53	343.93
384.91	319.53
385.29	352.52
385.67	320.88
386.049	330.6
386.429	335.8
386.809	366.08
387.189	342.35
387.568	325.85
387.948	339.64
388.328	348.45
388.707	343.03
389.087	379.86
389.466	357.49
389.846	357.04
390.225	353.87
390.605	365.85
390.984	363.14
391.363	340.09
391.743	365.4
392.122	378.51
392.501	360.43
392.881	364.72
393.26	373.54
393.639	383.7
394.018	373.08
394.397	367.89
394.776	378.96
395.155	382.12
395.534	371.28
395.913	400.65
396.292	387.32
396.671	390.94
397.05	387.09
397.429	381.22
397.808	384.38
398.186	392.52
398.565	407.21
398.944	376.47
399.323	378.28
399.701	393.65
400.08	408.34
400.458	411.95
400.837	413.76
401.215	414.89
401.594	387.55
401.972	405.85
402.351	426.19
402.729	424.38
403.107	433.87
403.486	414.66
403.864	411.27
404.242	408.34
404.62	401.33
404.999	438.39
405.377	426.42
405.755	435.23
406.133	428.9
406.511	443.14
406.889	470.03
407.267	446.53
407.645	477.71
408.023	477.04
408.401	462.35
408.779	474.55
409.156	495.79
409.534	494.44
409.912	496.47
410.29	506.64
410.667	499.63
411.045	514.32
411.422	532.18
411.8	510.25
412.178	550.25
412.555	567.65
412.933	541.89
413.31	562.91
413.687	552.97
414.065	594.55
414.442	580.99
414.819	576.02
415.197	605.85
415.574	618.05
415.951	615.11
416.328	619.18
416.705	628.44
417.082	640.65
417.46	660.76
417.837	648.78
418.214	664.83
418.591	683.58
418.967	683.36
419.344	687.88
419.721	678.84
420.098	699.63
420.475	702.79
420.852	723.13
421.228	749.57
421.605	755.45
421.982	773.3
422.358	784.6
422.735	816.01
423.111	816.46
423.488	814.2
423.864	802.9
424.241	833.41
424.617	869.12
424.994	857.59
425.37	874.99
425.746	893.3
426.123	910.92
426.499	897.14
426.875	910.24
427.251	942.33
427.627	951.15
428.003	959.96
428.379	962.45
428.756	974.2
429.132	1005.84
429.507	1007.42
429.883	1021.88
430.259	1059.17
430.635	1025.04
431.011	1056
431.387	1083.8
431.763	1094.19
432.138	1099.39
432.514	1116.79
432.89	1130.8
433.265	1141.88
433.641	1167.19
434.016	1223.46
434.392	1219.16
434.767	1250.8
435.143	1234.3
435.518	1299.39
435.894	1288.54
436.269	1315.43
436.644	1339.16
437.02	1383.23
437.395	1371.25
437.77	1389.78
438.145	1470.68
438.52	1445.15
438.895	1460.96
439.271	1479.72
439.646	1504.58
440.021	1580.74
440.395	1534.63
440.77	1553.62
441.145	1590.68
441.52	1630
441.895	1641.07
442.27	1654.86
442.645	1655.31
443.019	1708.64
443.394	1692.82
443.769	1717.91
444.143	1736.89
444.518	1771.24
444.892	1756.1
445.267	1753.61
445.641	1809.66
446.016	1813.95
446.39	1856.66
446.764	1879.26
447.139	1853.5
447.513	1841.97
447.887	1886.94
448.262	1912.03
448.636	1955.64
449.01	1962.87
449.384	1967.17
449.758	1986.15
450.132	1983.66
450.506	2025.47
450.88	2019.14
451.254	2035.19
451.628	2086.03
452.002	2063.66
452.376	2114.73
452.75	2093.94
453.123	2144.56
453.497	2148.4
453.871	2170.1
454.244	2227.05
454.618	2243.77
454.992	2279.47
455.365	2255.29
455.739	2333.03
456.112	2367.61
456.486	2385.01
456.859	2418.45
457.232	2468.4
457.606	2457.55
457.979	2470.88
458.352	2510.88
458.725	2556.53
459.099	2547.94
459.472	2615.28
459.845	2660.93
460.218	2686.02
460.591	2729.63
460.964	2700.93
461.337	2764.43
461.71	2822.96
462.083	2861.38
462.456	2903.41
462.829	2924.88
463.201	2952.45
463.574	2940.47
463.947	2986.57
464.32	3064.99
464.692	3095.72
465.065	3104.31
465.438	3152.67
465.81	3199.45
466.183	3243.06
466.555	3284.19
466.928	3329.84
467.3	3324.64
467.672	3400.8
468.045	3479.44
468.417	3494.13
468.789	3529.16
469.161	3533.45
469.534	3647.35
469.906	3674.01
470.278	3691.87
470.65	3768.47
471.022	3826.33
471.394	3913.1
471.766	3977.06
472.138	4026.55
472.51	4076.94
472.882	4152.19
473.253	4142.25
473.625	4258.18
473.997	4334.34
474.369	4347.22
474.74	4421.79
475.112	4535.91
475.484	4554.89
475.855	4647.77
476.227	4695.68
476.598	4830.82
476.97	4850.25
477.341	4994.2
477.713	5087.99
478.084	5123.47
478.455	5217.02
478.827	5279.17
479.198	5431.93
479.569	5457.92
479.94	5592.16
480.311	5604.13
480.682	5799.61
481.053	5927.06
481.424	6018.58
481.795	6047.06
482.166	6086.38
482.537	6225.36
482.908	6325.02
483.279	6372.47
483.65	6525.92
484.021	6682.97
484.391	6746.48
484.762	6824.67
485.133	6800.03
485.503	6951.67
485.874	7127.26
486.244	7187.14
486.615	7332.45
486.985	7358.66
487.356	7515.72
487.726	7594.14
488.097	7749.39
488.467	7792.1
488.837	7953.9
489.207	8014.01
489.578	8096.27
489.948	8209.49
490.318	8383.04
490.688	8356.38
491.058	8538.74
491.428	8549.14
491.798	8603.83
492.168	8777.83
492.538	8789.81
492.908	8892.63
493.278	9049.92
493.648	9055.79
494.017	9212.4
494.387	9268.44
494.757	9235.45
495.126	9370.81
495.496	9373.07
495.866	9503.69
496.235	9562.67
496.605	9646.29
496.974	9677.25
497.344	9735.32
497.713	9764.93
498.082	9816.68
498.452	10011.02
498.821	9994.3
499.19	9962.66
499.559	10030.91
499.928	10128.99
500.298	10159.49
500.667	10183.67
501.036	10206.05
501.405	10262.99
501.774	10294.86
502.143	10331.92
502.512	10343.22
502.88	10511.35
503.249	10366.72
503.618	10429.09
503.987	10473.83
504.356	10521.74
504.724	10564.23
505.093	10614.17
505.462	10566.71
505.83	10645.13
506.199	10706.15
506.567	10743.88
506.936	10745.01
507.304	10767.39
507.672	10865.01
508.041	10840.15
508.409	10911.34
508.777	10930.09
509.145	10952.47
509.514	11048.06
509.882	10978
510.25	10964.67
510.618	11038.79
510.986	11007.83
511.354	11037.21
511.722	11157.88
512.09	11166.92
512.458	11122.63
512.826	11153.36
513.193	11183.87
513.561	11174.83
513.929	11195.4
514.297	11275.62
514.664	11281.72
515.032	11283.53
515.4	11294.6
515.767	11271.33
516.135	11341.16
516.502	11149.07
516.869	11361.27
517.237	11362.85
517.604	11306.81
517.972	11320.59
518.339	11337.77
518.706	11298.22
519.073	11341.38
519.44	11340.7
519.808	11372.79
520.175	11370.31
520.542	11416.41
520.909	11450.31
521.276	11344.77
521.643	11428.84
522.009	11516.75
522.376	11456.63
522.743	11455.05
523.11	11494.15
523.477	11470.64
523.843	11546.12
524.21	11538.21
524.577	11631.09
524.943	11481.49
525.31	11510.42
525.676	11501.38
526.043	11581.38
526.409	11494.82
526.776	11561.49
527.142	11473.36
527.508	11501.15
527.874	11516.75
528.241	11508.61
528.607	11448.27
528.973	11436.07
529.339	11454.15
529.705	11427.03
530.071	11472
530.437	11344.32
530.803	11411.44
531.169	11354.04
531.535	11307.49
531.901	11292.8
532.267	11225.45
532.632	11251.44
532.998	11219.8
533.364	11264.32
533.73	11175.96
534.095	11236.53
534.461	11184.32
534.826	11096.42
535.192	10989.3
535.557	11051.67
535.923	10989.3
536.288	10924.67
536.653	10859.14
537.019	10853.03
537.384	10848.06
537.749	10785.01
538.114	10660.04
538.479	10625.92
538.845	10597.22
539.21	10531.46
539.575	10505.47
539.94	10528.52
540.305	10525.81
540.67	10441.52
541.034	10373.95
541.399	10363.78
541.764	10315.87
542.129	10319.94
542.494	10188.87
542.858	10142.32
543.223	10094.41
543.587	10113.62
543.952	9964.24
544.316	9940.74
544.681	9911.36
545.045	9860.07
545.41	9891.7
545.774	9765.83
546.138	9748.66
546.503	9657.59
546.867	9611.94
547.231	9626.4
547.595	9450.58
547.959	9521.77
548.324	9425.73
548.688	9358.38
549.052	9387.54
549.416	9335.33
549.779	9242.91
550.143	9162.23
550.507	9164.72
550.871	9161.1
551.235	9042.69
551.599	9041.1
551.962	9053.53
552.326	8958.17
552.689	9019.86
553.053	8852.18
553.417	8806.08
553.78	8874.1
554.143	8792.52
554.507	8728.57
554.87	8653.32
555.234	8684.96
555.597	8575.35
555.96	8533.55
556.323	8575.35
556.686	8532.42
557.05	8529.71
557.413	8489.48
557.776	8469.82
558.139	8501.46
558.502	8463.94
558.865	8381.46
559.228	8409.71
559.59	8394.79
559.953	8329.48
560.316	8365.19
560.679	8330.39
561.041	8307.11
561.404	8278.19
561.767	8317.96
562.129	8305.98
562.492	8237.06
562.854	8239.77
563.217	8130.62
563.579	8233.67
563.941	8204.29
564.304	8224.85
564.666	8211.07
565.028	8178.75
565.39	8165.42
565.753	8170.17
566.115	8200.9
566.477	8200
566.839	8130.39
567.201	8241.8
567.563	8159.55
567.925	8155.03
568.287	8125.42
568.648	8161.58
569.01	8196.83
569.372	8200.9
569.734	8140.34
570.095	8103.73
570.457	8098.08
570.819	8101.24
571.18	8092.2
571.542	8140.79
571.903	8102.82
572.265	8136.72
572.626	8080
572.987	8063.95
573.349	8133.56
573.71	8110.51
574.071	8085.87
574.432	8201.35
574.794	8196.15
575.155	8087.91
575.516	8046.33
575.877	8044.07
576.238	8066.21
576.599	8188.7
576.96	8099.21
577.32	8056.95
577.681	8065.54
578.042	8095.82
578.403	8043.62
578.763	8114.57
579.124	8046.33
579.485	8104.18
579.845	8086.55
580.206	8096.5
580.566	8079.77
580.927	7990.51
581.287	8084.52
581.648	8007.91
582.008	8095.59
582.368	7969.72
582.728	8025.09
583.089	7986.67
583.449	7989.15
583.809	7999.32
584.169	8010.4
584.529	7928.14
584.889	7978.76
585.249	7948.25
585.609	7912.55
585.969	7981.24
586.329	7912.09
586.688	7874.13
587.048	7874.58
587.408	7858.99
587.768	7934.47
588.127	7941.7
588.487	7888.37
588.846	7936.95
589.206	7844.75
589.565	7793.45
589.925	7861.93
590.284	7806.11
590.643	7849.05
591.003	7878.87
591.362	7854.47
591.721	7801.14
592.08	7819.44
592.44	7821.93
592.799	7783.28
593.158	7759.33
593.517	7759.33
593.876	7726.34
594.235	7731.99
594.593	7783.06
594.952	7780.8
595.311	7721.82
595.67	7710.97
596.029	7724.53
596.387	7757.75
596.746	7715.49
597.104	7668.03
597.463	7663.29
597.822	7663.29
598.18	7695.6
598.538	7565.66
598.897	7669.84
599.255	7600.46
599.613	7734.25
599.972	7606.57
600.33	7624.42
600.688	7644.53
601.046	7638.88
601.404	7682.5
601.762	7666.45
602.12	7658.99
602.478	7631.42
602.836	7699.22
603.194	7621.03
603.552	7603.4
603.91	7524.76
604.268	7589.39
604.625	7637.98
604.983	7561.14
605.341	7582.84
605.698	7651.76
606.056	7636.62
606.413	7554.36
606.771	7607.47
607.128	7602.5
607.485	7547.13
607.843	7621.71
608.2	7613.57
608.557	7598.43
608.914	7533.8
609.272	7605.21
609.629	7616.06
609.986	7647.69
610.343	7669.61
610.7	7656.28
611.057	7632.55
611.414	7647.02
611.771	7637.53
612.127	7632.55
612.484	7613.35
612.841	7689.28
613.198	7640.46
613.554	7633.23
613.911	7659.22
614.267	7730.63
614.624	7599.56
614.98	7711.42
615.337	7703.06
615.693	7616.96
616.05	7678.43
616.406	7718.65
616.762	7710.97
617.118	7698.77
617.475	7731.99
617.831	7771.31
618.187	7693.79
618.543	7731.08
618.899	7785.54
619.255	7785.32
619.611	7730.4
619.967	7739.22
620.323	7806.33
620.678	7730.86
621.034	7763.85
621.39	7771.31
621.746	7719.56
622.101	7788.71
622.457	7696.05
622.812	7688.37
623.168	7745.54
623.523	7740.35
623.879	7764.53
624.234	7688.37
624.589	7721.14
624.945	7765.43
625.3	7772.44
625.655	7802.72
626.01	7705.32
626.365	7781.7
626.72	7743.96
627.075	7698.31
627.43	7646.34
627.785	7639.11
628.14	7751.65
628.495	7695.38
628.85	7687.92
629.205	7650.41
629.559	7674.59
629.914	7670.07
630.269	7670.29
630.623	7609.96
630.978	7667.58
631.332	7629.39
631.687	7661.71
632.041	7609.73
632.396	7631.88
632.75	7662.84
633.104	7610.86
633.459	7555.95
633.813	7514.14
634.167	7573.12
634.521	7590.52
634.875	7590.75
635.229	7555.04
635.583	7547.13
635.937	7506.46
636.291	7497.19
636.645	7497.87
636.999	7520.47
637.352	7538.54
637.706	7447.47
638.06	7507.81
638.413	7415.61
638.767	7439.79
639.121	7475.04
639.474	7409.06
639.828	7424.2
640.181	7475.95
640.534	7408.15
640.888	7445.21
641.241	7405.21
641.594	7370.87
641.947	7439.34
642.301	7428.49
642.654	7372.9
643.007	7414.71
643.36	7371.32
643.713	7381.03
644.066	7350.08
644.419	7258.78
644.771	7291.32
645.124	7212
645.477	7175.84
645.83	7157.99
646.182	7162.96
646.535	7093.81
646.888	7135.62
647.24	7093.13
647.593	7177.65
647.945	7153.47
648.298	7169.29
648.65	7044.77
649.002	7062.85
649.355	7129.29
649.707	7156.63
650.059	7147.37
650.411	7215.16
650.763	7243.64
651.115	7304.65
651.467	7327.48
651.819	7249.74
652.171	7298.1
652.523	7288.38
652.875	7299.68
653.227	7299.23
653.578	7359.57
653.93	7287.93
654.282	7278.89
654.633	7270.76
654.985	7320.02
655.337	7333.58
655.688	7279.34
656.039	7299.23
656.391	7251.09
656.742	7272.11
657.094	7306.46
657.445	7372
657.796	7307.14
658.147	7375.84
658.498	7318.66
658.849	7362.28
659.2	7373.8
659.551	7310.98
659.902	7334.93
660.253	7369.74
660.604	7339
660.955	7323.64
661.306	7378.32
661.656	7338.78
662.007	7397.08
662.358	7340.81
662.708	7364.54
663.059	7360.92
663.409	7335.61
663.76	7390.3
664.11	7403.18
664.461	7391.2
664.811	7376.29
665.161	7372.45
665.511	7379.68
665.862	7383.29
666.212	7431.88
666.562	7427.36
666.912	7436.63
667.262	7362.28
667.612	7425.33
667.962	7401.6
668.312	7393.01
668.662	7382.16
669.011	7398.89
669.361	7418.1
669.711	7362.96
670.06	7389.85
670.41	7336.97
670.76	7323.41
671.109	7338.55
671.459	7379.9
671.808	7335.39
672.157	7360.02
672.507	7292.22
672.856	7306.23
673.205	7351.66
673.554	7380.13
673.904	7313.69
674.253	7356.18
674.602	7293.13
674.951	7207.71
675.3	7196.63
675.649	7339.45
675.998	7327.48
676.346	7241.38
676.695	7285.44
677.044	7286.12
677.393	7273.92
677.741	7281.83
678.09	7290.64
678.438	7158.22
678.787	7227.37
679.135	7211.32
679.484	7153.24
679.832	7183.53
680.181	7150.31
680.529	7166.35
680.877	7109.4
681.225	7164.09
681.573	7214.71
681.922	7071.21
682.27	7049.29
682.618	7047.48
682.966	7046.35
683.314	7127.48
683.661	7066.24
684.009	7043.19
684.357	6997.32
684.705	7035.73
685.053	6996.64
685.4	6966.36
685.748	6906.24
686.095	6946.92
686.443	6838.22
686.79	6920.48
687.138	6936.53
687.485	6922.06
687.832	6838
688.18	6867.38
688.527	6829.41
688.874	6826.93
689.221	6810.88
689.568	6750.09
689.915	6805.91
690.262	6813.59
690.609	6703.76
690.956	6683.88
691.303	6711.22
691.65	6646.82
691.997	6633.26
692.344	6613.15
692.69	6598
693.037	6606.82
693.383	6571.11
693.73	6542.86
694.077	6479.82
694.423	6487.05
694.769	6454.28
695.116	6517.78
695.462	6473.94
695.808	6415.41
696.155	6373.38
696.501	6372.7
696.847	6298.8
697.193	6285.47
697.539	6299.48
697.885	6279.37
698.231	6192.37
698.577	6230.1
698.923	6186.04
699.269	6157.79
699.614	6107.62
699.96	6050.22
700.306	6109.88
700.651	6040.96
700.997	6019.94
701.342	6038.92
701.688	5936.33
702.033	5998.25
702.379	5959.38
702.724	5942.65
703.069	5930
703.415	5915.99
703.76	5901.75
704.105	5946.72
704.45	5850
704.795	5863.33
705.14	5840.96
705.485	5773.17
705.83	5755.99
706.175	5749.89
706.52	5699.72
706.865	5728.2
707.209	5756.44
707.554	5714.19
707.899	5704.92
708.243	5649.1
708.588	5635.77
708.932	5621.31
709.277	5569.56
709.621	5590.12
709.966	5576.11
710.31	5575.21
710.654	5504.7
710.998	5494.76
711.342	5522.1
711.687	5492.5
712.031	5481.65
712.375	5482.55
712.719	5460.41
713.063	5444.14
713.407	5478.71
713.75	5480.97
714.094	5410.92
714.438	5391.93
714.782	5432.61
715.125	5377.25
715.469	5381.09
715.812	5372.95
716.156	5383.35
716.499	5355.1
716.843	5317.13
717.186	5307.19
717.53	5327.53
717.873	5329.56
718.216	5356.46
718.559	5282.78
718.902	5268.1
719.246	5335.66
719.589	5248.44
719.932	5245.95
720.275	5285.04
720.617	5244.82
720.96	5286.17
721.303	5204.37
721.646	5286.63
721.989	5216.35
722.331	5214.09
722.674	5228.77
723.016	5248.44
723.359	5182
723.701	5239.62
724.044	5176.8
724.386	5189.91
724.729	5205.72
725.071	5222.22
725.413	5192.62
725.755	5199.17
726.097	5168.44
726.439	5130.02
726.782	5134.99
727.124	5178.83
727.465	5203.69
727.807	5174.31
728.149	5175.22
728.491	5191.94
728.833	5196.69
729.175	5143.81
729.516	5186.29
729.858	5214.76
730.199	5153.52
730.541	5202.33
730.882	5134.54
731.224	5144.48
731.565	5147.87
731.906	5182.67
732.248	5167.99
732.589	5183.58
732.93	5145.39
733.271	5159.17
733.612	5192.84
733.953	5160.98
734.294	5156.23
734.635	5160.75
734.976	5184.26
735.317	5138.16
735.658	5144.94
735.999	5215.89
736.339	5244.59
736.68	5213.41
737.021	5202.56
737.361	5210.92
737.702	5240.53
738.042	5252.28
738.383	5192.17
738.723	5245.72
739.063	5231.94
739.404	5292.5
739.744	5237.59
740.084	5270.58
740.424	5283.91
740.764	5315.55
741.104	5295.67
741.444	5315.1
741.784	5321.88
742.124	5328.89
742.464	5370.69
742.804	5366.4
743.143	5350.13
743.483	5400.3
743.823	5461.54
744.162	5438.49
744.502	5480.97
744.841	5523.46
745.181	5555.32
745.52	5574.75
745.86	5609.33
746.199	5662.21
746.538	5618.6
746.877	5695.88
747.216	5769.55
747.556	5806.39
747.895	5886.61
748.234	5894.97
748.573	5896.33
748.911	5991.47
749.25	6039.38
749.589	6129.99
749.928	6191.69
750.267	6234.4
750.605	6332.7
750.944	6308.97
751.283	6429.65
751.621	6468.06
751.96	6562.98
752.298	6642.75
752.636	6760.03
752.975	6779.92
753.313	6921.16
753.651	7026.69
753.989	7122.74
754.327	7253.58
754.666	7288.83
755.004	7500.35
755.342	7562.95
755.679	7691.54
756.017	7901.92
756.355	7981.47
756.693	8049.49
757.031	8220.11
757.368	8353.44
757.706	8463.94
758.044	8617.16
758.381	8841.79
758.719	8922.46
759.056	9173.53
759.394	9284.94
759.731	9409.91
760.068	9585.5
760.405	9782.55
760.743	9897.8
761.08	10083.11
761.417	10294.4
761.754	10434.97
762.091	10701.4
762.428	10822.3
762.765	10875.18
763.102	11106.81
763.438	11364.66
763.775	11459.35
764.112	11689.85
764.449	11848.94
764.785	12010.74
765.122	12095.71
765.458	12344.97
765.795	12540.67
766.131	12749.93
766.467	12844.62
766.804	12950.61
