Data from hue_80_FLMS001491_70.txt Node
Date: Mon Feb 06 15:23:24 GMT 2017
User: dcchb
Spectrometer: FLMS00149
Trigger mode: 0
Integration Time (sec): 2.000000E-2
Scans to average: 10
Electric dark correction enabled: true
Nonlinearity correction enabled: false
Boxcar width: 0
XAxis mode: Wavelengths
Number of Pixels in Spectrum: 2048
>>>>>Begin Spectral Data<<<<<
341.393	-10.35
341.776	-10.35
342.16	-10.35
342.543	-65.72
342.927	-73.18
343.31	-75.66
343.693	-72.72
344.077	-64.36
344.46	-50.13
344.843	-35.21
345.226	-45.61
345.61	-40.63
345.993	3.66
346.376	-40.63
346.759	9.31
347.142	27.16
347.525	37.56
347.908	62.19
348.291	86.82
348.674	82.98
349.057	115.29
349.44	120.27
349.823	126.37
350.206	157.1
350.588	189.42
350.971	218.34
351.354	233.26
351.737	227.83
352.119	251.34
352.502	265.8
352.884	271.67
353.267	270.54
353.65	274.84
354.032	280.49
354.414	315.74
354.797	314.38
355.179	309.19
355.562	333.82
355.944	312.12
356.326	322.52
356.709	334.27
357.091	343.08
357.473	351.22
357.855	316.19
358.238	324.78
358.62	311.9
359.002	343.76
359.384	339.02
359.766	324.1
360.148	338.79
360.53	345.57
360.912	324.78
361.294	336.08
361.676	337.66
362.057	301.28
362.439	335.85
362.821	331.56
363.203	317.32
363.584	314.61
363.966	327.04
364.348	315.29
364.729	318.68
365.111	308.96
365.493	289.3
365.874	311.9
366.256	313.93
366.637	310.09
367.019	308.96
367.4	312.12
367.781	293.82
368.163	301.28
368.544	326.14
368.925	297.44
369.306	320.03
369.688	305.35
370.069	303.76
370.45	286.36
370.831	311.45
371.212	300.6
371.593	312.35
371.974	324.78
372.355	303.99
372.736	304.67
373.117	301.73
373.498	299.02
373.879	312.8
374.26	318.45
374.641	302.18
375.021	326.14
375.402	301.96
375.783	318.9
376.163	327.49
376.544	322.07
376.925	322.52
377.305	305.35
377.686	303.31
378.066	335.63
378.447	329.75
378.827	342.18
379.208	324.1
379.588	314.38
379.968	324.55
380.349	341.28
380.729	317.77
381.109	307.6
381.489	328.4
381.87	355.97
382.25	349.64
382.63	341.95
383.01	349.64
383.39	339.02
383.77	329.53
384.15	346.02
384.53	330.66
384.91	356.19
385.29	350.54
385.67	371.33
386.049	339.02
386.429	338.79
386.809	362.29
387.189	344.21
387.568	352.12
387.948	356.87
388.328	355.51
388.707	360.94
389.087	346.25
389.466	362.07
389.846	364.33
390.225	335.4
390.605	346.93
390.984	366.36
391.363	363.65
391.743	348.06
392.122	357.1
392.501	370.43
392.881	371.56
393.26	373.14
393.639	355.51
394.018	386.25
394.397	372.69
394.776	366.36
395.155	361.39
395.534	369.3
395.913	358
396.292	363.65
396.671	374.95
397.05	387.38
397.429	388.73
397.808	382.41
398.186	388.28
398.565	392.57
398.944	367.94
399.323	390.09
399.701	390.99
400.08	384.67
400.458	383.76
400.837	395.74
401.215	380.37
401.594	394.16
401.972	397.55
402.351	381.05
402.729	412.46
403.107	401.61
403.486	397.09
403.864	385.12
404.242	386.92
404.62	398.9
404.999	384.67
405.377	422.86
405.755	405.91
406.133	411.78
406.511	396.64
406.889	416.75
407.267	440.03
407.645	406.59
408.023	432.57
408.401	402.52
408.779	435.51
409.156	426.7
409.534	444.78
409.912	431.9
410.29	432.8
410.667	446.58
411.045	432.57
411.422	430.99
411.8	424.89
412.178	430.31
412.555	459.24
412.933	449.52
413.31	444.1
413.687	442.06
414.065	452.91
414.442	457.21
414.819	450.43
415.197	466.24
415.574	462.4
415.951	466.24
416.328	481.61
416.705	476.19
417.082	480.71
417.46	487.94
417.837	496.75
418.214	493.81
418.591	471.89
418.967	492.91
419.344	486.81
419.721	498.79
420.098	498.33
420.475	517.32
420.852	501.27
421.228	538.33
421.605	483.65
421.982	520.93
422.358	516.19
422.735	520.03
423.111	522.06
423.488	516.19
423.864	536.07
424.241	535.85
424.617	538.11
424.994	549.63
425.37	535.85
425.746	534.49
426.123	541.95
426.499	569.74
426.875	559.12
427.251	549.63
427.627	574.49
428.003	554.15
428.379	572.46
428.756	562.29
429.132	545.11
429.507	587.15
429.883	569.07
430.259	570.87
430.635	571.55
431.011	604.32
431.387	576.75
431.763	592.8
432.138	611.55
432.514	613.81
432.89	629.63
433.265	630.76
433.641	634.38
434.016	632.57
434.392	644.77
434.767	634.38
435.143	646.35
435.518	642.51
435.894	649.06
436.269	645.22
436.644	677.09
437.02	670.99
437.395	662.85
437.77	687.48
438.145	684.09
438.52	674.15
438.895	690.65
439.271	684.09
439.646	697.65
440.021	719.8
440.395	731.1
440.77	689.06
441.145	718.67
441.52	740.36
441.895	732.68
442.27	742.17
442.645	718.89
443.019	750.08
443.394	753.92
443.769	774.49
444.143	753.92
444.518	758.44
444.892	763.41
445.267	772.9
445.641	782.62
446.016	767.71
446.39	769.51
446.764	804.32
447.139	776.29
447.513	791.21
447.887	783.98
448.262	823.98
448.636	786.69
449.01	805.22
449.384	812.22
449.758	819.46
450.132	836.18
450.506	826.91
450.88	822.62
451.254	820.36
451.628	829.63
452.002	849.06
452.376	861.04
452.75	861.26
453.123	838.89
453.497	882.51
453.871	869.17
454.244	918.89
454.618	885.89
454.992	908.27
455.365	924.99
455.739	954.82
456.112	941.26
456.486	949.62
456.859	980.58
457.232	961.6
457.606	961.6
457.979	975.84
458.352	990.3
458.725	1029.17
459.099	1020.35
459.472	1031.65
459.845	1024.87
460.218	1076.62
460.591	1064.65
460.964	1056.06
461.337	1097.41
461.71	1116.4
462.083	1110.97
462.456	1135.15
462.829	1124.08
463.201	1142.16
463.574	1166.57
463.947	1199.56
464.32	1174.02
464.692	1201.82
465.065	1199.78
465.438	1249.5
465.81	1275.49
466.183	1267.81
466.555	1314.81
466.928	1313.91
467.3	1292.66
467.672	1331.08
468.045	1374.47
468.417	1385.32
468.789	1408.59
469.161	1416.73
469.534	1439.33
469.906	1485.65
470.278	1535.37
470.65	1509.16
471.022	1534.69
471.394	1580.34
471.766	1602.71
472.138	1650.39
472.51	1684.07
472.882	1729.49
473.253	1739.21
473.625	1766.55
473.997	1823.05
474.369	1842.25
474.74	1864.4
475.112	1909.37
475.484	1996.15
475.855	2029.14
476.227	2065.75
476.598	2124.96
476.97	2181.68
477.341	2230.94
477.713	2319.08
478.084	2324.05
478.455	2407.21
478.827	2458.28
479.198	2533.31
479.569	2586.19
479.94	2688.11
480.311	2738.73
480.682	2816.69
481.053	2891.72
481.424	2954.54
481.795	3019.62
482.166	3140.52
482.537	3278.37
482.908	3307.98
483.279	3450.12
483.65	3531.7
484.021	3637.46
484.391	3724.92
484.762	3770.56
485.133	3890.11
485.503	3987.28
485.874	4125.13
486.244	4223.43
486.615	4339.59
486.985	4432.69
487.356	4575.52
487.726	4736.87
488.097	4855.51
488.467	4942.74
488.837	5102.06
489.207	5213.01
489.578	5367.58
489.948	5472.21
490.318	5637.86
490.688	5712.43
491.058	5877.18
491.428	6013.67
491.798	6141.8
492.168	6321.46
492.538	6434
492.908	6533.66
493.278	6767.1
493.648	6790.37
494.017	6929.58
494.387	7121.66
494.757	7250.47
495.126	7350.36
495.496	7490.69
495.866	7659.73
496.235	7763.45
496.605	7927.52
496.974	8064.24
497.344	8165.93
497.713	8363.89
498.082	8422.19
498.452	8560.04
498.821	8684.33
499.19	8842.97
499.559	8931.78
499.928	9101.05
500.298	9165.68
500.667	9308.05
501.036	9386.24
501.405	9489.28
501.774	9626
502.143	9775.83
502.512	9901.25
502.88	9995.49
503.249	10051.53
503.618	10200.9
503.987	10254.69
504.356	10381.01
504.724	10439.99
505.093	10589.37
505.462	10675.47
505.83	10811.06
506.199	10899.87
506.567	11082.01
506.936	11073.88
507.304	11301.21
507.672	11319.97
508.041	11438.61
508.409	11538.95
508.777	11594.77
509.145	11776.23
509.514	11810.13
509.882	11877.24
510.25	11905.94
510.618	12015.09
510.986	12157.46
511.354	12292.83
511.722	12398.59
512.09	12501.41
512.458	12477.68
512.826	12601.52
513.193	12631.12
513.561	12710.22
513.929	12825.69
514.297	12956.31
514.664	13065.91
515.032	13079.02
515.4	13164.67
515.767	13271.56
516.135	13280.37
516.502	13152.92
516.869	13517.65
517.237	13482.85
517.604	13479.24
517.972	13615.73
518.339	13711.09
518.706	13653.02
519.073	13837.64
519.44	13881.03
519.808	14018.66
520.175	13971.43
520.542	14195.15
520.909	14268.37
521.276	14248.48
521.643	14329.16
522.009	14401.25
522.376	14504.97
522.743	14648.92
523.11	14645.08
523.477	14725.76
523.843	14849.14
524.21	14965.07
524.577	14987.44
524.943	15037.84
525.31	15101.79
525.676	15216.59
526.043	15291.17
526.409	15348.11
526.776	15465.85
527.142	15466.53
527.508	15474.21
527.874	15542.46
528.241	15525.74
528.607	15589.01
528.973	15673.75
529.339	15625.62
529.705	15840.98
530.071	15895.44
530.437	15883.92
530.803	15880.3
531.169	15979.74
531.535	15977.48
531.901	15948.78
532.267	15975.44
532.632	16084.37
532.998	16057.47
533.364	16159.17
533.73	16098.83
534.095	16192.16
534.461	16301.31
534.826	16262.67
535.192	16263.34
535.557	16371.82
535.923	16289.33
536.288	16345.6
536.653	16381.31
537.019	16278.48
537.384	16342.89
537.749	16397.35
538.114	16269.45
538.479	16413.17
538.845	16401.19
539.21	16273.96
539.575	16403
539.94	16374.3
540.305	16443.45
540.67	16376.11
541.034	16385.15
541.399	16354.41
541.764	16336.56
542.129	16352.83
542.494	16429.44
542.858	16428.99
543.223	16322.78
543.587	16475.77
543.952	16277.35
544.316	16362.78
544.681	16304.92
545.045	16328.88
545.41	16374.08
545.774	16386.05
546.138	16359.16
546.503	16345.38
546.867	16296.56
547.231	16433.28
547.595	16420.85
547.959	16401.42
548.324	16337.47
548.688	16390.12
549.052	16397.13
549.416	16334.75
549.779	16372.04
550.143	16383.34
550.507	16391.7
550.871	16387.41
551.235	16347.64
551.599	16373.85
551.962	16313.74
552.326	16351.7
552.689	16409.33
553.053	16276
553.417	16342.89
553.78	16579.95
554.143	16376.33
554.507	16428.99
554.87	16417.46
555.234	16480.74
555.597	16339.73
555.96	16352.38
556.323	16394.41
556.686	16386.73
557.05	16446.16
557.413	16418.82
557.776	16464.02
558.139	16478.25
558.502	16534.97
558.865	16541.3
559.228	16637.57
559.59	16534.3
559.953	16612.26
560.316	16723.9
560.679	16614.75
561.041	16786.04
561.404	16717.34
561.767	16852.03
562.129	16738.36
562.492	16946.04
562.854	16832.59
563.217	16834.18
563.579	16802.76
563.941	16922.31
564.304	16929.99
564.666	17005.02
565.028	16988.07
565.39	17047.05
565.753	17067.39
566.115	17080.5
566.477	17133.38
566.839	17145.58
567.201	17270.55
567.563	17241.62
567.925	17202.53
568.287	17340.83
568.648	17339.93
569.01	17297.21
569.372	17395.74
569.734	17389.64
570.095	17436.42
570.457	17504.44
570.819	17520.71
571.18	17540.6
571.542	17529.3
571.903	17553.48
572.265	17687.49
572.626	17670.54
572.987	17704.89
573.349	17749.41
573.71	17722.74
574.071	17737.88
574.432	17872.34
574.794	17841.61
575.155	17839.12
575.516	17842.29
575.877	17916.63
576.238	17941.27
576.599	17955.73
576.96	17852.23
577.32	17900.59
577.681	17859.69
578.042	18012.9
578.403	17987.82
578.763	17922.51
579.124	17946.69
579.485	18006.57
579.845	18048.83
580.206	18006.57
580.566	18126.57
580.927	18055.39
581.287	18115.05
581.648	17972
582.008	18026.46
582.368	18014.26
582.728	18115.05
583.089	18058.1
583.449	18014.48
583.809	18048.61
584.169	18128.61
584.529	18016.07
584.889	18202.05
585.249	18069.4
585.609	17962.96
585.969	18099
586.329	18013.35
586.688	18054.48
587.048	18005.9
587.408	18003.64
587.768	17962.96
588.127	17958.44
588.487	17957.54
588.846	18016.74
589.206	17866.01
589.565	17944.66
589.925	17917.54
590.284	17948.27
590.643	17961.6
591.003	17952.34
591.362	17973.81
591.721	17979.46
592.08	17970.87
592.44	18018.55
592.799	18057.42
593.158	17929.29
593.517	17902.85
593.876	18024.2
594.235	17943.75
594.593	17826.01
594.952	17980.36
595.311	17902.85
595.67	17917.76
596.029	18020.13
596.387	17916.63
596.746	18005.22
597.104	17911.44
597.463	17896.97
597.822	18001.38
598.18	17835.73
598.538	17854.49
598.897	17978.1
599.255	17801.16
599.613	18030.75
599.972	17959.57
600.33	18005.22
600.688	17893.36
601.046	17874.15
601.404	17915.28
601.762	18020.81
602.12	18037.31
602.478	17988.95
602.836	18047.25
603.194	17876.18
603.552	18013.35
603.91	17933.36
604.268	18031.21
604.625	18031.66
604.983	18076.4
605.341	17901.49
605.698	17935.84
606.056	18063.3
606.413	18016.07
606.771	18100.36
607.128	18091.77
607.485	17970.42
607.843	18021.94
608.2	18068.27
608.557	18152.11
608.914	18055.39
609.272	18127.7
609.629	18260.58
609.986	18248.38
610.343	18130.41
610.7	18260.35
611.057	18225.1
611.414	18255.16
611.771	18278.21
612.127	18291.31
612.484	18378.32
612.841	18390.97
613.198	18377.19
613.554	18353.68
613.911	18341.93
614.267	18464.19
614.624	18373.57
614.98	18469.39
615.337	18473
615.693	18463.29
616.05	18467.13
616.406	18574.24
616.762	18583.28
617.118	18423.51
617.475	18561.14
617.831	18532.21
618.187	18623.96
618.543	18544.19
618.899	18686.56
619.255	18659.66
619.611	18654.02
619.967	18661.7
620.323	18722.71
620.678	18722.71
621.034	18708.03
621.39	18622.38
621.746	18578.99
622.101	18794.58
622.457	18701.7
622.812	18729.27
623.168	18773.33
623.523	18712.32
623.879	18801.58
624.234	18687.69
624.589	18796.84
624.945	18738.98
625.3	18823.28
625.655	18772.2
626.01	18798.19
626.365	18813.56
626.72	18790.51
627.075	18790.73
627.43	18767.23
627.785	18705.77
628.14	18710.51
628.495	18747.35
628.85	18700.12
629.205	18681.36
629.559	18822.82
629.914	18712.32
630.269	18640.91
630.623	18617.41
630.978	18541.25
631.332	18654.02
631.687	18666.9
632.041	18605.65
632.396	18661.92
632.75	18579.44
633.104	18670.96
633.459	18537.86
633.813	18547.13
634.167	18540.12
634.521	18587.58
634.875	18456.51
635.229	18468.71
635.583	18298.32
635.937	18403.17
636.291	18342.38
636.645	18329.5
636.999	18378.32
637.352	18379.9
637.706	18311.65
638.06	18362.05
638.413	18266.68
638.767	18188.04
639.121	18303.52
639.474	18192.11
639.828	18155.5
640.181	18274.36
640.534	18207.02
640.888	18196.63
641.241	18084.54
641.594	18151.43
641.947	18093.58
642.301	18126.35
642.654	18132.45
643.007	18092.9
643.36	18026.46
643.713	18096.52
644.066	18042.05
644.419	17995.28
644.771	17876.86
645.124	17728.62
645.477	17717.54
645.83	17529.75
646.182	17473.48
646.535	17475.29
646.888	17496.98
647.24	17462.86
647.593	17487.27
647.945	17503.31
648.298	17450.21
648.65	17340.38
649.002	17295.18
649.355	17434.39
649.707	17426.25
650.059	17518.23
650.411	17769.74
650.763	17706.7
651.115	17867.82
651.467	17793.92
651.819	17863.08
652.171	17875.96
652.523	17787.37
652.875	17806.13
653.227	17812.91
653.578	17897.2
653.93	17777.2
654.282	17762.97
654.633	17713.47
654.985	17788.95
655.337	17740.59
655.688	17883.19
656.039	17787.37
656.391	17700.14
656.742	17714.83
657.094	17768.84
657.445	17879.12
657.796	17799.8
658.147	17734.04
658.498	17786.24
658.849	17836.86
659.2	17817.88
659.551	17772
659.902	17848.39
660.253	17803.87
660.604	17864.21
660.955	17725.23
661.306	17786.02
661.656	17804.55
662.007	17846.8
662.358	17805.22
662.708	17747.6
663.059	17816.52
663.409	17692.23
663.76	17929.06
664.11	17864.88
664.461	17835.05
664.811	17884.54
665.161	17805.45
665.511	17741.27
665.862	17828.95
666.212	17922.28
666.562	17848.84
666.912	17814.72
667.262	17785.79
667.612	17818.33
667.962	17809.07
668.312	17785.56
668.662	17943.07
669.011	17819.23
669.361	17764.77
669.711	17906.24
670.06	17798.44
670.41	17797.77
670.76	17759.8
671.109	17827.6
671.459	17770.42
671.808	17754.83
672.157	17835.73
672.507	17718.9
672.856	17736.07
673.205	17774.94
673.554	17698.33
673.904	17677.77
674.253	17832.57
674.602	17767.71
674.951	17547.83
675.3	17414.73
675.649	17726.13
675.998	17642.06
676.346	17730.88
676.695	17772.68
677.044	17542.86
677.393	17538.56
677.741	17658.11
678.09	17505.34
678.438	17495.85
678.787	17485.23
679.135	17478
679.484	17386.03
679.832	17396.42
680.181	17303.32
680.529	17387.61
680.877	17300.83
681.225	17315.75
681.573	17324.11
681.922	17207.27
682.27	17180.61
682.618	17204.56
682.966	17182.42
683.314	17233.71
683.661	17144.9
684.009	17082.08
684.357	17033.94
684.705	16931.12
685.053	16977.22
685.4	17046.83
685.748	16837.79
686.095	16828.07
686.443	16757.12
686.79	16777
687.138	16830.56
687.485	16782.88
687.832	16687.06
688.18	16826.72
688.527	16623.79
688.874	16603.9
689.221	16556.9
689.568	16581.08
689.915	16392.61
690.262	16560.06
690.609	16369.1
690.956	16352.61
691.303	16340.18
691.65	16155.78
691.997	16166.62
692.344	16064.93
692.69	16071.26
693.037	16076.91
693.383	15940.87
693.73	15972.73
694.077	15917.59
694.423	15856.8
694.769	15779.97
695.116	15816.35
695.462	15687.54
695.808	15687.77
696.155	15722.34
696.501	15644.6
696.847	15530.71
697.193	15395.34
697.539	15395.34
697.885	15361.67
698.231	15246.42
698.577	15236.25
698.923	15229.47
699.269	15171.85
699.614	15090.72
699.96	15043.49
700.306	15065.63
700.651	14950.16
700.997	14892.31
701.342	14836.49
701.688	14796.04
702.033	14766.89
702.379	14785.19
702.724	14669.26
703.069	14647.79
703.415	14514.69
703.76	14525.08
704.105	14502.49
704.45	14463.84
704.795	14319.67
705.14	14277.63
705.485	14233.57
705.83	14253.23
706.175	14200.12
706.52	14187.24
706.865	14095.72
707.209	14101.59
707.554	13996.51
707.899	13983.18
708.243	14001.26
708.588	13922.84
708.932	13828.15
709.277	13823.63
709.621	13858.21
709.966	13667.48
710.31	13821.15
710.654	13661.6
710.998	13625.9
711.342	13637.42
711.687	13546.8
712.031	13557.2
712.375	13561.72
712.719	13474.94
713.063	13494.38
713.407	13440.37
713.75	13437.88
714.094	13358.79
714.438	13349.75
714.782	13358.56
715.125	13316.98
715.469	13238.34
715.812	13222.07
716.156	13115.4
716.499	13180.94
716.843	13171.9
717.186	13113.14
717.53	13123.31
717.873	13120.6
718.216	13131.67
718.559	13130.77
718.902	13012.13
719.246	12968.06
719.589	12982.98
719.932	12860.72
720.275	12900.27
720.617	12847.84
720.96	12904.11
721.303	13033.6
721.646	12846.03
721.989	12815.52
722.331	12895.97
722.674	12855.3
723.016	12789.76
723.359	12739.37
723.701	12835.19
724.044	12719.93
724.386	12582.99
724.729	12672.93
725.071	12635.19
725.413	12686.71
725.755	12713.61
726.097	12619.37
726.439	12566.27
726.782	12574.85
727.124	12676.09
727.465	12583.44
727.807	12651.24
728.149	12567.62
728.491	12552.71
728.833	12570.79
729.175	12559.94
729.516	12552.25
729.858	12569.66
730.199	12630.22
730.541	12518.36
730.882	12562.88
731.224	12593.61
731.565	12467.96
731.906	12507.06
732.248	12430.68
732.589	12471.13
732.93	12405.59
733.271	12442.88
733.612	12475.87
733.953	12542.99
734.294	12512.03
734.635	12421.41
734.976	12548.19
735.317	12402.65
735.658	12387.29
735.999	12414.86
736.339	12469.09
736.68	12470.9
737.021	12393.61
737.361	12401.52
737.702	12489.21
738.042	12463.67
738.383	12460.96
738.723	12454.18
739.063	12467.06
739.404	12484.23
739.744	12510.45
740.084	12503.44
740.424	12520.39
740.764	12505.7
741.104	12496.89
741.444	12507.06
741.784	12464.57
742.124	12539.83
742.464	12565.14
742.804	12515.19
743.143	12552.93
743.483	12572.14
743.823	12527.85
744.162	12544.12
744.502	12670.67
744.841	12672.7
745.181	12687.62
745.52	12636.32
745.86	12735.07
746.199	12756.77
746.538	12773.94
746.877	12900.04
747.216	12921.74
747.556	12969.64
747.895	13046.25
748.234	12970.1
748.573	12993.6
748.911	13041.06
749.25	13157.89
749.589	13180.03
749.928	13227.72
750.267	13327.38
750.605	13367.15
750.944	13431.1
751.283	13548.84
751.621	13587.93
751.96	13613.92
752.298	13717.2
752.636	13832.9
752.975	13862.05
753.313	13982.27
753.651	14077.64
753.989	14123.96
754.327	14220.46
754.666	14293.68
755.004	14383.62
755.342	14568.7
755.679	14634.46
756.017	14652.09
756.355	14894.11
756.693	14890.05
