Data from hue_10_FLMS001491_11.txt Node
Date: Mon Feb 06 15:31:29 GMT 2017
User: dcchb
Spectrometer: FLMS00149
Trigger mode: 0
Integration Time (sec): 2.000000E-2
Scans to average: 10
Electric dark correction enabled: true
Nonlinearity correction enabled: false
Boxcar width: 0
XAxis mode: Wavelengths
Number of Pixels in Spectrum: 2048
>>>>>Begin Spectral Data<<<<<
341.393	-10.93
341.776	-10.93
342.16	-10.93
342.543	-62.23
342.927	-72.4
343.31	-75.11
343.693	-57.48
344.077	-55.9
344.46	-68.56
344.843	-37.37
345.226	-34.89
345.61	-38.28
345.993	-26.98
346.376	-2.12
346.759	-3.02
347.142	18.22
347.525	64.77
347.908	63.42
348.291	94.6
348.674	73.81
349.057	84.88
349.44	128.05
349.823	154.04
350.206	179.12
350.588	175.96
350.971	196.97
351.354	215.5
351.737	236.52
352.119	238.1
352.502	254.37
352.884	275.61
353.267	276.97
353.65	292.34
354.032	296.63
354.414	309.29
354.797	319
355.179	312
355.562	308.83
355.944	326.01
356.326	342.73
356.709	345.89
357.091	335.05
357.473	355.61
357.855	330.53
358.238	325.33
358.62	336.18
359.002	347.25
359.384	343.18
359.766	324.43
360.148	334.14
360.53	321.94
360.912	323.3
361.294	336.18
361.676	309.74
362.057	338.21
362.439	328.49
362.821	338.44
363.203	338.21
363.584	326.01
363.966	317.87
364.348	322.17
364.729	312.9
365.111	327.82
365.493	323.75
365.874	339.79
366.256	330.08
366.637	324.43
367.019	305.67
367.4	311.55
367.781	292.34
368.163	321.04
368.544	297.08
368.925	326.01
369.306	319.45
369.688	310.42
370.069	300.25
370.45	279.46
370.831	310.64
371.212	286.91
371.593	312.45
371.974	286.46
372.355	310.42
372.736	316.74
373.117	302.96
373.498	298.89
373.879	308.61
374.26	307.25
374.641	309.74
375.021	321.71
375.402	321.71
375.783	302.51
376.163	307.48
376.544	330.08
376.925	331.43
377.305	312.22
377.686	303.18
378.066	304.09
378.447	306.57
378.827	315.84
379.208	318.1
379.588	332.11
379.968	318.78
380.349	319.91
380.729	318.78
381.109	334.82
381.489	314.03
381.87	356.97
382.25	335.5
382.63	333.47
383.01	312
383.39	322.39
383.77	339.57
384.15	331.88
384.53	305.9
384.91	340.25
385.29	321.04
385.67	317.65
386.049	324.43
386.429	329.85
386.809	327.14
387.189	335.95
387.568	343.64
387.948	347.02
388.328	341.15
388.707	331.43
389.087	353.8
389.466	338.89
389.846	336.86
390.225	339.34
390.605	356.52
390.984	368.49
391.363	337.53
391.743	368.04
392.122	351.09
392.501	344.99
392.881	364.65
393.26	346.12
393.639	361.71
394.018	380.24
394.397	360.36
394.776	369.62
395.155	376.18
395.534	385.44
395.913	354.26
396.292	379.79
396.671	359.68
397.05	371.66
397.429	367.14
397.808	361.71
398.186	356.29
398.565	378.44
398.944	373.01
399.323	362.17
399.701	377.53
400.08	372.33
400.458	372.79
400.837	374.59
401.215	387.7
401.594	347.7
401.972	377.08
402.351	371.43
402.729	390.41
403.107	392.67
403.486	391.54
403.864	407.14
404.242	378.44
404.62	383.41
404.999	401.94
405.377	414.82
405.755	396.51
406.133	389.06
406.511	406.91
406.889	406.46
407.267	392.9
407.645	411.88
408.023	397.87
408.401	398.55
408.779	393.13
409.156	414.82
409.534	420.92
409.912	406.23
410.29	418.44
410.667	419.11
411.045	431.54
411.422	433.8
411.8	447.36
412.178	434.48
412.555	425.21
412.933	443.52
413.31	424.76
413.687	450.52
414.065	439.9
414.442	429.73
414.819	445.55
415.197	439
415.574	431.99
415.951	450.75
416.328	424.99
416.705	443.29
417.082	448.72
417.46	467.7
417.837	465.89
418.214	464.31
418.591	461.15
418.967	464.76
419.344	466.12
419.721	469.73
420.098	472.22
420.475	481.26
420.852	486
421.228	494.82
421.605	489.85
421.982	475.16
422.358	490.98
422.735	517.64
423.111	478.77
423.488	498.66
423.864	500.92
424.241	522.39
424.617	516.29
424.994	528.94
425.37	502.5
425.746	520.58
426.123	520.81
426.499	514.25
426.875	513.35
427.251	519.68
427.627	539.79
428.003	530.75
428.379	540.92
428.756	532.33
429.132	554.7
429.507	558.32
429.883	548.38
430.259	554.7
430.635	537.3
431.011	567.13
431.387	550.64
431.763	554.25
432.138	570.07
432.514	566.23
432.89	581.82
433.265	568.26
433.641	600.8
434.016	583.85
434.392	602.16
434.767	604.42
435.143	607.58
435.518	619.11
435.894	618.2
436.269	613.23
436.644	619.79
437.02	632.67
437.395	641.93
437.77	646.68
438.145	647.58
438.52	631.09
438.895	621.37
439.271	646.68
439.646	662.72
440.021	663.85
440.395	649.84
440.77	651.2
441.145	671.31
441.52	671.31
441.895	669.73
442.27	672.89
442.645	685.32
443.019	700.24
443.394	682.38
443.769	680.58
444.143	686.9
444.518	681.03
444.892	686.45
445.267	691.2
445.641	700.46
446.016	718.99
446.39	711.08
446.764	720.57
447.139	737.75
447.513	705.66
447.887	710.18
448.262	724.64
448.636	742.72
449.01	731.65
449.384	751.08
449.758	718.99
450.132	735.04
450.506	743.85
450.88	755.83
451.254	737.52
451.628	728.26
452.002	758.77
452.376	771.42
452.75	766.22
453.123	799.67
453.497	783.17
453.871	774.81
454.244	795.6
454.618	800.57
454.992	809.39
455.365	783.62
455.739	806.9
456.112	848.03
456.486	828.14
456.859	833.57
457.232	849.16
457.606	836.5
457.979	848.71
458.352	859.1
458.725	891.87
459.099	880.34
459.472	883.51
459.845	909.27
460.218	907.91
460.591	905.88
460.964	898.65
461.337	919.67
461.71	980.45
462.083	973.22
462.456	945.65
462.829	963.05
463.201	984.3
463.574	978.42
463.947	1000.79
464.32	987.91
464.692	1005.09
465.065	1013.9
465.438	1010.96
465.81	1046.22
466.183	1041.24
466.555	1088.47
466.928	1085.08
467.3	1096.61
467.672	1098.42
468.045	1106.78
468.417	1104.74
468.789	1155.14
469.161	1122.6
469.534	1154.91
469.906	1195.14
470.278	1198.75
470.65	1199.43
471.022	1223.39
471.394	1250.5
471.766	1233.33
472.138	1269.94
472.51	1268.81
472.882	1305.87
473.253	1336.6
473.625	1368.24
473.997	1343.83
474.369	1349.48
474.74	1395.58
475.112	1429.26
475.484	1429.03
475.855	1436.04
476.227	1469.93
476.598	1500.21
476.97	1550.61
477.341	1592.42
477.713	1568.91
478.084	1616.14
478.455	1653.66
478.827	1676.26
479.198	1678.06
479.569	1722.36
479.94	1749.25
480.311	1783.6
480.682	1823.14
481.053	1902.69
481.424	1897.27
481.795	1892.52
482.166	1949.92
482.537	2001.22
482.908	2033.31
483.279	2057.49
483.65	2122.57
484.021	2111.05
484.391	2166.41
484.762	2181.55
485.133	2227.2
485.503	2289.8
485.874	2307.88
486.244	2330.02
486.615	2402.56
486.985	2399.4
487.356	2457.93
487.726	2512.17
488.097	2533.63
488.467	2536.8
488.837	2622.45
489.207	2672.84
489.578	2699.51
489.948	2706.74
490.318	2803.46
490.688	2763.01
491.058	2841.42
491.428	2888.2
491.798	2899.27
492.168	2977.24
492.538	3000.74
492.908	3002.32
493.278	3086.16
493.648	3078.93
494.017	3118.03
494.387	3166.39
494.757	3181.3
495.126	3226.5
495.496	3266.5
495.866	3330.9
496.235	3279.15
496.605	3330.45
496.974	3354.63
497.344	3400.73
497.713	3427.85
498.082	3428.98
498.452	3518.69
498.821	3488.64
499.19	3522.31
499.559	3527.51
499.928	3571.35
500.298	3578.58
500.667	3605.02
501.036	3642.53
501.405	3649.76
501.774	3653.38
502.143	3711.68
502.512	3687.05
502.88	3766.14
503.249	3784.45
503.618	3774.28
503.987	3845.92
504.356	3828.52
504.724	3840.72
505.093	3867.38
505.462	3885.69
505.83	3905.35
506.199	3904.45
506.567	3997.78
506.936	3946.03
507.304	3989.87
507.672	4043.2
508.041	4031.22
508.409	4084.78
508.777	4068.96
509.145	4121.84
509.514	4143.08
509.882	4158.22
510.25	4105.8
510.618	4185.12
510.986	4158.9
511.354	4191.67
511.722	4239.58
512.09	4281.38
512.458	4221.73
512.826	4262.63
513.193	4294.04
513.561	4273.25
513.929	4308.28
514.297	4334.49
514.664	4339.01
515.032	4418.56
515.4	4386.47
515.767	4411.55
516.135	4472.57
516.502	4392.79
516.869	4461.94
517.237	4485.67
517.604	4482.74
517.972	4518.67
518.339	4506.92
518.706	4528.38
519.073	4509.63
519.44	4560.47
519.808	4616.74
520.175	4596.18
520.542	4640.7
520.909	4654.93
521.276	4686.57
521.643	4683.86
522.009	4687.48
522.376	4735.61
522.743	4751.43
523.11	4754.37
523.477	4790.52
523.843	4796.63
524.21	4840.92
524.577	4879.56
524.943	4865.78
525.31	4907.13
525.676	4918.88
526.043	5017.64
526.409	4989.39
526.776	5022.38
527.142	4991.65
527.508	5033
527.874	5091.76
528.241	5100.35
528.607	5136.96
528.973	5159.1
529.339	5146.22
529.705	5224.64
530.071	5198.2
530.437	5266.67
530.803	5287.46
531.169	5293.11
531.535	5252.66
531.901	5344.18
532.267	5351.64
532.632	5414.24
532.998	5411.98
533.364	5405.42
533.73	5397.97
534.095	5505.99
534.461	5491.07
534.826	5526.78
535.192	5541.92
535.557	5556.38
535.923	5527
536.288	5608.36
536.653	5690.84
537.019	5629.37
537.384	5694.68
537.749	5674.12
538.114	5684.74
538.479	5716.83
538.845	5750.5
539.21	5738.75
539.575	5802.02
539.94	5839.31
540.305	5856.03
540.67	5860.1
541.034	5954.33
541.399	5879.76
541.764	5939.87
542.129	5987.78
542.494	5967.67
542.858	5979.65
543.223	5978.06
543.587	6077.04
543.952	5980.77
544.316	6063.26
544.681	6099.19
545.045	6107.33
545.41	6124.27
545.774	6165.4
546.138	6157.04
546.503	6212.41
546.867	6239.53
547.231	6313.87
547.595	6358.17
547.959	6356.36
548.324	6349.13
548.688	6383.93
549.052	6404.27
549.416	6369.47
549.779	6420.09
550.143	6447.88
550.507	6510.93
550.871	6531.04
551.235	6497.82
551.599	6525.62
551.962	6588.22
552.326	6602.23
552.689	6528.33
553.053	6600.65
553.417	6607.43
553.78	6702.11
554.143	6625.05
554.507	6711.83
554.87	6674.77
555.234	6772.39
555.597	6747.76
555.96	6727.87
556.323	6767.42
556.686	6779.17
557.05	6826.18
557.413	6864.14
557.776	6846.06
558.139	6919.51
558.502	6884.93
558.865	6917.25
559.228	6928.09
559.59	7013.52
559.953	7007.64
560.316	7052.61
560.679	7117.24
561.041	7084.93
561.404	7162.21
561.767	7157.24
562.129	7195.88
562.492	7238.37
562.854	7181.65
563.217	7237.92
563.579	7209.22
563.941	7297.8
564.304	7359.04
564.666	7327.63
565.028	7370.12
565.39	7358.59
565.753	7342.77
566.115	7427.52
566.477	7449.44
566.839	7471.81
567.201	7463.9
567.563	7544.58
567.925	7565.59
568.287	7608.3
568.648	7634.52
569.01	7680.39
569.372	7659.37
569.734	7718.13
570.095	7747.96
570.457	7690.11
570.819	7796.55
571.18	7833.16
571.542	7854.62
571.903	7857.11
572.265	7901.4
572.626	7983.21
572.987	8016.2
573.349	8101.62
573.71	8092.81
574.071	8156.31
574.432	8213.71
574.794	8366.7
575.155	8324.67
575.516	8377.55
575.877	8417.77
576.238	8423.65
576.599	8563.53
576.96	8600.59
577.32	8698.22
577.681	8771.44
578.042	8899.57
578.403	8850.98
578.763	8930.3
579.124	9027.93
579.485	9157.41
579.845	9247.81
580.206	9349.05
580.566	9399.44
580.927	9578.19
581.287	9685.31
581.648	9747
582.008	9975.92
582.368	9996.71
582.728	10130.5
583.089	10305.18
583.449	10401.45
583.809	10581.11
584.169	10812.06
584.529	10937.93
584.889	11155.78
585.249	11327.98
585.609	11413.17
585.969	11675.54
586.329	11907.17
586.688	12057
587.048	12266.94
587.408	12463.54
587.768	12683.88
588.127	12840.71
588.487	12999.8
588.846	13362.95
589.206	13451.09
589.565	13764.75
589.925	14060.79
590.284	14290.39
590.643	14504.84
591.003	14810.83
591.362	15074.32
591.721	15289.68
592.08	15563.35
592.44	15916.11
592.799	16213.73
593.158	16431.57
593.517	16703.2
593.876	16973.25
594.235	17203.08
594.593	17602.62
594.952	17888.26
595.311	18080.12
595.67	18461.58
596.029	18777.73
596.387	19029.02
596.746	19336.81
597.104	19608.44
597.463	19848.43
597.822	20127.52
598.18	20441.64
598.538	20664.23
598.897	21134.27
599.255	21219.24
599.613	21784.2
599.972	21991.43
600.33	22366.78
600.688	22482.04
601.046	22924.28
601.404	23275.24
601.762	23453.76
602.12	23866.18
602.478	24094.87
602.836	24326.06
603.194	24515.43
603.552	24845.82
603.91	25113.15
604.268	25460.94
604.625	25516.53
604.983	25913.58
605.341	26047.82
605.698	26414.14
606.056	26756.73
606.413	26987.45
606.771	27187
607.128	27526.88
607.485	27521.23
607.843	27896.13
608.2	28256.57
608.557	28450.47
608.914	28603.23
609.272	29049.32
609.629	29174.97
609.986	29511.68
610.343	29628.06
610.7	29935.17
611.057	30146.92
611.414	30206.13
611.771	30565.89
612.127	30770.41
612.484	30968.37
612.841	31191.64
613.198	31192.77
613.554	31414.46
613.911	31670.49
614.267	31891.28
614.624	31993.42
614.98	32270.03
615.337	32519.51
615.693	32574.2
616.05	32708.21
616.406	33085.37
616.762	33027.75
617.118	33268.42
617.475	33430.67
617.831	33670.22
618.187	33718.35
618.543	33861.85
618.899	34165.8
619.255	34220.26
619.611	34465.45
619.967	34467.26
620.323	34714.03
620.678	34716.74
621.034	34818.89
621.39	34929.39
621.746	35029.05
622.101	35522.6
622.457	35191.53
622.812	35476.95
623.168	35535.93
623.523	35711.74
623.879	35735.02
624.234	35796.71
624.589	35964.17
624.945	36036.93
625.3	36208
625.655	36348.79
626.01	36360.09
626.365	36391.05
626.72	36518.28
627.075	36511.95
627.43	36528.22
627.785	36457.49
628.14	36814.77
628.495	36696.13
628.85	36699.29
629.205	36653.87
629.559	37033.74
629.914	36865.16
630.269	36935.22
630.623	37012.95
630.978	36887.08
631.332	37154.87
631.687	37145.83
632.041	37097.47
632.396	37145.15
632.75	37002.56
633.104	37293.62
633.459	37110.13
633.813	37106.51
634.167	37186.51
634.521	37275.09
634.875	37247.07
635.229	37218.37
635.583	37145.61
635.937	37161.2
636.291	37248.2
636.645	37274.19
636.999	37181.08
637.352	37225.83
637.706	37053.63
638.06	37402.32
638.413	37219.05
638.767	37263.57
639.121	37263.34
639.474	37061.31
639.828	37174.08
640.181	37296.56
640.534	37328.88
640.888	37102.89
641.241	37072.84
641.594	37220.41
641.947	37188.77
642.301	37172.5
642.654	37163.46
643.007	37257.69
643.36	37282.55
643.713	37113.74
644.066	37265.15
644.419	37051.6
644.771	36768.44
645.124	36625.84
645.477	36509.92
645.83	36306.31
646.182	36170.94
646.535	36099.76
646.888	36203.26
647.24	35939.54
647.593	36052.53
647.945	36012.98
648.298	35901.57
648.65	35891.85
649.002	35840.1
649.355	36037.16
649.707	35947.67
650.059	36111.51
650.411	36395.57
650.763	36520.08
651.115	36889.79
651.467	36828.55
651.819	36674.66
652.171	36922.11
652.523	36746.29
652.875	36725.28
653.227	36497.03
653.578	36879.85
653.93	36862.22
654.282	36613.64
654.633	36655.9
654.985	36669.46
655.337	36771.83
655.688	36671.27
656.039	36801.43
656.391	36368.68
656.742	36567.99
657.094	36484.61
657.445	36742.45
657.796	36576.58
658.147	36470.14
658.498	36574.77
658.849	36662.23
659.2	36476.02
659.551	36453.87
659.902	36472.63
660.253	36552.4
660.604	36400.09
660.955	36358.73
661.306	36425.62
661.656	36413.65
662.007	36431.27
662.358	36371.84
662.708	36418.84
663.059	36369.35
663.409	36276.7
663.76	36490.03
664.11	36491.39
664.461	36403.93
664.811	36444.38
665.161	36340.88
665.511	36272.63
665.862	36477.37
666.212	36592.17
666.562	36464.95
666.912	36377.94
667.262	36410.71
667.612	36406.19
667.962	36457.04
668.312	36208.45
668.662	36418.17
669.011	36261.56
669.361	36228.34
669.711	36437.83
670.06	36340.88
670.41	36262.92
670.76	36228.34
671.109	36458.17
671.459	36172.07
671.808	36227.89
672.157	36325.29
672.507	36054.33
672.856	36213.43
673.205	35992.19
673.554	36239.64
673.904	36058.85
674.253	36273.76
674.602	36193.09
674.951	35646.44
675.3	35534.12
675.649	36068.8
675.998	36097.05
676.346	36148.12
676.695	36119.64
677.044	35818.86
677.393	36062.24
677.741	36061.34
678.09	35988.12
678.438	35971.85
678.787	35899.54
679.135	35963.49
679.484	35655.25
679.832	35883.04
680.181	35723.72
680.529	35865.86
680.877	35667.9
681.225	35669.26
681.573	35787.67
681.922	35504.74
682.27	35427.01
682.618	35499.09
682.966	35362.15
683.314	35463.16
683.661	35350.17
684.009	35233.34
684.357	34984.31
684.705	35124.87
685.053	35031.08
685.4	35003.97
685.748	34847.81
686.095	34910.41
686.443	34913.12
686.79	34691.43
687.138	34828.83
687.485	34851.43
687.832	34620.02
688.18	34570.98
688.527	34498.22
688.874	34442.4
689.221	34504.09
689.568	34370.76
689.915	34213.48
690.262	34201.95
690.609	34223.65
690.956	34074.27
691.303	34065.46
691.65	33919.7
691.997	33914.96
692.344	33759.48
692.69	33708.41
693.037	33719.25
693.383	33455.53
693.73	33537.79
694.077	33241.75
694.423	33353.84
694.769	33315.2
695.116	33095.54
695.462	33091.25
695.808	33059.38
696.155	33077.01
696.501	32768.09
696.847	32744.14
697.193	32533.07
697.539	32785.49
697.885	32432.51
698.231	32292.4
698.577	32429.12
698.923	32393.87
699.269	32239.07
699.614	31903.71
699.96	32001.11
700.306	32060.99
700.651	31809.93
700.997	31691.29
701.342	31775.8
701.688	31666.43
702.033	31509.82
702.379	31480.22
702.724	31332.42
703.069	31576.26
703.415	31131.07
703.76	31175.37
704.105	31235.48
704.45	31031.87
704.795	30908.93
705.14	30921.59
705.485	30917.52
705.83	30641.82
706.175	30859.22
706.52	30688.37
706.865	30547.59
707.209	30481.83
707.554	30342.39
707.899	30475.72
708.243	30224.66
708.588	30259.91
708.932	30106.92
709.277	29995.06
709.621	30089.97
709.966	29843.42
710.31	29993.48
710.654	29618.8
710.998	29733.82
711.342	29690.43
711.687	29634.16
712.031	29604.11
712.375	29306.26
712.719	29322.99
713.063	29406.37
713.407	29429.88
713.75	29356.21
714.094	29297
714.438	29199.15
714.782	29155.08
715.125	29049.09
715.469	29102.65
715.812	28890.23
716.156	28816.78
716.499	28830.57
716.843	28827.86
717.186	28711.7
717.53	28741.98
717.873	28759.39
718.216	28601.2
718.559	28619.73
718.902	28308.32
719.246	28483.01
719.589	28263.35
719.932	28229.91
720.275	28162.79
720.617	28223.35
720.96	28147.88
721.303	28083.24
721.646	28107.42
721.989	27768.68
722.331	28073.98
722.674	27932.29
723.016	27900.2
723.359	27862.91
723.701	27839.41
724.044	27647.32
724.386	27591.73
724.729	27649.81
725.071	27584.05
725.413	27526.42
725.755	27644.39
726.097	27413.43
726.439	27443.49
726.782	27251.18
727.124	27447.78
727.465	27396.71
727.807	27262.02
728.149	27268.35
728.491	27118.3
728.833	27234.68
729.175	27071.29
729.516	27137.96
729.858	26987.23
730.199	27097.06
730.541	27004.63
730.882	26971.18
731.224	26929.38
731.565	26822.71
731.906	26763.73
732.248	26770.74
732.589	26724.41
732.93	26584.08
733.271	26643.06
733.612	26582.72
733.953	26670.4
734.294	26546.34
734.635	26471.76
734.976	26602.61
735.317	26251.65
735.658	26360.13
735.999	26321.26
736.339	26336.4
736.68	26386.79
737.021	26276.74
737.361	26128.04
737.702	26342.95
738.042	26193.8
738.383	26098.21
738.723	26180.24
739.063	26074.26
739.404	26119.23
739.744	25939.35
740.084	25949.06
740.424	25979.35
740.764	25905.22
741.104	25950.87
741.444	25890.53
741.784	25740.93
742.124	25786.81
742.464	25698.45
742.804	25674.04
743.143	25632.91
743.483	25655.74
743.823	25553.14
744.162	25601.28
744.502	25652.57
744.841	25413.71
745.181	25546.59
745.52	25436.99
745.86	25465.69
746.199	25386.14
746.538	25384.56
746.877	25398.12
747.216	25462.52
747.556	25225.69
747.895	25309.98
748.234	25134.62
748.573	25131.68
748.911	25121.97
749.25	24972.37
749.589	24970.33
749.928	25098.24
750.267	24986.15
750.605	24898.24
750.944	24921.75
751.283	24820.96
751.621	24874.97
751.96	24728.98
752.298	24705.71
752.636	24785.03
752.975	24649.89
753.313	24462.77
753.651	24564.92
753.989	24418.93
754.327	24416.9
754.666	24291.48
755.004	24321.54
755.342	24394.53
755.679	24213.06
756.017	24193.86
756.355	24272.95
756.693	24073.18
757.031	24221.88
757.368	24022.79
757.706	23914.77
758.044	23876.35
758.381	23968.55
758.719	23899.85
759.056	23907.08
759.394	23796.35
759.731	23633.42
760.068	23705.28
760.405	23588.22
760.743	23594.78
761.08	23551.61
