Data from hue_260_FLMS001491_00075.txt Node
Date: Tue Feb 07 15:59:34 GMT 2017
User: dcchb
Spectrometer: FLMS00149
Trigger mode: 0
Integration Time (sec): 2.000000E-2
Scans to average: 10
Electric dark correction enabled: true
Nonlinearity correction enabled: false
Boxcar width: 0
XAxis mode: Wavelengths
Number of Pixels in Spectrum: 2048
>>>>>Begin Spectral Data<<<<<
341.393	-7.99
341.776	-7.99
342.16	-7.99
342.543	-59.52
342.927	-44.6
343.31	-64.26
343.693	-70.37
344.077	-63.59
344.46	-67.43
344.843	-54.09
345.226	-54.09
345.61	-12.97
345.993	-8.9
346.376	-8.9
346.759	4.89
347.142	5.34
347.525	47.6
347.908	58.9
348.291	74.49
348.674	90.53
349.057	122.85
349.44	120.82
349.823	160.81
350.206	177.31
350.588	194.03
350.971	184.54
351.354	211.44
351.737	216.18
352.119	224.77
352.502	260.93
352.884	271.77
353.267	286.24
353.65	271.32
354.032	307.25
354.414	288.5
354.797	303.41
355.179	304.54
355.562	326.23
355.944	346.35
356.326	314.48
356.709	341.83
357.091	324.65
357.473	335.73
357.855	342.51
358.238	337.99
358.62	329.4
359.002	340.92
359.384	316.29
359.766	326.23
360.148	347.25
360.53	328.27
360.912	323.97
361.294	325.1
361.676	309.74
362.057	317.87
362.439	347.48
362.821	346.8
363.203	320.58
363.584	324.2
363.966	340.25
364.348	321.04
364.729	297.53
365.111	303.18
365.493	326.46
365.874	320.13
366.256	314.48
366.637	310.87
367.019	307.03
367.4	308.61
367.781	329.17
368.163	307.93
368.544	290.3
368.925	319.45
369.306	309.74
369.688	336.4
370.069	310.19
370.45	316.29
370.831	307.25
371.212	325.56
371.593	300.25
371.974	310.87
372.355	310.87
372.736	294.82
373.117	304.77
373.498	312.45
373.879	326.46
374.26	319.23
374.641	315.16
375.021	322.62
375.402	340.47
375.783	320.58
376.163	303.64
376.544	314.71
376.925	332.11
377.305	309.51
377.686	318.78
378.066	320.58
378.447	332.11
378.827	320.81
379.208	322.62
379.588	340.92
379.968	323.97
380.349	317.42
380.729	330.3
381.109	336.4
381.489	351.54
381.87	340.7
382.25	326.91
382.63	340.02
383.01	326.91
383.39	351.54
383.77	350.41
384.15	337.31
384.53	343.18
384.91	349.51
385.29	339.79
385.67	344.99
386.049	338.21
386.429	348.83
386.809	337.31
387.189	345.67
387.568	351.09
387.948	366.91
388.328	371.2
388.707	343.86
389.087	370.08
389.466	342.05
389.846	360.58
390.225	371.66
390.605	371.2
390.984	364.65
391.363	370.53
391.743	376.85
392.122	375.72
392.501	370.75
392.881	377.76
393.26	383.41
393.639	389.51
394.018	385.67
394.397	395.61
394.776	387.48
395.155	390.19
395.534	379.11
395.913	395.61
396.292	399
396.671	398.1
397.05	396.06
397.429	397.87
397.808	391.77
398.186	409.62
398.565	391.32
398.944	407.14
399.323	410.98
399.701	408.04
400.08	399.9
400.458	402.16
400.837	394.03
401.215	405.55
401.594	423.18
401.972	442.84
402.351	428.83
402.729	426.34
403.107	434.25
403.486	434.48
403.864	455.04
404.242	441.71
404.62	452.78
404.999	454.82
405.377	455.72
405.755	437.42
406.133	456.63
406.511	458.43
406.889	469.96
407.267	465.21
407.645	458.89
408.023	491.88
408.401	493.69
408.779	485.78
409.156	490.07
409.534	490.75
409.912	501.15
410.29	537.53
410.667	510.64
411.045	524.42
411.422	522.61
411.8	541.37
412.178	560.8
412.555	525.55
412.933	554.93
413.31	544.53
413.687	576.4
414.065	578.21
414.442	590.86
414.819	577.75
415.197	597.64
415.574	599.9
415.951	598.09
416.328	613.68
416.705	611.2
417.082	628.6
417.46	619.79
417.837	629.5
418.214	662.72
418.591	669.05
418.967	657.75
419.344	669.28
419.721	664.53
420.098	671.31
420.475	676.96
420.852	690.52
421.228	721.03
421.605	719.67
421.982	703.63
422.358	733.46
422.735	732.55
423.111	751.76
423.488	786.56
423.864	773.45
424.241	778.43
424.617	780.46
424.994	804.64
425.37	802.15
425.746	830.18
426.123	841.02
426.499	859.1
426.875	871.53
427.251	875.82
427.627	893.45
428.003	890.51
428.379	934.81
428.756	900.91
429.132	940
429.507	928.03
429.883	935.48
430.259	953.79
430.635	957.18
431.011	944.52
431.387	977.52
431.763	1010.06
432.138	1025.88
432.514	1024.75
432.89	1052.99
433.265	1051.86
433.641	1072.43
434.016	1056.84
434.392	1120.79
434.767	1136.38
435.143	1120.34
435.518	1145.87
435.894	1143.61
436.269	1160.79
436.644	1195.36
437.02	1215.7
437.395	1227.91
437.77	1263.38
438.145	1279.43
438.52	1281.69
438.895	1282.14
439.271	1304.51
439.646	1332.76
440.021	1346.55
440.395	1365.08
440.77	1341.8
441.145	1379.99
441.52	1422.25
441.895	1420.89
442.27	1447.11
442.645	1442.14
443.019	1453.89
443.394	1478.29
443.769	1499.54
444.143	1450.95
444.518	1472.87
444.892	1503.6
445.267	1547.45
445.641	1553.77
446.016	1566.88
446.39	1574.34
446.764	1584.28
447.139	1567.33
447.513	1568.24
447.887	1609.59
448.262	1616.6
448.636	1614.56
449.01	1633.09
449.384	1643.94
449.758	1672.19
450.132	1664.73
450.506	1698.4
450.88	1681
451.254	1685.97
451.628	1714.45
452.002	1756.93
452.376	1764.84
452.75	1767.33
453.123	1758.74
453.497	1785.63
453.871	1791.73
454.244	1828.79
454.618	1851.62
454.992	1856.59
455.365	1873.99
455.739	1892.29
456.112	1937.27
456.486	1911.5
456.859	1976.81
457.232	1997.38
457.606	1975.46
457.979	2021.56
458.352	2074.66
458.725	2061.33
459.099	2083.93
459.472	2133.42
459.845	2137.71
460.218	2125.28
460.591	2164.38
460.964	2141.1
461.337	2213.42
461.71	2253.64
462.083	2278.5
462.456	2258.16
462.829	2266.75
463.201	2338.84
463.574	2320.08
463.947	2382.45
464.32	2438.72
464.692	2414.54
465.065	2441.66
465.438	2490.02
465.81	2506.52
466.183	2524.82
466.555	2558.72
466.928	2562.33
467.3	2589.45
467.672	2602.56
468.045	2665.38
468.417	2696.34
468.789	2728.88
469.161	2728.88
469.534	2752.61
469.906	2812.5
470.278	2813.63
470.65	2855.21
471.022	2896.34
471.394	2944.47
471.766	2986.28
472.138	2992.15
472.51	3039.61
472.882	3102.43
473.253	3113.73
473.625	3174.07
473.997	3221.07
474.369	3212.26
474.74	3257
475.112	3274.86
475.484	3380.39
475.855	3392.14
476.227	3411.58
476.598	3554.17
476.97	3524.34
477.341	3586.26
477.713	3617
478.084	3641.63
478.455	3767.05
478.827	3767.27
479.198	3868.29
479.569	3847.5
479.94	3976.53
480.311	3995.06
480.682	3993.93
481.053	4126.59
481.424	4152.35
481.795	4226.24
482.166	4253.36
482.537	4305.11
482.908	4412.91
483.279	4467.82
483.65	4502.62
484.021	4568.16
484.391	4594.6
484.762	4635.73
485.133	4700.81
485.503	4704.88
485.874	4846.12
486.244	4807.92
486.615	4946
486.985	4966.11
487.356	5040.23
487.726	5019.67
488.097	5119.55
488.467	5145.54
488.837	5247.91
489.207	5295.82
489.578	5346.89
489.948	5396.16
490.318	5456.04
490.688	5449.94
491.058	5550.28
491.428	5579.88
491.798	5648.35
492.168	5728.13
492.538	5757.05
492.908	5785.07
493.278	5893.55
493.648	5857.16
494.017	5945.52
494.387	5985.97
494.757	6041.79
495.126	6065.74
495.496	6013.09
495.866	6119.3
496.235	6226.19
496.605	6224.16
496.974	6208.34
497.344	6236.36
497.713	6312.07
498.082	6296.92
498.452	6380.76
498.821	6381.89
499.19	6371.95
499.559	6408.56
499.928	6431.61
500.298	6551.16
500.667	6577.6
501.036	6509.57
501.405	6579.86
501.774	6612.17
502.143	6598.84
502.512	6604.04
502.88	6678.61
503.249	6651.72
503.618	6740.75
503.987	6743.24
504.356	6767.42
504.724	6804.48
505.093	6784.14
505.462	6807.42
505.83	6883.35
506.199	6934.65
506.567	6969.68
506.936	6916.8
507.304	7063.01
507.672	6976.45
508.041	6954.99
508.409	7034.76
508.777	7113.17
509.145	7132.38
509.514	7153.63
509.882	7115.21
510.25	7150.46
510.618	7184.36
510.986	7196.79
511.354	7209.9
511.722	7213.28
512.09	7286.28
512.458	7253.74
512.826	7297.12
513.193	7349.33
513.561	7337.12
513.929	7343.9
514.297	7383.9
514.664	7373.05
515.032	7409.66
515.4	7391.13
515.767	7453.05
516.135	7458.7
516.502	7433.84
516.869	7488.08
517.237	7518.81
517.604	7508.64
517.972	7574.41
518.339	7607.17
518.706	7586.38
519.073	7612.82
519.44	7548.64
519.808	7635.65
520.175	7622.99
520.542	7707.51
520.909	7666.15
521.276	7669.32
521.643	7729.43
522.009	7696.44
522.376	7730.79
522.743	7761.07
523.11	7809.88
523.477	7838.13
523.843	7801.52
524.21	7836.55
524.577	7900.27
524.943	7880.39
525.31	7895.53
525.676	7925.13
526.043	7972.36
526.409	7987.5
526.776	7989.08
527.142	8026.14
527.508	8058.91
527.874	8061.85
528.241	8068.4
528.607	8104.11
528.973	8135.75
529.339	8082.87
529.705	8145.69
530.071	8214.16
530.437	8155.41
530.803	8200.15
531.169	8200.15
531.535	8139.81
531.901	8164.67
532.267	8186.59
532.632	8166.93
532.998	8204.45
533.364	8196.31
533.73	8229.08
534.095	8297.55
534.461	8243.31
534.826	8216.65
535.192	8290.54
535.557	8298.23
535.923	8186.14
536.288	8265.91
536.653	8263.43
537.019	8158.8
537.384	8171.23
537.749	8200.6
538.114	8263.65
538.479	8202.19
538.845	8174.16
539.21	8161.73
539.575	8202.64
539.94	8169.64
540.305	8182.07
540.67	8162.19
541.034	8196.54
541.399	8136.65
541.764	8142.98
542.129	8126.48
542.494	8137.33
542.858	8144.33
543.223	8189.08
543.587	8163.32
543.952	8153.83
544.316	8127.16
544.681	8126.93
545.045	8165.12
545.41	8126.26
545.774	8116.54
546.138	8081.28
546.503	8124
546.867	8152.47
547.231	8167.38
547.595	8122.41
547.959	8103.88
548.324	8127.84
548.688	8085.13
549.052	8072.47
549.416	8094.62
549.779	8125.35
550.143	8009.42
550.507	8067.95
550.871	8069.53
551.235	8044.9
551.599	8126.26
551.962	8118.8
552.326	8088.06
552.689	8081.06
553.053	8066.82
553.417	8018.91
553.78	8137.78
554.143	8052.58
554.507	8110.66
554.87	8053.49
555.234	8114.5
555.597	8082.87
555.96	8035.41
556.323	8104.56
556.686	8114.05
557.05	8170.1
557.413	8062.53
557.776	8108.4
558.139	8180.49
558.502	8112.47
558.865	8129.42
559.228	8161.51
559.59	8181.62
559.953	8120.15
560.316	8189.98
560.679	8182.98
561.041	8225.46
561.404	8338
561.767	8319.24
562.129	8291.22
562.492	8334.39
562.854	8331
563.217	8319.92
563.579	8269.08
563.941	8335.74
564.304	8404.89
564.666	8445.12
565.028	8365.12
565.39	8405.8
565.753	8443.99
566.115	8438.79
566.477	8535.28
566.839	8509.07
567.201	8501.16
567.563	8480.37
567.925	8533.93
568.287	8577.99
568.648	8564.44
569.01	8665.68
569.372	8666.81
569.734	8619.35
570.095	8718.78
570.457	8663.42
570.819	8762.4
571.18	8743.19
571.542	8774.83
571.903	8786.12
572.265	8793.13
572.626	8891.43
572.987	8867.7
573.349	8867.25
573.71	8872.9
574.071	8921.49
574.432	8919
574.794	8969.4
575.155	8983.86
575.516	8981.37
575.877	9012.33
576.238	9070.19
576.599	9085.1
576.96	9096.63
577.32	9060.02
577.681	9112.9
578.042	9160.8
578.403	9150.41
578.763	9167.58
579.124	9205.32
579.485	9261.14
579.845	9269.28
580.206	9188.83
580.566	9272.21
580.927	9244.42
581.287	9327.81
581.648	9295.72
582.008	9370.29
582.368	9368.71
582.728	9376.39
583.089	9406.45
583.449	9401.02
583.809	9431.31
584.169	9420.46
584.529	9460.46
584.889	9430.63
585.249	9452.32
585.609	9447.8
585.969	9557.4
586.329	9510.4
586.688	9512.21
587.048	9530.06
587.408	9556.95
587.768	9495.94
588.127	9577.52
588.487	9523.73
588.846	9666.33
589.206	9557.63
589.565	9582.26
589.925	9693.67
590.284	9635.37
590.643	9692.32
591.003	9693.45
591.362	9720.79
591.721	9700.9
592.08	9753.56
592.44	9770.96
592.799	9757.85
593.158	9716.72
593.517	9745.42
593.876	9766.44
594.235	9787.23
594.593	9802.14
594.952	9864.06
595.311	9745.87
595.67	9804.18
596.029	9875.59
596.387	9845.98
596.746	9928.92
597.104	9870.16
597.463	9864.51
597.822	9927.79
598.18	9922.14
598.538	9905.19
598.897	9935.93
599.255	9930.28
599.613	10081.68
599.972	9942.93
600.33	10005.3
600.688	9945.64
601.046	9983.38
601.404	9955.81
601.762	10021.57
602.12	10013.44
602.478	10029.48
602.836	10038.75
603.194	9957.62
603.552	10001.46
603.91	9953.1
604.268	9996.94
604.625	10005.3
604.983	10011.63
605.341	10022.93
605.698	10047.56
606.056	10078.07
606.413	10017.5
606.771	10059.54
607.128	10078.52
607.485	10048.01
607.843	10067.9
608.2	10110.61
608.557	10117.39
608.914	10082.81
609.272	10119.42
609.629	10219.99
609.986	10221.57
610.343	10170.72
610.7	10248.91
611.057	10230.15
611.414	10212.3
611.771	10195.81
612.127	10215.47
612.484	10216.6
612.841	10229.7
613.198	10181.34
613.554	10278.52
613.911	10275.58
614.267	10237.61
614.624	10335.91
614.98	10332.52
615.337	10331.4
615.693	10292.53
616.05	10313.09
616.406	10386.99
616.762	10289.59
617.118	10343.6
617.475	10352.41
617.831	10361.9
618.187	10391.05
618.543	10350.6
618.899	10412.97
619.255	10416.14
619.611	10413.2
619.967	10473.31
620.323	10443.48
620.678	10440.54
621.034	10402.81
621.39	10397.61
621.746	10429.47
622.101	10528.45
622.457	10393.09
622.812	10425.63
623.168	10457.95
623.523	10468.11
623.879	10448.68
624.234	10415.69
624.589	10397.83
624.945	10473.31
625.3	10471.96
625.655	10438.74
626.01	10436.93
626.365	10499.75
626.72	10440.54
627.075	10457.04
627.43	10442.13
627.785	10387.89
628.14	10368
628.495	10401
628.85	10452.75
629.205	10376.14
629.559	10450.71
629.914	10425.18
630.269	10430.6
630.623	10379.76
630.978	10274.22
631.332	10421.56
631.687	10451.39
632.041	10322.36
632.396	10316.48
632.75	10253.66
633.104	10322.36
633.459	10273.09
633.813	10222.92
634.167	10218.4
634.521	10225.86
634.875	10262.7
635.229	10248.69
635.583	10189.03
635.937	10156.71
636.291	10223.6
636.645	10179.53
636.999	10120.55
637.352	10200.1
637.706	10041.46
638.06	10129.37
638.413	10050.05
638.767	10068.13
639.121	10132.3
639.474	10041.69
639.828	10046.2
640.181	10101.34
640.534	10042.59
640.888	9977.28
641.241	9968.69
641.594	9972.31
641.947	10081.23
642.301	10008.24
642.654	10079.42
643.007	9939.77
643.36	10000.1
643.713	9973.44
644.066	10103.15
644.419	9948.35
644.771	9952.42
645.124	9816.38
645.477	9739.32
645.83	9779.55
646.182	9692.54
646.535	9676.72
646.888	9671.07
647.24	9615.93
647.593	9716.27
647.945	9675.14
648.298	9626.1
648.65	9661.13
649.002	9556.73
649.355	9666.1
649.707	9570.96
650.059	9619.55
650.411	9760.34
650.763	9703.84
651.115	9824.52
651.467	9816.15
651.819	9796.72
652.171	9752.88
652.523	9827.45
652.875	9849.6
653.227	9840.56
653.578	9851.86
653.93	9779.32
654.282	9801.24
654.633	9738.64
654.985	9859.54
655.337	9783.61
655.688	9807.34
656.039	9849.15
656.391	9805.53
656.742	9778.87
657.094	9848.7
657.445	9863.16
657.796	9794.69
658.147	9838.75
658.498	9798.75
658.849	9791.75
659.2	9835.14
659.551	9757.85
659.902	9813.89
660.253	9732.31
660.604	9830.39
660.955	9801.47
661.306	9798.3
661.656	9786.78
662.007	9764.4
662.358	9850.5
662.708	9778.64
663.059	9825.87
663.409	9725.99
663.76	9790.62
664.11	9808.92
664.461	9817.28
664.811	9832.65
665.161	9848.24
665.511	9825.42
665.862	9768.47
666.212	9823.39
666.562	9866.32
666.912	9816.38
667.262	9853.22
667.612	9788.81
667.962	9860.45
668.312	9823.84
668.662	9807.12
669.011	9744.97
669.361	9798.53
669.711	9796.95
670.06	9786.32
670.41	9777.51
670.76	9739.09
671.109	9775.48
671.459	9736.61
671.808	9679.21
672.157	9765.76
672.507	9671.3
672.856	9731.41
673.205	9706.55
673.554	9762.6
673.904	9671.75
674.253	9705.42
674.602	9730.51
674.951	9561.47
675.3	9526.9
675.649	9619.1
675.998	9637.4
676.346	9608.7
676.695	9760.11
677.044	9587.23
677.393	9670.62
677.741	9575.26
678.09	9617.74
678.438	9548.82
678.787	9597.18
679.135	9602.83
679.484	9547.69
679.832	9517.41
680.181	9474.02
680.529	9570.74
680.877	9475.15
681.225	9597.63
681.573	9505.88
681.922	9510.63
682.27	9434.02
682.618	9368.93
682.966	9383.85
683.314	9449.16
683.661	9348.6
684.009	9368.48
684.357	9300.24
684.705	9330.07
685.053	9311.99
685.4	9290.74
685.748	9270.63
686.095	9264.76
686.443	9193.35
686.79	9151.54
687.138	9184.31
687.485	9201.93
687.832	9129.84
688.18	9142.05
688.527	9139.11
688.874	9019.79
689.221	9048.72
689.568	9096.17
689.915	9053.46
690.262	8959.91
690.609	8931.21
690.956	8880.13
691.303	8916.97
691.65	8844.2
691.997	8849.4
692.344	8846.46
692.69	8787.71
693.037	8719.91
693.383	8733.24
693.73	8730.53
694.077	8674.49
694.423	8694.83
694.769	8639.46
695.116	8618.22
695.462	8546.36
695.808	8602.63
696.155	8606.47
696.501	8506.81
696.847	8478.34
697.193	8462.29
697.539	8482.86
697.885	8377.1
698.231	8298.68
698.577	8348.62
698.923	8368.73
699.269	8290.77
699.614	8229.08
699.96	8156.31
700.306	8228.63
700.651	8142.53
700.997	8152.47
701.342	8086.03
701.688	8097.78
702.033	8031.57
702.379	8059.82
702.724	8015.98
703.069	8009.65
703.415	7940.5
703.76	7957.45
704.105	7901.18
704.45	7887.84
704.795	7834.96
705.14	7831.35
705.485	7818.69
705.83	7740.5
706.175	7750.45
706.52	7749.32
706.865	7771.46
707.209	7728.98
707.554	7731.01
707.899	7639.94
708.243	7626.38
708.588	7645.36
708.932	7533.28
709.277	7596.78
709.621	7571.24
709.966	7469.32
710.31	7556.1
710.654	7451.47
710.998	7456.22
711.342	7447.4
711.687	7402.88
712.031	7433.39
712.375	7414.18
712.719	7452.83
713.063	7392.94
713.407	7390.68
713.75	7334.19
714.094	7344.81
714.438	7337.12
714.782	7361.98
715.125	7322.66
715.469	7315.2
715.812	7263.23
716.156	7258.03
716.499	7323.34
716.843	7188.88
717.186	7161.99
717.53	7208.77
717.873	7282.21
718.216	7187.3
718.559	7134.87
718.902	7125.15
719.246	7130.58
719.589	7074.98
719.932	7142.33
720.275	7168.09
720.617	7067.3
720.96	7039.5
721.303	7036.11
721.646	7058.26
721.989	7069.11
722.331	7146.85
722.674	7027.75
723.016	7066.4
723.359	7060.52
723.701	7068.43
724.044	6972.16
724.386	6953.86
724.729	7011.26
725.071	6968.77
725.413	6938.94
725.755	6987.53
726.097	6936.68
726.439	6896.46
726.782	6903.24
727.124	6934.42
727.465	6886.74
727.807	6914.76
728.149	6861.88
728.491	6893.75
728.833	6936.46
729.175	6927.87
729.516	6922.22
729.858	6901.2
730.199	6933.97
730.541	6870.02
730.882	6882.67
731.224	6885.38
731.565	6850.81
731.906	6937.36
732.248	6816.91
732.589	6820.07
732.93	6828.89
733.271	6845.84
733.612	6895.78
733.953	6861.88
734.294	6811.94
734.635	6813.97
734.976	6836.8
735.317	6812.84
735.658	6803.35
735.999	6849.9
736.339	6790.92
736.68	6827.53
737.021	6817.59
737.361	6868.21
737.702	6880.64
738.042	6864.37
738.383	6877.25
738.723	6905.04
739.063	6833.18
739.404	6846.97
739.744	6841.32
740.084	6800.41
740.424	6854.2
740.764	6895.33
741.104	6927.64
741.444	6898.04
741.784	6852.84
742.124	6893.07
742.464	6880.64
742.804	6977.58
743.143	6919.96
743.483	6971.71
743.823	6952.95
744.162	7007.64
744.502	7026.17
744.841	7030.46
745.181	7069.56
745.52	7050.13
745.86	7098.26
746.199	7166.96
746.538	7105.94
746.877	7154.76
747.216	7234.3
747.556	7197.47
747.895	7301.19
748.234	7238.14
748.573	7336.67
748.911	7359.04
749.25	7420.06
749.589	7420.29
749.928	7446.05
750.267	7598.13
750.605	7519.72
750.944	7662.99
751.283	7679.26
751.621	7740.95
751.96	7805.36
752.298	7922.87
752.636	8046.94
752.975	8033.83
753.313	8098.46
753.651	8196.76
753.989	8206.71
754.327	8287.38
754.666	8315.4
755.004	8480.14
755.342	8553.59
755.679	8660.93
756.017	8698.67
756.355	8865.44
756.693	8955.16
757.031	9045.78
757.368	9184.76
757.706	9258.65
758.044	9434.47
758.381	9594.47
758.719	9648.02
759.056	9773.22
759.394	9851.18
759.731	9988.13
760.068	10079.42
760.405	10114
760.743	10323.71
761.08	10490.94
761.417	10570.48
761.754	10685.06
762.091	10803.25
762.428	10926.86
762.765	11080.08
763.102	11262.9
763.438	11271.94
763.775	11367.53
764.112	11553.28
764.449	11721.87
764.785	11840.06
765.122	11942.2
765.458	11980.39
765.795	12163.66
766.131	12302.42
766.467	12368.86
766.804	12409.31
767.14	12521.17
767.476	12735.4
