Data from hue_310_FLMS001491_60.txt Node
Date: Mon Feb 06 15:49:54 GMT 2017
User: dcchb
Spectrometer: FLMS00149
Trigger mode: 0
Integration Time (sec): 2.000000E-2
Scans to average: 10
Electric dark correction enabled: true
Nonlinearity correction enabled: false
Boxcar width: 0
XAxis mode: Wavelengths
Number of Pixels in Spectrum: 2048
>>>>>Begin Spectral Data<<<<<
341.393	2.6
341.776	2.6
342.16	2.6
342.543	-52.99
342.927	-64.52
343.31	-67
343.693	-62.71
344.077	-59.09
344.46	-66.78
344.843	-56.16
345.226	-31.07
345.61	-30.62
345.993	-13.67
346.376	-0.56
346.759	3.5
347.142	28.81
347.525	39.66
347.908	48.25
348.291	74.24
348.674	71.07
349.057	122.14
349.44	133.89
349.823	150.84
350.206	180.67
350.588	187.68
350.971	204.4
351.354	225.42
351.737	240.11
352.119	246.21
352.502	265.42
352.884	266.55
353.267	285.98
353.65	282.14
354.032	283.04
354.414	297.05
354.797	311.74
355.179	325.3
355.562	309.26
355.944	333.66
356.326	326.88
356.709	341.12
357.091	324.4
357.473	346.09
357.855	325.08
358.238	338.86
358.62	347
359.002	331.4
359.384	351.97
359.766	322.36
360.148	342.7
360.53	334.34
360.912	337.96
361.294	344.74
361.676	353.1
362.057	356.71
362.439	333.44
362.821	324.4
363.203	324.85
363.584	328.47
363.966	336.38
364.348	340.22
364.729	324.85
365.111	339.77
365.493	333.44
365.874	316.26
366.256	331.18
366.637	321.01
367.019	318.3
367.4	343.15
367.781	319.65
368.163	307.22
368.544	312.87
368.925	297.51
369.306	327.56
369.688	312.65
370.069	322.14
370.45	331.18
370.831	301.12
371.212	310.84
371.593	339.31
371.974	303.83
372.355	320.33
372.736	301.57
373.117	311.52
373.498	304.51
373.879	324.62
374.26	324.62
374.641	327.34
375.021	317.17
375.402	317.62
375.783	319.43
376.163	325.98
376.544	327.11
376.925	313.33
377.305	343.61
377.686	323.27
378.066	337.05
378.447	333.89
378.827	322.36
379.208	344.28
379.588	327.34
379.968	350.39
380.349	334.12
380.729	330.95
381.109	337.96
381.489	337.28
381.87	328.69
382.25	315.13
382.63	337.28
383.01	329.82
383.39	361.91
383.77	334.79
384.15	336.6
384.53	338.41
384.91	332.31
385.29	328.01
385.67	338.18
386.049	352.42
386.429	338.41
386.809	355.13
387.189	356.71
387.568	347.67
387.948	376.37
388.328	364.4
388.707	370.95
389.087	363.49
389.466	371.4
389.846	361.23
390.225	383.38
390.605	348.35
390.984	369.37
391.363	367.33
391.743	366.88
392.122	374.11
392.501	382.48
392.881	385.19
393.26	373.66
393.639	394.68
394.018	394
394.397	376.83
394.776	387
395.155	385.87
395.534	390.39
395.913	400.33
396.292	387.45
396.671	401.46
397.05	409.37
397.429	408.92
397.808	407.56
398.186	396.71
398.565	401.46
398.944	410.05
399.323	411.4
399.701	404.4
400.08	403.72
400.458	412.98
400.837	430.16
401.215	419.31
401.594	445.3
401.972	427.22
402.351	428.35
402.729	417.28
403.107	412.31
403.486	426.77
403.864	438.52
404.242	425.64
404.62	432.42
404.999	447.33
405.377	433.55
405.755	452.76
406.133	453.66
406.511	455.69
406.889	464.06
407.267	464.06
407.645	478.07
408.023	493.43
408.401	476.03
408.779	492.53
409.156	501.79
409.534	499.31
409.912	502.47
410.29	524.17
410.667	518.97
411.045	523.49
411.422	518.07
411.8	545.86
412.178	537.95
412.555	529.14
412.933	544.05
413.31	545.41
413.687	550.38
414.065	564.17
414.442	582.7
414.819	602.58
415.197	612.07
415.574	597.61
415.951	633.54
416.328	606.2
416.705	635.35
417.082	662.24
417.46	659.76
417.837	662.92
418.214	653.66
418.591	659.3
418.967	677.84
419.344	703.15
419.721	720.32
420.098	690.49
420.475	708.34
420.852	720.77
421.228	719.19
421.605	717.61
421.982	754.44
422.358	755.57
422.735	765.52
423.111	783.14
423.488	789.24
423.864	788.34
424.241	796.25
424.617	832.18
424.994	812.97
425.37	802.58
425.746	831.5
426.123	847.55
426.499	866.98
426.875	848.9
427.251	881.45
427.627	861.79
428.003	882.8
428.379	875.12
428.756	910.6
429.132	895
429.507	925.06
429.883	933.2
430.259	938.62
430.635	973.87
431.011	955.57
431.387	976.13
431.763	1011.84
432.138	1001.89
432.514	1028.79
432.89	1038.28
433.265	1068.79
433.641	1063.14
434.016	1070.14
434.392	1070.59
434.767	1095.45
435.143	1072.4
435.518	1112.4
435.894	1157.37
436.269	1122.34
436.644	1146.75
437.02	1153.53
437.395	1174.77
437.77	1179.52
438.145	1202.34
438.52	1229.23
438.895	1199.18
439.271	1215.22
439.646	1233.53
440.021	1246.18
440.395	1253.19
440.77	1242.79
441.145	1278.5
441.52	1273.3
441.895	1292.28
442.27	1295.22
442.645	1290.47
443.019	1294.77
443.394	1316.24
443.769	1300.19
444.143	1288.67
444.518	1351.26
444.892	1311.72
445.267	1341.77
445.641	1362.34
446.016	1326.86
446.39	1329.8
446.764	1334.99
447.139	1346.74
447.513	1365.27
447.887	1373.86
448.262	1407.53
448.636	1367.31
449.01	1394.65
449.384	1363.92
449.758	1422.67
450.132	1419.96
450.506	1441.88
450.88	1436.01
451.254	1427.19
451.628	1441.66
452.002	1428.55
452.376	1457.93
452.75	1463.8
453.123	1448.44
453.497	1489.57
453.871	1532.95
454.244	1520.3
454.618	1536.12
454.992	1548.32
455.365	1531.37
455.739	1541.99
456.112	1571.15
456.486	1537.02
456.859	1566.85
457.232	1611.82
457.606	1618.38
457.979	1577.25
458.352	1627.19
458.725	1660.41
459.099	1662.67
459.472	1667.41
459.845	1678.49
460.218	1720.52
460.591	1695.89
460.964	1694.98
461.337	1752.38
461.71	1737.92
462.083	1776.79
462.456	1769.56
462.829	1759.61
463.201	1826.51
463.574	1789.22
463.947	1836.9
464.32	1830.8
464.692	1858.37
465.065	1859.5
465.438	1891.59
465.81	1939.95
466.183	1900.18
466.555	1957.12
466.928	1942.66
467.3	1982.89
467.672	1979.72
468.045	2005.03
468.417	2012.26
468.789	1995.54
469.161	2032.38
469.534	2083.45
469.906	2066.95
470.278	2115.76
470.65	2074.63
471.022	2134.29
471.394	2190.79
471.766	2191.47
472.138	2189.89
472.51	2207.74
472.882	2247.29
473.253	2271.69
473.625	2290.45
473.997	2309.88
474.369	2332.26
474.74	2373.84
475.112	2383.78
475.484	2387.39
475.855	2436.21
476.227	2461.07
476.598	2531.57
476.97	2491.35
477.341	2545.36
477.713	2619.48
478.084	2596.2
478.455	2644.34
478.827	2673.72
479.198	2715.97
479.569	2704.67
479.94	2780.83
480.311	2800.49
480.682	2799.36
481.053	2858.12
481.424	2885.01
481.795	2981.28
482.166	2942.63
482.537	2978.11
482.908	3055.17
483.279	3048.85
483.65	3093.82
484.021	3091.56
484.391	3115.51
484.762	3162.52
485.133	3177.88
485.503	3218.79
485.874	3290.65
486.244	3270.54
486.615	3331.55
486.985	3331.1
487.356	3380.82
487.726	3415.84
488.097	3462.62
488.467	3468.95
488.837	3510.76
489.207	3564.31
489.578	3606.8
489.948	3587.59
490.318	3650.64
490.688	3662.84
491.058	3706.46
491.428	3750.07
491.798	3759.11
492.168	3837.53
492.538	3821.26
492.908	3824.65
493.278	3877.07
493.648	3851.09
494.017	3952.33
494.387	3995.49
494.757	3978.99
495.126	3975.83
495.496	4024.87
495.866	4047.24
496.235	4118.42
496.605	4084.53
496.974	4154.13
497.344	4150.51
497.713	4179.44
498.082	4169.04
498.452	4199.32
498.821	4232.32
499.19	4256.27
499.559	4285.65
499.928	4271.64
500.298	4287.91
500.667	4314.35
501.036	4318.19
501.405	4359.09
501.774	4374.24
502.143	4400.22
502.512	4402.26
502.88	4448.81
503.249	4415.82
503.618	4451.07
503.987	4522.03
504.356	4492.88
504.724	4529.71
505.093	4472.09
505.462	4489.49
505.83	4578.52
506.199	4603.38
506.567	4637.28
506.936	4603.38
507.304	4659.88
507.672	4644.51
508.041	4690.61
508.409	4718.18
508.777	4730.16
509.145	4710.95
509.514	4780.78
509.882	4764.06
510.25	4786.65
510.618	4804.28
510.986	4768.8
511.354	4825.52
511.722	4828.91
512.09	4912.07
512.458	4859.42
512.826	4913.88
513.193	4882.47
513.561	4926.31
513.929	4955.91
514.297	5002.69
514.664	5021.45
515.032	5005.63
515.4	4979.87
515.767	5020.09
516.135	5032.3
516.502	4997.04
516.869	5098.51
517.237	5106.87
517.604	5098.96
517.972	5115.46
518.339	5121.11
518.706	5127.21
519.073	5126.98
519.44	5139.86
519.808	5227.32
520.175	5195
520.542	5195.91
520.909	5222.12
521.276	5200.2
521.643	5328.79
522.009	5320.65
522.376	5300.31
522.743	5376.02
523.11	5338.28
523.477	5451.95
523.843	5421.44
524.21	5466.64
524.577	5474.32
524.943	5462.79
525.31	5542.11
525.676	5593.86
526.043	5586.18
526.409	5572.62
526.776	5635.45
527.142	5631.83
527.508	5713.18
527.874	5701.88
528.241	5724.48
528.607	5796.57
528.973	5810.81
529.339	5835.67
529.705	5858.94
530.071	5914.08
530.437	5934.19
530.803	5932.39
531.169	5972.84
531.535	5952.72
531.901	6024.59
532.267	6010.35
532.632	6058.03
532.998	6039.5
533.364	6152.72
533.73	6189.1
534.095	6191.14
534.461	6158.82
534.826	6192.49
535.192	6225.49
535.557	6278.37
535.923	6287.86
536.288	6315.88
536.653	6370.79
537.019	6390
537.384	6366.95
537.749	6388.19
538.114	6432.71
538.479	6401.75
538.845	6448.98
539.21	6474.97
539.575	6480.39
539.94	6571.69
540.305	6547.74
540.67	6529.66
541.034	6629.54
541.399	6648.53
541.764	6624.12
542.129	6674.06
542.494	6684.91
542.858	6811.01
543.223	6790.44
543.587	6848.97
543.952	6809.88
544.316	6843.77
544.681	6888.75
545.045	6921.96
545.41	6970.78
545.774	6957.44
546.138	7027.5
546.503	6992.47
546.867	7074.96
547.231	7077.22
547.595	7094.62
547.959	7188.4
548.324	7147.95
548.688	7186.82
549.052	7149.76
549.416	7187.72
549.779	7247.83
550.143	7293.25
550.507	7282.86
550.871	7284.22
551.235	7267.94
551.599	7363.54
551.962	7358.79
552.326	7392.01
552.689	7450.31
553.053	7401.95
553.417	7425
553.78	7504.55
554.143	7519.69
554.507	7517.66
554.87	7569.63
555.234	7652.79
555.597	7602.17
555.96	7625.22
556.323	7607.82
556.686	7635.62
557.05	7688.72
557.413	7693.47
557.776	7763.52
558.139	7782.28
558.502	7844.65
558.865	7861.38
559.228	7839
559.59	7832.9
559.953	7879.23
560.316	7996.51
560.679	7913.13
561.041	7963.07
561.404	8065.44
561.767	8063.63
562.129	8032.22
562.492	8083.97
562.854	8102.05
563.217	8082.84
563.579	8120.13
563.941	8142.72
564.304	8132.1
564.666	8199.67
565.028	8286.22
565.39	8297.52
565.753	8329.84
566.115	8328.03
566.477	8405.54
566.839	8355.83
567.201	8394.24
567.563	8428.82
567.925	8507.23
568.287	8507.69
568.648	8552.88
569.01	8572.32
569.372	8621.13
569.734	8572.09
570.095	8641.24
570.457	8753.78
570.819	8779.54
571.18	8741.58
571.542	8865.87
571.903	8866.32
572.265	8921.91
572.626	8973.44
572.987	8967.79
573.349	9028.12
573.71	9085.98
574.071	9150.83
574.432	9220.66
574.794	9311.73
575.155	9342.92
575.516	9299.53
575.877	9447.55
576.238	9497.26
576.599	9628.11
576.96	9666.75
577.32	9693.87
577.681	9801.21
578.042	9949
578.403	9998.72
578.763	10090.24
579.124	10140.41
579.485	10274.19
579.845	10450.01
580.206	10461.76
580.566	10657.91
580.927	10759.38
581.287	10892.03
581.648	11036.21
582.008	11199.82
582.368	11280.27
582.728	11516.42
583.089	11701.5
583.449	11805.68
583.809	11996.86
584.169	12149.17
584.529	12374.48
584.889	12657.41
585.249	12749.61
585.609	12906.44
585.969	13209.94
586.329	13411.51
586.688	13616.25
587.048	13874.78
587.408	14046.07
587.768	14382.56
588.127	14598.15
588.487	14793.85
588.846	15173.73
589.206	15269.32
589.565	15587.5
589.925	16096.19
590.284	16239.23
590.643	16502.5
591.003	16876.96
591.362	17070.62
591.721	17361.92
592.08	17694.34
592.44	17983.14
592.799	18268.79
593.158	18521.89
593.517	18905.83
593.876	19207.97
594.235	19491.8
594.593	19776.54
594.952	20162.29
595.311	20357.54
595.67	20730.19
596.029	21214.7
596.387	21415.37
596.746	21781.46
597.104	22004.51
597.463	22310.94
597.822	22769.68
598.18	22979.4
598.538	23234.53
598.897	23773.73
599.255	23745.7
599.613	24416.42
599.972	24528.51
600.33	24973.47
600.688	25093.92
601.046	25410.97
601.404	25816.16
601.762	25994.01
602.12	26421.11
602.478	26648.68
602.836	26955.56
603.194	27070.81
603.552	27488.66
603.91	27579.73
604.268	27991.02
604.625	28194.17
604.983	28554.16
605.341	28646.37
605.698	29070.31
606.056	29396.85
606.413	29634.36
606.771	29937.18
607.128	30140.56
607.485	30234.8
607.843	30590.95
608.2	30853.31
608.557	31157.26
608.914	31309.35
609.272	31746.85
609.629	31954.3
609.986	32373.05
610.343	32334.63
610.7	32812.58
611.057	32834.73
611.414	33065.23
611.771	33128.73
612.127	33597.42
612.484	33728.94
612.841	34017.75
613.198	34008.26
613.554	34213.68
613.911	34596.04
614.267	34655.02
614.624	34810.5
614.98	35152.86
615.337	35323.25
615.693	35390.14
616.05	35600.53
616.406	35956.68
616.762	35902.67
617.118	36093.63
617.475	36290.01
617.831	36308.99
618.187	36580.17
618.543	36759.37
618.899	37134.28
619.255	37091.79
619.611	37024
619.967	37594.38
620.323	37447.94
620.678	37501.95
621.034	37576.07
621.39	37884.54
621.746	37758.44
622.101	38233.68
622.457	38097.42
622.812	38257.64
623.168	38435.49
623.523	38449.5
623.879	38618.53
624.234	38539.89
624.589	38794.12
624.945	38941.01
625.3	39012.19
625.655	39152.98
626.01	39183.49
626.365	39105.3
626.72	39137.61
627.075	39274.11
627.43	39310.49
627.785	39371.73
628.14	39413.31
628.495	39637.71
628.85	39468.68
629.205	39449.47
629.559	39882.23
629.914	39596.36
630.269	39861.21
630.623	39819.86
630.978	39719.52
631.332	39993.19
631.687	40134.42
632.041	39988.21
632.396	40108.66
632.75	40041.77
633.104	40166.29
633.459	40056.46
633.813	40084.71
634.167	40033.41
634.521	40084.48
634.875	40135.33
635.229	40099.4
635.583	39977.82
635.937	40034.77
636.291	40053.3
636.645	40067.08
636.999	40062.34
637.352	40193.86
637.706	39920.19
638.06	40123.35
638.413	39864.83
638.767	40044.94
639.121	40150.47
639.474	39854.43
639.828	39818.5
640.181	39974.43
640.534	40018.95
640.888	40041.09
641.241	39726.75
641.594	39839.52
641.947	40048.33
642.301	39884.71
642.654	39836.35
643.007	39921.78
643.36	39843.13
643.713	39901.21
644.066	40088.1
644.419	39796.35
644.771	39614.89
645.124	39224.84
645.477	39241.57
645.83	39004.29
646.182	38880.45
646.535	38664.86
646.888	38871.86
647.24	38659.89
647.593	38769.72
647.945	38887.9
648.298	38605.2
648.65	38610.4
649.002	38493.56
649.355	38710.96
649.707	38559.55
650.059	38713.9
650.411	39169.25
650.763	39236.6
651.115	39712.52
651.467	39482.24
651.819	39621.67
652.171	39389.59
652.523	39423.94
652.875	39440.43
653.227	39370.6
653.578	39637.94
653.93	39466.65
654.282	39386.2
654.633	39169.7
654.985	39430.04
655.337	39347.33
655.688	39396.82
656.039	39563.82
656.391	39054.23
656.742	39178.52
657.094	39303.94
657.445	39382.81
657.796	39265.75
658.147	39142.59
658.498	39246.54
658.849	39188.01
659.2	39062.36
659.551	39022.82
659.902	39202.47
660.253	39143.04
660.604	39279.53
660.955	38987.56
661.306	39103.49
661.656	39119.99
662.007	39050.61
662.358	39022.82
662.708	39039.99
663.059	39082.02
663.409	38787.12
663.76	39117.28
664.11	39066.88
664.461	39199.53
664.811	39103.27
665.161	39115.47
665.511	38961.35
665.862	38915.7
666.212	39122.02
666.562	39139.42
666.912	39001.8
667.262	38926.1
667.612	38994.79
667.962	39007.67
668.312	38954.57
668.662	39187.11
669.011	38922.71
669.361	38983.95
669.711	38830.05
670.06	38785.76
670.41	38944.63
670.76	38938.07
671.109	39010.39
671.459	38912.99
671.808	38834.12
672.157	39050.61
672.507	38671.19
672.856	38819.21
673.205	38927.45
673.554	38985.3
673.904	38754.57
674.253	38921.12
674.602	38746.89
674.951	38249.28
675.3	38077.76
675.649	38687.91
675.998	38707.34
676.346	38670.06
676.695	38856.04
677.044	38474.13
677.393	38535.14
677.741	38550.96
678.09	38581.25
678.438	38457.86
678.787	38567.69
679.135	38621.92
679.484	38243.18
679.832	38316.39
680.181	38062.84
680.529	38392.78
680.877	38290.41
681.225	38114.37
681.573	38465.09
681.922	38037.98
682.27	37957.76
682.618	38042.5
682.966	37937.65
683.314	37936.52
683.661	37850.64
684.009	37747.14
684.357	37722.96
684.705	37573.81
685.053	37646.35
685.4	37659.69
685.748	37449.98
686.095	37463.99
686.443	37309.87
686.79	37307.61
687.138	37329.3
687.485	37373.59
687.832	37144.45
688.18	37275.52
688.527	37048.86
688.874	37039.59
689.221	36980.84
689.568	36974.28
689.915	36835.98
690.262	36897.22
690.609	36716.89
690.956	36517.57
691.303	36459.04
691.65	36332.04
691.997	36310.8
692.344	36283.68
692.69	36082.33
693.037	36167.3
693.383	35956.68
693.73	36058.15
694.077	35755.11
694.423	35758.72
694.769	35707.2
695.116	35426.53
695.462	35673.75
695.808	35459.97
696.155	35503.13
696.501	35233.99
696.847	35172.97
697.193	34967.33
697.539	35089.13
697.885	34843.04
698.231	34761.46
698.577	34798.97
698.923	34761.91
699.269	34621.35
699.614	34413.45
699.96	34415.48
700.306	34291.87
700.651	34280.57
700.997	33987.69
701.342	34131.87
701.688	34073.34
702.033	33990.18
702.379	33991.76
702.724	33663.86
703.069	34027.24
703.415	33540.47
703.76	33550.64
704.105	33709.06
704.45	33387.26
704.795	33314.27
705.14	33153.82
705.485	33199.69
705.83	33117.21
706.175	33004.44
706.52	32949.98
706.865	32970.55
707.209	32721.06
707.554	32670.67
707.899	32782.53
708.243	32523.55
708.588	32608.3
708.932	32293.5
709.277	32348.87
709.621	32252.6
709.966	32165.59
710.31	32234.29
710.654	31953.62
710.998	32012.6
711.342	32081.3
711.687	31985.71
712.031	31717.7
712.375	31808.09
712.719	31713.4
713.063	31640.86
713.407	31783.68
713.75	31388.89
714.094	31577.36
714.438	31462.56
714.782	31490.36
715.125	31298.27
715.469	31286.97
715.812	31068.67
716.156	30971.05
716.499	31033.42
716.843	30929.7
717.186	30875.69
717.53	30973.76
717.873	30949.58
718.216	30855.57
718.559	30703.26
718.902	30562.25
719.246	30665.07
719.589	30561.34
719.932	30345.3
720.275	30592.53
720.617	30315.7
720.96	30344.63
721.303	30295.81
721.646	30200.67
721.989	30114.35
722.331	30175.36
722.674	30165.87
723.016	30222.37
723.359	29997.97
723.701	30076.61
724.044	29833.9
724.386	29747.35
724.729	29917.52
725.071	29671.2
725.413	29673.91
725.755	29744.19
726.097	29695.83
726.439	29505.78
726.782	29566.12
727.124	29626
727.465	29282.05
727.807	29382.62
728.149	29222.62
728.491	29145.79
728.833	29357.76
729.175	29183.75
729.516	29120.03
729.858	29049.07
730.199	29040.25
730.541	29073.25
730.882	28914.83
731.224	29170.19
731.565	28875.96
731.906	28810.88
732.248	28837.32
732.589	28603.65
732.93	28722.3
733.271	28653.14
733.612	28734.95
733.953	28708.51
734.294	28586.93
734.635	28442.08
734.976	28500.61
735.317	28307.17
735.658	28407.73
735.999	28329.09
736.339	28340.16
736.68	28414.73
737.021	28256.09
737.361	28314.4
737.702	28275.75
738.042	28226.94
738.383	28112.82
738.723	28190.33
739.063	27986.95
739.404	28003.44
739.744	27898.36
740.084	27932.26
740.424	27898.59
740.764	27851.81
741.104	27945.82
741.444	27829.66
741.784	27699.5
742.124	27749.89
742.464	27602.1
742.804	27625.6
743.143	27585.38
743.483	27591.48
743.823	27474.19
744.162	27457.24
744.502	27553.51
744.841	27344.93
745.181	27348.32
745.52	27231.71
745.86	27349
746.199	27164.14
746.538	27047.54
746.877	27237.36
747.216	27217.02
747.556	27053.86
747.895	27160.53
748.234	26943.59
748.573	27067.42
748.911	26849.8
749.25	26775.45
749.589	26690.71
749.928	26768.45
750.267	26676.25
750.605	26716.7
750.944	26633.76
751.283	26611.39
751.621	26564.61
751.96	26344.73
752.298	26415.24
752.636	26389.48
752.975	26248.91
753.313	26191.51
753.651	26250.5
753.989	26240.55
754.327	26185.64
754.666	25970.96
755.004	25977.74
755.342	26017.96
755.679	25896.38
756.017	25677.63
756.355	25857.74
756.693	25749.94
757.031	25733
757.368	25670.4
757.706	25502.04
758.044	25488.48
758.381	25470.63
758.719	25363.29
759.056	25337.98
759.394	25262.5
759.731	25030.87
