Data from hue_320_FLMS001491_90.txt Node
Date: Mon Feb 06 15:47:50 GMT 2017
User: dcchb
Spectrometer: FLMS00149
Trigger mode: 0
Integration Time (sec): 2.000000E-2
Scans to average: 10
Electric dark correction enabled: true
Nonlinearity correction enabled: false
Boxcar width: 0
XAxis mode: Wavelengths
Number of Pixels in Spectrum: 2048
>>>>>Begin Spectral Data<<<<<
341.393	-5.62
341.776	-5.62
342.16	-5.62
342.543	-58.95
342.927	-53.76
343.31	-74.32
343.693	-69.57
344.077	-61.21
344.46	-43.59
344.843	-61.67
345.226	-43.36
345.61	-30.93
345.993	-3.14
346.376	-6.53
346.759	6.36
347.142	44.55
347.525	16.3
347.908	58.56
348.291	75.28
348.674	104.88
349.057	88.39
349.44	134.26
349.823	146.92
350.206	157.31
350.588	199.12
350.971	207.25
351.354	234.6
351.737	244.09
352.119	264.88
352.502	271.66
352.884	266.91
353.267	274.37
353.65	296.07
354.032	289.96
354.414	305.56
354.797	322.28
355.179	320.47
355.562	325.9
355.944	340.81
356.326	329.51
356.709	329.74
357.091	338.78
357.473	322.05
357.855	313.69
358.238	341.49
358.62	350.75
359.002	335.39
359.384	348.04
359.766	338.78
360.148	347.59
360.53	347.14
360.912	340.13
361.294	337.65
361.676	336.06
362.057	341.04
362.439	332.45
362.821	343.3
363.203	330.19
363.584	330.87
363.966	322.96
364.348	318.44
364.729	325.22
365.111	308.27
365.493	305.1
365.874	299.23
366.256	318.66
366.637	299.91
367.019	320.47
367.4	316.63
367.781	298.33
368.163	330.87
368.544	321.15
368.925	305.33
369.306	330.64
369.688	309.85
370.069	303.3
370.45	329.29
370.831	318.66
371.212	300.81
371.593	318.89
371.974	310.98
372.355	323.41
372.736	329.29
373.117	315.95
373.498	321.83
373.879	326.35
374.26	314.14
374.641	297.65
375.021	318.66
375.402	327.93
375.783	330.87
376.163	322.73
376.544	327.03
376.925	331.54
377.305	329.06
377.686	322.28
378.066	323.41
378.447	313.24
378.827	334.71
379.208	331.32
379.588	324.09
379.968	336.06
380.349	338.32
380.729	354.6
381.109	339.68
381.489	336.06
381.87	335.84
382.25	342.62
382.63	323.86
383.01	341.26
383.39	346.01
383.77	346.23
384.15	345.33
384.53	338.78
384.91	349.62
385.29	367.48
385.67	340.13
386.049	355.27
386.429	352.79
386.809	339.68
387.189	343.97
387.568	350.75
387.948	331.09
388.328	368.61
388.707	356.18
389.087	343.52
389.466	371.32
389.846	348.27
390.225	380.13
390.605	357.53
390.984	355.95
391.363	355.5
391.743	386.91
392.122	374.71
392.501	379.45
392.881	393.46
393.26	377.42
393.639	376.74
394.018	362.28
394.397	372
394.776	383.75
395.155	382.62
395.534	375.39
395.913	386.46
396.292	367.7
396.671	374.26
397.05	386.68
397.429	382.84
397.808	378.1
398.186	400.92
398.565	371.32
398.944	402.28
399.323	407.93
399.701	376.06
400.08	398.89
400.458	409.06
400.837	422.39
401.215	404.09
401.594	424.2
401.972	423.75
402.351	408.38
402.729	426.46
403.107	447.02
403.486	418.32
403.864	432.56
404.242	407.93
404.62	421.03
404.999	437.08
405.377	418.1
405.755	428.94
406.133	431.66
406.511	440.69
406.889	435.27
407.267	443.41
407.645	456.51
408.023	464.2
408.401	461.03
408.779	450.19
409.156	463.74
409.534	480.47
409.912	470.98
410.29	497.87
410.667	504.87
411.045	495.61
411.422	487.25
411.8	501.94
412.178	502.16
412.555	497.19
412.933	528.6
413.31	531.77
413.687	516.17
414.065	527.92
414.442	544.42
414.819	549.39
415.197	547.58
415.574	577.87
415.951	569.73
416.328	581.03
416.705	562.5
417.082	596.4
417.46	593.68
417.837	592.33
418.214	595.94
418.591	625.1
418.967	590.52
419.344	612.89
419.721	633.23
420.098	637.75
420.475	653.57
420.852	653.8
421.228	654.25
421.605	652.67
421.982	671.42
422.358	680.69
422.735	700.8
423.111	701.48
423.488	677.98
423.864	703.06
424.241	699.44
424.617	700.35
424.994	706.22
425.37	736.05
425.746	713.91
426.123	736.51
426.499	772.66
426.875	746.22
427.251	753.23
427.627	763.85
428.003	777.18
428.379	767.92
428.756	790.29
429.132	778.76
429.507	789.61
429.883	802.94
430.259	818.31
430.635	816.73
431.011	856.95
431.387	873.23
431.763	830.51
432.138	864.86
432.514	867.8
432.89	867.35
433.265	888.37
433.641	910.06
434.016	915.03
434.392	942.6
434.767	925.88
435.143	908.93
435.518	936.27
435.894	941.47
436.269	941.47
436.644	1020.57
437.02	981.7
437.395	989.83
437.77	1011.3
438.145	1013.11
438.52	1041.81
438.895	1026.22
439.271	1007.46
439.646	1051.75
440.021	1050.85
440.395	1070.28
440.77	1058.31
441.145	1056.72
441.52	1091.3
441.895	1092.88
442.27	1089.27
442.645	1102.15
443.019	1089.04
443.394	1123.16
443.769	1110.28
444.143	1090.17
444.518	1128.36
444.892	1110.96
445.267	1108.93
445.641	1136.5
446.016	1143.05
446.39	1133.56
446.764	1131.07
447.139	1148.25
447.513	1168.36
447.887	1167.68
448.262	1177.4
448.636	1169.04
449.01	1183.27
449.384	1192.99
449.758	1166.55
450.132	1208.13
450.506	1200.67
450.88	1225.08
451.254	1180.56
451.628	1201.58
452.002	1243.16
452.376	1222.59
452.75	1264.18
453.123	1244.29
453.497	1312.54
453.871	1257.17
454.244	1282.48
454.618	1282.25
454.992	1291.52
455.365	1305.3
455.739	1291.97
456.112	1299.2
456.486	1327.9
456.859	1379.43
457.232	1369.94
457.606	1353.66
457.979	1369.94
458.352	1386.43
458.725	1407.67
459.099	1411.52
459.472	1444.28
459.845	1443.83
460.218	1434.34
460.591	1428.01
460.964	1448.13
461.337	1477.5
461.71	1475.02
462.083	1521.8
462.456	1510.05
462.829	1549.59
463.201	1539.2
463.574	1528.12
463.947	1557.5
464.32	1574.45
464.692	1582.13
465.065	1576.94
465.438	1575.13
465.81	1631.4
466.183	1666.65
466.555	1663.71
466.928	1665.07
467.3	1648.57
467.672	1633.21
468.045	1708.68
468.417	1708.46
468.789	1729.02
469.161	1731.06
469.534	1755.01
469.906	1766.54
470.278	1776.03
470.65	1786.42
471.022	1835.23
471.394	1848.57
471.766	1887.66
472.138	1890.15
472.51	1917.49
472.882	1920.43
473.253	1929.7
473.625	1960.65
473.997	1978.96
474.369	2003.14
474.74	2026.42
475.112	2012.18
475.484	2055.34
475.855	2103.02
476.227	2122.91
476.598	2153.64
476.97	2180.08
477.341	2190.71
477.713	2234.77
478.084	2238.39
478.455	2268.44
478.827	2262.12
479.198	2340.08
479.569	2362.9
479.94	2392.06
480.311	2409.91
480.682	2470.47
481.053	2491.71
481.424	2511.15
481.795	2560.86
482.166	2566.74
482.537	2628.66
482.908	2639.51
483.279	2653.52
483.65	2690.13
484.021	2720.41
484.391	2763.57
484.762	2758.37
485.133	2790.46
485.503	2806.96
485.874	2894.42
486.244	2856.22
486.615	2883.79
486.985	2975.77
487.356	3004.92
487.726	3030.23
488.097	3029.55
488.467	3077.46
488.837	3095.77
489.207	3119.49
489.578	3178.02
489.948	3200.62
490.318	3218.25
490.688	3237.68
491.058	3277.46
491.428	3330.79
491.798	3362.88
492.168	3412.14
492.538	3361.75
492.908	3402.2
493.278	3436.55
493.648	3435.19
494.017	3476.32
494.387	3505.47
494.757	3569.88
495.126	3569.88
495.496	3545.47
495.866	3609.65
496.235	3601.97
496.605	3657.79
496.974	3662.08
497.344	3705.02
497.713	3692.59
498.082	3697.33
498.452	3741.4
498.821	3796.31
499.19	3759.25
499.559	3820.27
499.928	3845.58
500.298	3822.98
500.667	3845.8
501.036	3865.01
501.405	3899.81
501.774	3916.76
502.143	3896.65
502.512	3963.31
502.88	3999.7
503.249	3960.38
503.618	3975.97
503.987	3982.52
504.356	4022.75
504.724	4027.94
505.093	4072.46
505.462	4078.34
505.83	4095.97
506.199	4160.6
506.567	4136.87
506.936	4094.84
507.304	4190.88
507.672	4179.81
508.041	4179.58
508.409	4246.92
508.777	4247.15
509.145	4218
509.514	4240.59
509.882	4291.67
510.25	4284.89
510.618	4291.89
510.986	4352
511.354	4330.54
511.722	4397.88
512.09	4388.84
512.458	4398.78
512.826	4407.82
513.193	4419.12
513.561	4454.37
513.929	4424.32
514.297	4462.06
514.664	4519.23
515.032	4533.24
515.4	4514.49
515.767	4546.58
516.135	4547.25
516.502	4551.1
516.869	4606.69
517.237	4639.68
517.604	4585.44
517.972	4589.29
518.339	4680.36
518.706	4624.99
519.073	4657.08
519.44	4722.39
519.808	4713.58
520.175	4695.05
520.542	4764.87
520.909	4740.92
521.276	4759
521.643	4819.11
522.009	4833.35
522.376	4822.27
522.743	4879
523.11	4901.82
523.477	4961.93
523.843	4950.41
524.21	4990.86
524.577	4988.6
524.943	5019.33
525.31	5049.39
525.676	5041.93
526.043	5092.32
526.409	5145.88
526.776	5162.83
527.142	5133.23
527.508	5211.42
527.874	5281.92
528.241	5267.01
528.607	5267.46
528.973	5263.62
529.339	5318.31
529.705	5377.29
530.071	5400.11
530.437	5392.2
530.803	5451.64
531.169	5442.6
531.535	5449.6
531.901	5510.17
532.267	5464.07
532.632	5511.07
532.998	5510.84
533.364	5524.85
533.73	5597.85
534.095	5649.15
534.461	5694.79
534.826	5695.7
535.192	5690.73
535.557	5713.55
535.923	5736.37
536.288	5766.43
536.653	5785.41
537.019	5788.35
537.384	5836.26
537.749	5869.93
538.114	5876.26
538.479	5883.26
538.845	5901.79
539.21	5916.03
539.575	5946.31
539.94	5986.76
540.305	6039.64
540.67	6051.17
541.034	6096.59
541.399	6034.67
541.764	6090.94
542.129	6111.28
542.494	6138.4
542.858	6230.82
543.223	6223.37
543.587	6226.76
543.952	6231.95
544.316	6229.47
544.681	6267.66
545.045	6324.16
545.41	6297.26
545.774	6377.04
546.138	6357.83
546.503	6430.37
546.867	6448.67
547.231	6496.35
547.595	6484.83
547.959	6435.34
548.324	6509.69
548.688	6487.77
549.052	6518.05
549.416	6547.43
549.779	6640.08
550.143	6590.59
550.507	6668.33
550.871	6647.09
551.235	6633.3
551.599	6703.13
551.962	6794.43
552.326	6767.76
552.689	6773.64
553.053	6790.13
553.417	6834.88
553.78	6895.89
554.143	6865.84
554.507	6857.7
554.87	6907.42
555.234	7008.21
555.597	6941.31
555.96	6959.39
556.323	6993.29
556.686	7033.06
557.05	7104.25
557.413	7042.1
557.776	7025.61
558.139	7097.69
558.502	7086.4
558.865	7131.59
559.228	7174.08
559.59	7196
559.953	7187.86
560.316	7325.94
560.679	7327.07
561.041	7267.63
561.404	7358.48
561.767	7432.15
562.129	7381.98
562.492	7424.47
562.854	7380.17
563.217	7421.53
563.579	7451.36
563.941	7511.47
564.304	7572.03
564.666	7547.17
565.028	7629.21
565.39	7562.99
565.753	7636.44
566.115	7671.24
566.477	7674.18
566.839	7711.46
567.201	7776.77
567.563	7767.51
567.925	7770.67
568.287	7831.91
568.648	7855.87
569.01	7964.11
569.372	7949.88
569.734	7962.76
570.095	8053.38
570.457	8132.92
570.819	8108.06
571.18	8064.45
571.542	8118.23
571.903	8158.46
572.265	8198.46
572.626	8228.74
572.987	8301.73
573.349	8413.59
573.71	8389.86
574.071	8344.44
574.432	8485.45
574.794	8575.4
575.155	8564.32
575.516	8590.99
575.877	8615.17
576.238	8739.01
576.599	8832.79
576.96	8805.9
577.32	8972.22
577.681	9035.72
578.042	9150.97
578.403	9122.73
578.763	9201.14
579.124	9282.5
579.485	9474.13
579.845	9550.51
580.206	9617.85
580.566	9635.48
580.927	9819.21
581.287	9984.17
581.648	10025.53
582.008	10216.26
582.368	10278.85
582.728	10430.04
583.089	10598.62
583.449	10717.03
583.809	10876.8
584.169	11031.15
584.529	11118.15
584.889	11437.24
585.249	11492.83
585.609	11658.7
585.969	11868.19
586.329	12061.86
586.688	12336.2
587.048	12535.97
587.408	12668.17
587.768	12850.09
588.127	13132.11
588.487	13224.31
588.846	13667.47
589.206	13697.3
589.565	13942.49
589.925	14246.43
590.284	14483.49
590.643	14825.63
591.003	14992.4
591.362	15346.07
591.721	15528.66
592.08	15836.22
592.44	16077.8
592.799	16376.77
593.158	16571.8
593.517	16892.47
593.876	17165.23
594.235	17399.57
594.593	17665.78
594.952	18053.79
595.311	18268.93
595.67	18602.7
596.029	19018.96
596.387	19260.99
596.746	19507.31
597.104	19747.31
597.463	19958.6
597.822	20497.34
598.18	20526.95
598.538	20754.96
598.897	21259.13
599.255	21272.69
599.613	21979.56
599.972	22146.11
600.33	22470.62
600.688	22581.13
601.046	22892.53
601.404	23303.82
601.762	23496.81
602.12	23862.9
602.478	24148.77
602.836	24378.37
603.194	24638.48
603.552	24906.27
603.91	24902.42
604.268	25319.81
604.625	25444.78
604.983	25982.62
605.341	26007.48
605.698	26452.67
606.056	26694.69
606.413	26871.86
606.771	27141.46
607.128	27481.11
607.485	27575.8
607.843	27773.76
608.2	28142.11
608.557	28398.15
608.914	28396.57
609.272	28815.54
609.629	29054.86
609.986	29371.69
610.343	29371.91
610.7	29811.67
611.057	30013.02
611.414	30107.49
611.771	30309.29
612.127	30566.91
612.484	30758.54
612.841	30953.11
613.198	31150.4
613.554	31340.45
613.911	31577.96
614.267	31605.98
614.624	31801.9
614.98	31945.18
615.337	32317.82
615.693	32337.94
616.05	32589.91
616.406	32746.74
616.762	32962.55
617.118	33079.61
617.475	33170.91
617.831	33407.96
618.187	33479.15
618.543	33591.46
618.899	34040.94
619.255	33973.82
619.611	34064.44
619.967	34426.24
620.323	34479.12
620.678	34433.02
621.034	34619.91
621.39	34649.06
621.746	34659.46
622.101	35145.54
622.457	34938.54
622.812	35154.36
623.168	35304.18
623.523	35432.09
623.879	35539.43
624.234	35449.72
624.589	35555.93
624.945	35651.97
625.3	35865.75
625.655	35961.57
626.01	36006.09
626.365	36202.92
626.72	36043.83
627.075	36079.98
627.43	36217.38
627.785	36171.73
628.14	36265.97
628.495	36355.68
628.85	36520.65
629.205	36236.14
629.559	36562
629.914	36512.29
630.269	36658.95
630.623	36579.63
630.978	36440.88
631.332	36667.31
631.687	36862.11
632.041	36647.88
632.396	36848.1
632.75	36756.8
633.104	36792.73
633.459	36662.57
633.813	36675.22
634.167	36721.55
634.521	36794.32
634.875	36930.13
635.229	36839.51
635.583	36769.46
635.937	36747.54
636.291	36811.94
636.645	36808.33
636.999	36707.09
637.352	36848.78
637.706	36742.11
638.06	36929.68
638.413	36876.57
638.767	36799.29
639.121	36907.53
639.474	36713.41
639.828	36826.4
640.181	36924.03
640.534	36882
640.888	36653.08
641.241	36584.83
641.594	36748.44
641.947	36813.07
642.301	36766.97
642.654	36689.46
643.007	36745.95
643.36	36809.68
643.713	36817.37
644.066	36737.37
644.419	36631.16
644.771	36492.63
645.124	36058.29
645.477	36024.39
645.83	35888.8
646.182	35770.84
646.535	35703.5
646.888	35765.64
647.24	35616.04
647.593	35773.78
647.945	35811.06
648.298	35588.92
648.65	35497.4
649.002	35555.7
649.355	35464.41
649.707	35495.37
650.059	35713.21
650.411	36100.32
650.763	36168.57
651.115	36456.02
651.467	36350.03
651.819	36349.13
652.171	36192.3
652.523	36230.49
652.875	36162.69
653.227	36182.13
653.578	36373.08
653.93	36287.21
654.282	36168.79
654.633	36070.04
654.985	36176.25
655.337	36126.54
655.688	36118.4
656.039	36207.21
656.391	36014.9
656.742	36179.64
657.094	36045.63
657.445	36176.25
657.796	36075.46
658.147	36044.96
658.498	36002.25
658.849	36170.83
659.2	36164.5
659.551	35963.38
659.902	36176.7
660.253	35985.52
660.604	36174.44
660.955	36002.25
661.306	36084.96
661.656	35997.27
662.007	36125.18
662.358	36028.91
662.708	35950.72
663.059	35843.61
663.409	35878.18
663.76	35976.94
664.11	35999.76
664.461	35982.36
664.811	36074.11
665.161	35845.64
665.511	35841.8
665.862	36038.85
666.212	36043.15
666.562	36042.7
666.912	35865.75
667.262	35905.75
667.612	35881.8
667.962	35892.19
668.312	35813.1
668.662	35977.16
669.011	35889.48
669.361	35791.86
669.711	35933.32
670.06	35858.29
670.41	35691.07
670.76	35800.44
671.109	35950.72
671.459	35713.67
671.808	35749.14
672.157	35720.22
672.507	35685.19
672.856	35540.11
673.205	35691.52
673.554	35796.83
673.904	35682.48
674.253	35944.39
674.602	35628.7
674.951	35191.65
675.3	35007.24
675.649	35578.3
675.998	35592.54
676.346	35560
676.695	35600.67
677.044	35479.55
677.393	35416.72
677.741	35435.25
678.09	35480.9
678.438	35352.09
678.787	35485.65
679.135	35298.76
679.484	35110.52
679.832	35287.91
680.181	35091.76
680.529	35107.35
680.877	35127.24
681.225	35188.48
681.573	35325.88
681.922	35035.49
682.27	34948.49
682.618	34843.18
682.966	34881.37
683.314	34867.36
683.661	34755.5
684.009	34749.62
684.357	34672.56
684.705	34614.94
685.053	34617.65
685.4	34438.22
685.748	34381.27
686.095	34388.5
686.443	34255.4
686.79	34265.57
687.138	34395.06
687.485	34284.78
687.832	34142.63
688.18	34150.32
688.527	33992.35
688.874	33911.68
689.221	33828.74
689.568	33908.06
689.915	33837.56
690.262	33721.4
690.609	33659.93
690.956	33537.68
691.303	33462.43
691.65	33370.45
691.997	33343.11
692.344	33229.21
692.69	33198.03
693.037	33228.53
693.383	33051.59
693.73	33005.94
694.077	32844.81
694.423	32812.95
694.769	32708.77
695.116	32722.56
695.462	32646.63
695.808	32592.17
696.155	32563.01
696.501	32350.59
696.847	32250.03
697.193	32151.5
697.539	32165.28
697.885	31833.77
698.231	31950.15
698.577	31888.91
698.923	31918.51
699.269	31608.24
699.614	31542.25
699.96	31547.9
700.306	31558.97
700.651	31406.66
700.997	31359.88
701.342	31245.08
701.688	31248.25
702.033	31091.87
702.379	31117.4
702.724	31100.23
703.069	31147.46
703.415	30665.21
703.76	30634.93
704.105	30738.43
704.45	30692.78
704.795	30499.57
705.14	30457.76
705.485	30438.32
705.83	30196.75
706.175	30346.35
706.52	30204.43
706.865	30170.08
707.209	30099.8
707.554	29935.29
707.899	30073.59
708.243	29773.93
708.588	29671.34
708.932	29579.36
709.277	29564
709.621	29591.34
709.966	29367.84
710.31	29395.87
710.654	29168.3
710.998	29371.91
711.342	29327.17
711.687	29203.1
712.031	28972.6
712.375	28868.42
712.719	28809.44
713.063	28979.38
713.407	28941.87
713.75	28787.07
714.094	28741.87
714.438	28646.73
714.782	28798.37
715.125	28552.95
715.469	28629.33
715.812	28474.53
716.156	28325.39
716.499	28353.63
716.843	28368.1
717.186	28316.8
717.53	28392.73
717.873	28276.12
718.216	28171.72
718.559	28091.72
718.902	27972.4
719.246	28088.1
719.589	27908.9
719.932	27836.36
720.275	27778.51
720.617	27780.77
720.96	27771.5
721.303	27719.07
721.646	27640.43
721.989	27594.56
722.331	27682.24
722.674	27533.54
723.016	27496.71
723.359	27506.65
723.701	27431.17
724.044	27358.63
724.386	27185.3
724.729	27308.91
725.071	27162.25
725.413	27201.57
725.755	27242.48
726.097	27110.05
726.439	27074.34
726.782	26971.75
727.124	27049.71
727.465	26880
727.807	26859.21
728.149	26757.29
728.491	26748.7
728.833	26801.58
729.175	26675.94
729.516	26625.77
729.858	26637.52
730.199	26649.72
730.541	26494.25
730.882	26494.7
731.224	26715.71
731.565	26470.74
731.906	26403.63
732.248	26294.03
732.589	26356.85
732.93	26257.19
733.271	26185.78
733.612	26289.96
733.953	26324.76
734.294	26079.57
734.635	26140.81
734.976	26126.57
735.317	25944.88
735.658	26031.21
735.999	25999.8
736.339	25847.94
736.68	26045.22
737.021	25943.98
737.361	25747.37
737.702	25892.45
738.042	25755.06
738.383	25705.34
738.723	25776.3
739.063	25556.19
739.404	25783.31
739.744	25716.19
740.084	25454.5
740.424	25558.9
740.764	25527.94
741.104	25522.3
741.444	25314.62
741.784	25257.44
742.124	25422.41
742.464	25404.56
742.804	25227.16
743.143	25249.08
743.483	25197.56
743.823	25066.49
744.162	25081.18
744.502	25119.82
744.841	25062.87
745.181	25037.79
745.52	24957.79
745.86	25021.52
746.199	24843.89
746.538	25010.67
746.877	24984.23
747.216	24959.15
747.556	24827.17
747.895	25024
748.234	24713.5
748.573	24654.97
748.911	24639.83
749.25	24735.2
749.589	24577.69
749.928	24529.78
750.267	24650.91
750.605	24395.77
750.944	24574.52
751.283	24388.09
751.621	24407.52
751.96	24260.41
752.298	24195.32
752.636	24254.08
752.975	24111.94
753.313	24010.24
753.651	24097.25
753.989	23953.52
754.327	23947.87
754.666	23838.72
755.004	23867.65
755.342	23907.42
755.679	23840.76
756.017	23565.28
756.355	23739.29
756.693	23512.86
757.031	23666.07
757.368	23527.55
757.706	23524.83
758.044	23459.3
758.381	23369.13
758.719	23283.03
759.056	23288.23
759.394	23237.61
759.731	23078.74
760.068	22986.99
