Data from hue_22_FLMS001491_00039.txt Node
Date: Tue Feb 07 17:10:02 GMT 2017
User: dcchb
Spectrometer: FLMS00149
Trigger mode: 0
Integration Time (sec): 2.000000E-2
Scans to average: 10
Electric dark correction enabled: true
Nonlinearity correction enabled: false
Boxcar width: 0
XAxis mode: Wavelengths
Number of Pixels in Spectrum: 2048
>>>>>Begin Spectral Data<<<<<
341.393	-1.89
341.776	-1.89
342.16	-1.89
342.543	-39.41
342.927	-67.43
343.31	-55.22
343.693	-64.26
344.077	-77.82
344.46	-64.04
344.843	-47.99
345.226	-59.07
345.61	-10.25
345.993	-21.33
346.376	-7.77
346.759	20.03
347.142	19.8
347.525	52.34
347.908	63.87
348.291	74.49
348.674	76.3
349.057	100.93
349.44	132.12
349.823	138.44
350.206	168.5
350.588	187.25
350.971	212.57
351.354	230.19
351.737	229.29
352.119	247.37
352.502	257.76
352.884	253.02
353.267	286.24
353.65	294.6
354.032	307.48
354.414	313.35
354.797	309.51
355.179	319.23
355.562	316.07
355.944	334.6
356.326	331.88
356.709	333.69
357.091	321.04
357.473	355.84
357.855	347.48
358.238	339.34
358.62	352
359.002	348.61
359.384	346.35
359.766	344.31
360.148	359.91
360.53	354.93
360.912	326.46
361.294	341.6
361.676	347.7
362.057	349.28
362.439	341.15
362.821	306.12
363.203	333.69
363.584	326.01
363.966	324.2
364.348	344.31
364.729	316.52
365.111	308.83
365.493	331.88
365.874	311.55
366.256	321.26
366.637	338.44
367.019	309.51
367.4	319.91
367.781	302.28
368.163	329.62
368.544	330.53
368.925	318.78
369.306	336.18
369.688	314.03
370.069	303.41
370.45	312.68
370.831	338.66
371.212	328.72
371.593	316.29
371.974	333.47
372.355	344.99
372.736	330.75
373.117	320.58
373.498	316.52
373.879	315.39
374.26	331.88
374.641	314.48
375.021	323.52
375.402	324.43
375.783	335.05
376.163	331.43
376.544	332.11
376.925	317.65
377.305	339.34
377.686	338.89
378.066	328.95
378.447	331.43
378.827	336.4
379.208	338.89
379.588	326.01
379.968	347.7
380.349	327.14
380.729	353.13
381.109	335.5
381.489	345.22
381.87	349.51
382.25	352.22
382.63	341.38
383.01	361.49
383.39	339.57
383.77	339.79
384.15	354.26
384.53	339.79
384.91	348.15
385.29	367.82
385.67	334.37
386.049	352.22
386.429	354.03
386.809	347.93
387.189	348.38
387.568	352.67
387.948	368.95
388.328	362.17
388.707	364.43
389.087	361.71
389.466	346.8
389.846	372.11
390.225	370.75
390.605	371.66
390.984	374.14
391.363	361.49
391.743	368.04
392.122	356.97
392.501	378.44
392.881	392.67
393.26	375.05
393.639	388.83
394.018	360.36
394.397	379.34
394.776	377.76
395.155	369.4
395.534	375.05
395.913	364.88
396.292	398.1
396.671	393.13
397.05	382.5
397.429	368.04
397.808	386.12
398.186	413.69
398.565	427.25
398.944	406.01
399.323	368.72
399.701	392.67
400.08	394.71
400.458	408.27
400.837	401.71
401.215	403.07
401.594	414.14
401.972	410.98
402.351	400.36
402.729	408.04
403.107	397.64
403.486	437.64
403.864	427.02
404.242	409.85
404.62	444.2
404.999	436.29
405.377	428.6
405.755	435.16
406.133	455.04
406.511	441.26
406.889	444.42
407.267	439.9
407.645	452.33
408.023	437.42
408.401	471.54
408.779	434.25
409.156	443.52
409.534	468.15
409.912	445.33
410.29	447.81
410.667	458.43
411.045	466.34
411.422	450.07
411.8	474.93
412.178	474.71
412.555	499.11
412.933	483.97
413.31	483.07
413.687	490.75
414.065	488.72
414.442	482.61
414.819	497.3
415.197	508.83
415.574	499.79
415.951	516.51
416.328	518.77
416.705	523.07
417.082	523.52
417.46	523.74
417.837	526.46
418.214	519.22
418.591	507.02
418.967	514.25
419.344	524.2
419.721	520.81
420.098	539.11
420.475	532.33
420.852	532.78
421.228	540.24
421.605	567.13
421.982	550.86
422.358	554.02
422.735	549.73
423.111	549.96
423.488	572.56
423.864	568.71
424.241	562.16
424.617	556.96
424.994	574.82
425.37	587.47
425.746	586.79
426.123	587.47
426.499	583.85
426.875	601.71
427.251	620.24
427.627	598.09
428.003	616.4
428.379	602.61
428.756	613.91
429.132	621.37
429.507	632.67
429.883	626.11
430.259	631.54
430.635	643.97
431.011	641.71
431.387	674.47
431.763	685.77
432.138	667.69
432.514	655.04
432.89	670.63
433.265	671.99
433.641	685.32
434.016	679.45
434.392	702.04
434.767	723.29
435.143	713.79
435.518	699.11
435.894	720.35
436.269	736.17
436.644	731.42
437.02	731.42
437.395	771.65
437.77	733.46
438.145	763.51
438.52	742.49
438.895	761.7
439.271	756.51
439.646	768.03
440.021	792.21
440.395	765.54
440.77	780.69
441.145	792.66
441.52	822.94
441.895	812.32
442.27	798.09
442.645	807.13
443.019	805.09
443.394	830.85
443.769	837.41
444.143	826.56
444.518	822.94
444.892	850.06
445.267	832.89
445.641	870.85
446.016	842.83
446.39	855.26
446.764	860.91
447.139	858.2
447.513	858.2
447.887	843.28
448.262	875.82
448.636	874.69
449.01	893.23
449.384	909.95
449.758	922.15
450.132	901.81
450.506	928.03
450.88	889.61
451.254	907.24
451.628	944.98
452.002	933.45
452.376	939.1
452.75	953.11
453.123	956.5
453.497	970.96
453.871	989.95
454.244	992.21
454.618	990.17
454.992	1023.84
455.365	1006.22
455.739	1015.93
456.112	1030.62
456.486	1045.54
456.859	1030.85
457.232	1041.24
457.606	1073.79
457.979	1063.16
458.352	1063.16
458.725	1105.2
459.099	1101.58
459.472	1115.59
459.845	1133.9
460.218	1148.59
460.591	1140.68
460.964	1162.14
461.337	1161.24
461.71	1179.55
462.083	1203.95
462.456	1215.48
462.829	1212.99
463.201	1231.75
463.574	1239.88
463.947	1264.29
464.32	1266.1
464.692	1288.69
465.065	1315.36
465.438	1350.39
465.81	1336.83
466.183	1350.84
466.555	1366.21
466.928	1384.74
467.3	1374.12
467.672	1398.52
468.045	1436.26
468.417	1444.62
468.789	1456.15
469.161	1479.65
469.534	1502.93
469.906	1542.25
470.278	1542.93
470.65	1552.19
471.022	1550.38
471.394	1617.95
471.766	1632.19
472.138	1637.39
472.51	1665.18
472.882	1706.76
473.253	1731.17
473.625	1791.96
473.997	1788.34
474.369	1794.22
474.74	1790.83
475.112	1855.46
475.484	1895.46
475.855	1904.95
476.227	1941.33
476.598	1991.95
476.97	2005.74
477.341	2036.25
477.713	2095.45
478.084	2085.28
478.455	2152.4
478.827	2193.08
479.198	2217.03
479.569	2259.52
479.94	2307.88
480.311	2312.62
480.682	2364.15
481.053	2423.13
481.424	2475.78
481.795	2479.4
482.166	2577.47
482.537	2596.46
482.908	2643.46
483.279	2675.55
483.65	2763.46
484.021	2798.94
484.391	2805.94
484.762	2862.66
485.133	2911.25
485.503	2939.27
485.874	3013.85
486.244	3008.88
486.615	3124.13
486.985	3167.52
487.356	3213.84
487.726	3176.55
488.097	3294.07
488.467	3322.31
488.837	3437.11
489.207	3450.45
489.578	3494.29
489.948	3541.74
490.318	3569.99
490.688	3604.11
491.058	3645.7
491.428	3752.81
491.798	3738.57
492.168	3815.18
492.538	3845.24
492.908	3926.59
493.278	3964.1
493.648	3948.51
494.017	4065.8
494.387	4099.92
494.757	4109.41
495.126	4215.17
495.496	4229.41
495.866	4213.82
496.235	4308.28
496.605	4336.75
496.974	4336.52
497.344	4349.86
497.713	4442.28
498.082	4473.47
498.452	4485.67
498.821	4517.08
499.19	4601.15
499.559	4596.86
499.928	4602.28
500.298	4564.99
500.667	4685.89
501.036	4684.76
501.405	4762.28
501.774	4720.24
502.143	4777.42
502.512	4796.17
502.88	4882.72
503.249	4808.38
503.618	4897.87
503.987	4946.9
504.356	4992.55
504.724	4987.81
505.093	4956.17
505.462	4970.41
505.83	5046.11
506.199	5099.67
506.567	5181.25
506.936	5116.16
507.304	5197.97
507.672	5233
508.041	5249.04
508.409	5280
508.777	5318.42
509.145	5385.54
509.514	5337.63
509.882	5416.95
510.25	5394.8
510.618	5430.51
510.986	5457.4
511.354	5524.29
511.722	5534.01
512.09	5586.89
512.458	5587.56
512.826	5640.22
513.193	5635.02
513.561	5625.3
513.929	5670.5
514.297	5707.34
514.664	5749.37
515.032	5783.49
515.4	5814.45
515.767	5861.46
516.135	5890.61
516.502	5866.43
516.869	5953.88
517.237	5951.17
517.604	5896.26
517.972	5995.92
518.339	6011.51
518.706	6015.58
519.073	5992.53
519.44	6068.46
519.808	6079.98
520.175	6104.16
520.542	6164.95
520.909	6212.41
521.276	6176.48
521.643	6270.03
522.009	6272.97
522.376	6359.75
522.743	6354.1
523.11	6395.45
523.477	6456.92
523.843	6443.36
524.21	6510.25
524.577	6586.63
524.943	6624.83
525.31	6630.48
525.676	6680.19
526.043	6692.85
526.409	6730.13
526.776	6799.06
527.142	6867.08
527.508	6868.66
527.874	6892.84
528.241	6953.18
528.607	6957.92
528.973	6980.3
529.339	6960.86
529.705	7075.89
530.071	7121.76
530.437	7159.05
530.803	7182.33
531.169	7223.45
531.535	7220.29
531.901	7192.49
532.267	7275.43
532.632	7328.31
532.998	7305.49
533.364	7361.3
533.73	7397.46
534.095	7448.76
534.461	7488.08
534.826	7552.49
535.192	7547.29
535.557	7592.48
535.923	7559.49
536.288	7617.34
536.653	7668.87
537.019	7718.13
537.384	7712.48
537.749	7711.12
538.114	7774.85
538.479	7807.62
538.845	7823.89
539.21	7846.26
539.575	7868.63
539.94	7953.6
540.305	8044.68
540.67	7966.94
541.034	8030.66
541.399	8018.01
541.764	8110.66
542.129	8130.1
542.494	8143.88
542.858	8181.62
543.223	8248.51
543.587	8235.4
543.952	8239.25
544.316	8335.74
544.681	8297.78
545.045	8326.7
545.41	8365.35
545.774	8427.72
546.138	8390.2
546.503	8496.42
546.867	8500.93
547.231	8552.68
547.595	8546.81
547.959	8602.4
548.324	8631.33
548.688	8565.11
549.052	8638.33
549.416	8729.86
549.779	8691.89
550.143	8747.03
550.507	8783.41
550.871	8813.47
551.235	8890.3
551.599	8929.85
551.962	8882.85
552.326	8926.46
552.689	8997.87
553.053	8986.35
553.417	9027.47
553.78	9076.29
554.143	9093.01
554.507	9091.88
554.87	9099.56
555.234	9196.51
555.597	9160.35
555.96	9264.76
556.323	9297.52
556.686	9307.69
557.05	9314.92
557.413	9348.6
557.776	9351.53
558.139	9516.95
558.502	9502.49
558.865	9466.11
559.228	9579.55
559.59	9494.58
559.953	9629.94
560.316	9691.64
560.679	9625.88
561.041	9706.1
561.404	9815.7
561.767	9819.77
562.129	9778.42
562.492	9877.17
562.854	9881.69
563.217	9843.95
563.579	9912.42
563.941	9975.25
564.304	10011.4
564.666	10061.35
565.028	10093.89
565.39	10087.11
565.753	10203.71
566.115	10204.62
566.477	10260.89
566.839	10237.39
567.201	10367.1
567.563	10312.41
567.925	10397.38
568.287	10468.57
568.648	10484.61
569.01	10476.93
569.372	10527.55
569.734	10549.02
570.095	10602.8
570.457	10695
570.819	10666.98
571.18	10674.66
571.542	10786.3
571.903	10770.03
572.265	10917.14
572.626	10919.4
572.987	10924.37
573.349	11017.93
573.71	11071.04
574.071	11148.77
574.432	11167.08
574.794	11351.48
575.155	11345.15
575.516	11317.36
575.877	11435.32
576.238	11424.7
576.599	11598.48
576.96	11646.39
577.32	11702.66
577.681	11765.48
578.042	11831.47
578.403	11842.77
578.763	12005.7
579.124	12063.1
579.485	12157.11
579.845	12246.6
580.206	12354.84
580.566	12419.02
580.927	12588.51
581.287	12789.86
581.648	12791.44
582.008	12960.93
582.368	13173.58
582.728	13233.01
583.089	13324.76
583.449	13546.23
583.809	13673.68
584.169	13815.37
584.529	13985.31
584.889	14274.57
585.249	14256.04
585.609	14478.63
585.969	14683.82
586.329	14824.16
586.688	15084.26
587.048	15238.84
587.408	15500.52
587.768	15680.18
588.127	15909.1
588.487	16100.73
588.846	16464.12
589.206	16566.26
589.565	16865.23
589.925	17267.03
590.284	17310.42
590.643	17581.6
591.003	17963.96
591.362	18261.58
591.721	18420.9
592.08	18871.28
592.44	19155.57
592.799	19344.49
593.158	19628.1
593.517	19955.1
593.876	20320.74
594.235	20448.42
594.593	20757.56
594.952	21173.82
595.311	21450.2
595.67	21776.97
596.029	22139.22
596.387	22379.67
596.746	22802.03
597.104	22954.11
597.463	23223.26
597.822	23621.44
598.18	23783.7
598.538	24144.14
598.897	24470.01
599.255	24672.71
599.613	25328.74
599.972	25408.51
600.33	25715.17
600.688	25995.16
601.046	26343.18
601.404	26808.93
601.762	27042.14
602.12	27309.71
602.478	27716.25
602.836	27965.28
603.194	28067.88
603.552	28445.27
603.91	28695.43
604.268	29078.02
604.625	29282.08
604.983	29640.04
605.341	29804.78
605.698	30180.59
606.056	30518.89
606.413	30841.14
606.771	31059.44
607.128	31334.01
607.485	31429.82
607.843	31793.88
608.2	32269.8
608.557	32380.98
608.914	32574.2
609.272	33003.12
609.629	33183.22
609.986	33568.75
610.343	33541.18
610.7	34060.04
611.057	34133.71
611.414	34329.63
611.771	34652.56
612.127	34771.66
612.484	35071.99
612.841	35307.69
613.198	35396.72
613.554	35667.9
613.911	35965.98
614.267	36309.24
614.624	36306.76
614.98	36494.77
615.337	36986.06
615.693	36857.03
616.05	37132.05
616.406	37610.23
616.762	37512.6
617.118	37570.45
617.475	37800.28
617.831	38040.95
618.187	38189.65
618.543	38508.96
618.899	38713.7
619.255	38753.7
619.611	38849.74
619.967	39218.32
620.323	39244.99
620.678	39285.66
621.034	39279.11
621.39	39492.21
621.746	39643.17
622.101	40113.89
622.457	39879.54
622.812	40073.21
623.168	40207.22
623.523	40384.84
623.879	40480.88
624.234	40213.32
624.589	40503.71
624.945	40733.99
625.3	40928.1
625.655	40884.94
626.01	40897.14
626.365	41152.05
626.72	41014.43
627.075	41102.34
627.43	41263.24
627.785	41199.74
628.14	41331.03
628.495	41545.49
628.85	41633.62
629.205	41504.13
629.559	41697.12
629.914	41467.98
630.269	41724.69
630.623	41719.95
630.978	41721.3
631.332	41824.58
631.687	41965.59
632.041	41790
632.396	41942.99
632.75	41928.08
633.104	41940.96
633.459	41856.89
633.813	41880.17
634.167	41952.26
634.521	42007.85
634.875	42015.31
635.229	42120.16
635.583	41866.61
635.937	41977.79
636.291	41999.71
636.645	41982.77
636.999	42034.29
637.352	42139.37
637.706	41983.44
638.06	42072.71
638.413	41961.3
638.767	41884.46
639.121	42026.15
639.474	42031.35
639.828	41951.13
640.181	41975.99
640.534	42051.92
640.888	41854.41
641.241	41762.88
641.594	42068.19
641.947	42119.26
642.301	41895.99
642.654	41989.09
643.007	41989.32
643.36	41936.44
643.713	41970.11
644.066	42086.04
644.419	41815.54
644.771	41599.05
645.124	41184.6
645.477	41277.93
645.83	40931.95
646.182	41006.97
646.535	40889.01
646.888	40836.58
647.24	40648.11
647.593	40961.55
647.945	41003.81
648.298	40762.69
648.65	40644.04
649.002	40540.32
649.355	40752.06
649.707	40646.3
650.059	40781.67
650.411	41207.19
650.763	41279.28
651.115	41743.9
651.467	41664.58
651.819	41752.72
652.171	41437.02
652.523	41528.99
652.875	41531.93
653.227	41328.55
653.578	41637.92
653.93	41458.94
654.282	41414.87
654.633	41374.42
654.985	41303.01
655.337	41361.09
655.688	41365.83
656.039	41535.09
656.391	41258.49
656.742	41304.14
657.094	41222.33
657.445	41359.96
657.796	41340.98
658.147	41264.14
658.498	41350.69
658.849	41341.88
659.2	41279.06
659.551	41216.46
659.902	41271.82
660.253	41171.94
660.604	41222.33
660.955	41114.09
661.306	41203.58
661.656	41206.52
662.007	41170.58
662.358	41254.65
662.708	41362.67
663.059	41166.52
663.409	41125.39
663.76	41384.59
664.11	41207.19
664.461	41252.16
664.811	41293.07
665.161	41238.15
665.511	41036.58
665.862	41055.11
666.212	41215.1
666.562	41238.38
666.912	41117.7
667.262	41156.12
667.612	41139.85
667.962	41222.56
668.312	41032.28
668.662	41245.61
669.011	41263.69
669.361	41113.64
669.711	41055.78
670.06	41047.2
670.41	40859.41
670.76	40919.29
671.109	41152.51
671.459	40906.86
671.808	40950.48
672.157	41170.36
672.507	40825.06
672.856	40955.22
673.205	40974.43
673.554	41018.05
673.904	40954.09
674.253	41092.17
674.602	40993.19
674.951	40298.06
675.3	40267.11
675.649	40837.03
675.998	40786.87
676.346	40822.57
676.695	40868.67
677.044	40540.54
677.393	40792.29
677.741	40640.88
678.09	40699.41
678.438	40535.57
678.787	40586.64
679.135	40577.61
679.484	40468.23
679.832	40665.96
680.181	40261.68
680.529	40423.26
680.877	40242.47
681.225	40242.7
681.573	40465.29
681.922	40180.1
682.27	40173.1
682.618	40216.26
682.966	40022.37
683.314	40091.52
683.661	39923.39
684.009	39778.53
684.357	39887.45
684.705	39724.75
685.053	39733.79
685.4	39681.81
685.748	39505.77
686.095	39531.76
686.443	39372.21
686.79	39424.87
687.138	39403.4
687.485	39430.74
687.832	39274.14
688.18	39294.25
688.527	39036.85
688.874	39001.6
689.221	38893.58
689.568	38829.4
689.915	38840.7
690.262	38734.04
690.609	38679.35
690.956	38490.2
691.303	38570.88
691.65	38449.07
691.997	38347.83
692.344	38152.58
692.69	38184.9
693.037	38150.1
693.383	37809.54
693.73	37941.74
694.077	37821.52
694.423	37775.87
694.769	37708.53
695.116	37542.43
695.462	37640.96
695.808	37361.19
696.155	37536.56
696.501	37210.46
696.847	37153.29
697.193	36925.27
697.539	37085.27
697.885	36798.72
698.231	36675.79
698.577	36811.6
698.923	36645.51
699.269	36558.05
699.614	36367.09
699.96	36167.1
700.306	36283.71
700.651	36048.68
700.997	36100.89
701.342	35910.61
701.688	35892.53
702.033	35774.79
702.379	35737.96
702.724	35696.6
703.069	35696.6
703.415	35344.52
703.76	35422.49
704.105	35383.84
704.45	35378.65
704.795	35062.04
705.14	35055.04
705.485	34966.68
705.83	34925.78
706.175	34954.02
706.52	34793.35
706.865	34756.52
707.209	34796.29
707.554	34497.54
707.899	34510.87
708.243	34365.57
708.588	34404.43
708.932	34149.53
709.277	34150.88
709.621	34140.49
709.966	33947.27
710.31	34013.48
710.654	33656.66
710.998	33831.79
711.342	33815.52
711.687	33518.81
712.031	33530.79
712.375	33351.35
712.719	33490.56
713.063	33460.73
713.407	33448.08
713.75	33337.34
714.094	33293.05
714.438	33260.51
714.782	33124.69
715.125	33029.1
715.469	33030.91
715.812	32959.73
716.156	32757.25
716.499	32751.6
716.843	32772.16
717.186	32602.22
717.53	32782.33
717.873	32701.65
718.216	32655.33
718.559	32529.23
718.902	32199.97
719.246	32323.36
719.589	32250.14
719.932	32288.56
720.275	32088.56
720.617	32160.65
720.96	32019.64
721.303	32105.06
721.646	31988
721.989	31668.01
722.331	31948.45
722.674	31763.37
723.016	31785.97
723.359	31691.96
723.701	31727.89
724.044	31478.64
724.386	31333.1
724.729	31447.45
725.071	31402.71
725.413	31385.08
725.755	31342.82
726.097	31216.04
726.439	30934.02
726.782	30977.18
727.124	31189.15
727.465	31028.93
727.807	31112.77
728.149	30957.52
728.491	30932.21
728.833	30881.36
729.175	30790.29
729.516	30711.65
729.858	30802.72
730.199	30832.78
730.541	30757.75
730.882	30758.88
731.224	30699.67
731.565	30461.26
731.906	30511.88
732.248	30570.41
732.589	30355.5
732.93	30316.63
733.271	30181.72
733.612	30328.84
733.953	30278.67
734.294	30184.21
734.635	30163.64
734.976	30257.88
735.317	29959.58
735.658	30063.31
735.999	30040.48
736.339	29953.25
736.68	30063.98
737.021	29894.04
737.361	29730.43
737.702	29831.22
738.042	29842.97
738.383	29639.59
738.723	29860.37
739.063	29678
739.404	29752.81
739.744	29615.63
740.084	29537.44
740.424	29587.61
740.764	29508.97
741.104	29596.2
741.444	29269.88
741.784	29395.75
742.124	29267.85
742.464	29459.25
742.804	29296.09
743.143	29219.71
743.483	29199.83
743.823	29144.23
744.162	29130.45
744.502	29165.93
744.841	28984.24
745.181	28971.58
745.52	28845.48
745.86	29026.72
746.199	28908.08
746.538	28889.78
746.877	28795.09
747.216	28987.18
747.556	28803
747.895	28682.1
748.234	28600.52
748.573	28577.92
748.911	28435.55
749.25	28628.32
749.589	28519.39
749.928	28452.27
750.267	28543.35
750.605	28358.94
750.944	28281.43
751.283	28325.27
751.621	28278.49
751.96	28100.19
752.298	28136.35
752.636	28255.9
752.975	28020.65
753.313	27961.44
753.651	28044.38
753.989	27804.16
754.327	27829.69
754.666	27701.56
755.004	27769.81
755.342	27720.09
755.679	27641.22
756.017	27502.69
756.355	27562.58
756.693	27491.62
757.031	27567.1
757.368	27423.15
757.706	27289.37
758.044	27188.13
758.381	27177.28
758.719	27097.96
759.056	27167.34
759.394	27076.04
759.731	26945.87
