Data from hue_00_FLMS001491_69.txt Node
Date: Mon Feb 06 15:30:04 GMT 2017
User: dcchb
Spectrometer: FLMS00149
Trigger mode: 0
Integration Time (sec): 2.000000E-2
Scans to average: 10
Electric dark correction enabled: true
Nonlinearity correction enabled: false
Boxcar width: 0
XAxis mode: Wavelengths
Number of Pixels in Spectrum: 2048
>>>>>Begin Spectral Data<<<<<
341.393	-12.6
341.776	-12.6
342.16	-12.6
342.543	-54.86
342.927	-59.15
343.31	-97.12
343.693	-70.9
344.077	-51.24
344.46	-56.21
344.843	-54.63
345.226	-47.17
345.61	-25.48
345.993	-6.27
346.376	-14.18
346.759	23.11
347.142	40.51
347.525	16.33
347.908	72.82
348.291	85.93
348.674	78.02
349.057	106.49
349.44	118.25
349.823	156.21
350.206	183.33
350.588	203.67
350.971	208.19
351.354	225.14
351.737	215.87
352.119	270.56
352.502	275.53
352.884	277.34
353.267	279.82
353.65	295.64
354.032	312.82
354.414	318.69
354.797	306.94
355.179	331.57
355.562	330.67
355.944	313.95
356.326	327.73
356.709	306.26
357.091	328.41
357.473	349.65
357.855	351.01
358.238	340.84
358.62	354.4
359.002	325.92
359.384	369.76
359.766	322.08
360.148	350.33
360.53	325.47
360.912	319.37
361.294	311.91
361.676	325.7
362.057	321.63
362.439	315.3
362.821	324.57
363.203	318.69
363.584	323.89
363.966	302.2
364.348	308.97
364.729	327.05
365.111	327.28
365.493	319.14
365.874	318.47
366.256	320.5
366.637	336.54
367.019	295.87
367.4	325.25
367.781	311.01
368.163	306.72
368.544	310.1
368.925	297.45
369.306	323.21
369.688	308.3
370.069	301.29
370.45	314.62
370.831	310.33
371.212	298.58
371.593	310.78
371.974	321.4
372.355	327.96
372.736	300.84
373.117	319.6
373.498	315.75
373.879	315.75
374.26	297.9
374.641	323.21
375.021	311.69
375.402	325.02
375.783	308.52
376.163	315.3
376.544	333.16
376.925	308.97
377.305	309.65
377.686	306.72
378.066	323.66
378.447	326.6
378.827	322.76
379.208	337.9
379.588	334.06
379.968	327.05
380.349	323.44
380.729	312.82
381.109	334.51
381.489	330.44
381.87	334.06
382.25	325.47
382.63	327.28
383.01	324.34
383.39	309.2
383.77	342.19
384.15	364.57
384.53	347.62
384.91	341.74
385.29	344.91
385.67	327.05
386.049	330.22
386.429	346.49
386.809	336.54
387.189	331.12
387.568	325.7
387.948	345.58
388.328	350.56
388.707	321.86
389.087	333.16
389.466	338.35
389.846	334.74
390.225	328.64
390.605	353.49
390.984	340.84
391.363	360.5
391.743	358.01
392.122	365.7
392.501	328.64
392.881	369.76
393.26	374.28
393.639	369.54
394.018	382.19
394.397	366.37
394.776	370.89
395.155	349.43
395.534	379.71
395.913	377.9
396.292	365.24
396.671	369.31
397.05	374.06
397.429	374.51
397.808	379.71
398.186	372.7
398.565	360.27
398.944	373.61
399.323	392.14
399.701	379.48
400.08	374.28
400.458	379.26
400.837	381.29
401.215	374.28
401.594	387.39
401.972	384.45
402.351	388.52
402.729	386.71
403.107	372.02
403.486	379.03
403.864	396.2
404.242	399.37
404.62	417.67
404.999	380.16
405.377	405.7
405.755	411.12
406.133	415.86
406.511	407.28
406.889	415.19
407.267	418.35
407.645	433.94
408.023	413.38
408.401	433.72
408.779	414.73
409.156	422.19
409.534	424.45
409.912	439.37
410.29	443.89
410.667	409.76
411.045	443.66
411.422	422.42
411.8	447.95
412.178	454.28
412.555	444.11
412.933	448.18
413.31	429.65
413.687	441.63
414.065	442.76
414.442	455.64
414.819	448.63
415.197	464.23
415.574	469.42
415.951	469.65
416.328	470.1
416.705	476.43
417.082	481.17
417.46	491.57
417.837	481.63
418.214	474.85
418.591	489.54
418.967	497.9
419.344	492.47
419.721	503.32
420.098	501.96
420.475	528.63
420.852	514.39
421.228	497.9
421.605	498.35
421.982	520.04
422.358	527.05
422.735	485.69
423.111	515.52
423.488	516.43
423.864	531.79
424.241	540.83
424.617	543.77
424.994	548.06
425.37	532.7
425.746	558.91
426.123	529.99
426.499	545.58
426.875	553.49
427.251	566.82
427.627	579.02
428.003	543.55
428.379	570.89
428.756	575.41
429.132	587.39
429.507	563.66
429.883	589.87
430.259	592.36
430.635	601.85
431.011	596.2
431.387	607.5
431.763	605.92
432.138	608.85
432.514	616.54
432.89	614.05
433.265	617.89
433.641	633.26
434.016	633.49
434.392	642.3
434.767	638.01
435.143	660.83
435.518	658.8
435.894	665.8
436.269	652.24
436.644	663.09
437.02	670.77
437.395	675.74
437.77	693.82
438.145	696.99
438.52	709.19
438.895	703.54
439.271	694.28
439.646	719.81
440.021	701.96
440.395	737.66
440.77	722.3
441.145	707.38
441.52	739.47
441.895	713.26
442.27	768.85
442.645	722.75
443.019	739.25
443.394	749.19
443.769	751.9
444.143	736.08
444.518	757.55
444.892	761.39
445.267	744.44
445.641	753.03
446.016	745.35
446.39	759.36
446.764	753.93
447.139	774.05
447.513	780.15
447.887	774.95
448.262	770.88
448.636	767.04
449.01	806.14
449.384	795.97
449.758	789.19
450.132	786.02
450.506	800.49
450.88	807.27
451.254	835.06
451.628	821.05
452.002	852.69
452.376	816.31
452.75	844.55
453.123	856.08
453.497	858.56
453.871	844.78
454.244	879.81
454.618	856.53
454.992	893.14
455.365	870.32
455.739	885.91
456.112	911.9
456.486	915.29
456.859	925.68
457.232	937.43
457.606	912.35
457.979	934.72
458.352	953.93
458.725	952.35
459.099	969.52
459.472	957.09
459.845	986.92
460.218	990.54
460.591	1003.19
460.964	1043.19
461.337	1029.86
461.71	1015.85
462.083	1049.29
462.456	1033.93
462.829	1049.75
463.201	1072.57
463.574	1087.94
463.947	1094.72
464.32	1094.49
464.692	1127.03
465.065	1125.9
465.438	1120.7
465.81	1123.87
466.183	1166.58
466.555	1163.64
466.928	1183.53
467.3	1168.39
467.672	1200.48
468.045	1224.21
468.417	1221.95
468.789	1233.47
469.161	1251.32
469.534	1278.21
469.906	1284.99
470.278	1298.33
470.65	1331.09
471.022	1320.25
471.394	1362.96
471.766	1370.19
472.138	1377.42
472.51	1416.29
472.882	1415.39
473.253	1436.85
473.625	1491.54
473.997	1456.74
474.369	1506.46
474.74	1539
475.112	1538.55
475.484	1582.39
475.855	1588.04
476.227	1620.8
476.598	1668.94
476.97	1689.96
477.341	1692.22
477.713	1720.92
478.084	1722.5
478.455	1802.95
478.827	1828.71
479.198	1905.54
479.569	1847.24
479.94	1907.58
480.311	1944.64
480.682	1976.5
481.053	2004.98
481.424	2021.92
481.795	2050.4
482.166	2101.02
482.537	2159.1
482.908	2192.54
483.279	2202.48
483.65	2235.03
484.021	2318.87
484.391	2309.6
484.762	2325.19
485.133	2372.2
485.503	2397.73
485.874	2479.54
486.244	2506.21
486.615	2522.48
486.985	2564.28
487.356	2598.86
487.726	2627.33
488.097	2710.72
488.467	2711.17
488.837	2780.55
489.207	2774.45
489.578	2849.7
489.948	2887.89
490.318	2924.95
490.688	2905.06
491.058	2959.75
491.428	3033.42
491.798	3050.37
492.168	3104.38
492.538	3117.71
492.908	3174.89
493.278	3221.21
493.648	3213.08
494.017	3232.29
494.387	3308.67
494.757	3338.27
495.126	3329.46
495.496	3399.74
495.866	3398.39
496.235	3464.37
496.605	3472.73
496.974	3462.56
497.344	3513.18
497.713	3543.69
498.082	3569.45
498.452	3610.36
498.821	3629.11
499.19	3636.57
499.559	3688.55
499.928	3727.64
500.298	3746.4
500.667	3730.35
501.036	3724.03
501.405	3801.31
501.774	3789.34
502.143	3837.7
502.512	3863.23
502.88	3843.12
503.249	3924.02
503.618	3937.81
503.987	3895.55
504.356	3950.01
504.724	3992.49
505.093	3942.55
505.462	3979.61
505.83	4010.35
506.199	4059.84
506.567	4070.91
506.936	4085.82
507.304	4120.85
507.672	4153.62
508.041	4159.04
508.409	4206.05
508.777	4185.03
509.145	4249.44
509.514	4220.74
509.882	4285.37
510.25	4260.51
510.618	4275.65
510.986	4295.08
511.354	4299.15
511.722	4375.08
512.09	4371.02
512.458	4391.58
512.826	4450.11
513.193	4426.15
513.561	4476.1
513.929	4482.88
514.297	4470.22
514.664	4470.45
515.032	4509.77
515.4	4541.86
515.767	4585.7
516.135	4564.46
516.502	4550.22
516.869	4602.2
517.237	4621.4
517.604	4577.79
517.972	4628.18
518.339	4655.53
518.706	4660.5
519.073	4694.4
519.44	4649.2
519.808	4733.49
520.175	4726.26
520.542	4768.07
520.909	4789.54
521.276	4799.48
521.643	4784.56
522.009	4813.26
522.376	4858.91
522.743	4824.56
523.11	4895.07
523.477	4956.99
523.843	4993.82
524.21	5026.82
524.577	5017.1
524.943	5044.22
525.31	5028.17
525.676	5100.49
526.043	5112.46
526.409	5114.27
526.776	5193.14
527.142	5168.06
527.508	5162.41
527.874	5219.13
528.241	5269.75
528.607	5225.68
528.973	5300.71
529.339	5307.04
529.705	5351.55
530.071	5380.48
530.437	5389.97
530.803	5421.16
531.169	5502.28
531.535	5422.74
531.901	5474.94
532.267	5531.89
532.632	5550.19
532.998	5575.28
533.364	5579.57
533.73	5641.72
534.095	5682.62
534.461	5681.04
534.826	5683.97
535.192	5711.54
535.557	5726.23
535.923	5798.55
536.288	5788.83
536.653	5770.75
537.019	5836.97
537.384	5841.48
537.749	5853.69
538.114	5860.92
538.479	5897.53
538.845	5927.58
539.21	5908.83
539.575	5989.73
539.94	5985.89
540.305	6053.91
540.67	6038.77
541.034	6036.51
541.399	6080.12
541.764	6059.78
542.129	6180.91
542.494	6143.85
542.858	6177.3
543.223	6234.47
543.587	6253
543.952	6262.72
544.316	6308.14
544.681	6310.63
545.045	6298.65
545.41	6323.73
545.774	6420.9
546.138	6392.2
546.503	6411.64
546.867	6451.19
547.231	6493.45
547.595	6494.35
547.959	6514.69
548.324	6513.33
548.688	6553.33
549.052	6554.01
549.416	6579.77
549.779	6613.89
550.143	6636.04
550.507	6708.13
550.871	6641.24
551.235	6753.55
551.599	6743.61
551.962	6775.92
552.326	6768.69
552.689	6819.09
553.053	6787.45
553.417	6767.11
553.78	6872.64
554.143	6835.13
554.507	6909.03
554.87	6960.78
555.234	7016.37
555.597	6975.69
555.96	6954.68
556.323	7021.79
556.686	6958.74
557.05	7096.37
557.413	7116.71
557.776	7053.43
558.139	7134.11
558.502	7131.17
558.865	7139.08
559.228	7147.89
559.59	7251.17
559.953	7223.82
560.316	7300.88
560.679	7247.78
561.041	7348.79
561.404	7316.7
561.767	7370.03
562.129	7396.25
562.492	7438.05
562.854	7422.23
563.217	7408.68
563.579	7438.73
563.941	7533.64
564.304	7518.05
564.666	7581.1
565.028	7549.01
565.39	7569.57
565.753	7639.86
566.115	7625.84
566.477	7739.97
566.839	7702.23
567.201	7735.22
567.563	7785.39
567.925	7901.54
568.287	7824.26
568.648	7876.69
569.01	7869.91
569.372	7992.16
569.734	7905.16
570.095	8005.27
570.457	8081.88
570.819	8118.49
571.18	8109.9
571.542	8074.65
571.903	8146.96
572.265	8194.64
572.626	8233.51
572.987	8308.54
573.349	8374.07
573.71	8409.33
574.071	8461.3
574.432	8442.32
574.794	8591.02
575.155	8554.41
575.516	8670.34
575.877	8614.97
576.238	8777.23
576.599	8870.33
576.96	8845.93
577.32	8963.21
577.681	9036.2
578.042	9188.29
578.403	9157.1
578.763	9255.86
579.124	9302.18
579.485	9470.54
579.845	9584.44
580.206	9662.4
580.566	9789.86
580.927	9838.22
581.287	9980.81
581.648	10032.79
582.008	10219.9
582.368	10353.68
582.728	10501.02
583.089	10595.48
583.449	10744.86
583.809	10931.75
584.169	11044.74
584.529	11179.2
584.889	11445.63
585.249	11571.96
585.609	11745.28
585.969	11957.48
586.329	12078.38
586.688	12357.25
587.048	12543
587.408	12655.77
587.768	12889.21
588.127	13083.1
588.487	13302.98
588.846	13613.48
589.206	13829.07
589.565	13993.13
589.925	14337.98
590.284	14504.99
590.643	14763.96
591.003	15000.34
591.362	15413.21
591.721	15555.35
592.08	15848.68
592.44	16147.88
592.799	16330.47
593.158	16611.37
593.517	16820.63
593.876	17231.47
594.235	17394.63
594.593	17645.24
594.952	17890.89
595.311	18210.43
595.67	18644.54
596.029	18810.41
596.387	19130.4
596.746	19465.53
597.104	19637.73
597.463	19917.27
597.822	20278.85
598.18	20530.36
598.538	20733.3
598.897	21289.21
599.255	21379.16
599.613	21855.75
599.972	22044.22
600.33	22299.36
600.688	22559.92
601.046	22850.76
601.404	23143.18
601.762	23392.21
602.12	23683.05
602.478	23955.36
602.836	24169.82
603.194	24365.97
603.552	24694.1
603.91	24810.03
604.268	25314.42
604.625	25340.18
604.983	25642.09
605.341	25811.36
605.698	26155.98
606.056	26539.92
606.413	26657.21
606.771	26891.78
607.128	27165.9
607.485	27257.87
607.843	27474.36
608.2	27814.92
608.557	28206.32
608.914	28225.08
609.272	28489.7
609.629	28622.35
609.986	29017.37
610.343	29028.45
610.7	29417.36
611.057	29530.58
611.414	29704.36
611.771	29838.59
612.127	30314.06
612.484	30281.97
612.841	30732.81
613.198	30781.85
613.554	30800.15
613.911	31129.86
614.267	31240.14
614.624	31417.99
614.98	31567.59
615.337	31892.1
615.693	31933.23
616.05	32045.32
616.406	32320.34
616.762	32516.26
617.118	32487.79
617.475	32721.68
617.831	32909.47
618.187	33098.85
618.543	33109.24
618.899	33399.63
619.255	33468.78
619.611	33418.84
619.967	33756.68
620.323	33793.97
620.678	33816.79
621.034	33793.07
621.39	34055.43
621.746	33976.79
622.101	34438.47
622.457	34263.56
622.812	34532.71
623.168	34758.24
623.523	34612.48
623.879	34846.15
624.234	34735.19
624.589	34863.32
624.945	35096.08
625.3	35149.41
625.655	35047.72
626.01	35224.44
626.365	35300.6
626.72	35335.4
627.075	35339.01
627.43	35435.06
627.785	35327.49
628.14	35521.16
628.495	35712.79
628.85	35811.32
629.205	35638.22
629.559	35899.23
629.914	35834.59
630.269	35811.32
630.623	35810.64
630.978	35822.62
631.332	36028.49
631.687	36050.86
632.041	35911.88
632.396	36018.09
632.75	35898.32
633.104	36134.47
633.459	35873.92
633.813	36032.56
634.167	35917.98
634.521	35977.64
634.875	36049.05
635.229	36035.04
635.583	35882.28
635.937	35993.69
636.291	35918.43
636.645	36026.45
636.999	35936.74
637.352	36070.75
637.706	35917.53
638.06	36024.42
638.413	35945.33
638.767	35998.43
639.121	36061.26
639.474	35902.62
639.828	36051.31
640.181	36154.59
640.534	36030.07
640.888	35955.95
641.241	35748.27
641.594	35878.44
641.947	36035.72
642.301	35823.52
642.654	35831.66
643.007	35838.21
643.36	35946.23
643.713	35836.63
644.066	35948.94
644.419	35712.11
644.771	35485.23
645.124	35240.71
645.477	35173.82
645.83	34875.98
646.182	34989.64
646.535	34758.01
646.888	34804.79
647.24	34762.76
647.593	34885.01
647.945	34790.33
648.298	34681.63
648.65	34633.27
649.002	34592.59
649.355	34768.18
649.707	34562.99
650.059	34741.52
650.411	35235.51
650.763	35191.45
651.115	35573.13
651.467	35361.84
651.819	35552.57
652.171	35360.93
652.523	35300.15
652.875	35473.02
653.227	35210.43
653.578	35491.55
653.93	35389.63
654.282	35219.02
654.633	35080.49
654.985	35213.59
655.337	35194.61
655.688	35291.33
656.039	35463.76
656.391	34968.63
656.742	35206.59
657.094	35282.97
657.445	35387.83
657.796	35088.17
658.147	35065.35
658.498	35195.29
658.849	35180.15
659.2	35226.02
659.551	34998.91
659.902	35173.14
660.253	35075.97
660.604	35057.67
660.955	35072.58
661.306	35080.04
661.656	35082.3
662.007	35078.46
662.358	35071.45
662.708	35130.66
663.059	35062.19
663.409	34885.69
663.76	34989.19
664.11	35107.83
664.461	35162.3
664.811	35088.4
665.161	35045.69
665.511	35096.53
665.862	34983.32
666.212	35251.56
666.562	35126.14
666.912	35109.87
667.262	35019.93
667.612	34853.15
667.962	35046.82
668.312	34806.37
668.662	35159.13
669.011	34859.7
669.361	34856.32
669.711	34929.76
670.06	34781.51
670.41	34835.3
670.76	34631.01
671.109	34943.32
671.459	34869.2
671.808	34781.51
672.157	34813.15
672.507	34559.83
672.856	34675.98
673.205	34799.82
673.554	34858.12
673.904	34642.54
674.253	34925.01
674.602	34707.84
674.951	34157.58
675.3	34069.67
675.649	34649.31
675.998	34565.25
676.346	34683.89
676.695	34777.9
677.044	34450.45
677.393	34464.91
677.741	34618.81
678.09	34600.95
678.438	34483.22
678.787	34522.54
679.135	34514.4
679.484	34302.88
679.832	34394.18
680.181	34248.42
680.529	34326.61
680.877	34192.83
681.225	34111.25
681.573	34386.05
681.922	34014.53
682.27	34039.61
682.618	33885.72
682.966	33983.12
683.314	33997.13
683.661	33920.97
684.009	33694.09
684.357	33647.76
684.705	33694.54
685.053	33590.36
685.4	33672.84
685.748	33451.83
686.095	33490.02
686.443	33426.07
686.79	33259.07
687.138	33354.21
687.485	33414.77
687.832	33258.62
688.18	33184.49
688.527	33035.8
688.874	33105.4
689.221	33021.79
689.568	33002.35
689.915	32900.21
690.262	32895.46
690.609	32848.23
690.956	32698.86
691.303	32744.51
691.65	32475.81
691.997	32582.7
692.344	32273.11
692.69	32338.87
693.037	32284.18
693.383	32071.98
693.73	32173.67
694.077	31993.79
694.423	31918.99
694.769	31883.74
695.116	31903.85
695.462	31772.33
695.808	31562.39
696.155	31702.95
696.501	31493.92
696.847	31462.73
697.193	31313.58
697.539	31425.22
697.885	31098.22
698.231	30980.48
698.577	30970.77
698.923	30927.15
699.269	30806.03
699.614	30652.81
699.96	30577.33
700.306	30766.71
700.651	30447.84
700.997	30436.32
701.342	30465.92
701.688	30354.29
702.033	30274.29
702.379	30177.12
702.724	30105.03
703.069	30203.78
703.415	29772.38
703.76	29794.3
704.105	29829.33
704.45	29752.72
704.795	29594.98
705.14	29541.43
705.485	29445.38
705.83	29400.87
706.175	29531.71
706.52	29382.56
706.865	29333.52
707.209	29306.63
707.554	29079.52
707.899	29277.03
708.243	28986.19
708.588	29068.67
708.932	28849.69
709.277	28717.49
709.621	28825.29
709.966	28572.86
710.31	28712.3
710.654	28417.39
710.998	28467.78
711.342	28501.68
711.687	28347.56
712.031	28305.98
712.375	28051.75
712.719	28150.73
713.063	28145.31
713.407	28196.6
713.75	28053.78
714.094	28019.66
714.438	27917.06
714.782	27967.68
715.125	27854.01
715.469	27775.15
715.812	27696.96
716.156	27605.66
716.499	27614.92
716.843	27602.27
717.186	27481.14
717.53	27502.84
717.873	27628.48
718.216	27479.79
718.559	27288.6
718.902	27226.01
719.246	27176.97
719.589	27182.62
719.932	27125.9
720.275	27048.16
720.617	26976.3
720.96	27030.98
721.303	27069.85
721.646	26993.25
721.989	26783.76
722.331	26921.61
722.674	26791.89
723.016	26821.95
723.359	26706.7
723.701	26706.92
724.044	26467.38
724.386	26421.73
724.729	26768.39
725.071	26474.39
725.413	26483.43
725.755	26482.98
726.097	26293.15
726.439	26232.81
726.782	26218.58
727.124	26314.62
727.465	26169.09
727.807	26089.31
728.149	26104.45
728.491	26000.73
728.833	26021.97
729.175	25890.68
729.516	25928.87
729.858	25921.63
730.199	25849.09
730.541	25867.17
730.882	25788.53
731.224	25918.92
731.565	25714.86
731.906	25654.75
732.248	25674.86
732.589	25513.74
732.93	25381.76
733.271	25402.1
733.612	25391.93
733.953	25492.04
734.294	25319.16
734.635	25285.95
734.976	25443
735.317	25275.78
735.658	25171.37
735.999	25278.26
736.339	25207.08
736.68	25273.52
737.021	25066.97
737.361	25010.92
737.702	25166.85
738.042	25026.97
738.383	24970.47
738.723	25092.5
739.063	24930.47
739.404	25029.45
739.744	24954.43
740.084	24859.52
740.424	24838.27
740.764	24746.3
741.104	24766.64
741.444	24663.81
741.784	24677.15
742.124	24675.79
742.464	24570.94
742.804	24539.98
743.143	24622.01
743.483	24504.5
743.823	24358.74
744.162	24460.43
744.502	24416.36
744.841	24259.76
745.181	24395.35
745.52	24298.4
745.86	24318.29
746.199	24212.53
746.538	24172.75
746.877	24236.93
747.216	24204.84
747.556	24059.54
747.895	24190.61
748.234	23922.82
748.573	23996.94
748.911	23914.46
749.25	23899.09
749.589	23853.44
749.928	23827.45
750.267	23851.41
750.605	23713.33
750.944	23754.91
751.283	23587.23
751.621	23653.45
751.96	23612.99
752.298	23520.79
752.636	23524.41
752.975	23345.43
753.313	23256.62
753.651	23417.07
753.989	23559.66
754.327	23242.84
754.666	23126.23
755.004	23140.01
755.342	23190.63
755.679	23144.76
756.017	23003.52
756.355	23141.14
756.693	23060.92
757.031	22937.08
757.368	22856.63
757.706	22823.64
758.044	22796.75
758.381	22832.22
758.719	22787.48
759.056	22716.07
759.394	22562.18
759.731	22408.51
760.068	22431.78
760.405	22268.4
