Data from hue_80_FLMS001491_38.txt Node
Date: Mon Feb 06 15:22:55 GMT 2017
User: dcchb
Spectrometer: FLMS00149
Trigger mode: 0
Integration Time (sec): 2.000000E-2
Scans to average: 10
Electric dark correction enabled: true
Nonlinearity correction enabled: false
Boxcar width: 0
XAxis mode: Wavelengths
Number of Pixels in Spectrum: 2048
>>>>>Begin Spectral Data<<<<<
341.393	-24.26
341.776	-24.26
342.16	-24.26
342.543	-36.69
342.927	-64.26
343.31	-59.52
343.693	-64.72
344.077	-68.33
344.46	-73.98
344.843	-35.56
345.226	-52.29
345.61	-37.6
345.993	-29.01
346.376	-24.49
346.759	20.48
347.142	29.07
347.525	46.47
347.908	62.29
348.291	79.46
348.674	100.7
349.057	107.03
349.44	141.38
349.823	155.39
350.206	157.43
350.588	200.81
350.971	204.2
351.354	230.19
351.737	213.24
352.119	259.12
352.502	263.19
352.884	279.46
353.267	292.79
353.65	285.56
354.032	283.75
354.414	315.84
354.797	304.09
355.179	319.91
355.562	310.42
355.944	309.74
356.326	337.53
356.709	323.97
357.091	317.42
357.473	329.17
357.855	335.95
358.238	324.65
358.62	342.96
359.002	344.76
359.384	330.53
359.766	338.21
360.148	343.86
360.53	341.6
360.912	340.02
361.294	304.54
361.676	335.27
362.057	343.86
362.439	348.38
362.821	330.53
363.203	324.65
363.584	316.97
363.966	312
364.348	298.21
364.729	326.91
365.111	323.75
365.493	331.43
365.874	314.03
366.256	311.77
366.637	316.97
367.019	316.29
367.4	304.54
367.781	307.03
368.163	312.22
368.544	309.29
368.925	323.97
369.306	302.51
369.688	319.68
370.069	317.42
370.45	318.55
370.831	324.2
371.212	315.39
371.593	299.12
371.974	324.88
372.355	323.3
372.736	347.93
373.117	306.12
373.498	321.04
373.879	321.26
374.26	289.63
374.641	314.48
375.021	315.16
375.402	321.94
375.783	322.84
376.163	308.83
376.544	310.64
376.925	337.08
377.305	312.68
377.686	333.47
378.066	322.39
378.447	331.21
378.827	350.19
379.208	338.21
379.588	317.2
379.968	310.64
380.349	338.89
380.729	319.45
381.109	352.67
381.489	335.27
381.87	325.56
382.25	331.43
382.63	345.67
383.01	325.78
383.39	335.73
383.77	341.15
384.15	347.02
384.53	343.64
384.91	353.13
385.29	340.7
385.67	346.12
386.049	351.54
386.429	351.54
386.809	326.01
387.189	330.53
387.568	355.84
387.948	347.25
388.328	344.31
388.707	347.02
389.087	344.99
389.466	364.88
389.846	353.13
390.225	348.83
390.605	341.38
390.984	363.97
391.363	360.58
391.743	365.56
392.122	356.29
392.501	377.08
392.881	375.5
393.26	383.18
393.639	378.44
394.018	362.84
394.397	359.23
394.776	392
395.155	380.92
395.534	384.99
395.913	397.64
396.292	393.8
396.671	381.83
397.05	368.72
397.429	400.13
397.808	387.25
398.186	401.26
398.565	373.24
398.944	375.72
399.323	384.76
399.701	403.29
400.08	382.28
400.458	414.14
400.837	390.41
401.215	412.79
401.594	388.61
401.972	408.72
402.351	413.69
402.729	405.1
403.107	385.22
403.486	396.97
403.864	390.19
404.242	409.4
404.62	397.64
404.999	420.47
405.377	412.79
405.755	423.18
406.133	397.42
406.511	433.12
406.889	422.5
407.267	424.76
407.645	434.71
408.023	403.52
408.401	415.72
408.779	420.47
409.156	419.79
409.534	421.6
409.912	433.35
410.29	447.36
410.667	420.47
411.045	456.85
411.422	443.97
411.8	452.11
412.178	427.25
412.555	444.65
412.933	457.76
413.31	438.1
413.687	464.54
414.065	452.33
414.442	457.08
414.819	494.14
415.197	480.35
415.574	468.6
415.951	474.48
416.328	490.98
416.705	462.05
417.082	474.93
417.46	485.55
417.837	510.86
418.214	497.08
418.591	491.43
418.967	492.11
419.344	494.59
419.721	524.2
420.098	502.27
420.475	532.33
420.852	507.02
421.228	527.36
421.605	511.77
421.982	521.71
422.358	528.04
422.735	517.64
423.111	524.65
423.488	545.21
423.864	528.71
424.241	531.43
424.617	540.01
424.994	576.62
425.37	544.31
425.746	555.15
426.123	543.86
426.499	543.86
426.875	541.14
427.251	570.3
427.627	573.01
428.003	583.85
428.379	587.47
428.756	580.69
429.132	584.98
429.507	595.61
429.883	588.37
430.259	607.36
430.635	622.72
431.011	609.84
431.387	626.34
431.763	614.81
432.138	647.13
432.514	636.06
432.89	624.98
433.265	620.24
433.641	629.96
434.016	642.16
434.392	648.49
434.767	682.16
435.143	669.95
435.518	661.59
435.894	674.7
436.269	676.06
436.644	697.98
437.02	681.71
437.395	686.9
437.77	698.43
438.145	692.1
438.52	709.05
438.895	709.73
439.271	710.86
439.646	707.92
440.021	742.95
440.395	753.79
440.77	721.7
441.145	745.21
441.52	765.09
441.895	737.52
442.27	743.62
442.645	766.45
443.019	771.42
443.394	752.44
443.769	771.65
444.143	770.52
444.518	773.23
444.892	756.96
445.267	762.38
445.641	769.39
446.016	777.52
446.39	806
446.764	815.49
447.139	813.23
447.513	818.42
447.887	832.44
448.262	825.2
448.636	799.22
449.01	831.08
449.384	825.88
449.758	845.32
450.132	871.98
450.506	859.55
450.88	856.16
451.254	822.27
451.628	852.77
452.002	888.03
452.376	894.58
452.75	882.83
453.123	908.37
453.497	914.47
453.871	911.98
454.244	932.32
454.618	933.68
454.992	925.31
455.365	934.35
455.739	952.21
456.112	991.53
456.486	972.09
456.859	986.1
457.232	997.18
457.606	979.32
457.979	1029.72
458.352	997.4
458.725	1041.24
459.099	1015.71
459.472	1054.58
459.845	1053.22
460.218	1086.44
460.591	1116.04
460.964	1078.76
461.337	1133.22
461.71	1135.48
462.083	1133.9
462.456	1165.76
462.829	1140.68
463.201	1170.51
463.574	1194.46
463.947	1182.03
464.32	1228.81
464.692	1226.55
465.065	1239.88
465.438	1267.23
465.81	1289.15
466.183	1338.64
466.555	1311.07
466.928	1314.91
467.3	1365.53
467.672	1365.3
468.045	1415.02
468.417	1400.56
468.789	1455.47
469.161	1434.45
469.534	1461.12
469.906	1521.01
470.278	1520.55
470.65	1527.33
471.022	1589.48
471.394	1645.3
471.766	1625.18
472.138	1641
472.51	1720.77
472.882	1732.53
473.253	1776.37
473.625	1783.6
473.997	1815.01
474.369	1887.32
474.74	1903.37
475.112	1978.39
475.484	1996.7
475.855	2057.04
476.227	2061.78
476.598	2115.11
476.97	2184.26
477.341	2239.63
477.713	2273.98
478.084	2286.18
478.455	2417.48
478.827	2462.68
479.198	2535.89
479.569	2590.81
479.94	2658.38
480.311	2713.29
480.682	2786.06
481.053	2871.25
481.424	2940.85
481.795	3042.32
482.166	3123
482.537	3187.18
482.908	3300.39
483.279	3345.82
483.65	3485.25
484.021	3615.87
484.391	3632.36
484.762	3747.39
485.133	3835.75
485.503	3926.14
485.874	4053.14
486.244	4131.78
486.615	4276.41
486.985	4382.17
487.356	4539
487.726	4592.34
488.097	4742.62
488.467	4775.83
488.837	4964.08
489.207	5081.59
489.578	5215.15
489.948	5352.32
490.318	5474.35
490.688	5548.92
491.058	5688.13
491.428	5835.92
491.798	5933.32
492.168	6118.85
492.538	6216.93
492.908	6357.94
493.278	6494.66
493.648	6583.02
494.017	6722.45
494.387	6940.98
494.757	7023.23
495.126	7142.55
495.496	7288.54
495.866	7331.47
496.235	7476.78
496.605	7638.81
496.974	7763.33
497.344	7892.36
497.713	7960.61
498.082	8090.78
498.452	8308.17
498.821	8347.72
499.19	8421.61
499.559	8573.48
499.928	8708.84
500.298	8825.67
500.667	8965.78
501.036	8952.45
501.405	9096.17
501.774	9224.31
502.143	9362.83
502.512	9442.38
502.88	9569.61
503.249	9554.47
503.618	9755.82
503.987	9878.75
504.356	9909.71
504.724	10014.79
505.093	10067.9
505.462	10128.01
505.83	10292.3
506.199	10446.19
506.567	10572.07
506.936	10579.98
507.304	10768.22
507.672	10799.41
508.041	10883.47
508.409	11093.18
508.777	11100.87
509.145	11211.6
509.514	11216.8
509.882	11338.6
510.25	11316.45
510.618	11424.93
510.986	11569.55
511.354	11689.33
511.722	11703.56
512.09	11942.43
512.458	11901.75
512.826	12073.5
513.193	12022.65
513.561	12120.5
513.929	12183.32
514.297	12302.64
514.664	12321.4
515.032	12482.3
515.4	12520.26
515.767	12606.36
516.135	12649.98
516.502	12631.67
516.869	12812.46
517.237	12882.51
517.604	12803.65
517.972	13031.21
518.339	13037.54
518.706	13057.2
519.073	13108.95
519.44	13250.87
519.808	13302.16
520.175	13229.17
520.542	13461.03
520.909	13484.76
521.276	13461.71
521.643	13575.83
522.009	13638.2
522.376	13742.38
522.743	13763.17
523.11	13855.82
523.477	14000.9
523.843	13913.67
524.21	14162.03
524.577	14271.18
524.943	14301.69
525.31	14342.14
525.676	14431.17
526.043	14408.35
526.409	14455.35
526.776	14608.12
527.142	14615.35
527.508	14666.87
527.874	14694.9
528.241	14676.37
528.607	14794.33
528.973	14819.19
529.339	14853.76
529.705	14938.96
530.071	15033.19
530.437	14914.55
530.803	15073.42
531.169	15245.62
531.535	15043.36
531.901	15146.86
532.267	15178.73
532.632	15204.71
532.998	15212.62
533.364	15274.54
533.73	15360.64
534.095	15284.26
534.461	15340.98
534.826	15381.66
535.192	15410.36
535.557	15497.59
535.923	15368.78
536.288	15423.01
536.653	15479.51
537.019	15409
537.384	15402
537.749	15502.56
538.114	15467.53
538.479	15435.89
538.845	15524.03
539.21	15448.32
539.575	15495.78
539.94	15442.22
540.305	15533.29
540.67	15487.64
541.034	15491.49
541.399	15507.08
541.764	15523.8
542.129	15534.87
542.494	15461.88
542.858	15565.61
543.223	15443.8
543.587	15505.04
543.952	15433.63
544.316	15455.55
544.681	15340.75
545.045	15480.86
545.41	15455.33
545.774	15386.4
546.138	15496.46
546.503	15418.94
546.867	15426.4
547.231	15539.39
547.595	15491.94
547.959	15494.88
548.324	15442
548.688	15377.82
549.052	15446.51
549.416	15545.5
549.779	15376.91
550.143	15458.27
550.507	15507.08
550.871	15518.6
551.235	15376.23
551.599	15586.85
551.962	15481.32
552.326	15470.47
552.689	15556.12
553.053	15497.81
553.417	15438.15
553.78	15564.03
554.143	15449.45
554.507	15484.25
554.87	15488.77
555.234	15563.57
555.597	15490.58
555.96	15475.67
556.323	15515.89
556.686	15450.81
557.05	15577.13
557.413	15637.24
557.776	15510.24
558.139	15571.71
558.502	15615.1
558.865	15592.73
559.228	15656.45
559.59	15688.54
559.953	15626.62
560.316	15864.81
560.679	15774.64
561.041	15863.45
561.404	15869.78
561.767	15914.53
562.129	15872.72
562.492	15965.82
562.854	15951.13
563.217	15957.01
563.579	15900.29
563.941	16067.52
564.304	16097.57
564.666	16149.77
565.028	16159.94
565.39	16105.25
565.753	16248.53
566.115	16246.49
566.477	16251.01
566.839	16323.55
567.201	16350.22
567.563	16308.19
567.925	16452.59
568.287	16359.94
568.648	16367.85
569.01	16414.62
569.372	16573.72
569.734	16511.12
570.095	16472.7
570.457	16591.57
570.819	16608.52
571.18	16651.23
571.542	16722.41
571.903	16745.24
572.265	16702.53
572.626	16766.71
572.987	16678.35
573.349	16812.81
573.71	16852.35
574.071	16839.25
574.432	16911.56
574.794	17084.44
575.155	16858.23
575.516	16837.44
575.877	16955.4
576.238	17017.77
576.599	16998.56
576.96	17055.06
577.32	16928.51
577.681	17022.52
578.042	17013.25
578.403	17015.51
578.763	17121.72
579.124	17038.34
579.485	17148.84
579.845	17129.41
580.206	17134.83
580.566	17100.26
580.927	17151.33
581.287	17190.65
581.648	17147.49
582.008	17199.24
582.368	17007.83
582.728	17122.63
583.089	17196.53
583.449	17085.79
583.809	17142.06
584.169	17065
584.529	17078.34
584.889	17167.83
585.249	16985.23
585.609	17121.5
585.969	17261.38
586.329	17064.78
586.688	17037.21
587.048	17077.43
587.408	17114.72
587.768	17139.58
588.127	17061.61
588.487	17156.53
588.846	17194.04
589.206	17003.31
589.565	17035.85
589.925	17126.47
590.284	17040.82
590.643	17079.47
591.003	17188.84
591.362	17245.56
591.721	17130.54
592.08	17160.82
592.44	17034.95
592.799	17082.18
593.158	17045.79
593.517	17037.21
593.876	17076.3
594.235	17008.06
594.593	16994.27
594.952	17112.46
595.311	17017.77
595.67	17040.82
596.029	17119.24
596.387	17083.76
596.746	17100.48
597.104	16944.78
597.463	16953.37
597.822	17036.76
598.18	16965.57
598.538	16926.02
598.897	17058.22
599.255	16878.34
599.613	17070.88
599.972	17020.71
600.33	17035.17
600.688	16905.91
601.046	17066.59
601.404	17116.53
601.762	17075.4
602.12	17123.98
602.478	17083.53
602.836	17115.62
603.194	17068.39
603.552	17055.06
603.91	16984.55
604.268	17150.42
604.625	17036.53
604.983	17152.23
605.341	17091.44
605.698	17102.97
606.056	17156.3
606.413	17114.04
606.771	17227.48
607.128	17225.45
607.485	17250.54
607.843	17179.8
608.2	17222.74
608.557	17302.29
608.914	17257.31
609.272	17210.99
609.629	17247.15
609.986	17346.13
610.343	17218.22
610.7	17391.32
611.057	17304.54
611.414	17396.29
611.771	17362.85
612.127	17463.41
612.484	17431.55
612.841	17540.92
613.198	17394.71
613.554	17391.77
613.911	17487.14
614.267	17524.65
614.624	17408.27
614.98	17564.88
615.337	17602.84
615.693	17596.29
616.05	17551.32
616.406	17683.52
616.762	17601.26
617.118	17568.49
617.475	17530.98
617.831	17652.33
618.187	17678.32
618.543	17680.13
618.899	17801.71
619.255	17759.67
619.611	17710.86
619.967	17791.54
620.323	17790.41
620.678	17706.79
621.034	17686.46
621.39	17764.19
621.746	17771.88
622.101	17948.37
622.457	17785.21
622.812	17865.43
623.168	17840.12
623.523	17862.27
623.879	17923.29
624.234	17924.87
624.589	17885.77
624.945	17882.61
625.3	17865.66
625.655	17869.05
626.01	17858.65
626.365	17913.79
626.72	17838.99
627.075	17897.98
627.43	17894.36
627.785	17833.57
628.14	17778.2
628.495	17849.16
628.85	17825.44
629.205	17847.36
629.559	17809.84
629.914	17737.3
630.269	17786.11
630.623	17802.16
630.978	17694.82
631.332	17852.55
631.687	17802.16
632.041	17712.44
632.396	17775.49
632.75	17714.93
633.104	17720.81
633.459	17676.51
633.813	17547.7
634.167	17618.44
634.521	17717.87
634.875	17695.5
635.229	17678.32
635.583	17511.55
635.937	17520.13
636.291	17532.79
636.645	17496.63
636.999	17444.2
637.352	17571.66
637.706	17462.73
638.06	17529.4
638.413	17506.57
638.767	17345.67
639.121	17366.46
639.474	17327.6
639.828	17341.61
640.181	17288.5
640.534	17351.1
640.888	17368.95
641.241	17203.3
641.594	17300.03
641.947	17383.86
642.301	17327.37
642.654	17266.58
643.007	17410.98
643.36	17253.25
643.713	17285.56
644.066	17265.22
644.419	17159.92
644.771	17081.27
645.124	16989.98
645.477	16935.74
645.83	16824.78
646.182	16709.31
646.535	16620.72
646.888	16794.05
647.24	16599.93
647.593	16768.51
647.945	16612.81
648.298	16563.77
648.65	16535.98
649.002	16512.02
649.355	16559.25
649.707	16536.66
650.059	16596.09
650.411	16794.73
650.763	16892.8
651.115	17078.56
651.467	16974.16
651.819	16955.85
652.171	17000.6
652.523	16942.07
652.875	16921.28
653.227	16809.64
653.578	17014.16
653.93	16981.39
654.282	16901.39
654.633	16810.09
654.985	16921.73
655.337	16909.08
655.688	16963.76
656.039	16990.88
656.391	16891.22
656.742	16829.98
657.094	16916.31
657.445	16953.59
657.796	16856.65
658.147	16940.26
658.498	16824.11
658.849	16996.53
659.2	16863.43
659.551	16912.01
659.902	16995.17
660.253	17026.13
660.604	16944.55
660.955	16968.96
661.306	16944.55
661.656	16947.49
662.007	17021.16
662.358	16942.75
662.708	16924.89
663.059	16897.78
663.409	16834.5
663.76	16961.05
664.11	16956.76
664.461	16990.43
664.811	16954.27
665.161	16956.08
665.511	16961.05
665.862	16943.42
666.212	17021.84
666.562	16992.01
666.912	16942.52
667.262	16878.12
667.612	16942.52
667.962	17081.73
668.312	16891.9
668.662	16982.75
669.011	17020.03
669.361	16892.58
669.711	16930.54
670.06	16834.5
670.41	16878.34
670.76	16880.15
671.109	16917.89
671.459	16908.62
671.808	16769.19
672.157	16906.82
672.507	16753.6
672.856	16721.28
673.205	16734.62
673.554	16839.02
673.904	16739.36
674.253	17003.31
674.602	16853.03
674.951	16537.56
675.3	16452.82
675.649	16735.07
675.998	16784.56
676.346	16678.57
676.695	16760.15
677.044	16674.28
677.393	16639.48
677.741	16711.34
678.09	16650.78
678.438	16631.34
678.787	16551.34
679.135	16542.98
679.484	16523.32
679.832	16529.65
680.181	16403.33
680.529	16458.92
680.877	16391.57
681.225	16445.81
681.573	16467.5
681.922	16361.07
682.27	16339.15
682.618	16361.97
682.966	16283.1
683.314	16343.67
683.661	16253.05
684.009	16164.46
684.357	16154.52
684.705	16139.38
685.053	16206.49
685.4	16026.84
685.748	16018.7
686.095	16044.92
686.443	15999.72
686.79	15867.52
687.138	15988.87
687.485	15917.46
687.832	15912.94
688.18	15881.53
688.527	15806.51
688.874	15773.29
689.221	15814.87
689.568	15720.18
689.915	15675.21
690.262	15686.73
690.609	15667.75
690.956	15544.14
691.303	15450.58
691.65	15373.07
691.997	15367.65
692.344	15339.17
692.69	15333.07
693.037	15287.65
693.383	15118.84
693.73	15295.78
694.077	15075.45
694.423	15079.74
694.769	15044.72
695.116	14868
695.462	14950.48
695.808	14854.21
696.155	14816.25
696.501	14796.59
696.847	14748.45
697.193	14608.12
697.539	14641.11
697.885	14510.72
698.231	14471.17
698.577	14544.84
698.923	14439.31
699.269	14334.68
699.614	14364.28
699.96	14311.86
700.306	14288.81
700.651	14278.64
700.997	14103.95
701.342	14147.34
701.688	14075.48
702.033	14039.32
702.379	13985.99
702.724	14030.51
703.069	13899.44
703.415	13828.7
703.76	13768.14
704.105	13826.9
704.45	13762.94
704.795	13682.27
705.14	13657.64
705.485	13590.29
705.83	13551.42
706.175	13569.5
706.52	13454.7
706.865	13480.92
707.209	13425.55
707.554	13295.16
707.899	13438.21
708.243	13263.3
708.588	13320.02
708.932	13205.22
709.277	13171.55
709.621	13153.24
709.966	13097.2
710.31	13174.71
710.654	13054.94
710.998	13031.21
711.342	13077.99
711.687	12954.6
712.031	12935.17
712.375	12837.32
712.719	12820.82
713.063	12886.13
713.407	12805.91
713.75	12801.61
714.094	12795.74
714.438	12761.39
714.782	12739.47
715.125	12667.38
715.469	12640.49
715.812	12674.61
716.156	12592.8
716.499	12560.04
716.843	12621.28
717.186	12461.28
717.53	12545.8
717.873	12596.42
718.216	12530.21
718.559	12487.5
718.902	12343.32
719.246	12472.58
719.589	12284.34
719.932	12347.61
720.275	12351.45
720.617	12332.7
720.96	12381.51
721.303	12311.91
721.646	12267.84
721.989	12290.67
722.331	12193.94
722.674	12290.89
723.016	12299.7
723.359	12202.08
723.701	12179.26
724.044	12060.39
724.386	12036.43
724.729	12114.62
725.071	12045.25
725.413	12155.3
725.755	12091.35
726.097	12071.69
726.439	12035.08
726.782	12047.06
727.124	12062.87
727.465	12075.98
727.807	12059.94
728.149	12014.29
728.491	12014.74
728.833	11978.81
729.175	11915.53
729.516	11904.91
729.858	11961.86
730.199	12010.67
730.541	11936.55
730.882	11959.15
731.224	11962.76
731.565	11936.78
731.906	11911.47
732.248	11940.62
732.589	11859.49
732.93	11776.1
733.271	11883.9
733.612	11898.36
733.953	11908.98
734.294	11784.24
734.635	11838.25
734.976	11867.63
735.317	11839.15
735.658	11801.19
735.999	11883.44
736.339	11811.58
736.68	11877.12
737.021	11804.58
737.361	11815.65
737.702	11876.67
738.042	11850.23
738.383	11857
738.723	11898.59
739.063	11861.3
739.404	11881.64
739.744	11859.72
740.084	11851.13
740.424	11894.74
740.764	11791.24
741.104	11918.02
741.444	11852.03
741.784	11840.51
742.124	11918.02
742.464	11904.24
742.804	11917.34
743.143	11946.04
743.483	11905.36
743.823	11852.48
744.162	11980.84
744.502	12013.61
744.841	11949.21
745.181	12032.82
745.52	12059.49
745.86	12115.75
746.199	12148.3
746.538	12129.77
746.877	12208.86
747.216	12263.32
747.556	12319.14
747.895	12336.54
748.234	12336.77
748.573	12457.67
748.911	12452.92
749.25	12560.26
749.589	12407.5
749.928	12569.08
750.267	12691.78
750.605	12663.31
750.944	12673.48
751.283	12888.16
751.621	12888.84
751.96	12887.71
752.298	12968.84
752.636	13070.98
752.975	13149.85
753.313	13178.33
753.651	13301.26
753.989	13401.6
754.327	13486.79
754.666	13489.28
755.004	13639.1
755.342	13730.18
755.679	13810.63
756.017	13821.47
756.355	13970.17
756.693	14079.55
