Data from hue_36_FLMS001491_00081.txt Node
Date: Tue Feb 07 17:30:24 GMT 2017
User: dcchb
Spectrometer: FLMS00149
Trigger mode: 0
Integration Time (sec): 2.000000E-2
Scans to average: 10
Electric dark correction enabled: true
Nonlinearity correction enabled: false
Boxcar width: 0
XAxis mode: Wavelengths
Number of Pixels in Spectrum: 2048
>>>>>Begin Spectral Data<<<<<
341.393	-21.88
341.776	-21.88
342.16	-21.88
342.543	-72.27
342.927	-65.94
343.31	-58.49
343.693	-74.53
344.077	-60.75
344.46	-53.74
344.843	-64.36
345.226	-58.26
345.61	-47.19
345.993	-32.5
346.376	-9
346.759	17.9
347.142	32.36
347.525	45.01
347.908	65.35
348.291	80.72
348.674	117.1
349.057	100.38
349.44	130.21
349.823	142.41
350.206	179.02
350.588	206.82
350.971	223.54
351.354	237.78
351.737	261.05
352.119	243.65
352.502	271.45
352.884	276.42
353.267	298.57
353.65	298.11
354.032	285.46
354.414	302.63
354.797	320.03
355.179	315.51
355.562	324.78
355.944	331.11
356.326	325.46
356.709	330.88
357.091	351.9
357.473	344.67
357.855	329.3
358.238	337.66
358.62	343.99
359.002	349.64
359.384	351.9
359.766	342.18
360.148	318.23
360.53	359.58
360.912	345.12
361.294	339.92
361.676	345.12
362.057	342.63
362.439	322.29
362.821	314.61
363.203	313.93
363.584	349.19
363.966	340.37
364.348	342.41
364.729	325.91
365.111	314.84
365.493	310.54
365.874	322.97
366.256	324.78
366.637	312.58
367.019	316.19
367.4	322.75
367.781	321.62
368.163	315.97
368.544	315.29
368.925	317.32
369.306	322.07
369.688	329.53
370.069	345.8
370.45	329.3
370.831	322.29
371.212	325.68
371.593	318.9
371.974	323.88
372.355	313.71
372.736	324.1
373.117	326.59
373.498	341.5
373.879	314.38
374.26	336.08
374.641	339.92
375.021	341.5
375.402	336.76
375.783	315.74
376.163	329.53
376.544	337.43
376.925	321.62
377.305	318.45
377.686	341.95
378.066	318.9
378.447	341.28
378.827	354.84
379.208	311.45
379.588	345.12
379.968	324.1
380.349	329.3
380.729	343.31
381.109	320.71
381.489	345.34
381.87	347.83
382.25	336.98
382.63	334.04
383.01	353.25
383.39	344.44
383.77	338.79
384.15	361.39
384.53	346.93
384.91	355.51
385.29	339.47
385.67	358.68
386.049	364.33
386.429	339.92
386.809	356.42
387.189	334.27
387.568	345.12
387.948	354.61
388.328	344.89
388.707	403.42
389.087	358.9
389.466	361.39
389.846	374.95
390.225	360.26
390.605	360.26
390.984	377.43
391.363	391.44
391.743	400.26
392.122	350.99
392.501	363.87
392.881	359.13
393.26	350.32
393.639	351.45
394.018	392.35
394.397	366.81
394.776	379.24
395.155	374.72
395.534	383.99
395.913	359.58
396.292	368.85
396.671	388.96
397.05	373.37
397.429	371.33
397.808	373.14
398.186	386.47
398.565	401.84
398.944	400.26
399.323	402.97
399.701	380.6
400.08	387.15
400.458	406.13
400.837	408.62
401.215	397.32
401.594	394.38
401.972	405.68
402.351	404.78
402.729	408.85
403.107	409.3
403.486	424.89
403.864	390.54
404.242	428.28
404.62	403.2
404.999	399.58
405.377	417.43
405.755	422.86
406.133	419.01
406.511	432.57
406.889	413.36
407.267	440.26
407.645	422.86
408.023	431.67
408.401	435.29
408.779	414.49
409.156	446.58
409.534	431.44
409.912	447.94
410.29	450.88
410.667	435.96
411.045	443.87
411.422	447.04
411.8	458.56
412.178	461.27
412.555	448.39
412.933	451.1
413.31	440.26
413.687	471.44
414.065	467.15
414.442	460.14
414.819	478.9
415.197	481.84
415.574	482.29
415.951	455.4
416.328	485.68
416.705	486.36
417.082	492.01
417.46	499.01
417.837	492.46
418.214	477.32
418.591	515.06
418.967	480.93
419.344	498.11
419.721	517.77
420.098	499.92
420.475	511.89
420.852	515.28
421.228	504.66
421.605	509.18
421.982	503.98
422.358	515.06
422.735	517.54
423.111	521.84
423.488	546.69
423.864	529.29
424.241	533.36
424.617	548.5
424.994	546.92
425.37	539.24
425.746	548.5
426.123	550.76
426.499	545.79
426.875	550.76
427.251	549.86
427.627	577.2
428.003	572.23
428.379	574.49
428.756	564.32
429.132	558.45
429.507	578.33
429.883	572.23
430.259	593.93
430.635	577.2
431.011	598.67
431.387	595.96
431.763	625.11
432.138	590.31
432.514	618.11
432.89	601.16
433.265	629.18
433.641	620.59
434.016	653.13
434.392	649.74
434.767	651.55
435.143	630.53
435.518	654.49
435.894	643.42
436.269	664.21
436.644	680.48
437.02	658.33
437.395	663.75
437.77	660.59
438.145	655.62
438.52	675.05
438.895	682.74
439.271	675.5
439.646	707.14
440.021	684.77
440.395	671.89
440.77	680.7
441.145	692
441.52	692
441.895	726.58
442.27	737.65
442.645	722.06
443.019	720.7
443.394	724.09
443.769	734.26
444.143	745.33
444.518	723.87
444.892	726.12
445.267	745.79
445.641	743.07
446.016	727.71
446.39	761.6
446.764	748.95
447.139	764.32
447.513	791.43
447.887	773.36
448.262	776.75
448.636	776.52
449.01	762.28
449.384	787.82
449.758	801.15
450.132	811.55
450.506	824.88
450.88	791.66
451.254	811.32
451.628	802.28
452.002	825.33
452.376	809.74
452.75	826.01
453.123	823.52
453.497	840.7
453.871	839.57
454.244	831.43
454.618	854.71
454.992	863.75
455.365	902.17
455.739	884.54
456.112	895.84
456.486	885.22
456.859	903.52
457.232	896.52
457.606	914.14
457.979	944.42
458.352	939.68
458.725	973.12
459.099	929.74
459.472	971.09
459.845	982.62
460.218	1014.03
460.591	1014.03
460.964	987.81
461.337	1053.57
461.71	1051.99
462.083	1054.48
462.456	1070.52
462.829	1063.52
463.201	1071.43
463.574	1094.93
463.947	1110.52
464.32	1117.75
464.692	1127.47
465.065	1164.76
465.438	1137.87
465.81	1145.77
466.183	1197.53
466.555	1196.17
466.928	1213.34
467.3	1207.92
467.672	1234.13
468.045	1248.82
468.417	1249.5
468.789	1261.48
469.161	1304.19
469.534	1306.9
469.906	1361.36
470.278	1348.93
470.65	1374.24
471.022	1401.81
471.394	1433.9
471.766	1441.36
472.138	1450.4
472.51	1517.06
472.882	1533.56
473.253	1551.64
473.625	1562.71
473.997	1625.54
474.369	1621.92
474.74	1657.4
475.112	1663.5
475.484	1717.06
475.855	1759.09
476.227	1805.42
476.598	1832.31
476.97	1878.64
477.341	1912.08
477.713	1979.2
478.084	1991.4
478.455	2070.95
478.827	2115.24
479.198	2152.53
479.569	2207.89
479.94	2247.89
480.311	2298.96
480.682	2366.99
481.053	2451.5
481.424	2485.4
481.795	2556.36
482.166	2620.31
482.537	2683.59
482.908	2772.17
483.279	2799.52
483.65	2889.23
484.021	2975.33
484.391	3022.34
484.762	3061.2
485.133	3154.99
485.503	3243.8
485.874	3332.84
486.244	3418.94
486.615	3502.1
486.985	3584.13
487.356	3641.75
487.726	3734.18
488.097	3821.64
488.467	3927.62
488.837	3980.05
489.207	4112.7
489.578	4205.81
489.948	4271.57
490.318	4446.25
490.688	4442.19
491.058	4533.93
491.428	4663.65
491.798	4746.58
492.168	4897.77
492.538	4938.67
492.908	5018.89
493.278	5127.37
493.648	5186.35
494.017	5271.32
494.387	5390.64
494.757	5449.16
495.126	5552.89
495.496	5635.15
495.866	5699.1
496.235	5765.09
496.605	5919.21
496.974	5962.82
497.344	6041.92
497.713	6163.72
498.082	6232.19
498.452	6293.21
498.821	6419.31
499.19	6479.19
499.559	6497.95
499.928	6629.25
500.298	6686.87
500.667	6739.53
501.036	6759.41
501.405	6971.61
501.774	6989.24
502.143	7019.29
502.512	7108.78
502.88	7182
503.249	7198.05
503.618	7297.93
503.987	7362.56
504.356	7500.64
504.724	7506.51
505.093	7511.48
505.462	7623.12
505.83	7766.17
506.199	7834.86
506.567	7946.95
506.936	7927.29
507.304	8041.19
507.672	8027.85
508.041	8128.87
508.409	8174.06
508.777	8308.75
509.145	8339.71
509.514	8320.73
509.882	8485.47
510.25	8495.19
510.618	8560.04
510.986	8611.57
511.354	8704.22
511.722	8748.51
512.09	8840.71
512.458	8871
512.826	8928.4
513.193	9007.49
513.561	9036.64
513.929	9082.06
514.297	9135.4
514.664	9227.6
515.032	9319.8
515.4	9396.18
515.767	9406.35
516.135	9433.92
516.502	9380.13
516.869	9557.53
517.237	9597.3
517.604	9598.66
517.972	9739.45
518.339	9747.13
518.706	9772.21
519.073	9848.82
519.44	9886.11
519.808	10048.59
520.175	9968.59
520.542	10156.16
520.909	10141.24
521.276	10233.45
521.643	10302.82
522.009	10348.24
522.376	10430.05
522.743	10463.72
523.11	10558.86
523.477	10638.41
523.843	10694.22
524.21	10796.37
524.577	10874.11
524.943	10904.39
525.31	10952.75
525.676	11084.72
526.043	11150.71
526.409	11083.37
526.776	11270.71
527.142	11238.62
527.508	11434.09
527.874	11421.89
528.241	11527.42
528.607	11556.57
528.973	11722.22
529.339	11667.08
529.705	11739.17
530.071	11878.6
530.437	11933.29
530.803	12007.86
531.169	12074.3
531.535	12081.53
531.901	12105.94
532.267	12211.02
532.632	12254.86
532.998	12258.7
533.364	12330.11
533.73	12431.81
534.095	12533.95
534.461	12577.79
534.826	12582.99
535.192	12597.9
535.557	12787.95
535.923	12677
536.288	12795.64
536.653	12831.8
537.019	12819.37
537.384	12974.62
537.749	12969.19
538.114	13082.18
538.479	13063.65
538.845	13124.44
539.21	13102.52
539.575	13251.22
539.94	13310.43
540.305	13323.31
540.67	13351.78
541.034	13478.56
541.399	13452.12
541.764	13548.39
542.129	13520.14
542.494	13617.31
542.858	13643.75
543.223	13715.61
543.587	13780.02
543.952	13832
544.316	13860.24
544.681	13908.38
545.045	13981.14
545.41	14019.56
545.774	14112.21
546.138	14111.54
546.503	14187.24
546.867	14234.92
547.231	14305.65
547.595	14379.33
547.959	14416.16
548.324	14478.08
548.688	14464.97
549.052	14515.82
549.416	14551.98
549.779	14605.76
550.143	14648.7
550.507	14788.58
550.871	14815.02
551.235	14841.01
551.599	14877.84
551.962	14995.13
552.326	14973.66
552.689	15123.71
553.053	14989.48
553.417	15067.44
553.78	15201.9
554.143	15117.16
554.507	15209.13
554.87	15217.5
555.234	15445.74
555.597	15308.11
555.96	15373.2
556.323	15456.59
556.686	15500.88
557.05	15611.61
557.413	15703.36
557.776	15664.94
558.139	15798.05
558.502	15806.41
558.865	15977.02
559.228	16039.17
559.59	16038.26
559.953	16119.17
560.316	16221.76
560.679	16283.46
561.041	16327.97
561.404	16305.83
561.767	16376.56
562.129	16393.96
562.492	16677.34
562.854	16549.44
563.217	16679.83
563.579	16694.74
563.941	16717.57
564.304	16799.6
564.666	16955.75
565.028	17014.96
565.39	17033.72
565.753	17120.5
566.115	17236.43
566.477	17188.29
566.839	17272.58
567.201	17381.05
567.563	17301.28
567.925	17580.82
568.287	17548.51
568.648	17548.28
569.01	17665.11
569.372	17820.14
569.734	17804.32
570.095	17952.56
570.457	17936.75
570.819	18029.17
571.18	18109.62
571.542	18243.86
571.903	18246.79
572.265	18362.05
572.626	18337.41
572.987	18414.93
573.349	18588.03
573.71	18661.02
574.071	18685.65
574.432	18760.23
574.794	19013.1
575.155	18989.37
575.516	18962.26
575.877	19221.68
576.238	19241.34
576.599	19342.13
576.96	19459.19
577.32	19582.8
577.681	19635.46
578.042	19806.53
578.403	19929.91
578.763	20017.82
579.124	20140.3
579.485	20286.74
579.845	20441.31
580.206	20515.89
580.566	20771.02
580.927	20738.93
581.287	21012.37
581.648	21091.92
582.008	21331.91
582.368	21327.39
582.728	21608.51
583.089	21776.64
583.449	22003.53
583.809	22105.9
584.169	22218.44
584.529	22347.7
584.889	22751.76
585.249	22794.7
585.609	22891.19
585.969	23241.24
586.329	23396.04
586.688	23704.73
587.048	23705.86
587.408	23871.28
587.768	24052.29
588.127	24275.11
588.487	24493.18
588.846	24811.82
589.206	24935.66
589.565	25198.02
589.925	25505.81
590.284	25682.53
590.643	25869.64
591.003	26095.18
591.362	26276.41
591.721	26577.2
592.08	26828.94
592.44	26960.46
592.799	27198.88
593.158	27310.51
593.517	27581.92
593.876	27777.39
594.235	28115.69
594.593	28161.56
594.952	28470.71
595.311	28717.25
595.67	29018.04
596.029	29230.23
596.387	29494.86
596.746	29813.72
597.104	29708.87
597.463	29967.39
597.822	30297.78
598.18	30418.9
598.538	30581.84
598.897	30810.98
599.255	30825.9
599.613	31473.34
599.972	31339.56
600.33	31661.36
600.688	31782.94
601.046	31984.06
601.404	32419.98
601.762	32436.7
602.12	32775.45
602.478	32924.6
602.836	32901.32
603.194	33016.12
603.552	33340.63
603.91	33311.03
604.268	33685.71
604.625	33711.02
604.983	33867.63
605.341	33959.15
605.698	34424.45
606.056	34365.24
606.413	34450.89
606.771	34747.83
607.128	34975.62
607.485	34882.52
607.843	35154.6
608.2	35357.98
608.557	35554.36
608.914	35577.86
609.272	35839.78
609.629	36019.21
609.986	36231.41
610.343	36199.99
610.7	36537.39
611.057	36602.24
611.414	36566.09
611.771	36741
612.127	36883.82
612.484	37107.99
612.841	37324.48
613.198	37319.74
613.554	37258.05
613.911	37669.56
614.267	37736.45
614.624	37801.31
614.98	37910.68
615.337	38126.95
615.693	38084.46
616.05	38312.71
616.406	38450.78
616.762	38421.86
617.118	38408.98
617.475	38687.61
617.831	38625.02
618.187	38792.69
618.543	38895.52
618.899	39121.05
619.255	39101.39
619.611	39156.3
619.967	39341.38
620.323	39349.52
620.678	39303.87
621.034	39246.69
621.39	39382.51
621.746	39383.64
622.101	39870.18
622.457	39589.06
622.812	39774.59
623.168	39909.5
623.523	39808.49
623.879	40029.05
624.234	39817.98
624.589	40083.28
624.945	40173
625.3	40231.3
625.655	40178.65
626.01	40320.34
626.365	40362.82
626.72	40311.07
627.075	40365.08
627.43	40332.54
627.785	40356.27
628.14	40502.93
628.495	40449.83
628.85	40371.64
629.205	40563.5
629.559	40523.95
629.914	40477.4
630.269	40516.04
630.623	40478.53
630.978	40432.88
631.332	40561.01
631.687	40651.63
632.041	40589.48
632.396	40651.63
632.75	40620.22
633.104	40622.03
633.459	40450.96
633.813	40442.82
634.167	40515.59
634.521	40551.29
634.875	40677.84
635.229	40523.72
635.583	40560.33
635.937	40411.18
636.291	40403.27
636.645	40445.98
636.999	40481.69
637.352	40596.49
637.706	40377.29
638.06	40402.14
638.413	40462.93
638.767	40426.32
639.121	40411.86
639.474	40111.98
639.828	40254.13
640.181	40254.58
640.534	40268.59
640.888	40083.96
641.241	39946.56
641.594	40180.91
641.947	40265.42
642.301	40115.6
642.654	40164.86
643.007	40116.05
643.36	40077.63
643.713	40069.5
644.066	40222.49
644.419	40017.52
644.771	39730.07
645.124	39398.1
645.477	39377.99
645.83	39301.16
646.182	39022.07
646.535	38838.57
646.888	39053.25
647.24	38983.65
647.593	38963.54
647.945	39034.5
648.298	38723.77
648.65	38834.95
649.002	38711.57
649.355	38851.9
649.707	38759.93
650.059	38923.31
650.411	39362.4
650.763	39336.18
651.115	39727.81
651.467	39687.59
651.819	39672.9
652.171	39503.18
652.523	39379.35
652.875	39492.34
653.227	39314.26
653.578	39682.16
653.93	39575.05
654.282	39214.6
654.633	39280.59
654.985	39323.75
655.337	39335.28
655.688	39355.17
656.039	39476.52
656.391	39025.23
656.742	39304.09
657.094	39387.26
657.445	39409.18
657.796	39300.03
658.147	39361.49
658.498	39256.86
658.849	39356.3
659.2	39257.09
659.551	39030.88
659.902	39129.41
660.253	39203.53
660.604	39267.03
660.955	39152.91
661.306	39237.88
661.656	39245.11
662.007	39188.39
662.358	39276.98
662.708	39086.02
663.059	39114.49
663.409	38871.34
663.76	39222.97
664.11	39202.63
664.461	39240.14
664.811	39197.88
665.161	39178.45
665.511	39072.91
665.862	38929.19
666.212	39166.47
666.562	39102.97
666.912	39152.01
667.262	38842.41
667.612	39000.6
667.962	39072.69
668.312	39069.52
668.662	39212.12
669.011	39104.55
669.361	39033.82
669.711	38954.72
670.06	38847.16
670.41	38760.15
670.76	38861.17
671.109	39031.11
671.459	38912.47
671.808	38858.68
672.157	39018.68
672.507	38724.22
672.856	38674.96
673.205	38775.97
673.554	38813.26
673.904	38803.32
674.253	38946.14
674.602	38864.11
674.951	38165.82
675.3	38141.19
675.649	38704.34
675.998	38654.17
676.346	38668.86
676.695	38798.34
677.044	38543.66
677.393	38515.87
677.741	38580.04
678.09	38489.65
678.438	38492.59
678.787	38667.05
679.135	38465.02
679.484	38308.41
679.832	38435.42
680.181	38269.54
680.529	38332.37
680.877	38217.34
681.225	38207.4
681.573	38439.71
681.922	38139.83
682.27	38042.66
682.618	38122.2
682.966	37987.74
683.314	38032.26
683.661	37791.37
684.009	37634.99
684.357	37617.13
684.705	37623.69
685.053	37755.21
685.4	37615.32
685.748	37437.48
686.095	37464.59
686.443	37211.49
686.79	37187.09
687.138	37372.85
687.485	37262.57
687.832	37252.62
688.18	37264.6
688.527	37020.76
688.874	36931.27
689.221	36966.53
689.568	36888.34
689.915	36666.42
690.262	36662.36
690.609	36746.87
690.956	36549.59
691.303	36439.31
691.65	36397.5
691.997	36403.83
692.344	36259.88
692.69	36269.37
693.037	36163.16
693.383	35863.51
693.73	35993.67
694.077	35821.25
694.423	35699.89
694.769	35617.18
695.116	35501.93
695.462	35639.33
695.808	35439.79
696.155	35587.36
696.501	35094.71
696.847	35169.51
697.193	35128.61
697.539	35042.28
697.885	34967.71
698.231	34749.86
698.577	34799.35
698.923	34745.57
699.269	34639.58
699.614	34458.12
699.96	34400.49
700.306	34388.06
700.651	34200.95
700.997	34113.5
701.342	34034.85
701.688	34009.77
702.033	33969.77
702.379	33797.12
702.724	33782.88
703.069	33805.71
703.415	33446.17
703.76	33476.22
704.105	33329.34
704.45	33492.04
704.795	33247.08
705.14	33269.68
705.485	33074.65
705.83	33057.25
706.175	33090.47
706.52	32890.25
706.865	32988.1
707.209	32830.37
707.554	32622.24
707.899	32690.48
708.243	32562.35
708.588	32503.59
708.932	32340.66
709.277	32338.18
709.621	32410.49
709.966	32075.58
710.31	32211.62
710.654	31909.71
710.998	31983.61
711.342	32068.13
711.687	31815.25
712.031	31713.33
712.375	31699.55
712.719	31665.65
713.063	31675.37
713.407	31699.1
713.75	31520.34
714.094	31470.85
714.438	31167.13
714.782	31297.98
715.125	31220.92
715.469	31197.19
715.812	31087.59
716.156	31032.67
716.499	30972.79
716.843	31038.77
717.186	30802.85
717.53	30956.74
717.873	30947.48
718.216	30779.35
718.559	30657.54
718.902	30446.93
719.246	30537.54
719.589	30420.03
719.932	30291.9
720.275	30278.57
720.617	30278.57
720.96	30215.29
721.303	30343.88
721.646	30224.11
721.989	30012.36
722.331	30116.76
722.674	30013.72
723.016	30002.64
723.359	29955.19
723.701	29988.18
724.044	29782.99
724.386	29717.68
724.729	29835.87
725.071	29698.02
725.413	29701.86
725.755	29703.67
726.097	29545.48
726.439	29409.21
726.782	29417.12
727.124	29487.4
727.465	29418.48
727.807	29447.4
728.149	29252.15
728.491	29289.44
728.833	29316.11
729.175	29088.77
729.516	29191.59
729.858	29014.65
730.199	29099.16
730.541	28946.85
730.882	28991.14
731.224	29210.8
731.565	28822.79
731.906	28829.34
732.248	28937.59
732.589	28665.05
732.93	28608.56
733.271	28653.07
733.612	28593.87
733.953	28764.26
734.294	28631.15
734.635	28414.89
734.976	28616.92
735.317	28399.3
735.658	28490.82
735.999	28408.11
736.339	28336.7
736.68	28313.2
737.021	28247.21
737.361	28149.36
737.702	28290.37
738.042	28198.4
738.383	28064.39
738.723	28071.17
739.063	28028.91
739.404	28119.53
739.744	27868.01
740.084	27904.85
740.424	27865.3
740.764	27917.73
741.104	27887.9
741.444	27897.39
741.784	27739.2
742.124	27834.34
742.464	27682.93
742.804	27675.25
743.143	27476.83
743.483	27562.71
743.823	27445.42
744.162	27347.57
744.502	27439.77
744.841	27404.29
745.181	27403.84
745.52	27387.8
745.86	27324.07
746.199	27285.2
746.538	27155.03
746.877	27257.63
747.216	27185.09
747.556	27124.07
747.895	27126.33
748.234	26961.14
748.573	27045.43
748.911	26911.88
749.25	26908.71
749.589	26933.35
749.928	26853.35
750.267	26810.86
750.605	26901.48
750.944	26595.05
751.283	26593.47
751.621	26623.52
751.96	26443.64
752.298	26501.49
752.636	26405
752.975	26346.47
753.313	26159.58
753.651	26422.17
753.989	26216.3
754.327	26209.07
754.666	26102.63
755.004	26137.89
755.342	26137.89
755.679	26089.07
756.017	25979.47
756.355	26031.67
756.693	25792.36
757.031	25814.5
757.368	25851.34
757.706	25753.72
