Data from hue_310_FLMS001491_7.txt Node
Date: Mon Feb 06 15:48:23 GMT 2017
User: dcchb
Spectrometer: FLMS00149
Trigger mode: 0
Integration Time (sec): 2.000000E-2
Scans to average: 10
Electric dark correction enabled: true
Nonlinearity correction enabled: false
Boxcar width: 0
XAxis mode: Wavelengths
Number of Pixels in Spectrum: 2048
>>>>>Begin Spectral Data<<<<<
341.393	-3.38
341.776	-3.38
342.16	-3.38
342.543	-67.55
342.927	-58.29
343.31	-77.05
343.693	-68.01
344.077	-50.83
344.46	-61.45
344.843	-84.05
345.226	-29.59
345.61	-6.09
345.993	-30.04
346.376	-16.03
346.759	31.65
347.142	11.54
347.525	43.63
347.908	61.48
348.291	85.44
348.674	87.92
349.057	101.48
349.44	115.72
349.823	123.4
350.206	169.95
350.588	199.56
350.971	199.56
351.354	217.64
351.737	233.45
352.119	229.84
352.502	256.73
352.884	269.39
353.267	276.62
353.65	297.18
354.032	287.01
354.414	305.54
354.797	284.53
355.179	325.88
355.562	321.59
355.944	312.55
356.326	326.11
356.709	326.33
357.091	326.11
357.473	337.18
357.855	358.2
358.238	344.86
358.62	337.18
359.002	336.73
359.384	334.02
359.766	327.24
360.148	334.69
360.53	327.01
360.912	343.96
361.294	348.93
361.676	330.85
362.057	314.13
362.439	324.3
362.821	320.68
363.203	333.79
363.584	331.98
363.966	291.08
364.348	333.79
364.729	324.98
365.111	312.77
365.493	320.23
365.874	313.23
366.256	331.76
366.637	315.94
367.019	299.44
367.4	331.3
367.781	333.34
368.163	317.97
368.544	303.28
368.925	313.68
369.306	321.14
369.688	311.87
370.069	333.11
370.45	309.84
370.831	321.36
371.212	312.77
371.593	299.22
371.974	317.07
372.355	322.72
372.736	315.26
373.117	317.29
373.498	316.62
373.879	317.52
374.26	325.66
374.641	316.62
375.021	320.91
375.402	302.38
375.783	320.68
376.163	338.08
376.544	335.15
376.925	317.52
377.305	312.32
377.686	336.5
378.066	338.76
378.447	331.98
378.827	326.11
379.208	317.07
379.588	340.12
379.968	323.62
380.349	319.1
380.729	328.37
381.109	347.58
381.489	330.85
381.87	325.88
382.25	316.62
382.63	331.3
383.01	329.27
383.39	348.48
383.77	335.82
384.15	341.93
384.53	368.14
384.91	340.8
385.29	347.8
385.67	338.31
386.049	354.13
386.429	351.87
386.809	343.96
387.189	361.81
387.568	349.61
387.948	359.55
388.328	353
388.707	344.41
389.087	364.07
389.466	342.38
389.846	347.8
390.225	354.81
390.605	375.6
390.984	342.83
391.363	380.12
391.743	362.49
392.122	401.59
392.501	356.39
392.881	376.05
393.26	398.87
393.639	382.6
394.018	372.21
394.397	371.08
394.776	381.7
395.155	371.08
395.534	374.47
395.913	372.66
396.292	404.52
396.671	366.56
397.05	390.06
397.429	382.15
397.808	394.58
398.186	392.32
398.565	412.21
398.944	382.83
399.323	368.59
399.701	400.23
400.08	382.6
400.458	397.07
400.837	413.56
401.215	417.86
401.594	410.62
401.972	414.24
402.351	427.12
402.729	442.04
403.107	421.92
403.486	420.34
403.864	422.15
404.242	438.65
404.62	447.69
404.999	429.38
405.377	427.12
405.755	435.26
406.133	450.4
406.511	442.26
406.889	449.72
407.267	434.13
407.645	470.96
408.023	464.63
408.401	463.73
408.779	485.65
409.156	488.14
409.534	496.05
409.912	501.92
410.29	488.59
410.667	493.56
411.045	520.68
411.422	531.3
411.8	527.23
412.178	522.26
412.555	547.12
412.933	519.32
413.31	545.31
413.687	569.49
414.065	556.38
414.442	560.45
414.819	583.95
415.197	574.69
415.574	599.55
415.951	610.62
416.328	619.43
416.705	606.55
417.082	625.08
417.46	643.84
417.837	623.73
418.214	632.99
418.591	637.51
418.967	658.53
419.344	654.46
419.721	661.24
420.098	694.23
420.475	695.59
420.852	682.26
421.228	682.93
421.605	702.14
421.982	699.2
422.358	732.42
422.735	733.55
423.111	735.14
423.488	746.66
423.864	757.96
424.241	774.91
424.617	774.91
424.994	781.46
425.37	772.2
425.746	802.03
426.123	814.68
426.499	788.69
426.875	834.57
427.251	830.95
427.627	859.65
428.003	836.6
428.379	867.56
428.756	873.44
429.132	879.54
429.507	889.71
429.883	904.85
430.259	914.79
430.635	929.26
431.011	913.44
431.387	956.37
431.763	968.58
432.138	969.25
432.514	980.1
432.89	992.98
433.265	1006.32
433.641	1018.52
434.016	1049.25
434.392	1029.14
434.767	1054
435.143	1050.16
435.518	1087.67
435.894	1079.08
436.269	1102.81
436.644	1113.88
437.02	1107.33
437.395	1125.18
437.77	1128.8
438.145	1160.21
438.52	1153.66
438.895	1153.88
439.271	1188.46
439.646	1191.17
440.021	1206.54
440.395	1215.35
440.77	1196.37
441.145	1165.86
441.52	1206.08
441.895	1221.45
442.27	1246.08
442.645	1236.59
443.019	1262.35
443.394	1246.76
443.769	1228
444.143	1249.7
444.518	1293.99
444.892	1277.04
445.267	1268.23
445.641	1283.6
446.016	1289.25
446.39	1286.08
446.764	1306.87
447.139	1291.28
447.513	1313.43
447.887	1304.16
448.262	1299.87
448.636	1312.97
449.01	1347.78
449.384	1334.89
449.758	1340.54
450.132	1358.62
450.506	1367.21
450.88	1349.58
451.254	1349.58
451.628	1382.12
452.002	1348.45
452.376	1348
452.75	1378.96
453.123	1381.22
453.497	1425.29
453.871	1407.66
454.244	1428.9
454.618	1445.4
454.992	1430.94
455.365	1430.03
455.739	1475.68
456.112	1472.29
456.486	1477.26
456.859	1504.83
457.232	1524.95
457.606	1481.56
457.979	1524.72
458.352	1542.8
458.725	1556.13
459.099	1562.23
459.472	1580.31
459.845	1592.06
460.218	1588.22
460.591	1586.87
460.964	1620.08
461.337	1671.83
461.71	1663.02
462.083	1652.4
462.456	1648.33
462.829	1681.78
463.201	1705.73
463.574	1691.27
463.947	1692.85
464.32	1717.48
464.692	1720.19
465.065	1732.4
465.438	1775.33
465.81	1808.78
466.183	1803.13
466.555	1789.8
466.928	1848.33
467.3	1838.38
467.672	1856.91
468.045	1889.23
468.417	1845.84
468.789	1877.48
469.161	1894.43
469.534	1932.84
469.906	1927.2
470.278	1962.9
470.65	1985.72
471.022	1989.57
471.394	2027.31
471.766	2056.68
472.138	2029.79
472.51	2061.65
472.882	2082.9
473.253	2097.13
473.625	2130.81
473.997	2177.81
474.369	2197.47
474.74	2171.93
475.112	2236.34
475.484	2196.34
475.855	2252.16
476.227	2282.44
476.598	2351.59
476.97	2315.43
477.341	2337.58
477.713	2390.91
478.084	2398.37
478.455	2425.71
478.827	2457.58
479.198	2519.04
479.569	2508.42
479.94	2571.47
480.311	2562.88
480.682	2628.87
481.053	2595.88
481.424	2653.28
481.795	2677.68
482.166	2671.81
482.537	2726.5
482.908	2745.03
483.279	2764.24
483.65	2814.86
484.021	2846.49
484.391	2891.92
484.762	2913.84
485.133	2908.64
485.503	2931.69
485.874	3008.52
486.244	3012.36
486.615	3028.41
486.985	3087.39
487.356	3112.02
487.726	3125.13
488.097	3159.93
488.467	3160.38
488.837	3220.27
489.207	3221.85
489.578	3266.14
489.948	3315.41
490.318	3344.78
490.688	3329.42
491.058	3427.95
491.428	3396.53
491.798	3439.47
492.168	3503.2
492.538	3489.64
492.908	3530.99
493.278	3515.85
493.648	3549.98
494.017	3606.7
494.387	3651.9
494.757	3626.81
495.126	3654.16
495.496	3660.48
495.866	3644.44
496.235	3709.75
496.605	3764.66
496.974	3725.57
497.344	3726.7
497.713	3788.62
498.082	3791.55
498.452	3827.94
498.821	3822.96
499.19	3901.15
499.559	3832.23
499.928	3856.64
500.298	3889.18
500.667	3922.85
501.036	3855.73
501.405	3966.24
501.774	3948.84
502.143	3981.83
502.512	3970.76
502.88	4024.99
503.249	4033.13
503.618	4041.26
503.987	4076.52
504.356	4099.12
504.724	4088.04
505.093	4109.74
505.462	4068.61
505.83	4065.22
506.199	4141.6
506.567	4173.24
506.936	4192.22
507.304	4196.06
507.672	4197.87
508.041	4259.34
508.409	4258.89
508.777	4268.38
509.145	4285.78
509.514	4286.46
509.882	4297.75
510.25	4349.96
510.618	4318.32
510.986	4365.1
511.354	4319.45
511.722	4356.74
512.09	4420.91
512.458	4448.48
512.826	4409.84
513.193	4413.46
513.561	4409.39
513.929	4455.49
514.297	4485.32
514.664	4497.97
515.032	4465.66
515.4	4499.78
515.767	4502.49
516.135	4499.78
516.502	4509.5
516.869	4523.96
517.237	4600.12
517.604	4537.07
517.972	4610.29
518.339	4670.85
518.706	4584.3
519.073	4630.63
519.44	4688.25
519.808	4683.96
520.175	4646.22
520.542	4676.5
520.909	4709.95
521.276	4737.06
521.643	4732.09
522.009	4756.27
522.376	4808.7
522.743	4823.62
523.11	4816.61
523.477	4849.38
523.843	4878.3
524.21	4890.28
524.577	4904.74
524.943	4916.5
525.31	4922.6
525.676	4988.58
526.043	4991.3
526.409	5034.46
526.776	5122.59
527.142	5090.73
527.508	5052.54
527.874	5146.09
528.241	5164.17
528.607	5153.1
528.973	5148.35
529.339	5214.11
529.705	5238.52
530.071	5238.29
530.437	5281.68
530.803	5304.73
531.169	5303.83
531.535	5345.64
531.901	5383.15
532.267	5388.57
532.632	5403.71
532.998	5417.72
533.364	5416.37
533.73	5499.53
534.095	5491.85
534.461	5549.25
534.826	5529.81
535.192	5533.2
535.557	5593.31
535.923	5615.01
536.288	5615.23
536.653	5681.22
537.019	5679.19
537.384	5718.28
537.749	5690.94
538.114	5657.49
538.479	5743.59
538.845	5725.06
539.21	5760.09
539.575	5789.24
539.94	5843.93
540.305	5833.08
540.67	5888.67
541.034	5907.66
541.399	5893.19
541.764	5998.27
542.129	6007.31
542.494	6010.48
542.858	6036.69
543.223	6018.84
543.587	6059.06
543.952	6088.89
544.316	6090.7
544.681	6091.15
545.045	6165.05
545.41	6215.22
545.774	6196.01
546.138	6245.5
546.503	6233.75
546.867	6239.85
547.231	6328.66
547.595	6332.28
547.959	6326.4
548.324	6313.52
548.688	6377.47
549.052	6378.38
549.416	6424.48
549.779	6479.39
550.143	6439.62
550.507	6529.56
550.871	6540.18
551.235	6491.59
551.599	6513.29
551.962	6551.25
552.326	6621.99
552.689	6637.81
553.053	6653.85
553.417	6659.73
553.78	6712.83
554.143	6690.69
554.507	6721.87
554.87	6731.81
555.234	6797.35
555.597	6806.84
555.96	6763.23
556.323	6807.52
556.686	6780.17
557.05	6881.87
557.413	6845.48
557.776	6911.92
558.139	6947.18
558.502	6946.27
558.865	6929.1
559.228	7005.71
559.59	6979.49
559.953	7010.9
560.316	7079.6
560.679	7096.78
561.041	7086.16
561.404	7137.45
561.767	7173.38
562.129	7088.64
562.492	7225.59
562.854	7228.52
563.217	7205.47
563.579	7268.75
563.941	7233.72
564.304	7346.26
564.666	7379.48
565.028	7341.74
565.39	7365.02
565.753	7437.56
566.115	7362.53
566.477	7458.58
566.839	7459.48
567.201	7466.48
567.563	7522.98
567.925	7539.93
568.287	7573.15
568.648	7616.99
569.01	7650.89
569.372	7689.98
569.734	7665.8
570.095	7723.2
570.457	7761.39
570.819	7844.1
571.18	7847.04
571.542	7874.61
571.903	7873.71
572.265	7959.58
572.626	7954.83
572.987	8001.84
573.349	8099.24
573.71	8100.14
574.071	8153.7
574.432	8264.43
574.794	8331.09
575.155	8303.75
575.516	8357.31
575.877	8423.07
576.238	8488.15
576.599	8515.72
576.96	8615.83
577.32	8744.19
577.681	8796.84
578.042	8897.63
578.403	8924.75
578.763	9048.36
579.124	9068.02
579.485	9194.35
579.845	9355.25
580.206	9396.15
580.566	9421.24
580.927	9708.69
581.287	9835.01
581.648	9917.04
582.008	10026.19
582.368	10227.99
582.728	10314.09
583.089	10474.99
583.449	10630.24
583.809	10848.99
584.169	11051.25
584.529	11166.27
584.889	11418.02
585.249	11534.17
585.609	11702.98
585.969	11895.75
586.329	12188.17
586.688	12420.93
587.048	12595.62
587.408	12892.78
587.768	13012.33
588.127	13313.79
588.487	13580
588.846	13858.41
589.206	14131.85
589.565	14286.42
589.925	14682.11
590.284	14861.09
590.643	15152.16
591.003	15524.35
591.362	15860.61
591.721	16099.03
592.08	16347.83
592.44	16663.3
592.799	17016.74
593.158	17265.55
593.517	17458.99
593.876	17936.49
594.235	18145.75
594.593	18478.62
594.952	18837.94
595.311	19004.03
595.67	19377.58
596.029	19800.85
596.387	20120.62
596.746	20429.08
597.104	20655.52
597.463	20960.14
597.822	21398.77
598.18	21661.82
598.538	21867.01
598.897	22379.99
599.255	22492.53
599.613	23148.11
599.972	23370.47
600.33	23646.17
600.688	23773.4
601.046	24210
601.404	24516.88
601.762	24770.66
602.12	25200.26
602.478	25431.89
602.836	25864.64
603.194	25973.34
603.552	26201.13
603.91	26389.38
604.268	26837.27
604.625	27041.56
604.983	27412.85
605.341	27478.16
605.698	27922.44
606.056	28271.81
606.413	28469.32
606.771	28794.06
607.128	28893.94
607.485	29131.45
607.843	29463.65
608.2	29815.73
608.557	30052.11
608.914	30175.94
609.272	30527.12
609.629	30943.83
609.986	31181.34
610.343	31231.74
610.7	31690.93
611.057	31700.42
611.414	31951.49
611.771	32047.31
612.127	32373.85
612.484	32506.73
612.841	32885.48
613.198	33001.86
613.554	33062.42
613.911	33338.8
614.267	33679.35
614.624	33620.37
614.98	33906.47
615.337	34261.03
615.693	34317.3
616.05	34437.53
616.406	34745.99
616.762	34726.56
617.118	34925.88
617.475	35188.02
617.831	35332.42
618.187	35576.71
618.543	35664.84
618.899	35980.99
619.255	36006.75
619.611	36167.2
619.967	36414.2
620.323	36356.12
620.678	36517.02
621.034	36643.57
621.39	36659.84
621.746	36784.36
622.101	37201.07
622.457	37114.07
622.812	37264.35
623.168	37396.77
623.523	37550.44
623.879	37516.09
624.234	37586.6
624.589	37778.46
624.945	37904.1
625.3	37993.37
625.655	38045.57
626.01	38316.52
626.365	38351.77
626.72	38298.89
627.075	38299.57
627.43	38444.2
627.785	38431.55
628.14	38538.89
628.495	38616.63
628.85	38712.67
629.205	38639.68
629.559	38779.56
629.914	38750.63
630.269	38749.05
630.623	38851.65
630.978	38824.98
631.332	39019.1
631.687	39205.08
632.041	39076.73
632.396	39045.32
632.75	39010.51
633.104	39003.96
633.459	39040.12
633.813	39061.13
634.167	39078.53
634.521	39109.49
634.875	39068.37
635.229	39023.17
635.583	38984.3
635.937	39062.04
636.291	39086.9
636.645	39007.12
636.999	39058.2
637.352	39216.61
637.706	38904.08
638.06	39235.82
638.413	39119.44
638.767	39061.59
639.121	39173.22
639.474	38904.98
639.828	39131.87
640.181	39148.14
640.534	39011.87
640.888	39043.28
641.241	38949.5
641.594	39077.63
641.947	39099.33
642.301	39004.64
642.654	39007.12
643.007	39238.3
643.36	38996.73
643.713	39073.56
644.066	39137.74
644.419	39069.72
644.771	38642.61
645.124	38337.31
645.477	38313.81
645.83	38110.42
646.182	38050.77
646.535	37927.15
646.888	37977.77
647.24	37708.85
647.593	38058.67
647.945	37966.47
648.298	37682.19
648.65	37898.9
649.002	37584.11
649.355	37735.52
649.707	37739.36
650.059	37948.62
650.411	38336.41
650.763	38298.67
651.115	38622.28
651.467	38611.65
651.819	38827.47
652.171	38604.65
652.523	38647.13
652.875	38553.8
653.227	38451.43
653.578	38671.99
653.93	38594.03
654.282	38377.31
654.633	38305
654.985	38434.71
655.337	38558.77
655.688	38370.3
656.039	38675.38
656.391	38171.67
656.742	38362.62
657.094	38422.73
657.445	38368.5
657.796	38365.11
658.147	38203.3
658.498	38231.78
658.849	38433.81
659.2	38378.44
659.551	38235.17
659.902	38359.91
660.253	38318.55
660.604	38389.51
660.955	38258.67
661.306	38328.27
661.656	38194.04
662.007	38215.73
662.358	38249.63
662.708	38288.72
663.059	38309.97
663.409	38032.91
663.76	38182.96
664.11	38249.86
664.461	38306.58
664.811	38180.93
665.161	38212.79
665.511	38060.93
665.862	38247.6
666.212	38389.06
666.562	38329.63
666.912	38338.89
667.262	38124.21
667.612	38187.94
667.962	38213.7
668.312	38146.36
668.662	38252.79
669.011	38193.81
669.361	38098.45
669.711	38080.59
670.06	38017.77
670.41	37948.39
670.76	38002.63
671.109	38069.97
671.459	38052.57
671.808	37928.73
672.157	38071.78
672.507	37864.33
672.856	37860.04
673.205	37868.4
673.554	38056.87
673.904	37901.62
674.253	38135.06
674.602	37933.71
674.951	37439.26
675.3	37170.11
675.649	37859.58
675.998	37842.86
676.346	37754.5
676.695	37978
677.044	37584.79
677.393	37710.44
677.741	37835.86
678.09	37695.97
678.438	37709.76
678.787	37652.81
679.135	37633.37
679.484	37401.52
679.832	37656.65
680.181	37368.52
680.529	37532.36
680.877	37332.14
681.225	37361.97
681.573	37631.34
681.922	37357.9
682.27	37192.26
682.618	37229.09
682.966	37109.32
683.314	37154.52
683.661	37145.48
684.009	36991.81
684.357	36928.53
684.705	36773.96
685.053	36759.73
685.4	36811.25
685.748	36623.46
686.095	36663
686.443	36477.47
686.79	36504.37
687.138	36488.32
687.485	36372.39
687.832	36412.84
688.18	36376.46
688.527	36253.3
688.874	36084.94
689.221	36042.23
689.568	35930.59
689.915	35891.5
690.262	35859.64
690.609	35894.44
690.956	35675.01
691.303	35687.89
691.65	35627.33
691.997	35567.21
692.344	35332.64
692.69	35278.63
693.037	35284.96
693.383	34962.48
693.73	35098.07
694.077	35017.85
694.423	34960.45
694.769	34842.04
695.116	34847.46
695.462	34812.66
695.808	34648.59
696.155	34716.39
696.501	34437.98
696.847	34406.79
697.193	34205.44
697.539	34246.57
697.885	34064.43
698.231	33926.13
698.577	33969.97
698.923	33904.43
699.269	33776.53
699.614	33476.2
699.96	33502.18
700.306	33551.22
700.651	33402.07
700.997	33388.29
701.342	33306.71
701.688	33263.09
702.033	33099.26
702.379	33159.82
702.724	33061.97
703.069	33077.79
703.415	32627.63
703.76	32812.94
704.105	32768.64
704.45	32566.16
704.795	32560.06
705.14	32444.81
705.485	32494.07
705.83	32352.84
706.175	32251.14
706.52	32222.67
706.865	32252.5
707.209	32090.02
707.554	31988.1
707.899	32019.51
708.243	31821.78
708.588	31839.4
708.932	31595.79
709.277	31525.96
709.621	31566.19
709.966	31406.42
710.31	31428.11
710.654	31174.34
710.998	31268.8
711.342	31282.58
711.687	31046.2
712.031	31065.64
712.375	30886.89
712.719	30886.43
713.063	30902.25
713.407	30866.1
713.75	30779.77
714.094	30980.89
714.438	30585.65
714.782	30558.76
715.125	30522.38
715.469	30636.04
715.812	30349.5
716.156	30181.14
716.499	30297.52
716.843	30354.47
717.186	30162.38
717.53	30254.36
717.873	30261.37
718.216	30079.45
718.559	29986.12
718.902	29831.32
719.246	29932.79
719.589	29862.73
719.932	29770.53
720.275	29747.93
720.617	29701.38
720.96	29621.61
721.303	29536.64
721.646	29650.99
721.989	29448.73
722.331	29495.51
722.674	29269.75
723.016	29326.25
723.359	29274.05
723.701	29341.39
724.044	29236.53
724.386	29064.79
724.729	29136.42
725.071	29041.06
725.413	29023.21
725.755	28996.31
726.097	28898.24
726.439	28774.4
726.782	28753.61
727.124	28769.2
727.465	28646.04
727.807	28548.19
728.149	28527.85
728.491	28519.94
728.833	28579.6
729.175	28459.83
729.516	28320.17
729.858	28406.72
730.199	28355.43
730.541	28262.55
730.882	28329.89
731.224	28329.66
731.565	28083.8
731.906	28150.91
732.248	28173.74
732.589	28004.25
732.93	27913.63
733.271	27860.75
733.612	27938.04
733.953	27929.22
734.294	27807.87
734.635	27728.55
734.976	27893.29
735.317	27705.95
735.658	27721.09
735.999	27619.4
736.339	27631.83
736.68	27665.28
737.021	27646.97
737.361	27465.51
737.702	27518.16
738.042	27445.17
738.383	27475.22
738.723	27447.65
739.063	27220.99
739.404	27352.29
739.744	27186.87
740.084	27115.46
740.424	27229.81
740.764	27115.23
741.104	27168.11
741.444	26985.52
741.784	26982.13
742.124	27108.45
742.464	27016.25
742.804	26807.9
743.143	26836.37
743.483	26860.55
743.823	26571.74
744.162	26628.47
744.502	26637.28
744.841	26579.88
745.181	26751.4
745.52	26569.71
745.86	26651.97
746.199	26462.82
746.538	26457.85
746.877	26392.31
747.216	26448.36
747.556	26296.27
747.895	26369.26
748.234	26298.08
748.573	26150.74
748.911	26031.42
749.25	26247.91
749.589	26055.6
749.928	26131.98
750.267	26065.77
750.605	26000.01
750.944	25944.19
751.283	25865.1
751.621	25996.84
751.96	25679.56
752.298	25770.86
752.636	25688.6
752.975	25555.05
753.313	25569.96
753.651	25698.77
753.989	25476.41
754.327	25350.76
754.666	25317.54
755.004	25369.29
755.342	25319.8
755.679	25289.74
756.017	25124.55
756.355	25116.19
756.693	25047.27
757.031	25013.14
757.368	24967.49
757.706	24899.92
758.044	24875.07
758.381	24904.22
758.719	24741.74
759.056	24656.77
759.394	24567.5
