Data from hue_32_FLMS001491_00065.txt Node
Date: Tue Feb 07 17:23:44 GMT 2017
User: dcchb
Spectrometer: FLMS00149
Trigger mode: 0
Integration Time (sec): 2.000000E-2
Scans to average: 10
Electric dark correction enabled: true
Nonlinearity correction enabled: false
Boxcar width: 0
XAxis mode: Wavelengths
Number of Pixels in Spectrum: 2048
>>>>>Begin Spectral Data<<<<<
341.393	-22.16
341.776	-22.16
342.16	-22.16
342.543	-60.13
342.927	-75.94
343.31	-70.29
343.693	-77.98
344.077	-69.39
344.46	-48.83
344.843	-49.96
345.226	-49.5
345.61	-24.42
345.993	-30.75
346.376	-11.77
346.759	1.79
347.142	30.95
347.525	47.22
347.908	51.96
348.291	103.03
348.674	82.47
349.057	115.46
349.44	129.7
349.823	134.22
350.206	164.95
350.588	217.61
350.971	236.14
351.354	227.32
351.737	225.97
352.119	244.5
352.502	304.16
352.884	296.93
353.267	292.18
353.65	288.57
354.032	303.48
354.414	307.32
354.797	309.13
355.179	333.76
355.562	324.95
355.944	341.67
356.326	317.94
356.709	343.93
357.091	341.9
357.473	344.38
357.855	353.2
358.238	372.86
358.62	343.03
359.002	356.13
359.384	350.26
359.766	358.62
360.148	345.74
360.53	345.29
360.912	326.98
361.294	350.03
361.676	331.73
362.057	336.25
362.439	329.92
362.821	344.38
363.203	350.71
363.584	346.42
363.966	314.78
364.348	325.63
364.729	336.02
365.111	324.27
365.493	324.5
365.874	329.47
366.256	315.01
366.637	327.21
367.019	330.15
367.4	322.69
367.781	353.65
368.163	331.28
368.544	323.37
368.925	326.98
369.306	321.11
369.688	325.4
370.069	334.21
370.45	309.13
370.831	311.84
371.212	324.27
371.593	343.25
371.974	319.53
372.355	329.92
372.736	339.41
373.117	317.04
373.498	327.43
373.879	300.99
374.26	312.75
374.641	305.51
375.021	322.46
375.402	326.76
375.783	331.05
376.163	342.12
376.544	327.21
376.925	322.69
377.305	339.64
377.686	338.96
378.066	329.92
378.447	335.57
378.827	345.74
379.208	337.83
379.588	357.72
379.968	315.91
380.349	332.41
380.729	349.81
381.109	366.98
381.489	353.42
381.87	329.47
382.25	347.32
382.63	355.68
383.01	371.5
383.39	347.1
383.77	338.73
384.15	352.07
384.53	368.79
384.91	367.66
385.29	368.79
385.67	358.39
386.049	358.17
386.429	365.85
386.809	348.23
387.189	360.88
387.568	367.89
387.948	372.18
388.328	365.4
388.707	359.98
389.087	355.68
389.466	362.69
389.846	362.01
390.225	362.69
390.605	392.74
390.984	380.31
391.363	383.48
391.743	394.55
392.122	379.64
392.501	376.25
392.881	393.42
393.26	378.51
393.639	379.41
394.018	388
394.397	380.31
394.776	412.18
395.155	388.22
395.534	407.88
395.913	392.74
396.292	387.09
396.671	385.29
397.05	395.91
397.429	380.99
397.808	386.64
398.186	414.89
398.565	410.37
398.944	402.69
399.323	399.52
399.701	407.43
400.08	407.43
400.458	408.56
400.837	419.18
401.215	418.96
401.594	433.42
401.972	429.58
402.351	421.44
402.729	402.91
403.107	415.34
403.486	441.1
403.864	411.95
404.242	430.93
404.62	429.81
404.999	424.16
405.377	439.97
405.755	434.32
406.133	441.78
406.511	438.17
406.889	446.3
407.267	435.23
407.645	446.3
408.023	435.23
408.401	451.95
408.779	444.04
409.156	445.85
409.534	464.15
409.912	465.28
410.29	455.34
410.667	459.18
411.045	477.71
411.422	470.48
411.8	460.99
412.178	491.5
412.555	469.13
412.933	496.47
413.31	493.31
413.687	469.8
414.065	476.58
414.442	500.09
414.819	514.55
415.197	509.8
415.574	522.91
415.951	509.58
416.328	525.62
416.705	492.85
417.082	505.06
417.46	526.98
417.837	542.12
418.214	546.19
418.591	538.05
418.967	525.85
419.344	519.75
419.721	548.22
420.098	545.28
420.475	560.42
420.852	529.92
421.228	532.4
421.605	557.49
421.982	554.55
422.358	553.87
422.735	550.71
423.111	557.94
423.488	579.41
423.864	578.05
424.241	579.18
424.617	586.41
424.994	576.24
425.37	556.58
425.746	565.62
426.123	598.61
426.499	596.35
426.875	606.07
427.251	599.52
427.627	616.92
428.003	595.22
428.379	632.51
428.756	636.13
429.132	635.9
429.507	635
429.883	659.86
430.259	643.13
430.635	626.86
431.011	644.71
431.387	641.78
431.763	675.22
432.138	677.03
432.514	666.41
432.89	675.22
433.265	684.94
433.641	679.52
434.016	698.5
434.392	686.52
434.767	738.72
435.143	722.23
435.518	722.45
435.894	751.6
436.269	728.33
436.644	731.49
437.02	730.36
437.395	733.3
437.77	747.54
438.145	787.76
438.52	755.45
438.895	765.84
439.271	777.37
439.646	782.56
440.021	788.44
440.395	776.91
440.77	804.94
441.145	797.48
441.52	815.78
441.895	811.04
442.27	818.5
442.645	804.94
443.019	809.23
443.394	832.96
443.769	838.83
444.143	846.52
444.518	836.12
444.892	833.64
445.267	847.2
445.641	859.4
446.016	856.91
446.39	859.4
446.764	868.44
447.139	879.96
447.513	883.8
447.887	882.9
448.262	892.84
448.636	882.45
449.01	876.35
449.384	895.56
449.758	890.58
450.132	919.74
450.506	915.22
450.88	924.48
451.254	915.44
451.628	926.29
452.002	928.1
452.376	958.15
452.75	956.57
453.123	979.4
453.497	950.92
453.871	1009.68
454.244	989.79
454.618	1025.27
454.992	1036.12
455.365	1002.22
455.739	1024.82
456.112	1049.22
456.486	1055.33
456.859	1063.69
457.232	1059.85
457.606	1077.7
457.979	1110.24
458.352	1079.51
458.725	1140.29
459.099	1109.34
459.472	1142.1
459.845	1166.96
460.218	1174.87
460.591	1156.11
460.964	1207.41
461.337	1191.82
461.71	1194.3
462.083	1220.74
462.456	1218.26
462.829	1239.28
463.201	1269.56
463.574	1265.94
463.947	1291.03
464.32	1298.71
464.692	1287.18
465.065	1316.34
465.438	1348.2
465.81	1367.63
466.183	1382.32
466.555	1409.21
466.928	1421.87
467.3	1417.12
467.672	1438.59
468.045	1470.91
468.417	1454.64
468.789	1505.26
469.161	1498.25
469.534	1536.22
469.906	1540.28
470.278	1586.84
470.65	1585.48
471.022	1633.84
471.394	1637.68
471.766	1698.02
472.138	1712.48
472.51	1740.96
472.882	1785.93
473.253	1819.37
473.625	1844.01
473.997	1885.81
474.369	1909.77
474.74	1933.72
475.112	1969.43
475.484	2000.61
475.855	2054.85
476.227	2063.66
476.598	2145.69
476.97	2155.86
477.341	2206.48
477.713	2274.73
478.084	2295.97
478.455	2387.04
478.827	2416.42
479.198	2514.04
479.569	2502.97
479.94	2595.4
480.311	2612.12
480.682	2693.7
481.053	2769.63
481.424	2813.92
481.795	2852.11
482.166	2921.72
482.537	2963.75
482.908	3051.66
483.279	3111.99
483.65	3196.06
484.021	3312.22
484.391	3350.86
484.762	3424.3
485.133	3491.87
485.503	3574.36
485.874	3666.78
486.244	3721.24
486.615	3788.81
486.985	3882.82
487.356	3991.75
487.726	4045.53
488.097	4161.91
488.467	4226.09
488.837	4299.76
489.207	4429.25
489.578	4492.07
489.948	4577.94
490.318	4705.4
490.688	4759.18
491.058	4792.63
491.428	4901.78
491.798	5018.38
492.168	5127.08
492.538	5199.4
492.908	5276.01
493.278	5381.99
493.648	5414.08
494.017	5523
494.387	5612.04
494.757	5647.75
495.126	5757.8
495.496	5805.48
495.866	5854.97
496.235	5966.83
496.605	6059.04
496.974	6130.45
497.344	6203.21
497.713	6236.66
498.082	6363.66
498.452	6511.23
498.821	6538.35
499.19	6565.91
499.559	6628.51
499.928	6705.35
500.298	6764.78
500.667	6901.95
501.036	6876.42
501.405	7058.11
501.774	7025.11
502.143	7136.97
502.512	7142.17
502.88	7260.59
503.249	7279.34
503.618	7328.38
503.987	7394.14
504.356	7442.05
504.724	7502.39
505.093	7555.49
505.462	7631.65
505.83	7642.95
506.199	7720.69
506.567	7906.67
506.936	7879.55
507.304	8014.69
507.672	8076.61
508.041	8099.66
508.409	8141.01
508.777	8202.93
509.145	8266.44
509.514	8234.57
509.882	8362.7
510.25	8422.82
510.618	8476.83
510.986	8493.55
511.354	8571.74
511.722	8682.02
512.09	8698.97
512.458	8707.78
512.826	8826.19
513.193	8812.18
513.561	8859.87
513.929	9025.96
514.297	8978.73
514.664	9124.27
515.032	9154.1
515.4	9187.99
515.767	9242.91
516.135	9288.1
516.502	9265.28
516.869	9410.81
517.237	9454.88
517.604	9464.37
517.972	9519.28
518.339	9555.21
518.706	9567.42
519.073	9655.33
519.44	9714.08
519.808	9817.35
520.175	9790.91
520.542	9959.27
520.909	9927.18
521.276	9977.58
521.643	10070.68
522.009	10066.39
522.376	10171.47
522.743	10215.08
523.11	10258.25
523.477	10353.84
523.843	10429.54
524.21	10520.39
524.577	10569.88
524.943	10650.55
525.31	10667.05
525.676	10701.17
526.043	10819.81
526.409	10849.19
526.776	10952.69
527.142	10980.26
527.508	11064.55
527.874	11144.78
528.241	11178.67
528.607	11196.53
528.973	11236.53
529.339	11331.44
529.705	11440.14
530.071	11505.45
530.437	11554.26
530.803	11617.76
531.169	11721.26
531.535	11653.92
531.901	11693.24
532.267	11759.9
532.632	11876.96
532.998	11924.87
533.364	12062.04
533.73	12036.28
534.095	12188.59
534.461	12127.8
534.826	12250.96
535.192	12269.72
535.557	12337.29
535.923	12330.74
536.288	12408.02
536.653	12563.95
537.019	12479.43
537.384	12534.12
537.749	12554.01
538.114	12662.93
538.479	12641.24
538.845	12746.54
539.21	12717.39
539.575	12779.76
539.94	12798.52
540.305	12875.58
540.67	12926.2
541.034	13043.71
541.399	13042.35
541.764	13154.89
542.129	13168
542.494	13295.91
542.858	13255.46
543.223	13260.65
543.587	13392.63
543.952	13319.41
544.316	13423.59
544.681	13479.41
545.045	13603.02
545.41	13622.45
545.774	13605.73
546.138	13599.85
546.503	13648.21
546.867	13744.94
547.231	13873.52
547.595	13929.56
547.959	13959.62
548.324	13993.06
548.688	13941.09
549.052	14052.05
549.416	14105.15
549.779	14090.69
550.143	14256.56
550.507	14197.8
550.871	14296.56
551.235	14290.01
551.599	14451.36
551.962	14468.76
552.326	14422.66
552.689	14625.36
553.053	14579.04
553.417	14588.3
553.78	14874.17
554.143	14615.87
554.507	14820.16
554.87	14896.09
555.234	14960.5
555.597	14807.28
555.96	15001.85
556.323	15048.18
556.686	14945.58
557.05	15176.08
557.413	15207.95
557.776	15172.24
558.139	15285.01
558.502	15326.36
558.865	15380.37
559.228	15531.1
559.59	15502.18
559.953	15529.3
560.316	15650.2
560.679	15619.69
561.041	15824.88
561.404	15832.79
561.767	15865.33
562.129	15881.15
562.492	16049.06
562.854	16074.14
563.217	16079.11
563.579	16071.43
563.941	16087.47
564.304	16286.79
564.666	16288.6
565.028	16263.97
565.39	16389.61
565.753	16478.65
566.115	16492.89
566.477	16623.96
566.839	16692.88
567.201	16776.04
567.563	16736.04
567.925	16936.94
568.287	16866.44
568.648	16891.07
569.01	16973.78
569.372	17117.95
569.734	17140.78
570.095	17250.61
570.457	17182.81
570.819	17454.67
571.18	17393.2
571.542	17487.44
571.903	17545.74
572.265	17590.48
572.626	17725.62
572.987	17737.37
573.349	17938.95
573.71	17943.02
574.071	18087.19
574.432	18196.12
574.794	18316.57
575.155	18317.24
575.516	18331.93
575.877	18517.69
576.238	18521.76
576.599	18640.63
576.96	18779.61
577.32	18914.29
577.681	19032.71
578.042	19187.28
578.403	19158.8
578.763	19520.83
579.124	19558.79
579.485	19709.07
579.845	19868.84
580.206	19970.99
580.566	20187.7
580.927	20268.61
581.287	20515.83
581.648	20564.64
582.008	20810.51
582.368	20987.68
582.728	21123.5
583.089	21340.22
583.449	21417.73
583.809	21778.62
584.169	21964.61
584.529	22035.79
584.889	22495.67
585.249	22518.72
585.609	22732.04
585.969	23043.22
586.329	23146.27
586.688	23481.63
587.048	23663.32
587.408	23696.99
587.768	23978.79
588.127	24283.42
588.487	24440.7
588.846	24891.08
589.206	24996.39
589.565	25114.58
589.925	25691.29
590.284	25736.48
590.643	25948.68
591.003	26326.75
591.362	26633.41
591.721	26817.81
592.08	27092.61
592.44	27426.61
592.799	27696.88
593.158	27787.05
593.517	28195.4
593.876	28440.37
594.235	28672.68
594.593	28904.08
594.952	29389.27
595.311	29309.5
595.67	29627.46
596.029	30125.07
596.387	30230.15
596.746	30705.62
597.104	30712.85
597.463	30944.03
597.822	31320.29
598.18	31411.59
598.538	31654.29
598.897	32092.93
599.255	32064.23
599.613	32797.99
599.972	32753.93
600.33	33213.35
600.688	33110.75
601.046	33368.6
601.404	33797.29
601.762	33885.87
602.12	34251.74
602.478	34501.45
602.836	34625.06
603.194	34676.36
603.552	35009.69
603.91	35061.44
604.268	35364.25
604.625	35562.89
604.983	35761.31
605.341	35822.32
605.698	36227.06
606.056	36481.51
606.413	36519.25
606.771	36854.61
607.128	37115.62
607.485	37014.15
607.843	37329.63
608.2	37674.48
608.557	37744.76
608.914	37698.2
609.272	38099.55
609.629	38388.81
609.986	38468.8
610.343	38309.71
610.7	38935.91
611.057	39035.34
611.414	39090.94
611.771	39263.13
612.127	39375.45
612.484	39404.83
612.841	39828.09
613.198	39699.73
613.554	39873.29
613.911	40183.79
614.267	40252.26
614.624	40144.92
614.98	40508.53
615.337	40842.53
615.693	40790.1
616.05	40795.75
616.406	41239.13
616.762	40964.78
617.118	41250.43
617.475	41308.5
617.831	41402.06
618.187	41702.17
618.543	41678.44
618.899	41910.75
619.255	41799.56
619.611	41954.81
619.967	42141.7
620.323	42295.82
620.678	42311.87
621.034	42185.54
621.39	42309.83
621.746	42345.31
622.101	42905.98
622.457	42555.03
622.812	42809.26
623.168	42796.83
623.523	43015.8
623.879	43132.41
624.234	42877.5
624.589	43152.75
624.945	43164.27
625.3	43348
625.655	43253.54
626.01	43418.51
626.365	43384.61
626.72	43457.37
627.075	43372.4
627.43	43407.21
627.785	43429.13
628.14	43449.46
628.495	43511.38
628.85	43639.74
629.205	43411.5
629.559	43788.44
629.914	43505.96
630.269	43567.2
630.623	43626.86
630.978	43611.95
631.332	43762
631.687	43867.08
632.041	43842
632.396	43794.77
632.75	43592.51
633.104	43624.38
633.459	43627.09
633.813	43628.67
634.167	43668.67
634.521	43793.86
634.875	43830.02
635.229	43815.1
635.583	43640.87
635.937	43705.05
636.291	43625.51
636.645	43644.26
636.999	43595
637.352	43749.12
637.706	43599.07
638.06	43638.16
638.413	43518.84
638.767	43513.87
639.121	43532.63
639.474	43364.27
639.828	43365.85
640.181	43458.73
640.534	43440.2
640.888	43295.57
641.241	43158.4
641.594	43201.79
641.947	43451.27
642.301	43382.57
642.654	43291.5
643.007	43352.74
643.36	43301.45
643.713	43220.54
644.066	43452.85
644.419	43075.46
644.771	42923.15
645.124	42570.17
645.477	42605.65
645.83	42218.99
646.182	42164.3
646.535	42058.99
646.888	42294.47
647.24	42014.93
647.593	42057.19
647.945	42185.54
648.298	41831.88
648.65	41756.63
649.002	41792.79
649.355	41999.79
649.707	41981.25
650.059	42080.46
650.411	42408.36
650.763	42400.9
651.115	42922.7
651.467	42725.87
651.819	42764.06
652.171	42699.65
652.523	42658.98
652.875	42567.23
653.227	42486.1
653.578	42722.25
653.93	42663.5
654.282	42611.75
654.633	42469.6
654.985	42593.67
655.337	42524.74
655.688	42618.3
656.039	42680.22
656.391	42362.04
656.742	42353.9
657.094	42444.97
657.445	42663.5
657.796	42597.28
658.147	42367.01
658.498	42502.82
658.849	42549.38
659.2	42388.93
659.551	42239.78
659.902	42382.6
660.253	42305.99
660.604	42386.22
660.955	42183.74
661.306	42440.68
661.656	42299.21
662.007	42171.76
662.358	42218.76
662.708	42321.58
663.059	42236.16
663.409	41953.46
663.76	42347.8
664.11	42211.08
664.461	42418.98
664.811	42435.93
665.161	42246.33
665.511	42196.84
665.862	42283.62
666.212	42346.44
666.562	42258.54
666.912	42048.6
667.262	42067.35
667.612	42150.06
667.962	42235.71
668.312	42090.4
668.662	42251.76
669.011	42188.93
669.361	42060.8
669.711	42178.31
670.06	42047.47
670.41	42060.35
670.76	41985.77
671.109	42068.26
671.459	42029.84
671.808	41874.14
672.157	42050.18
672.507	41689.06
672.856	41736.52
673.205	42105.55
673.554	42043.4
673.904	41833.01
674.253	41983.06
674.602	41916.4
674.951	41326.36
675.3	41067.15
675.649	41746.91
675.998	41656.07
676.346	41694.48
676.695	41826.68
677.044	41486.8
677.393	41802.28
677.741	41883.86
678.09	41615.84
678.438	41487.93
678.787	41765.89
679.135	41484.09
679.484	41374.49
679.832	41479.8
680.181	41314.83
680.529	41368.84
680.877	41313.25
681.225	41280.48
681.573	41497.2
681.922	41045.01
682.27	40968.63
682.618	40978.12
682.966	40943.09
683.314	41136.76
683.661	40939.02
684.009	40750.33
684.357	40713.49
684.705	40700.38
685.053	40747.39
685.4	40606.83
685.748	40330.22
686.095	40446.83
686.443	40425.36
686.79	40252.49
687.138	40431.69
687.485	40346.27
687.832	40129.1
688.18	40187.86
688.527	39768.88
688.874	40065.6
689.221	39901.08
689.568	39899.05
689.915	39741.09
690.262	39715.1
690.609	39566.4
690.956	39517.36
691.303	39367.99
691.65	39286.64
691.997	39198.05
692.344	38922.58
692.69	39039.41
693.037	39005.29
693.383	38659.08
693.73	38850.72
694.077	38536.37
694.423	38616.6
694.769	38488.92
695.116	38469.26
695.462	38499.99
695.808	38160.34
696.155	38295.48
696.501	38057.29
696.847	37919.44
697.193	37698.66
697.539	38027.69
697.885	37620.24
698.231	37563.97
698.577	37630.86
698.923	37518.32
699.269	37319.91
699.614	37173.7
699.96	37191.78
700.306	37093.93
700.651	36866.81
700.997	36867.04
701.342	36807.15
701.688	36594.28
702.033	36690.77
702.379	36517.44
702.724	36555.86
703.069	36609.42
703.415	36056.66
703.76	36107.06
704.105	36127.4
704.45	36007.85
704.795	35792.94
705.14	35796.11
705.485	35798.14
705.83	35597.47
706.175	35651.25
706.52	35454.42
706.865	35432.05
707.209	35506.4
707.554	35196.35
707.899	35285.61
708.243	35114.32
708.588	35081.1
708.932	34905.73
709.277	34923.14
709.621	34822.8
709.966	34581
710.31	34776.7
710.654	34325.19
710.998	34470.94
711.342	34585.52
711.687	34388.69
712.031	34205.41
712.375	34151.18
712.719	34234.79
713.063	34169.71
713.407	34183.04
713.75	33906.89
714.094	33882.03
714.438	34023.27
714.782	33702.6
715.125	33710.06
715.469	33762.49
715.812	33536.28
716.156	33424.42
716.499	33376.74
716.843	33409.05
717.186	33373.12
717.53	33384.42
717.873	33405.89
718.216	33279.34
718.559	33049.96
718.902	33014.03
719.246	33044.99
719.589	32925.67
719.932	32816.52
720.275	32862.4
720.617	32804.77
720.96	32797.32
721.303	32825.79
721.646	32694.72
721.989	32500.37
722.331	32472.13
722.674	32526.59
723.016	32438.68
723.359	32295.86
723.701	32400.72
724.044	32217.9
724.386	31933.16
724.729	32153.26
725.071	31936.55
725.413	32024.68
725.755	32017.22
726.097	31841.63
726.439	31817.68
726.782	31758.7
727.124	31879.6
727.465	31727.29
727.807	31710.11
728.149	31574.75
728.491	31538.59
728.833	31606.61
729.175	31321.65
729.516	31501.76
729.858	31399.39
730.199	31292.5
730.541	31391.25
730.882	31311.48
731.224	31240.29
731.565	31010.7
731.906	31135.89
732.248	31140.41
732.589	30909.46
732.93	30865.61
733.271	30828.33
733.612	30981.09
733.953	30853.19
734.294	30807.09
734.635	30693.19
734.976	30839.17
735.317	30641.44
735.658	30594.89
735.999	30637.37
736.339	30533.19
736.68	30589.69
737.021	30516.25
737.361	30389.24
737.702	30371.62
738.042	30406.87
738.383	30335.46
738.723	30490.94
739.063	30333.43
739.404	30301.11
739.744	30282.81
740.084	30064.96
740.424	30197.84
740.764	30155.13
741.104	30216.59
741.444	30047.56
741.784	29876.49
742.124	29984.06
742.464	29868.35
742.804	29862.25
743.143	29740.67
743.483	29836.49
743.823	29629.94
744.162	29607.34
744.502	29683.05
744.841	29618.19
745.181	29595.59
745.52	29330.97
745.86	29645.08
746.199	29495.48
746.538	29490.74
746.877	29464.75
747.216	29526.89
747.556	29288.03
747.895	29219.1
748.234	29171.65
748.573	29232.66
748.911	29099.79
749.25	29165.77
749.589	29017.53
749.928	29082.61
750.267	29143.63
750.605	28859.79
750.944	28801.04
751.283	28735.73
751.621	28804.88
751.96	28519.91
752.298	28697.76
752.636	28585.22
752.975	28459.12
753.313	28379.8
753.651	28553.81
753.989	28360.37
754.327	28472.23
754.666	28239.7
755.004	28233.82
755.342	28292.12
755.679	28074.95
756.017	28006.03
756.355	28043.32
756.693	28022.53
757.031	27947.95
757.368	27905.47
