Data from hue_22_FLMS001491_00090.txt Node
Date: Tue Feb 07 17:10:47 GMT 2017
User: dcchb
Spectrometer: FLMS00149
Trigger mode: 0
Integration Time (sec): 2.000000E-2
Scans to average: 10
Electric dark correction enabled: true
Nonlinearity correction enabled: false
Boxcar width: 0
XAxis mode: Wavelengths
Number of Pixels in Spectrum: 2048
>>>>>Begin Spectral Data<<<<<
341.393	-5.11
341.776	-5.11
342.16	-5.11
342.543	-51.89
342.927	-63.87
343.31	-66.81
343.693	-79.24
344.077	-74.94
344.46	-64.55
344.843	-61.83
345.226	-40.14
345.61	-15.06
345.993	-19.12
346.376	-7.15
346.759	20.2
347.142	11.84
347.525	54.55
347.908	69.91
348.291	74.21
348.674	85.51
349.057	112.62
349.44	123.92
349.823	159.85
350.206	171.15
350.588	198.5
350.971	225.16
351.354	226.97
351.737	227.88
352.119	254.54
352.502	256.8
352.884	294.09
353.267	280.76
353.65	312.17
354.032	318.72
354.414	304.71
354.797	313.07
355.179	307.2
355.562	338.15
355.944	344.93
356.326	332.51
356.709	329.79
357.091	334.99
357.473	344.03
357.855	336.12
358.238	346.74
358.62	350.81
359.002	363.69
359.384	340.41
359.766	354.43
360.148	345.61
360.53	321.66
360.912	347.87
361.294	355.78
361.676	341.09
362.057	327.31
362.439	333.64
362.821	332.96
363.203	321.66
363.584	339.51
363.966	342
364.348	307.87
364.729	333.86
365.111	330.47
365.493	339.74
365.874	301.55
366.256	304.94
366.637	315.78
367.019	332.96
367.4	344.71
367.781	332.96
368.163	318.49
368.544	323.47
368.925	318.27
369.306	338.15
369.688	340.87
370.069	329.79
370.45	328.66
370.831	331.15
371.212	313.97
371.593	329.12
371.974	332.51
372.355	313.52
372.736	334.09
373.117	318.27
373.498	327.31
373.879	310.13
374.26	313.3
374.641	321.88
375.021	332.96
375.402	322.79
375.783	347.42
376.163	345.16
376.544	340.64
376.925	346.97
377.305	323.69
377.686	339.06
378.066	345.39
378.447	343.58
378.827	341.54
379.208	349.91
379.588	337.03
379.968	337.48
380.349	330.25
380.729	328.89
381.109	339.28
381.489	353.52
381.87	327.31
382.25	331.6
382.63	351.04
383.01	345.16
383.39	348.1
383.77	343.35
384.15	374.31
384.53	342.45
384.91	363.92
385.29	350.58
385.67	379.28
386.049	372.05
386.429	360.75
386.809	348.32
387.189	366.63
387.568	352.39
387.948	358.95
388.328	380.41
388.707	371.6
389.087	388.1
389.466	381.32
389.846	369.34
390.225	382.9
390.605	405.27
390.984	380.19
391.363	390.13
391.743	375.22
392.122	399.4
392.501	364.82
392.881	389.23
393.26	383.35
393.639	377.93
394.018	403.24
394.397	393.07
394.776	407.31
395.155	396.91
395.534	394.88
395.913	392.84
396.292	387.42
396.671	393.75
397.05	426.74
397.429	399.62
397.808	417.02
398.186	393.52
398.565	407.31
398.944	379.51
399.323	428.32
399.701	394.42
400.08	415.89
400.458	400.98
400.837	432.39
401.215	408.89
401.594	414.99
401.972	431.94
402.351	435.55
402.729	434.88
403.107	416.12
403.486	458.15
403.864	437.81
404.242	440.07
404.62	439.62
404.999	410.47
405.377	438.27
405.755	449.56
406.133	449.34
406.511	433.07
406.889	454.99
407.267	478.49
407.645	459.06
408.023	450.69
408.401	458.83
408.779	462.45
409.156	470.81
409.534	456.57
409.912	487.98
410.29	488.43
410.667	469.45
411.045	460.41
411.422	493.41
411.8	480.3
412.178	483.24
412.555	502.9
412.933	499.28
413.31	494.99
413.687	504.7
414.065	508.32
414.442	533.63
414.819	499.05
415.197	506.51
415.574	524.82
415.951	516.68
416.328	514.87
416.705	548.77
417.082	522.56
417.46	519.39
417.837	523.69
418.214	539.28
418.591	536.34
418.967	554.65
419.344	565.72
419.721	546.74
420.098	564.36
420.475	526.62
420.852	563.46
421.228	555.78
421.605	575.21
421.982	583.8
422.358	599.62
422.735	575.89
423.111	557.36
423.488	590.13
423.864	592.61
424.241	601.42
424.617	595.32
424.994	615.89
425.37	629.45
425.746	613.18
426.123	600.29
426.499	636.23
426.875	643.23
427.251	635.1
427.627	638.26
428.003	643.46
428.379	638.26
428.756	652.72
429.132	658.82
429.507	655.66
429.883	692.04
430.259	677.81
430.635	689.11
431.011	683.91
431.387	671.25
431.763	703.57
432.138	678.71
432.514	703.8
432.89	702.44
433.265	707.41
433.641	719.39
434.016	708.77
434.392	714.19
434.767	731.59
435.143	736.79
435.518	749.67
435.894	740.86
436.269	784.24
436.644	780.86
437.02	787.18
437.395	784.02
437.77	785.15
438.145	793.06
438.52	805.26
438.895	816.56
439.271	810.23
439.646	829.44
440.021	849.1
440.395	843
440.77	823.34
441.145	831.7
441.52	844.81
441.895	850.68
442.27	883
442.645	841.87
443.019	881.19
443.394	874.86
443.769	871.47
444.143	875.09
444.518	897.91
444.892	892.94
445.267	875.09
445.641	885.03
446.016	898.59
446.39	904.69
446.764	889.33
447.139	925.26
447.513	915.54
447.887	927.07
448.262	924.58
448.636	928.87
449.01	940.62
449.384	940.17
449.758	963.45
450.132	961.87
450.506	976.33
450.88	977.69
451.254	973.17
451.628	980.62
452.002	996.67
452.376	978.14
452.75	996.89
453.123	1013.39
453.497	1022.66
453.871	1045.03
454.244	1047.29
454.618	1059.94
454.992	1107.4
455.365	1068.76
455.739	1100.85
456.112	1101.07
456.486	1092.49
456.859	1126.38
457.232	1138.36
457.606	1133.16
457.979	1152.6
458.352	1145.14
458.725	1178.58
459.099	1202.76
459.472	1200.73
459.845	1204.57
460.218	1232.82
460.591	1218.36
460.964	1249.54
461.337	1273.05
461.71	1285.02
462.083	1304.01
462.456	1320.05
462.829	1317.11
463.201	1306.04
463.574	1341.52
463.947	1341.52
464.32	1361.18
464.692	1368.64
465.065	1428.3
465.438	1420.16
465.81	1442.08
466.183	1441.63
466.555	1476.88
466.928	1469.42
467.3	1493.6
467.672	1511.23
468.045	1532.25
468.417	1551.68
468.789	1558.69
469.161	1604.56
469.534	1609.31
469.906	1640.72
470.278	1637.56
470.65	1671.23
471.022	1704.22
471.394	1740.15
471.766	1731.56
472.138	1759.36
472.51	1819.47
472.882	1841.62
473.253	1820.83
473.625	1868.96
473.997	1920.03
474.369	1954.84
474.74	1973.82
475.112	1997.77
475.484	2032.8
475.855	2078
476.227	2098.79
476.598	2144.21
476.97	2173.36
477.341	2202.74
477.713	2239.12
478.084	2279.8
478.455	2332.9
478.827	2335.16
479.198	2419
479.569	2435.5
479.94	2500.36
480.311	2548.94
480.682	2600.69
481.053	2632.78
481.424	2713.91
481.795	2666.68
482.166	2756.17
482.537	2788.26
482.908	2868.94
483.279	2887.01
483.65	2986.22
484.021	3038.2
484.391	3075.26
484.762	3113.68
485.133	3149.61
485.503	3159.55
485.874	3265.76
486.244	3319.77
486.615	3362.93
486.985	3422.37
487.356	3501.24
487.726	3509.82
488.097	3599.54
488.467	3638.41
488.837	3692.64
489.207	3770.16
489.578	3860.55
489.948	3889.47
490.318	3899.42
490.688	3980.55
491.058	4007.66
491.428	4074.1
491.798	4085.63
492.168	4198.39
492.538	4232.74
492.908	4248.33
493.278	4336.69
493.648	4388.22
494.017	4413.53
494.387	4446.97
494.757	4504.15
495.126	4550.93
495.496	4587.08
495.866	4665.5
496.235	4681.32
496.605	4715.89
496.974	4800.41
497.344	4837.92
497.713	4804.03
498.082	4873.18
498.452	4946.62
498.821	4974.42
499.19	4994.76
499.559	5054.87
499.928	5086.96
500.298	5136.9
500.667	5145.03
501.036	5159.05
501.405	5210.12
501.774	5229.55
502.143	5324.24
502.512	5291.47
502.88	5329.66
503.249	5352.94
503.618	5372.37
503.987	5467.74
504.356	5495.53
504.724	5525.59
505.093	5454.4
505.462	5524.46
505.83	5569.88
506.199	5662.53
506.567	5681.29
506.936	5640.39
507.304	5732.14
507.672	5761.29
508.041	5785.92
508.409	5812.81
508.777	5906.82
509.145	5949.76
509.514	5942.75
509.882	5929.19
510.25	6004.9
510.618	5986.14
510.986	5994.5
511.354	6082.64
511.722	6121.73
512.09	6192.92
512.458	6107.04
512.826	6211.67
513.193	6188.4
513.561	6227.49
513.929	6253.71
514.297	6354.72
514.664	6334.16
515.032	6360.37
515.4	6438.11
515.767	6467.94
516.135	6469.29
516.502	6433.36
516.869	6498.67
517.237	6552.68
517.604	6527.37
517.972	6586.13
518.339	6666.35
518.706	6648.72
519.073	6663.41
519.44	6732.34
519.808	6726.91
520.175	6792
520.542	6871.09
520.909	6903.63
521.276	6866.12
521.643	6942.73
522.009	6961.48
522.376	6991.77
522.743	6971.88
523.11	7102.5
523.477	7169.16
523.843	7141.82
524.21	7232.21
524.577	7305.2
524.943	7331.19
525.31	7291.64
525.676	7347.46
526.043	7406.9
526.409	7475.59
526.776	7534.35
527.142	7551.3
527.508	7623.61
527.874	7637.17
528.241	7655.02
528.607	7722.14
528.973	7792.2
529.339	7773.21
529.705	7821.35
530.071	7933.21
530.437	7927.33
530.803	7989.03
531.169	8045.3
531.535	8034.22
531.901	8063.38
532.267	8095.92
532.632	8154.22
532.998	8185.86
533.364	8271.51
533.73	8288.68
534.095	8276.93
534.461	8377.49
534.826	8461.78
535.192	8457.72
535.557	8514.66
535.923	8457.72
536.288	8495.23
536.653	8569.12
537.019	8543.36
537.384	8633.98
537.749	8707.65
538.114	8687.99
538.479	8684.83
538.845	8711.49
539.21	8747.2
539.575	8782.23
539.94	8809.8
540.305	8868.78
540.67	8836.91
541.034	8975.89
541.399	8973.86
541.764	8988.77
542.129	9034.88
542.494	8979.28
542.858	9144.03
543.223	9142.67
543.587	9256.34
543.952	9172.05
544.316	9238.49
544.681	9305.6
545.045	9358.93
545.41	9379.05
545.774	9379.27
546.138	9431.02
546.503	9449.33
546.867	9456.11
547.231	9571.13
547.595	9585.82
547.959	9587.63
548.324	9655.2
548.688	9583.79
549.052	9664.46
549.416	9709.21
549.779	9817.91
550.143	9743.56
550.507	9731.13
550.871	9833.95
551.235	9855.19
551.599	9958.92
551.962	9920.05
552.326	9981.97
552.689	10056.54
553.053	9981.74
553.417	9957.11
553.78	10177.67
554.143	10148.07
554.507	10148.97
554.87	10175.86
555.234	10335.86
555.597	10312.36
555.96	10276.2
556.323	10273.49
556.686	10388.06
557.05	10416.76
557.413	10431
557.776	10452.47
558.139	10576.3
558.502	10585.57
558.865	10579.69
559.228	10648.62
559.59	10679.35
559.953	10717.54
560.316	10761.38
560.679	10823.98
561.041	10883.87
561.404	10861.04
561.767	10937.42
562.129	10982.62
562.492	11052
562.854	10996.18
563.217	11056.97
563.579	11046.12
563.941	11132.67
564.304	11147.14
564.666	11273.46
565.028	11249.28
565.39	11299.67
565.753	11400.91
566.115	11350.07
566.477	11426.45
566.839	11470.07
567.201	11617.18
567.563	11592.55
567.925	11581.48
568.287	11672.09
568.648	11670.96
569.01	11746.44
569.372	11802.26
569.734	11785.31
570.095	11890.39
570.457	11983.5
570.819	11989.6
571.18	11927.45
571.542	12058.75
571.903	12146.43
572.265	12174.23
572.626	12251.29
572.987	12243.6
573.349	12313.89
573.71	12352.53
574.071	12458.74
574.432	12490.6
574.794	12581.67
575.155	12583.48
575.516	12685.85
575.877	12763.59
576.238	12872.51
576.599	12898.73
576.96	12976.69
577.32	13018.73
577.681	13175.56
578.042	13176.24
578.403	13325.16
578.763	13373.52
579.124	13486.06
579.485	13678.82
579.845	13816.44
580.206	13821.42
580.566	13877.46
580.927	14079.04
581.287	14308.18
581.648	14272.93
582.008	14521.06
582.368	14582.98
582.728	14711.34
583.089	14839.24
583.449	15024.55
583.809	15189.29
584.169	15419.79
584.529	15537.08
584.889	15944.52
585.249	15898.42
585.609	16006.9
585.969	16368.02
586.329	16499.31
586.688	16723.03
587.048	16941.56
587.408	17193.3
587.768	17401.44
588.127	17574.99
588.487	17796.68
588.846	18196.44
589.206	18308.98
589.565	18469.43
589.925	18873.03
590.284	19205.68
590.643	19395.96
591.003	19783.75
591.362	20115.04
591.721	20265.77
592.08	20540.11
592.44	20968.35
592.799	21196.59
593.158	21475
593.517	21704.82
593.876	22084.7
594.235	22310.46
594.593	22743.44
594.952	23046.94
595.311	23279.02
595.67	23731.66
596.029	24040.58
596.387	24364.42
596.746	24784.29
597.104	24954.23
597.463	25172.76
597.822	25664.27
598.18	25763.25
598.538	26292.5
598.897	26634.19
599.255	26691.59
599.613	27396.43
599.972	27530.21
600.33	27820.14
600.688	28072.11
601.046	28473.46
601.404	28916.84
601.762	28979.44
602.12	29569.02
602.478	29819.19
602.836	30226.41
603.194	30189.35
603.552	30577.36
603.91	30838.6
604.268	31150.9
604.625	31401.52
604.983	31881.28
605.341	31978
605.698	32406.69
606.056	32786.79
606.413	32994.47
606.771	33191.75
607.128	33552.87
607.485	33555.36
607.843	33905.63
608.2	34336.58
608.557	34795.78
608.914	34768.66
609.272	35216.33
609.629	35521.86
609.986	35648.64
610.343	35964.79
610.7	36228.96
611.057	36412.23
611.414	36531.1
611.771	36828.04
612.127	37148.49
612.484	37250.63
612.841	37589.83
613.198	37658.98
613.554	37931.52
613.911	38236.37
614.267	38403.82
614.624	38505.96
614.98	38727.43
615.337	39108.89
615.693	39130.81
616.05	39350.24
616.406	39682.66
616.762	39710.23
617.118	39863.9
617.475	39951.12
617.831	40258.24
618.187	40435.86
618.543	40627.27
618.899	40878.56
619.255	41040.59
619.611	41000.59
619.967	41241.71
620.323	41450.52
620.678	41507.24
621.034	41602.15
621.39	41541.59
621.746	41716.95
622.101	42325.07
622.457	41985.65
622.812	42303.61
623.168	42368.91
623.523	42588.8
623.879	42629.25
624.234	42479.42
624.589	42847.55
624.945	42902.46
625.3	42923.02
625.655	42982.01
626.01	43022.23
626.365	43262.45
626.72	43316.91
627.075	43206.86
627.43	43360.53
627.785	43259.06
628.14	43471.26
628.495	43493.86
628.85	43734.53
629.205	43542.89
629.559	43822.44
629.914	43689.78
630.269	43693.85
630.623	43798.93
630.978	43785.83
631.332	43976.78
631.687	44003.45
632.041	43853.85
632.396	44059.49
632.75	43839.38
633.104	44147.17
633.459	43795.54
633.813	43951.7
634.167	43911.47
634.521	44068.3
634.875	44079.83
635.229	44141.97
635.583	43881.19
635.937	44073.28
636.291	44015.88
636.645	44057.91
636.999	44080.73
637.352	44016.78
637.706	43866.28
638.06	44093.16
638.413	44099.04
638.767	44004.8
639.121	43995.09
639.474	43694.76
639.828	43766.62
640.181	44062.88
640.534	44061.07
640.888	43898.37
641.241	43808.88
641.594	43863.34
641.947	43928.87
642.301	43855.2
642.654	43860.63
643.007	43991.92
643.36	43927.29
643.713	43847.97
644.066	44081.41
644.419	43863.56
644.771	43549.67
645.124	43228.55
645.477	43214.09
645.83	42963.47
646.182	42733.65
646.535	42631.28
646.888	42861.1
647.24	42622.24
647.593	42867.88
647.945	42744.95
648.298	42629.02
648.65	42553.09
649.002	42446.2
649.355	42629.02
649.707	42533.66
650.059	42809.81
650.411	43212.28
650.763	43406.4
651.115	43624.25
651.467	43406.18
651.819	43424.71
652.171	43384.93
652.523	43456.34
652.875	43314.43
653.227	43120.98
653.578	43398.94
653.93	43435.55
654.282	43171.38
654.633	43161.89
654.985	43229.23
655.337	43406.4
655.688	43276.46
656.039	43473.52
656.391	43123.02
656.742	43209.12
657.094	43238.95
657.445	43415.67
657.796	43215.67
658.147	43209.34
658.498	43126.86
658.849	43150.36
659.2	43163.92
659.551	42981.55
659.902	43122.11
660.253	42850.26
660.604	43220.42
660.955	42919.86
661.306	43083.47
661.656	43029.24
662.007	43058.39
662.358	43122.11
662.708	43057.94
663.059	43170.25
663.409	42854.1
663.76	43109.91
664.11	43172.06
664.461	43159.85
664.811	43034.66
665.161	43092.74
665.511	42957.15
665.862	43060.2
666.212	42989.01
666.562	43108.1
666.912	42983.81
667.262	42914.21
667.612	42876.25
667.962	43043.7
668.312	43131.15
668.662	43160.53
669.011	43063.13
669.361	42963.25
669.711	42877.15
670.06	42940.88
670.41	42765.51
670.76	42750.15
671.109	42935.68
671.459	42843.93
671.808	42719.19
672.157	42898.84
672.507	42628.12
672.856	42652.97
673.205	42779.98
673.554	42843.7
673.904	42593.77
674.253	42802.35
674.602	42714.22
674.951	42221.8
675.3	41996.49
675.649	42610.49
675.998	42549.7
676.346	42510.83
676.695	42642.35
677.044	42359.2
677.393	42476.03
677.741	42631.28
678.09	42542.24
678.438	42400.1
678.787	42413.88
679.135	42447.33
679.484	42219.99
679.832	42389.93
680.181	42172.54
680.529	42206.43
680.877	42077.4
681.225	42095.93
681.573	42213.44
681.922	41935.25
682.27	41811.87
682.618	41867.68
682.966	41679.21
683.314	41946.1
683.661	41755.37
684.009	41512.44
684.357	41363.06
684.705	41522.61
685.053	41466.34
685.4	41518.09
685.748	41204.65
686.095	41326.68
686.443	41232.22
686.79	41112.9
687.138	41169.17
687.485	41139.57
687.832	40992.23
688.18	41192.9
688.527	40869.97
688.874	40810.31
689.221	40817.54
689.568	40672.46
689.915	40577.55
690.262	40508.62
690.609	40390.89
690.956	40258.24
691.303	40226.82
691.65	40080.61
691.997	40036.77
692.344	39849.66
692.69	39738.93
693.037	39910.67
693.383	39504.58
693.73	39515.2
694.077	39493.28
694.423	39525.6
694.769	39336
695.116	39247.19
695.462	39250.8
695.808	39061.66
696.155	39178.72
696.501	38854.66
696.847	38850.14
697.193	38585.51
697.539	38712.97
697.885	38413.54
698.231	38437.27
698.577	38413.54
698.923	38380.54
699.269	38087.22
699.614	37872.76
699.96	38012.19
700.306	37939.65
700.651	37748.47
700.997	37713.9
701.342	37707.34
701.688	37600.9
702.033	37452.21
702.379	37486.56
702.724	37225.77
703.069	37466.44
703.415	36931.32
703.76	37010.64
704.105	37159.79
704.45	36850.42
704.795	36762.96
705.14	36640.48
705.485	36688.61
705.83	36393.48
706.175	36556.41
706.52	36347.38
706.865	36267.61
707.209	36329.07
707.554	36073.03
707.899	36185.8
708.243	35813.61
708.588	35883.66
708.932	35663.1
709.277	35606.38
709.621	35720.05
709.966	35454.07
710.31	35505.82
710.654	35267.86
710.998	35232.6
711.342	35268.08
711.687	35136.79
712.031	35019.05
712.375	34918.26
712.719	34968.88
713.063	34907.42
713.407	35046.39
713.75	34806.18
714.094	34782.67
714.438	34643.24
714.782	34746.97
715.125	34617.71
715.469	34503.81
715.812	34331.39
716.156	34271.5
716.499	34344.04
716.843	34323.25
717.186	34077.61
717.53	34177.27
717.873	34144.72
718.216	34090.94
718.559	33909.48
718.902	33732.31
719.246	33804.17
719.589	33684.17
719.932	33617.51
720.275	33620.44
720.617	33580.44
720.96	33489.83
721.303	33588.13
721.646	33396.49
721.989	33257.74
722.331	33349.04
722.674	33216.61
723.016	33268.81
723.359	33154.92
723.701	33301.58
724.044	32966.9
724.386	32797.64
724.729	33152.43
725.071	32958.99
725.413	32894.81
725.755	32896.85
726.097	32688.04
726.439	32580.92
726.782	32634.25
727.124	32644.65
727.465	32606.91
727.807	32448.05
728.149	32381.15
728.491	32231.55
728.833	32497.31
729.175	32287.37
729.516	32257.32
729.858	32177.54
730.199	32097.09
730.541	32041.73
730.882	32076.98
731.224	32160.82
731.565	31928.06
731.906	31967.61
732.248	31961.05
732.589	31832.92
732.93	31616.65
733.271	31602.42
733.612	31642.64
733.953	31602.87
734.294	31546.6
734.635	31416.89
734.976	31585.69
735.317	31300.28
735.658	31425.93
735.999	31441.52
736.339	31238.81
736.68	31413.95
737.021	31330.11
737.361	31184.35
737.702	31430.9
738.042	31203.56
738.383	31139.6
738.723	31280.39
739.063	30971.93
739.404	31032.72
739.744	31161.53
740.084	30880.63
740.424	30870.69
740.764	30719.73
741.104	30992.94
741.444	30697.58
741.784	30617.13
742.124	30735.1
742.464	30656.23
742.804	30544.14
743.143	30535.55
743.483	30545.95
743.823	30456.46
744.162	30421.43
744.502	30395.22
744.841	30208.1
745.181	30431.83
745.52	30183.02
745.86	30387.76
746.199	30167.2
746.538	30108.67
746.877	30168.78
747.216	30131.95
747.556	30176.69
747.895	30156.13
748.234	29794.56
748.573	29879.98
748.911	29788.91
749.25	29889.69
749.589	29667.1
749.928	29831.16
750.267	29747.1
750.605	29675.24
750.944	29673.2
751.283	29377.62
751.621	29658.51
751.96	29452.87
752.298	29334
752.636	29385.75
752.975	29123.84
753.313	29182.59
753.651	29202.93
753.989	29142.37
754.327	29082.71
754.666	28925.65
755.004	28965.2
755.342	28955.03
755.679	28792.1
756.017	28650.63
756.355	28771.76
756.693	28503.74
757.031	28731.31
757.368	28479.79
757.706	28569.73
758.044	28411.77
758.381	28373.58
758.719	28175.62
759.056	28292.9
