Data from hue_170_FLMS001491_00008.txt Node
Date: Tue Feb 07 16:48:10 GMT 2017
User: dcchb
Spectrometer: FLMS00149
Trigger mode: 0
Integration Time (sec): 2.000000E-2
Scans to average: 10
Electric dark correction enabled: true
Nonlinearity correction enabled: false
Boxcar width: 0
XAxis mode: Wavelengths
Number of Pixels in Spectrum: 2048
>>>>>Begin Spectral Data<<<<<
341.393	-16.04
341.776	-16.04
342.16	-16.04
342.543	-74.8
342.927	-89.49
343.31	-61.47
343.693	-68.02
344.077	-73.67
344.46	-49.49
344.843	-43.16
345.226	-42.94
345.61	-60.11
345.993	-15.59
346.376	-6.1
346.759	20.56
347.142	8.14
347.525	50.17
347.908	65.76
348.291	81.58
348.674	96.49
349.057	97.85
349.44	110.96
349.823	149.15
350.206	166.55
350.588	194.57
350.971	196.38
351.354	215.36
351.737	239.32
352.119	247
352.502	257.39
352.884	280.22
353.267	283.16
353.65	277.73
354.032	295.59
354.414	318.41
354.797	321.8
355.179	326.77
355.562	303.72
355.944	331.29
356.326	341.01
356.709	346.66
357.091	335.81
357.473	358.63
357.855	327
358.238	352.99
358.62	349.14
359.002	338.75
359.384	344.4
359.766	334.23
360.148	336.94
360.53	328.8
360.912	332.42
361.294	325.87
361.676	352.31
362.057	311.18
362.439	349.14
362.821	324.74
363.203	308.24
363.584	328.35
363.966	316.83
364.348	339.2
364.729	324.96
365.111	324.74
365.493	318.86
365.874	305.75
366.256	324.06
366.637	311.18
367.019	317.05
367.4	317.96
367.781	319.77
368.163	337.84
368.544	306.21
368.925	286.09
369.306	328.35
369.688	308.69
370.069	325.19
370.45	305.3
370.831	329.48
371.212	301.24
371.593	308.69
371.974	309.37
372.355	330.39
372.736	298.3
373.117	305.08
373.498	304.17
373.879	324.29
374.26	312.76
374.641	302.82
375.021	328.8
375.402	296.26
375.783	313.21
376.163	324.74
376.544	319.77
376.925	324.74
377.305	344.4
377.686	314.34
378.066	326.77
378.447	317.73
378.827	334.23
379.208	320.22
379.588	336.04
379.968	339.43
380.349	320.44
380.729	332.19
381.109	342.82
381.489	336.71
381.87	325.64
382.25	324.06
382.63	338.75
383.01	359.09
383.39	341.01
383.77	343.04
384.15	342.82
384.53	338.3
384.91	355.92
385.29	347.56
385.67	356.15
386.049	349.6
386.429	340.33
386.809	344.62
387.189	368.13
387.568	341.23
387.948	355.7
388.328	367.45
388.707	340.33
389.087	361.12
389.466	351.63
389.846	349.14
390.225	352.99
390.605	349.37
390.984	343.95
391.363	345.53
391.743	368.8
392.122	390.05
392.501	379.43
392.881	370.84
393.26	369.26
393.639	385.98
394.018	375.13
394.397	375.36
394.776	375.81
395.155	370.16
395.534	376.26
395.913	395.24
396.292	376.94
396.671	397.28
397.05	385.75
397.429	374.91
397.808	393.89
398.186	413.55
398.565	407.9
398.944	407.9
399.323	390.5
399.701	394.11
400.08	397.5
400.458	388.92
400.837	427.33
401.215	410.84
401.594	398.86
401.972	398.63
402.351	408.12
402.729	419.88
403.107	418.07
403.486	417.84
403.864	416.03
404.242	430.95
404.62	412.42
404.999	426.66
405.377	436.37
405.755	452.87
406.133	437.5
406.511	433.43
406.889	451.74
407.267	452.64
407.645	437.73
408.023	467.78
408.401	460.78
408.779	472.76
409.156	469.59
409.534	484.51
409.912	477.95
410.29	474.11
410.667	495.58
411.045	499.87
411.422	505.98
411.8	517.05
412.178	503.49
412.555	506.65
412.933	514.11
413.31	520.66
413.687	516.37
414.065	522.47
414.442	544.84
414.819	547.78
415.197	545.52
415.574	551.85
415.951	552.3
416.328	561.79
416.705	559.76
417.082	569.48
417.46	594.11
417.837	569.02
418.214	584.39
418.591	586.88
418.967	603.37
419.344	615.13
419.721	595.69
420.098	601.57
420.475	601.34
420.852	623.71
421.228	641.34
421.605	613.09
421.982	649.02
422.358	649.93
422.735	640.89
423.111	655.8
423.488	662.81
423.864	667.55
424.241	682.69
424.617	679.08
424.994	699.19
425.37	689.02
425.746	709.13
426.123	723.6
426.499	719.3
426.875	722.92
427.251	737.38
427.627	754.1
428.003	760.21
428.379	769.02
428.756	759.3
429.132	777.61
429.507	788.91
429.883	794.78
430.259	811.05
430.635	795.69
431.011	794.56
431.387	854.44
431.763	835.23
432.138	818.28
432.514	869.13
432.89	868.45
433.265	882.01
433.641	891.5
434.016	910.26
434.392	901.9
434.767	928.11
435.143	932.4
435.518	940.99
435.894	973.31
436.269	958.17
436.644	972.86
437.02	967.66
437.395	1003.82
437.77	997.26
438.145	1028.67
438.52	1031.16
438.895	1064.6
439.271	1058.96
439.646	1074.1
440.021	1072.51
440.395	1087.88
440.77	1093.76
441.145	1088.33
441.52	1130.59
441.895	1126.75
442.27	1141.66
442.645	1112.51
443.019	1161.78
443.394	1146.86
443.769	1182.79
444.143	1187.54
444.518	1187.99
444.892	1181.44
445.267	1197.26
445.641	1223.24
446.016	1225.96
446.39	1218.27
446.764	1231.61
447.139	1235
447.513	1249.46
447.887	1257.14
448.262	1273.64
448.636	1294.2
449.01	1264.6
449.384	1315.45
449.758	1295.33
450.132	1333.07
450.506	1342.56
450.88	1349.34
451.254	1341.43
451.628	1361.77
452.002	1394.77
452.376	1380.53
452.75	1418.04
453.123	1411.26
453.497	1431.83
453.871	1464.59
454.244	1486.51
454.618	1495.55
454.992	1525.84
455.365	1524.25
455.739	1562.22
456.112	1553.41
456.486	1613.52
456.859	1616
457.232	1636.12
457.606	1649.67
457.979	1646.51
458.352	1666.85
458.725	1708.66
459.099	1694.87
459.472	1738.26
459.845	1755.43
460.218	1761.31
460.591	1802.44
460.964	1817.35
461.337	1874.3
461.71	1882.44
462.083	1947.29
462.456	1931.7
462.829	1951.36
463.201	1980.06
463.574	1986.39
463.947	2029.33
464.32	2061.19
464.692	2071.81
465.065	2126.72
465.438	2160.17
465.81	2170.56
466.183	2223.22
466.555	2251.01
466.928	2268.87
467.3	2282.65
467.672	2326.94
468.045	2374.17
468.417	2437.68
468.789	2388.86
469.161	2493.27
469.534	2530.33
469.906	2582.3
470.278	2615.07
470.65	2619.82
471.022	2694.17
471.394	2783.66
471.766	2798.34
472.138	2816.65
472.51	2922.86
472.882	2967.83
473.253	3000.6
473.625	3076.76
473.997	3162.4
474.369	3202.63
474.74	3229.52
475.112	3283.53
475.484	3373.92
475.855	3450.53
476.227	3489.4
476.598	3631.77
476.97	3683.74
477.341	3760.81
477.713	3880.8
478.084	3873.12
478.455	4046.45
478.827	4104.98
479.198	4250.74
479.569	4239.66
479.94	4403.27
480.311	4454.8
480.682	4631.97
481.053	4756.26
481.424	4848.91
481.795	4913.77
482.166	5005.07
482.537	5110.6
482.908	5284.61
483.279	5344.27
483.65	5492.96
484.021	5622.23
484.391	5743.13
484.762	5870.13
485.133	5916
485.503	6011.59
485.874	6250.01
486.244	6338.59
486.615	6487.74
486.985	6596.21
487.356	6696.32
487.726	6868.52
488.097	7044.56
488.467	7154.61
488.837	7243.43
489.207	7398.45
489.578	7538.56
489.948	7671.21
490.318	7823.07
490.688	7884.31
491.058	8000.24
491.428	8237.07
491.798	8357.07
492.168	8502.6
492.538	8620.34
492.908	8741.47
493.278	8899.43
493.648	8945.98
494.017	9164.5
494.387	9230.72
494.757	9404.05
495.126	9521.33
495.496	9578.05
495.866	9646.75
496.235	9803.36
496.605	9924.48
496.974	10017.82
497.344	10084.48
497.713	10209
498.082	10230.24
498.452	10407.41
498.821	10446.05
499.19	10542.32
499.559	10714.52
499.928	10787.74
500.298	10893.72
500.667	11001.07
501.036	11024.34
501.405	11133.49
501.774	11185.69
502.143	11232.02
502.512	11305.24
502.88	11429.76
503.249	11468.17
503.618	11565.35
503.987	11659.58
504.356	11631.56
504.724	11692.8
505.093	11796.07
505.462	11811.44
505.83	11976.63
506.199	11977.76
506.567	12139.79
506.936	12116.74
507.304	12126.69
507.672	12300.24
508.041	12351.09
508.409	12495.49
508.777	12530.07
509.145	12594.92
509.514	12433.12
509.882	12675.82
510.25	12641.02
510.618	12739.78
510.986	12831.08
511.354	12849.38
511.722	12915.82
512.09	13005.31
512.458	12966.44
512.826	12979.32
513.193	13112.65
513.561	13109.94
513.929	13138.86
514.297	13319.2
514.664	13337.5
515.032	13355.81
515.4	13375.47
515.767	13335.47
516.135	13458.18
516.502	13346.77
516.869	13548.57
517.237	13570.72
517.604	13493.66
517.972	13552.64
518.339	13636.93
518.706	13685.52
519.073	13621.34
519.44	13671.73
519.808	13738.4
520.175	13715.35
520.542	13818.17
520.909	13845.51
521.276	13837.83
521.643	14010.93
522.009	13899.97
522.376	13925.28
522.743	14024.49
523.11	14018.39
523.477	14187.2
523.843	14136.13
524.21	14264.94
524.577	14294.31
524.943	14324.14
525.31	14299.51
525.676	14414.76
526.043	14391.71
526.409	14407.76
526.776	14439.39
527.142	14487.08
527.508	14450.02
527.874	14480.75
528.241	14428.77
528.607	14475.33
528.973	14515.55
529.339	14414.76
529.705	14527.08
530.071	14650.91
530.437	14450.69
530.803	14492.05
531.169	14577.47
531.535	14466.96
531.901	14544.02
532.267	14460.64
532.632	14561.65
532.998	14507.87
533.364	14511.26
533.73	14526.17
534.095	14528.88
534.461	14537.47
534.826	14401.43
535.192	14492.5
535.557	14522.1
535.923	14378.38
536.288	14367.76
536.653	14355.55
537.019	14211.83
537.384	14325.27
537.749	14212.96
538.114	14203.92
538.479	14203.92
538.845	14222.45
539.21	14060.2
539.575	14058.16
539.94	14100.19
540.305	14096.8
540.67	14026.3
541.034	13960.54
541.399	13963.7
541.764	13906.08
542.129	13842.35
542.494	13768.45
542.858	13836.25
543.223	13831.05
543.587	13739.98
543.952	13660.88
544.316	13683.93
544.681	13606.42
545.045	13612.75
545.41	13664.05
545.774	13580.21
546.138	13520.1
546.503	13438.29
546.867	13436.26
547.231	13500.89
547.595	13374.56
547.959	13335.24
548.324	13306.09
548.688	13312.64
549.052	13229.26
549.416	13248.92
549.779	13192.2
550.143	13069.94
550.507	13156.04
550.871	13059.09
551.235	12975.7
551.599	13065.19
551.962	12932.32
552.326	12885.99
552.689	12931.64
553.053	12858.87
553.417	12831.53
553.78	12851.87
554.143	12781.81
554.507	12830.85
554.87	12813.22
555.234	12856.16
555.597	12716.73
555.96	12623.85
556.323	12730.74
556.686	12671.08
557.05	12732.77
557.413	12672.66
557.776	12605.32
558.139	12641.02
558.502	12606.22
558.865	12539.78
559.228	12655.03
559.59	12571.65
559.953	12599.44
560.316	12622.94
560.679	12614.81
561.041	12562.38
561.404	12661.81
561.767	12676.28
562.129	12551.08
562.492	12659.1
562.854	12584.53
563.217	12528.03
563.579	12529.39
563.941	12575.26
564.304	12592.66
564.666	12622.72
565.028	12638.09
565.39	12635.6
565.753	12553.79
566.115	12602.83
566.477	12546.79
566.839	12693.68
567.201	12666.56
567.563	12723.73
567.925	12725.77
568.287	12710.85
568.648	12710.17
569.01	12711.76
569.372	12805.31
569.734	12682.83
570.095	12762.38
570.457	12763.73
570.819	12796.73
571.18	12716.73
571.542	12807.57
571.903	12787.46
572.265	12757.86
572.626	12818.65
572.987	12754.24
573.349	12843.28
573.71	12841.7
574.071	12900.68
574.432	12970.96
574.794	12961.02
575.155	12933.22
575.516	12859.77
575.877	12937.29
576.238	12871.3
576.599	12942.26
576.96	12883.96
577.32	12846.89
577.681	12868.81
578.042	12939.09
578.403	12798.08
578.763	12946.78
579.124	12898.87
579.485	12956.27
579.845	12966.89
580.206	12894.8
580.566	12825.88
580.927	12849.38
581.287	12940.9
581.648	12851.87
582.008	12939.55
582.368	12820
582.728	12852.77
583.089	12809.38
583.449	12854.58
583.809	12876.95
584.169	12808.93
584.529	12774.81
584.889	12874.46
585.249	12709.95
585.609	12769.83
585.969	12776.84
586.329	12767.8
586.688	12691.19
587.048	12690.97
587.408	12759.66
587.768	12722.83
588.127	12703.17
588.487	12712.43
588.846	12702.26
589.206	12665.66
589.565	12768.93
589.925	12668.14
590.284	12630.63
590.643	12698.2
591.003	12692.77
591.362	12739.55
591.721	12726.9
592.08	12634.92
592.44	12628.82
592.799	12650.51
593.158	12587.01
593.517	12596.05
593.876	12609.61
594.235	12540.91
594.593	12591.08
594.952	12554.47
595.311	12506.11
595.67	12471.76
596.029	12565.77
596.387	12553.34
596.746	12581.36
597.104	12530.97
597.463	12482.61
597.822	12643.74
598.18	12566.45
598.538	12441.25
598.897	12500.91
599.255	12496.62
599.613	12592.66
599.972	12559.44
600.33	12572.55
600.688	12500.69
601.046	12499.78
601.404	12585.43
601.762	12576.84
602.12	12562.61
602.478	12521.93
602.836	12508.82
603.194	12539.56
603.552	12455.49
603.91	12432.89
604.268	12563.74
604.625	12509.5
604.983	12468.15
605.341	12539.33
605.698	12464.08
606.056	12544.75
606.413	12602.61
606.771	12546.34
607.128	12542.5
607.485	12536.85
607.843	12508.15
608.2	12599.22
608.557	12605.77
608.914	12544.08
609.272	12585.43
609.629	12571.87
609.986	12648.93
610.343	12591.31
610.7	12682.15
611.057	12655.26
611.414	12687.8
611.771	12579.33
612.127	12692.55
612.484	12602.61
612.841	12713.11
613.198	12635.37
613.554	12646
613.911	12720.57
614.267	12762.38
614.624	12634.92
614.98	12716.28
615.337	12799.21
615.693	12838.53
616.05	12782.94
616.406	12805.99
616.762	12711.08
617.118	12671.76
617.475	12732.55
617.831	12783.17
618.187	12758.31
618.543	12789.95
618.899	12822.49
619.255	12839.44
619.611	12818.19
619.967	12758.53
620.323	12909.49
620.678	12836.05
621.034	12780.23
621.39	12771.42
621.746	12835.82
622.101	12906.55
622.457	12851.19
622.812	12867.01
623.168	12828.59
623.523	12840.79
623.879	12904.97
624.234	12846.89
624.589	12816.16
624.945	12778.2
625.3	12898.64
625.655	12814.58
626.01	12865.65
626.365	12863.16
626.72	12876.27
627.075	12755.82
627.43	12831.75
627.785	12723.73
628.14	12793.11
628.495	12788.36
628.85	12891.19
629.205	12773.9
629.559	12838.53
629.914	12756.73
630.269	12825.88
630.623	12756.05
630.978	12719.21
631.332	12713.11
631.687	12786.33
632.041	12601.25
632.396	12754.92
632.75	12655.49
633.104	12714.24
633.459	12613
633.813	12528.03
634.167	12564.64
634.521	12580.01
634.875	12596.96
635.229	12542.95
635.583	12558.31
635.937	12538.88
636.291	12548.14
636.645	12583.17
636.999	12536.17
637.352	12483.51
637.706	12511.31
638.06	12467.69
638.413	12457.53
638.767	12444.64
639.121	12489.62
639.474	12387.24
639.828	12407.13
640.181	12385.21
640.534	12428.15
640.888	12352.44
641.241	12289.17
641.594	12257.98
641.947	12393.57
642.301	12386.79
642.654	12312.9
643.007	12301.37
643.36	12263.41
643.713	12211.66
644.066	12299.34
644.419	12215.5
644.771	12154.48
645.124	11983.19
645.477	12009.4
645.83	11930.99
646.182	11914.26
646.535	11932.79
646.888	11811.21
647.24	11882.17
647.593	11928.05
647.945	11880.14
648.298	11821.61
648.65	11834.94
649.002	11781.39
649.355	11848.28
649.707	11909.07
650.059	11955.17
650.411	12032.68
650.763	12115.16
651.115	12157.19
651.467	12102.51
651.819	12082.85
652.171	12098.89
652.523	12123.98
652.875	12076.07
653.227	12039.23
653.578	12201.26
653.93	12139.79
654.282	12050.3
654.633	12008.95
654.985	12050.53
655.337	12074.71
655.688	12071.1
656.039	12184.76
656.391	12055.05
656.742	12040.81
657.094	12111.09
657.445	12146.35
657.796	12099.12
658.147	12100.25
658.498	12102.96
658.849	12178.89
659.2	12104.99
659.551	12092.34
659.902	12146.8
660.253	12169.17
660.604	12140.47
660.955	12154.03
661.306	12107.03
661.656	12204.2
662.007	12152.9
662.358	12178.66
662.708	12134.82
663.059	12213.69
663.409	12089.17
663.76	12179.79
664.11	12138.89
664.461	12218.21
664.811	12172.56
665.161	12146.8
665.511	12159.91
665.862	12217.76
666.212	12151.32
666.562	12199.91
666.912	12180.02
667.262	12127.14
667.612	12116.97
667.962	12187.02
668.312	12105.9
668.662	12251.66
669.011	12275.38
669.361	12121.04
669.711	12182.73
670.06	12221.15
670.41	12157.87
670.76	12136.63
671.109	12171.66
671.459	12118.55
671.808	12159.23
672.157	12163.75
672.507	12049.17
672.856	12069.29
673.205	12077.2
673.554	12095.73
673.904	12085.33
674.253	12175.5
674.602	12011.44
674.951	11860.93
675.3	11883.98
675.649	12025.45
675.998	12044.2
676.346	11956.97
676.695	12025.9
677.044	11935.96
677.393	11927.82
677.741	11956.52
678.09	11954.04
678.438	11967.37
678.787	12001.04
679.135	11923.08
679.484	11818.67
679.832	11904.32
680.181	11810.31
680.529	11848.05
680.877	11739.8
681.225	11810.08
681.573	11875.39
681.922	11738
682.27	11750.2
682.618	11699.58
682.966	11655.06
683.314	11623.88
683.661	11594.27
684.009	11531
684.357	11547.49
684.705	11540.94
685.053	11545.46
685.4	11494.39
685.748	11444.9
686.095	11516.99
686.443	11365.58
686.79	11427.5
687.138	11365.35
687.485	11437.21
687.832	11275.18
688.18	11358.12
688.527	11289.42
688.874	11261.62
689.221	11212.81
689.568	11149.76
689.915	11142.31
690.262	11140.72
690.609	11093.04
690.956	11046.94
691.303	11062.08
691.65	10949.32
691.997	10971.24
692.344	10909.32
692.69	10872.71
693.037	10910.45
693.383	10724.24
693.73	10808.08
694.077	10663
694.423	10825.48
694.769	10714.75
695.116	10632.49
695.462	10660.28
695.808	10558.59
696.155	10591.59
696.501	10454.64
696.847	10464.81
697.193	10376.45
697.539	10482.21
697.885	10401.53
698.231	10346.85
698.577	10349.33
698.923	10284.7
699.269	10246.28
699.614	10164.25
699.96	10164.03
700.306	10166.06
700.651	10067.08
700.997	9951.83
701.342	9992.73
701.688	9967.65
702.033	9943.47
702.379	9978.49
702.724	9833.41
703.069	9933.75
703.415	9812.17
703.76	9741.66
704.105	9827.31
704.45	9708.22
704.795	9663.25
705.14	9618.05
705.485	9594.1
705.83	9623.7
706.175	9558.84
706.52	9526.98
706.865	9560.88
707.209	9464.61
707.554	9430.03
707.899	9452.41
708.243	9367.21
708.588	9338.51
708.932	9282.02
709.277	9275.01
709.621	9305.07
709.966	9209.25
710.31	9265.52
710.654	9183.94
710.998	9181.91
711.342	9148.46
711.687	9096.71
712.031	9100.55
712.375	9023.04
712.719	9044.06
713.063	9063.26
713.407	9039.31
713.75	8992.98
714.094	8952.98
714.438	8973.55
714.782	8922.7
715.125	8920.44
715.469	8904.85
715.812	8882.48
716.156	8858.52
716.499	8856.49
716.843	8824.85
717.186	8788.24
717.53	8861.01
717.873	8807.68
718.216	8808.13
718.559	8856.26
718.902	8737.62
719.246	8725.87
719.589	8716.38
719.932	8694.01
720.275	8673.67
720.617	8701.24
720.96	8675.25
721.303	8708.7
721.646	8640.45
721.989	8601.81
722.331	8700.79
722.674	8583.96
723.016	8662.15
723.359	8601.13
723.701	8567.68
724.044	8541.92
724.386	8573.79
724.729	8533.56
725.071	8552.77
725.413	8527.01
725.755	8543.28
726.097	8557.52
726.439	8463.28
726.782	8469.16
727.124	8541.24
727.465	8493.34
727.807	8477.97
728.149	8436.39
728.491	8467.12
728.833	8458.99
729.175	8439.1
729.516	8487.91
729.858	8416.95
730.199	8493.11
730.541	8484.75
730.882	8491.53
731.224	8504.41
731.565	8400.91
731.906	8452.66
732.248	8517.74
732.589	8441.59
732.93	8427.8
733.271	8470.74
733.612	8462.6
733.953	8440.68
734.294	8388.71
734.635	8420.34
734.976	8430.06
735.317	8391.19
735.658	8449.72
735.999	8420.34
736.339	8449.27
736.68	8449.27
737.021	8461.92
737.361	8436.61
737.702	8496.95
738.042	8483.17
738.383	8532.43
738.723	8527.46
739.063	8544.41
739.404	8521.58
739.744	8498.31
740.084	8496.27
740.424	8485.43
740.764	8557.74
741.104	8598.19
741.444	8553.9
741.784	8536.72
742.124	8600.45
742.464	8623.95
742.804	8605.88
743.143	8610.17
743.483	8702.6
743.823	8695.36
744.162	8762.48
744.502	8710.51
744.841	8800.9
745.181	8806.1
745.52	8833.44
745.86	8901.69
746.199	8900.1
746.538	8949.82
746.877	9068.46
747.216	9020.33
747.556	9134.68
747.895	9112.3
748.234	9150.04
748.573	9232.75
748.911	9282.92
749.25	9359.3
749.589	9415.12
749.928	9479.75
750.267	9546.19
750.605	9677.03
750.944	9707.09
751.283	9770.36
751.621	9932.62
751.96	9902.56
752.298	10066.18
752.636	10089.23
752.975	10293.74
753.313	10319.5
753.651	10451.48
753.989	10486.05
754.327	10660.74
754.666	10660.74
755.004	10842.43
755.342	11104.57
755.679	11182.3
756.017	11284.9
756.355	11517.44
756.693	11542.52
757.031	11748.84
757.368	11837.88
757.706	12015.5
758.044	12171.88
758.381	12322.16
