Data from hue_90_FLMS001491_46.txt Node
Date: Mon Feb 06 15:25:11 GMT 2017
User: dcchb
Spectrometer: FLMS00149
Trigger mode: 0
Integration Time (sec): 2.000000E-2
Scans to average: 10
Electric dark correction enabled: true
Nonlinearity correction enabled: false
Boxcar width: 0
XAxis mode: Wavelengths
Number of Pixels in Spectrum: 2048
>>>>>Begin Spectral Data<<<<<
341.393	12.2
341.776	12.2
342.16	12.2
342.543	-45.87
342.927	-72.77
343.31	-65.08
343.693	-80
344.077	-56.95
344.46	-62.82
344.843	-48.81
345.226	-44.74
345.61	-30.06
345.993	-28.7
346.376	8.36
346.759	11.98
347.142	27.34
347.525	41.81
347.908	49.49
348.291	76.83
348.674	92.88
349.057	108.47
349.44	125.65
349.823	155.25
350.206	176.04
350.588	202.25
350.971	224.17
351.354	220.56
351.737	237.51
352.119	247.68
352.502	270.5
352.884	276.83
353.267	267.79
353.65	300.33
354.032	288.81
354.414	315.02
354.797	301.91
355.179	303.95
355.562	329.26
355.944	333.78
356.326	349.14
356.709	343.04
357.091	363.15
357.473	337.17
357.855	350.05
358.238	334.23
358.62	341.23
359.002	336.71
359.384	340.78
359.766	358.41
360.148	349.14
360.53	322.93
360.912	341.69
361.294	322.93
361.676	333.1
362.057	345.53
362.439	335.36
362.821	344.85
363.203	330.84
363.584	328.13
363.966	329.48
364.348	330.84
364.729	338.75
365.111	315.47
365.493	316.6
365.874	309.14
366.256	333.1
366.637	316.6
367.019	340.56
367.4	330.39
367.781	303.27
368.163	323.38
368.544	332.65
368.925	294.68
369.306	332.42
369.688	301.69
370.069	285.19
370.45	329.48
370.831	312.31
371.212	318.41
371.593	332.19
371.974	301.24
372.355	311.18
372.736	332.87
373.117	316.83
373.498	322.48
373.879	338.97
374.26	329.03
374.641	307.56
375.021	313.89
375.402	341.69
375.783	341.01
376.163	321.8
376.544	340.56
376.925	319.77
377.305	336.49
377.686	324.74
378.066	324.51
378.447	347.79
378.827	341.69
379.208	343.95
379.588	323.16
379.968	339.65
380.349	357.5
380.729	317.96
381.109	316.38
381.489	367
381.87	329.26
382.25	354.34
382.63	348.69
383.01	338.3
383.39	324.06
383.77	363.15
384.15	359.99
384.53	357.96
384.91	362.93
385.29	368.58
385.67	349.37
386.049	345.53
386.429	353.89
386.809	364.06
387.189	382.81
387.568	365.41
387.948	363.83
388.328	382.36
388.707	354.57
389.087	359.31
389.466	378.3
389.846	364.51
390.225	373.55
390.605	367.67
390.984	382.36
391.363	391.63
391.743	379.88
392.122	364.96
392.501	366.32
392.881	371.74
393.26	389.14
393.639	370.84
394.018	374.91
394.397	383.27
394.776	392.76
395.155	374.68
395.534	399.54
395.913	394.11
396.292	384.62
396.671	397.5
397.05	398.41
397.429	397.96
397.808	382.59
398.186	384.85
398.565	399.54
398.944	405.41
399.323	410.84
399.701	392.53
400.08	383.49
400.458	389.14
400.837	406.09
401.215	421.01
401.594	422.59
401.972	397.05
402.351	412.42
402.729	403.38
403.107	432.08
403.486	417.16
403.864	404.28
404.242	429.14
404.62	439.08
404.999	434.79
405.377	452.42
405.755	415.81
406.133	436.82
406.511	443.6
406.889	459.2
407.267	429.82
407.645	434.34
408.023	439.76
408.401	440.67
408.779	458.52
409.156	454.45
409.534	449.03
409.912	458.97
410.29	451.74
410.667	457.62
411.045	481.8
411.422	471.4
411.8	458.29
412.178	461.68
412.555	488.57
412.933	490.38
413.31	481.8
413.687	484.96
414.065	495.81
414.442	489.03
414.819	488.57
415.197	525.41
415.574	500.78
415.951	516.14
416.328	510.04
416.705	515.01
417.082	533.77
417.46	503.49
417.837	528.8
418.214	517.27
418.591	517.73
418.967	556.6
419.344	539.65
419.721	526.09
420.098	522.02
420.475	546.88
420.852	513.66
421.228	559.31
421.605	533.77
421.982	559.76
422.358	562.02
422.735	558.86
423.111	560.21
423.488	559.99
423.864	553.88
424.241	568.35
424.617	564.73
424.994	576.26
425.37	573.77
425.746	578.52
426.123	580.78
426.499	579.42
426.875	596.59
427.251	620.1
427.627	601.11
428.003	615.58
428.379	621.45
428.756	631.17
429.132	609.7
429.507	630.94
429.883	653.32
430.259	630.27
430.635	623.94
431.011	655.35
431.387	651.96
431.763	653.09
432.138	659.64
432.514	691.28
432.89	689.7
433.265	690.15
433.641	696.7
434.016	708.23
434.392	694.45
434.767	708.68
435.143	703.48
435.518	703.48
435.894	683.15
436.269	740.09
436.644	725.18
437.02	738.06
437.395	732.41
437.77	764.5
438.145	732.41
438.52	768.79
438.895	750.26
439.271	789.13
439.646	764.5
440.021	801.33
440.395	785.97
440.77	814.22
441.145	805.63
441.52	804.05
441.895	798.4
442.27	792.97
442.645	798.17
443.019	795.46
443.394	822.58
443.769	830.49
444.143	837.94
444.518	847.21
444.892	835.46
445.267	817.61
445.641	820.54
446.016	859.41
446.39	854.67
446.764	865.97
447.139	853.76
447.513	862.35
447.887	892.18
448.262	865.74
448.636	866.19
449.01	880.65
449.384	903.48
449.758	905.06
450.132	916.81
450.506	924.5
450.88	941.67
451.254	955.91
451.628	932.86
452.002	929.69
452.376	986.41
452.75	964.04
453.123	967.88
453.497	981.44
453.871	1033.42
454.244	1024.38
454.618	1008.11
454.992	1048.11
455.365	1025.96
455.739	1048.79
456.112	1057.37
456.486	1045.4
456.859	1095.56
457.232	1066.64
457.606	1078.39
457.979	1097.6
458.352	1109.35
458.725	1134.89
459.099	1136.47
459.472	1152.96
459.845	1177.37
460.218	1192.74
460.591	1163.36
460.964	1199.74
461.337	1228.89
461.71	1213.75
462.083	1252.4
462.456	1257.14
462.829	1266.18
463.201	1279.97
463.574	1292.62
463.947	1329
464.32	1328.78
464.692	1366.07
465.065	1361.32
465.438	1415.56
465.81	1401.32
466.183	1438.15
466.555	1434.54
466.928	1447.42
467.3	1481.32
467.672	1512.73
468.045	1526.97
468.417	1561.54
468.789	1571.26
469.161	1585.04
469.534	1629.56
469.906	1626.17
470.278	1689
470.65	1728.77
471.022	1746.62
471.394	1759.73
471.766	1800.18
472.138	1833.4
472.51	1868.2
472.882	1939.84
473.253	1969.67
473.625	1962.21
473.997	2016.9
474.369	2061.19
474.74	2118.59
475.112	2172.37
475.484	2211.92
475.855	2244.23
476.227	2298.92
476.598	2368.3
476.97	2443.33
477.341	2502.99
477.713	2553.15
478.084	2585.24
478.455	2679.93
478.827	2739.81
479.198	2834.28
479.569	2833.82
479.94	2960.15
480.311	3065.91
480.682	3130.99
481.053	3216.86
481.424	3330.53
481.795	3349.74
482.166	3438.1
482.537	3570.08
482.908	3661.6
483.279	3735.27
483.65	3858.43
484.021	3987.01
484.391	4028.14
484.762	4121.7
485.133	4221.36
485.503	4342.03
485.874	4450.28
486.244	4566.43
486.615	4755.13
486.985	4818.63
487.356	4998.96
487.726	5092.3
488.097	5238.73
488.467	5333.19
488.837	5518.05
489.207	5587.42
489.578	5737.25
489.948	5858.6
490.318	5982.67
490.688	6050.69
491.058	6199.39
491.428	6411.13
491.798	6592.6
492.168	6718.69
492.538	6811.35
492.908	6915.98
493.278	7080.94
493.648	7175.86
494.017	7384.89
494.387	7458.33
494.757	7559.35
495.126	7737.42
495.496	7852.67
495.866	7940.81
496.235	8079.79
496.605	8183.74
496.974	8274.36
497.344	8442.72
497.713	8534.69
498.082	8665.99
498.452	8832.76
498.821	8974.23
499.19	8979.88
499.559	9105.52
499.928	9265.07
500.298	9354.56
500.667	9470.03
501.036	9495.8
501.405	9631.84
501.774	9670.25
502.143	9804.04
502.512	9871.6
502.88	10072.5
503.249	10040.19
503.618	10136.23
503.987	10256.68
504.356	10313.85
504.724	10383
505.093	10462.78
505.462	10491.25
505.83	10640.62
506.199	10765.82
506.567	10898.92
506.936	10875.65
507.304	10989.99
507.672	11049.65
508.041	11172.59
508.409	11241.96
508.777	11310.44
509.145	11315.86
509.514	11409.87
509.882	11494.61
510.25	11509.08
510.618	11646.25
510.986	11649.19
511.354	11709.52
511.722	11840.59
512.09	11923.3
512.458	11850.08
512.826	12003.98
513.193	12009.85
513.561	12058.89
513.929	12105.22
514.297	12231.99
514.664	12287.36
515.032	12312.67
515.4	12350.18
515.767	12393.35
516.135	12490.75
516.502	12296.63
516.869	12509.73
517.237	12542.72
517.604	12535.26
517.972	12613
518.339	12650.51
518.706	12703.17
519.073	12681.47
519.44	12759.44
519.808	12864.97
520.175	12853.45
520.542	12934.12
520.909	12958.76
521.276	12941.58
521.643	13004.63
522.009	13061.58
522.376	13083.95
522.743	13145.42
523.11	13250.5
523.477	13256.6
523.843	13295.02
524.21	13305.64
524.577	13436.93
524.943	13422.02
525.31	13372.98
525.676	13482.81
526.043	13469.48
526.409	13615.01
526.776	13640.77
527.142	13543.15
527.508	13607.55
527.874	13661.79
528.241	13653.43
528.607	13668.34
528.973	13806.64
529.339	13669.92
529.705	13714.67
530.071	13706.31
530.437	13771.62
530.803	13805.74
531.169	13805.06
531.535	13713.31
531.901	13720.09
532.267	13782.01
532.632	13772.97
532.998	13776.59
533.364	13743.14
533.73	13760.54
534.095	13803.25
534.461	13737.49
534.826	13751.95
535.192	13768.9
535.557	13808
535.923	13718.06
536.288	13581.34
536.653	13749.69
537.019	13720.77
537.384	13717.15
537.749	13610.94
538.114	13577.72
538.479	13587.67
538.845	13631.73
539.21	13463.6
539.575	13457.5
539.94	13549.47
540.305	13446.2
540.67	13440.32
541.034	13343.6
541.399	13391.06
541.764	13439.65
542.129	13428.12
542.494	13416.6
542.858	13366.65
543.223	13284.85
543.587	13238.75
543.952	13225.64
544.316	13180.44
544.681	13037.62
545.045	13097.28
545.41	13130.05
545.774	13051.63
546.138	13044.18
546.503	13123.27
546.867	12958.98
547.231	13052.31
547.595	13011.86
547.959	12991.97
548.324	12898.19
548.688	12904.29
549.052	12827.69
549.416	12897.97
549.779	12805.99
550.143	12798.99
550.507	12794.69
550.871	12770.29
551.235	12699.1
551.599	12644.64
551.962	12699.1
552.326	12634.02
552.689	12743.85
553.053	12629.95
553.417	12521.25
553.78	12637.63
554.143	12593.12
554.507	12552.21
554.87	12597.41
555.234	12557.64
555.597	12456.62
555.96	12474.02
556.323	12451.88
556.686	12460.46
557.05	12471.08
557.413	12457.07
557.776	12471.08
558.139	12484.64
558.502	12433.57
558.865	12509.28
559.228	12460.92
559.59	12431.99
559.953	12447.13
560.316	12461.37
560.679	12431.31
561.041	12454.59
561.404	12473.34
561.767	12468.15
562.129	12441.71
562.492	12454.36
562.854	12453.68
563.217	12484.19
563.579	12410.97
563.941	12424.31
564.304	12507.02
564.666	12609.84
565.028	12578.2
565.39	12578.65
565.753	12546.11
566.115	12491.65
566.477	12585.21
566.839	12556.05
567.201	12610.29
567.563	12582.27
567.925	12672.21
568.287	12619.1
568.648	12699.78
569.01	12702.94
569.372	12683.06
569.734	12615.71
570.095	12747.69
570.457	12765.09
570.819	12763.73
571.18	12733.9
571.542	12775.94
571.903	12798.99
572.265	12767.57
572.626	12735.26
572.987	12731.87
573.349	12751.76
573.71	12852.77
574.071	12798.76
574.432	12877.4
574.794	12904.75
575.155	12870.17
575.516	12798.31
575.877	12913.33
576.238	12826.78
576.599	12876.27
576.96	12916.5
577.32	12824.52
577.681	12877.63
578.042	12879.89
578.403	12885.99
578.763	12888.7
579.124	12889.15
579.485	12934.58
579.845	12839.66
580.206	12933.9
580.566	12898.87
580.927	12900
581.287	12916.5
581.648	12877.63
582.008	12954.01
582.368	12844.18
582.728	12912.88
583.089	12850.96
583.449	12928.7
583.809	12895.71
584.169	12804.41
584.529	12745.43
584.889	12926.44
585.249	12827.01
585.609	12785.88
585.969	12811.64
586.329	12732.55
586.688	12786.56
587.048	12698.42
587.408	12771.64
587.768	12754.01
588.127	12692.32
588.487	12695.03
588.846	12825.88
589.206	12637.41
589.565	12747.01
589.925	12802.38
590.284	12743.85
590.643	12698.2
591.003	12817.06
591.362	12794.92
591.721	12786.78
592.08	12806.67
592.44	12768.48
592.799	12688.71
593.158	12671.98
593.517	12706.11
593.876	12731.64
594.235	12669.27
594.593	12643.28
594.952	12613.45
595.311	12665.88
595.67	12554.02
596.029	12649.16
596.387	12671.31
596.746	12611.42
597.104	12575.94
597.463	12541.82
597.822	12665.66
598.18	12520.35
598.538	12554.92
598.897	12689.84
599.255	12544.98
599.613	12700.46
599.972	12581.14
600.33	12643.28
600.688	12533.23
601.046	12591.53
601.404	12641.25
601.762	12590.18
602.12	12721.7
602.478	12627.24
602.836	12699.33
603.194	12500.01
603.552	12536.62
603.91	12582.95
604.268	12591.08
604.625	12595.6
604.983	12620.46
605.341	12520.35
605.698	12620.46
606.056	12628.59
606.413	12591.53
606.771	12688.93
607.128	12614.81
607.485	12588.37
607.843	12668.59
608.2	12706.11
608.557	12721.7
608.914	12675.6
609.272	12633.34
609.629	12709.95
609.986	12769.16
610.343	12644.87
610.7	12758.53
611.057	12641.48
611.414	12800.12
611.771	12685.32
612.127	12791.08
612.484	12707.91
612.841	12845.54
613.198	12674.02
613.554	12768.7
613.911	12856.84
614.267	12751.3
614.624	12784.75
614.98	12908.59
615.337	12884.86
615.693	12855.48
616.05	12898.42
616.406	12919.66
616.762	12893.67
617.118	12886.21
617.475	12869.94
617.831	12937.29
618.187	12976.38
618.543	12941.58
618.899	12960.56
619.255	12906.78
619.611	12957.63
619.967	12980.68
620.323	12985.65
620.678	12930.73
621.034	12864.97
621.39	12937.06
621.746	12958.98
622.101	13071.52
622.457	12967.34
622.812	12897.29
623.168	12979.55
623.523	12951.98
623.879	13026.55
624.234	12980.22
624.589	12976.38
624.945	12986.1
625.3	13026.32
625.655	12972.31
626.01	12882.83
626.365	12942.48
626.72	12957.85
627.075	12941.35
627.43	12892.77
627.785	12920.79
628.14	12927.57
628.495	12923.95
628.85	12939.55
629.205	12932.99
629.559	12898.64
629.914	12820.68
630.269	12971.64
630.623	12847.12
630.978	12839.44
631.332	12882.15
631.687	12901.58
632.041	12890.96
632.396	12850.51
632.75	12778.42
633.104	12805.76
633.459	12775.03
633.813	12702.04
634.167	12786.1
634.521	12728.48
634.875	12749.5
635.229	12772.77
635.583	12759.66
635.937	12660.01
636.291	12732.09
636.645	12653.23
636.999	12607.8
637.352	12634.02
637.706	12563.06
638.06	12617.97
638.413	12605.54
638.767	12549.27
639.121	12552.21
639.474	12435.38
639.828	12479.9
640.181	12497.98
640.534	12492.78
640.888	12466.11
641.241	12334.82
641.594	12488.94
641.947	12514.47
642.301	12441.03
642.654	12399
643.007	12403.29
643.36	12369.62
643.713	12384.08
644.066	12436.96
644.419	12378.43
644.771	12243.75
645.124	12147.7
645.477	12159.23
645.83	12051.21
646.182	11959.23
646.535	11880.82
646.888	12030.87
647.24	12010.08
647.593	12078.33
647.945	12073.13
648.298	11899.57
648.65	11989.74
649.002	12050.08
649.355	11960.36
649.707	11917.2
650.059	12051.43
650.411	12120.13
650.763	12201.04
651.115	12257.98
651.467	12270.19
651.819	12215.72
652.171	12202.62
652.523	12214.37
652.875	12161.26
653.227	12210.98
653.578	12209.62
653.93	12245.78
654.282	12145.9
654.633	12109.29
654.985	12129.85
655.337	12210.07
655.688	12167.36
656.039	12274.03
656.391	12102.96
656.742	12168.49
657.094	12254.59
657.445	12289.85
657.796	12254.37
658.147	12225.22
658.498	12150.87
658.849	12291.88
659.2	12194.71
659.551	12238.77
659.902	12242.39
660.253	12253.69
660.604	12253.69
660.955	12188.61
661.306	12296.63
661.656	12241.26
662.007	12218.66
662.358	12274.25
662.708	12195.84
663.059	12366
663.409	12099.57
663.76	12289.17
664.11	12375.95
664.461	12359.45
664.811	12276.97
665.161	12235.16
665.511	12269.28
665.862	12313.12
666.212	12299.34
666.562	12382.27
666.912	12340.47
667.262	12356.74
667.612	12255.5
667.962	12302.05
668.312	12343.4
668.662	12370.97
669.011	12278.32
669.361	12286.68
669.711	12265.44
670.06	12280.81
670.41	12215.72
670.76	12246.23
671.109	12266.34
671.459	12281.26
671.808	12226.35
672.157	12330.75
672.507	12233.12
672.856	12194.93
673.205	12164.2
673.554	12256.17
673.904	12156.74
674.253	12185.22
674.602	12209.4
674.951	12021.15
675.3	11892.57
675.649	12138.21
675.998	12144.31
676.346	12114.48
676.695	12208.49
677.044	12091.43
677.393	12017.31
677.741	12056.18
678.09	12064.54
678.438	12073.35
678.787	12021.6
679.135	12081.72
679.484	11912.68
679.832	12053.92
680.181	11960.82
680.529	12004.66
680.877	11859.12
681.225	11918.1
681.573	12017.76
681.922	11902.06
682.27	11849.18
682.618	11909.07
682.966	11834.72
683.314	11751.1
683.661	11804.89
684.009	11692.57
684.357	11746.13
684.705	11614.38
685.053	11665.91
685.4	11640.15
685.748	11592.01
686.095	11627.94
686.443	11545.01
686.79	11499.58
687.138	11566.25
687.485	11515.63
687.832	11497.55
688.18	11470.43
688.527	11469.3
688.874	11399.93
689.221	11249.2
689.568	11292.58
689.915	11328.06
690.262	11261.62
690.609	11110.89
690.956	11146.6
691.303	11140.95
691.65	11118.8
691.997	11062.99
692.344	11013.5
692.69	10987.96
693.037	10996.77
693.383	10968.75
693.73	10944.57
694.077	10860.73
694.423	10946.6
694.769	10828.19
695.116	10747.06
695.462	10735.08
695.808	10785.03
696.155	10738.7
696.501	10635.43
696.847	10670.45
697.193	10550.91
697.539	10626.84
697.885	10456.22
698.231	10446.96
698.577	10418.71
698.923	10451.02
699.269	10362.21
699.614	10271.14
699.96	10249.45
700.306	10232.05
700.651	10236.12
700.997	10145.04
701.342	10153.63
701.688	10151.37
702.033	10058.72
702.379	10134.42
702.724	10019.62
703.069	10062.33
703.415	9882.68
703.76	9934.2
704.105	9914.77
704.45	9788.67
704.795	9837.93
705.14	9744.15
705.485	9740.99
705.83	9773.98
706.175	9704.6
706.52	9714.55
706.865	9650.82
707.209	9620.54
707.554	9513.65
707.899	9640.65
708.243	9559.07
708.588	9486.98
708.932	9460.99
709.277	9461.45
709.621	9416.48
709.966	9380.54
710.31	9385.06
710.654	9281.34
710.998	9303.94
711.342	9271.39
711.687	9280.21
712.031	9255.12
712.375	9176.93
712.719	9203.83
713.063	9122.02
713.407	9219.64
713.75	9214.67
714.094	9087.67
714.438	9131.06
714.782	9115.01
715.125	9074.11
715.469	9131.96
715.812	9050.84
716.156	8990.72
716.499	9005.41
716.843	8976.71
717.186	9005.64
717.53	8996.15
717.873	9028.24
718.216	8955.92
718.559	8947.56
718.902	8907.34
719.246	8894.23
719.589	8838.86
719.932	8867.79
720.275	8845.19
720.617	8819.2
720.96	8770.39
721.303	8855.13
721.646	8885.42
721.989	8748.02
722.331	8834.12
722.674	8722.71
723.016	8698.75
723.359	8709.6
723.701	8863.5
724.044	8698.3
724.386	8632.32
724.729	8703.27
725.071	8663.28
725.413	8702.37
725.755	8661.24
726.097	8687.68
726.439	8581.47
726.782	8637.96
727.124	8644.29
727.465	8602.71
727.807	8604.97
728.149	8558.42
728.491	8612.65
728.833	8617.85
729.175	8537.63
729.516	8511.87
729.858	8571.53
730.199	8604.75
730.541	8583.05
730.882	8535.37
731.224	8581.92
731.565	8621.92
731.906	8630.96
732.248	8537.63
732.589	8563.84
732.93	8505.31
733.271	8638.64
733.612	8528.82
733.953	8604.07
734.294	8574.24
734.635	8513.45
734.976	8598.87
735.317	8550.51
735.658	8527.46
735.999	8519.32
736.339	8545.76
736.68	8606.1
737.021	8571.3
737.361	8543.96
737.702	8595.48
738.042	8546.22
738.383	8622.37
738.723	8613.56
739.063	8568.59
739.404	8581.92
739.744	8618.3
740.084	8583.28
740.424	8674.8
740.764	8626.67
741.104	8658.76
741.444	8594.58
741.784	8576.95
742.124	8726.32
742.464	8689.49
742.804	8691.3
743.143	8667.57
743.483	8782.37
743.823	8703.5
744.162	8771.97
744.502	8819.43
744.841	8820.33
745.181	8888.81
745.52	8896.04
745.86	8920.9
746.199	9003.38
746.538	8973.32
746.877	9052.42
747.216	9099.87
747.556	9162.7
747.895	9242.24
748.234	9234.11
748.573	9257.84
748.911	9348.45
749.25	9399.75
749.589	9423.93
749.928	9485.63
750.267	9550.26
750.605	9594.1
750.944	9707.32
751.283	9724.72
751.621	9837.71
751.96	9939.4
752.298	9986.63
752.636	10080.19
752.975	10212.61
753.313	10203.57
753.651	10485.6
753.989	10465.04
754.327	10539.16
754.666	10731.02
755.004	10807.63
755.342	10931.46
755.679	11043.55
756.017	11177.11
756.355	11330.55
756.693	11379.14
757.031	11567.61
757.368	11551.79
757.706	11753.14
758.044	11818.45
758.381	12044.88
758.719	12171.66
759.056	12337.08
759.394	12469.73
