Data from hue_300_FLMS001491_00041.txt Node
Date: Tue Feb 07 15:50:46 GMT 2017
User: dcchb
Spectrometer: FLMS00149
Trigger mode: 0
Integration Time (sec): 2.000000E-2
Scans to average: 10
Electric dark correction enabled: true
Nonlinearity correction enabled: false
Boxcar width: 0
XAxis mode: Wavelengths
Number of Pixels in Spectrum: 2048
>>>>>Begin Spectral Data<<<<<
341.393	-9.83
341.776	-9.83
342.16	-9.83
342.543	-61.35
342.927	-60.22
343.31	-67.46
343.693	-70.17
344.077	-52.54
344.46	-53.9
344.843	-45.99
345.226	-34.69
345.61	-24.07
345.993	-12.09
346.376	-11.41
346.759	0.56
347.142	34.69
347.525	41.24
347.908	55.03
348.291	59.09
348.674	74.91
349.057	106.78
349.44	119.21
349.823	153.78
350.206	182.93
350.588	192.2
350.971	192.88
351.354	205.31
351.737	247.56
352.119	246.89
352.502	284.63
352.884	256.15
353.267	292.99
353.65	304.74
354.032	299.99
354.414	291.86
354.797	311.52
355.179	327.79
355.562	317.84
355.944	322.36
356.326	329.6
356.709	339.77
357.091	298.86
357.473	352.19
357.855	342.48
358.238	352.65
358.62	331.4
359.002	321.91
359.384	348.13
359.766	323.27
360.148	347.67
360.53	339.99
360.912	322.82
361.294	337.96
361.676	343.83
362.057	332.76
362.439	324.4
362.821	318.3
363.203	315.36
363.584	333.66
363.966	297.51
364.348	304.96
364.729	316.26
365.111	306.09
365.493	321.69
365.874	325.75
366.256	313.55
366.637	306.77
367.019	323.49
367.4	309.71
367.781	309.94
368.163	318.97
368.544	295.47
368.925	330.73
369.306	309.48
369.688	319.2
370.069	324.62
370.45	327.11
370.831	320.78
371.212	322.82
371.593	336.38
371.974	331.86
372.355	316.71
372.736	317.62
373.117	313.78
373.498	302.25
373.879	331.63
374.26	300.44
374.641	324.62
375.021	320.78
375.402	321.23
375.783	339.09
376.163	339.31
376.544	310.84
376.925	330.95
377.305	345.64
377.686	333.44
378.066	355.81
378.447	332.76
378.827	353.32
379.208	326.88
379.588	330.73
379.968	346.32
380.349	348.13
380.729	321.01
381.109	330.05
381.489	329.37
381.87	362.82
382.25	347
382.63	345.41
383.01	340.89
383.39	359.65
383.77	345.19
384.15	332.99
384.53	330.27
384.91	332.08
385.29	349.71
385.67	360.1
386.049	350.61
386.429	343.38
386.809	354.91
387.189	347.45
387.568	379.09
387.948	356.26
388.328	368.46
388.707	375.47
389.087	385.19
389.466	390.84
389.846	372.08
390.225	378.86
390.605	376.6
390.984	401.46
391.363	402.36
391.743	372.76
392.122	389.26
392.501	378.86
392.881	392.19
393.26	379.99
393.639	388.58
394.018	410.72
394.397	397.62
394.776	393.55
395.155	401.01
395.534	400.33
395.913	403.04
396.292	408.92
396.671	404.62
397.05	396.71
397.429	411.63
397.808	409.59
398.186	409.59
398.565	406.2
398.944	415.02
399.323	399.88
399.701	414.79
400.08	428.58
400.458	440.1
400.837	426.99
401.215	447.78
401.594	447.11
401.972	441.68
402.351	447.33
402.729	418.41
403.107	475.81
403.486	450.27
403.864	470.38
404.242	458.18
404.62	485.52
404.999	457.95
405.377	462.25
405.755	465.86
406.133	483.94
406.511	503.6
406.889	479.42
407.267	474.9
407.645	483.26
408.023	499.31
408.401	507.44
408.779	535.47
409.156	525.52
409.534	502.25
409.912	542.92
410.29	543.38
410.667	549.03
411.045	562.36
411.422	554.22
411.8	572.3
412.178	549.93
412.555	599.19
412.933	587.44
413.31	595.8
413.687	619.53
414.065	618.4
414.442	639.19
414.819	641.9
415.197	648.91
415.574	664.28
415.951	660.21
416.328	668.8
416.705	689.13
417.082	683.48
417.46	718.51
417.837	727.78
418.214	703.82
418.591	730.04
418.967	723.71
419.344	749.25
419.721	765.52
420.098	769.81
420.475	773.88
420.852	783.37
421.228	815.46
421.605	796.93
421.982	821.11
422.358	836.25
422.735	834.67
423.111	844.84
423.488	851.16
423.864	855.23
424.241	855.23
424.617	900.65
424.994	874.89
425.37	873.76
425.746	877.6
426.123	905.85
426.499	922.35
426.875	939.3
427.251	938.17
427.627	930.26
428.003	985.4
428.379	983.36
428.756	992.63
429.132	982.69
429.507	990.14
429.883	1016.81
430.259	1053.64
430.635	1046.19
431.011	1078.95
431.387	1078.05
431.763	1103.13
432.138	1101.55
432.514	1130.7
432.89	1133.19
433.265	1127.31
433.641	1134.77
434.016	1161.44
434.392	1215.9
434.767	1210.48
435.143	1180.65
435.518	1233.07
435.894	1219.97
436.269	1260.87
436.644	1257.26
437.02	1273.53
437.395	1273.53
437.77	1283.92
438.145	1318.95
438.52	1325.95
438.895	1342.68
439.271	1346.52
439.646	1363.02
440.021	1389.23
440.395	1356.24
440.77	1367.76
441.145	1408.89
441.52	1369.79
441.895	1404.14
442.27	1424.71
442.645	1406.4
443.019	1419.74
443.394	1401.21
443.769	1439.4
444.143	1433.07
444.518	1443.24
444.892	1428.78
445.267	1466.74
445.641	1479.17
446.016	1510.36
446.39	1465.84
446.764	1479.62
447.139	1471.49
447.513	1511.71
447.887	1498.15
448.262	1517.14
448.636	1522.78
449.01	1526.4
449.384	1530.02
449.758	1559.62
450.132	1554.87
450.506	1548.77
450.88	1543.8
451.254	1587.42
451.628	1571.37
452.002	1575.44
452.376	1584.25
452.75	1628.77
453.123	1605.04
453.497	1642.1
453.871	1641.2
454.244	1675.1
454.618	1650.92
454.992	1652.27
455.365	1710.58
455.739	1707.64
456.112	1730.46
456.486	1739.05
456.859	1769.11
457.232	1756.9
457.606	1771.82
457.979	1784.92
458.352	1825.83
458.725	1807.98
459.099	1820.4
459.472	1859.73
459.845	1871.93
460.218	1885.49
460.591	1888.65
460.964	1869.22
461.337	1932.27
461.71	1942.89
462.083	1969.33
462.456	1954.19
462.829	2009.55
463.201	1995.09
463.574	1985.6
463.947	2028.08
464.32	2042.77
464.692	2058.59
465.065	2067.18
465.438	2087.29
465.81	2114.41
466.183	2140.85
466.555	2184.01
466.928	2167.06
467.3	2181.3
467.672	2177.91
468.045	2257.23
468.417	2238.47
468.789	2241.64
469.161	2282.31
469.534	2286.15
469.906	2312.14
470.278	2336.77
470.65	2351.24
471.022	2372.48
471.394	2415.64
471.766	2468.3
472.138	2438.69
472.51	2484.57
472.882	2489.54
473.253	2572.7
473.625	2569.08
473.997	2598.91
474.369	2584.23
474.74	2628.07
475.112	2665.35
475.484	2708.29
475.855	2702.41
476.227	2778.8
476.598	2764.79
476.97	2827.84
477.341	2868.29
477.713	2879.13
478.084	2884.78
478.455	2945.12
478.827	2966.59
479.198	3014.27
479.569	3050.88
479.94	3078.22
480.311	3117.32
480.682	3170.65
481.053	3220.59
481.424	3201.38
481.795	3245.45
482.166	3307.37
482.537	3350.99
482.908	3359.57
483.279	3409.97
483.65	3435.95
484.021	3470.3
484.391	3472.79
484.762	3535.16
485.133	3553.47
485.503	3618.32
485.874	3688.83
486.244	3673.01
486.615	3727.25
486.985	3747.81
487.356	3775.38
487.726	3860.58
488.097	3901.71
488.467	3858.77
488.837	3928.37
489.207	3936.05
489.578	4020.12
489.948	4026.67
490.318	4051.76
490.688	4092.43
491.058	4104.86
491.428	4197.74
491.798	4181.47
492.168	4262.37
492.538	4305.76
492.908	4346.67
493.278	4368.13
493.648	4356.83
494.017	4429.6
494.387	4426.21
494.757	4455.36
495.126	4518.86
495.496	4548.69
495.866	4532.2
496.235	4536.04
496.605	4582.14
496.974	4618.52
497.344	4690.84
497.713	4702.14
498.082	4673.89
498.452	4759.08
498.821	4806.09
499.19	4766.32
499.559	4777.16
499.928	4795.69
500.298	4829.82
500.667	4847.22
501.036	4831.62
501.405	4891.96
501.774	4917.27
502.143	4914.79
502.512	4937.38
502.88	4975.12
503.249	4983.48
503.618	5034.33
503.987	5022.58
504.356	5019.42
504.724	5074.1
505.093	5083.14
505.462	5065.29
505.83	5102.8
506.199	5152.97
506.567	5184.38
506.936	5182.12
507.304	5215.34
507.672	5264.83
508.041	5281.56
508.409	5248.79
508.777	5305.51
509.145	5338.73
509.514	5355.45
509.882	5327.2
510.25	5376.47
510.618	5355.9
510.986	5396.81
511.354	5476.35
511.722	5475.68
512.09	5510.7
512.458	5459.4
512.826	5521.1
513.193	5519.29
513.561	5567.42
513.929	5580.98
514.297	5608.1
514.664	5604.94
515.032	5636.57
515.4	5659.4
515.767	5664.37
516.135	5694.2
516.502	5656.69
516.869	5700.08
517.237	5769
517.604	5738.95
517.972	5739.4
518.339	5761.32
518.706	5750.24
519.073	5811.71
519.44	5801.32
519.808	5884.93
520.175	5896.68
520.542	5918.6
520.909	5874.31
521.276	5914.76
521.643	6001.09
522.009	6021.2
522.376	6032.5
522.743	5975.32
523.11	6080.63
523.477	6117.01
523.843	6124.25
524.21	6148.65
524.577	6238.37
524.943	6244.69
525.31	6311.81
525.676	6315.65
526.043	6326.5
526.409	6345.93
526.776	6420.96
527.142	6392.94
527.508	6446.5
527.874	6516.33
528.241	6543.9
528.607	6510.68
528.973	6616.44
529.339	6610.79
529.705	6667.51
530.071	6738.24
530.437	6769.65
530.803	6766.26
531.169	6751.57
531.535	6790.22
531.901	6793.61
532.267	6846.49
532.632	6897.56
532.998	6885.36
533.364	6932.59
533.73	6955.64
534.095	7028.85
534.461	7032.24
534.826	7071.79
535.192	7052.81
535.557	7100.49
535.923	7110.66
536.288	7149.53
536.653	7197.89
537.019	7115.86
537.384	7240.37
537.749	7250.77
538.114	7350.88
538.479	7333.25
538.845	7315.17
539.21	7271.79
539.575	7374.83
539.94	7425.91
540.305	7513.36
540.67	7496.87
541.034	7522.85
541.399	7571.89
541.764	7556.98
542.129	7592.68
542.494	7625.68
542.858	7672.45
543.223	7705.45
543.587	7705
543.952	7747.03
544.316	7787.25
544.681	7839.45
545.045	7768.04
545.41	7864.99
545.774	7852.79
546.138	7875.84
546.503	7975.5
546.867	7937.08
547.231	7979.79
547.595	8053.91
547.959	8009.62
548.324	8084.42
548.688	8107.24
549.052	8116.06
549.416	8178.43
549.779	8175.94
550.143	8165.32
550.507	8213
550.871	8280.57
551.235	8353.79
551.599	8345.66
551.962	8308.37
552.326	8297.97
552.689	8367.35
553.053	8371.87
553.417	8415.94
553.78	8487.57
554.143	8471.75
554.507	8474.92
554.87	8487.12
555.234	8592.2
555.597	8577.97
555.96	8639.89
556.323	8638.98
556.686	8659.55
557.05	8689.15
557.413	8707.45
557.776	8758.53
558.139	8739.54
558.502	8684.63
558.865	8802.59
559.228	8813.21
559.59	8884.85
559.953	8877.17
560.316	8948.13
560.679	8899.99
561.041	8992.42
561.404	8984.06
561.767	9069.48
562.129	9021.12
562.492	9141.57
562.854	9106.99
563.217	9118.97
563.579	9230.38
563.941	9198.29
564.304	9239.64
564.666	9290.26
565.028	9321.22
565.39	9365.29
565.753	9375.01
566.115	9381.56
566.477	9414.55
566.839	9412.75
567.201	9568
567.563	9584.27
567.925	9586.08
568.287	9596.7
568.648	9627.43
569.01	9632.63
569.372	9745.85
569.734	9686.86
570.095	9747.2
570.457	9792.4
570.819	9856.35
571.18	9843.92
571.542	9901.32
571.903	9954.43
572.265	10042.11
572.626	10045.5
572.987	10153.74
573.349	10198.04
573.71	10187.87
574.071	10248.43
574.432	10401.87
574.794	10406.17
575.155	10468.99
575.516	10475.77
575.877	10542.66
576.238	10670.11
576.599	10781.3
576.96	10812.26
577.32	10859.26
577.681	10960.28
578.042	11135.19
578.403	11192.81
578.763	11247.5
579.124	11448.17
579.485	11522.75
579.845	11652.91
580.206	11731.78
580.566	11872.57
580.927	11975.62
581.287	12206.12
581.648	12356.17
582.008	12562.04
582.368	12642.72
582.728	12828.48
583.089	12979.88
583.449	13083.16
583.809	13287.67
584.169	13472.53
584.529	13680.43
584.889	13883.59
585.249	14089.69
585.609	14270.25
585.969	14479.28
586.329	14697.81
586.688	15041.53
587.048	15163.56
587.408	15444.9
587.768	15621.62
588.127	15921.5
588.487	16147.71
588.846	16547.25
589.206	16647.36
589.565	16943.17
589.925	17279.21
590.284	17566.43
590.643	17920.77
591.003	18117.15
591.362	18547.42
591.721	18732.95
592.08	18978.82
592.44	19456.32
592.799	19666.49
593.158	19920.49
593.517	20200.03
593.876	20520.03
594.235	20741.26
594.593	21113.68
594.952	21441.13
595.311	21606.1
595.67	21884.28
596.029	22388
596.387	22730.59
596.746	22981.43
597.104	23263.46
597.463	23502.09
597.822	24011.23
598.18	24102.53
598.538	24320.6
598.897	24942.51
599.255	24893.92
599.613	25577.97
599.972	25634.69
600.33	26052.54
600.688	26187.45
601.046	26628.57
601.404	27018.16
601.762	27183.13
602.12	27455.44
602.478	27820.4
602.836	28221.07
603.194	28296.77
603.552	28520.27
603.91	28676.2
604.268	29079.8
604.625	29234.6
604.983	29590.52
605.341	29702.61
605.698	30129.94
606.056	30488.8
606.413	30599.76
606.771	30896.02
607.128	31170.14
607.485	31282.68
607.843	31470.02
608.2	31926.05
608.557	32068.42
608.914	32135.09
609.272	32499.15
609.629	32757.9
609.986	33072.24
610.343	33264.1
610.7	33410.31
611.057	33608.72
611.414	33708.15
611.771	33942.05
612.127	34331.87
612.484	34395.59
612.841	34657.51
613.198	34730.73
613.554	34986.09
613.911	35383.14
614.267	35457.49
614.624	35434.44
614.98	35779.06
615.337	36096.57
615.693	36130.01
616.05	36140.18
616.406	36653.61
616.762	36543.33
617.118	36755.08
617.475	36869.65
617.831	37126.82
618.187	37188.29
618.543	37275.52
618.899	37699.23
619.255	37635.73
619.611	37712.57
619.967	37887.25
620.323	37988.94
620.678	37973.58
621.034	38145.1
621.39	38100.35
621.746	38216.51
622.101	38748.25
622.457	38540.34
622.812	38732.43
623.168	38911.86
623.523	39053.78
623.879	39304.16
624.234	39003.83
624.589	39199.08
624.945	39250.61
625.3	39400.88
625.655	39416.25
626.01	39481.56
626.365	39574.89
626.72	39595
627.075	39638.62
627.43	39767.43
627.785	39733.08
628.14	39883.81
628.495	39999.06
628.85	39961.1
629.205	39969.68
629.559	40263.01
629.914	40114.31
630.269	40069.12
630.623	40089
630.978	40128.1
631.332	40313.86
631.687	40330.58
632.041	40081.32
632.396	40335.32
632.75	40298.26
633.104	40394.08
633.459	40281.54
633.813	40292.16
634.167	40331.48
634.521	40391.82
634.875	40459.16
635.229	40378.94
635.583	40244.03
635.937	40324.48
636.291	40293.74
636.645	40270.24
636.999	40388.88
637.352	40333.29
637.706	40268.66
638.06	40334.19
638.413	40312.5
638.767	40381.42
639.121	40371.48
639.474	40107.53
639.828	40221.43
640.181	40221.88
640.534	40240.41
640.888	40147.08
641.241	40085.16
641.594	40133.3
641.947	40399.95
642.301	40237.93
642.654	40258.49
643.007	40312.95
643.36	40188.21
643.713	40091.94
644.066	40353.4
644.419	40061.21
644.771	39653.76
645.124	39474.78
645.477	39364.5
645.83	39224.17
646.182	39082.7
646.535	38987.56
646.888	39088.35
647.24	38900.79
647.593	39033.89
647.945	38979.2
648.298	39046.09
648.65	38908.02
649.002	38693.78
649.355	38964.29
649.707	38997.51
650.059	39045.64
650.411	39569.92
650.763	39670.48
651.115	40042.22
651.467	39857.14
651.819	39835
652.171	39725.4
652.523	39715.68
652.875	39800.87
653.227	39535.34
653.578	40025.73
653.93	39767.65
654.282	39581.22
654.633	39586.42
654.985	39610.82
655.337	39768.11
655.688	39771.27
656.039	39831.38
656.391	39603.14
656.742	39451.28
657.094	39645.4
657.445	39726.75
657.796	39597.72
658.147	39435.23
658.498	39512.52
658.849	39557.26
659.2	39552.52
659.551	39477.27
659.902	39595.68
660.253	39442.47
660.604	39532.63
660.955	39435.46
661.306	39507.55
661.656	39477.04
662.007	39445.86
662.358	39483.59
662.708	39508.45
663.059	39522.24
663.409	39235.92
663.76	39566.76
664.11	39470.04
664.461	39494.44
664.811	39523.14
665.161	39529.02
665.511	39303.71
665.862	39356.59
666.212	39544.16
666.562	39443.14
666.912	39314.33
667.262	39418.96
667.612	39415.8
667.962	39487.44
668.312	39391.62
668.662	39555.68
669.011	39402.24
669.361	39400.88
669.711	39376.93
670.06	39327.21
670.41	39260.1
670.76	39090.84
671.109	39325.86
671.459	39249.93
671.808	39210.38
672.157	39292.87
672.507	38887.23
672.856	38944.17
673.205	39030.27
673.554	39066.2
673.904	39027.79
674.253	39229.82
674.602	39005.19
674.951	38514.13
675.3	38368.37
675.649	39180.78
675.998	38854.68
676.346	38955.47
676.695	39092.87
677.044	38845.19
677.393	38897.62
677.741	39046.54
678.09	38863.72
678.438	38712.09
678.787	38864.4
679.135	38694.24
679.484	38583.96
679.832	38757.29
680.181	38536.5
680.529	38607.23
680.877	38529.04
681.225	38519.1
681.573	38802.03
681.922	38343.06
682.27	38210.86
682.618	38370.63
682.966	38242.05
683.314	38221.03
683.661	38114.82
684.009	37962.28
684.357	38015.38
684.705	38001.15
685.053	38096.96
685.4	37928.61
685.748	37655.39
686.095	37704.88
686.443	37588.05
686.79	37732.23
687.138	37595.96
687.485	37594.83
687.832	37466.02
688.18	37518.67
688.527	37317.32
688.874	37288.62
689.221	37152.36
689.568	37104.22
689.915	36992.81
690.262	37075.75
690.609	36784.23
690.956	36714.63
691.303	36763.21
691.65	36644.8
691.997	36679.6
692.344	36399.16
692.69	36367.29
693.037	36450
693.383	36129.56
693.73	36301.08
694.077	36056.11
694.423	36109.22
694.769	35941.99
695.116	35758.49
695.462	35879.17
695.808	35663.58
696.155	35866.06
696.501	35487.54
696.847	35530.93
697.193	35323.48
697.539	35320.77
697.885	35103.37
698.231	34993.77
698.577	34909.93
698.923	34857.95
699.269	34735.47
699.614	34735.92
699.96	34532.09
700.306	34657.05
700.651	34355.14
700.997	34382.03
701.342	34323.73
701.688	34255.48
702.033	34182.49
702.379	34115.83
702.724	33939.11
703.069	34027.92
703.415	33826.79
703.76	33716.51
704.105	33652.11
704.45	33646.69
704.795	33426.13
705.14	33342.29
705.485	33265.9
705.83	33141.39
706.175	33259.58
706.52	33100.94
706.865	33128.73
707.209	33048.96
707.554	32849.19
707.899	32886.93
708.243	32748.63
708.588	32796.76
708.932	32452.59
709.277	32374.4
709.621	32550.22
709.966	32283.33
710.31	32345.7
710.654	32076.78
710.998	32070.68
711.342	32077.46
711.687	31912.49
712.031	31956.33
712.375	31717.25
712.719	31808.99
713.063	31721.76
713.407	31825.04
713.75	31747.75
714.094	31714.76
714.438	31376.24
714.782	31606.29
715.125	31343.24
715.469	31287.65
715.812	31210.14
716.156	31082.46
716.499	31128.56
716.843	31192.29
717.186	31057.38
717.53	31148.67
717.873	31084.04
718.216	31061.9
718.559	30905.52
718.902	30701.68
719.246	30691.74
719.589	30721.79
719.932	30636.37
720.275	30608.8
720.617	30577.16
720.96	30579.65
721.303	30488.35
721.646	30530.38
721.989	30277.96
722.331	30369.71
722.674	30336.26
723.016	30210.62
723.359	30272.31
723.701	30261.69
724.044	29944.41
724.386	29968.14
724.729	30062.15
725.071	29950.96
725.413	29792.32
725.755	29877.97
726.097	29753.23
726.439	29570.18
726.782	29647.02
727.124	29792.78
727.465	29546
727.807	29516.17
728.149	29515.95
728.491	29516.17
728.833	29483.18
729.175	29463.29
729.516	29328.61
729.858	29402.28
730.199	29307.82
730.541	29192.34
730.882	29136.97
731.224	29184.2
731.565	29045.9
731.906	29027.82
732.248	29021.72
732.589	28878.45
732.93	28784.21
733.271	28786.25
733.612	28826.47
733.953	28869.86
734.294	28738.11
734.635	28680.49
734.976	28815.17
735.317	28526.37
735.658	28599.59
735.999	28569.98
736.339	28614.28
736.68	28702.64
737.021	28557.33
737.361	28340.84
737.702	28413.6
738.042	28453.15
738.383	28245.02
738.723	28420.16
739.063	28379.25
739.404	28328.41
739.744	28191.46
740.084	28118.24
740.424	28234.62
740.764	28017.68
741.104	28147.85
741.444	27982.65
741.784	27922.54
742.124	28001.41
742.464	27847.74
742.804	27787.86
743.143	27837.8
743.483	27872.37
743.823	27653.62
744.162	27662.44
744.502	27896.55
744.841	27640.29
745.181	27654.53
745.52	27602.1
745.86	27665.15
746.199	27546.96
746.538	27510.8
746.877	27641.87
747.216	27634.41
747.556	27558.26
747.895	27525.26
748.234	27398.26
748.573	27394.19
748.911	27368.88
749.25	27369.79
749.589	27258.83
749.928	27259.96
750.267	27332.5
750.605	27214.99
750.944	27136.12
751.283	27106.07
751.621	27109.68
751.96	26944.94
752.298	26965.28
752.636	26931.83
752.975	26868.11
753.313	26818.62
753.651	26908.11
753.989	26752.18
754.327	26834.21
754.666	26633.09
755.004	26754.44
755.342	26659.98
755.679	26626.76
756.017	26420.89
756.355	26662.69
756.693	26445.29
757.031	26369.14
757.368	26448.46
757.706	26483.48
758.044	26223.38
758.381	26352.64
758.719	26280.33
759.056	26109.93
