Data from hue_210_FLMS001491_00007.txt Node
Date: Tue Feb 07 16:40:41 GMT 2017
User: dcchb
Spectrometer: FLMS00149
Trigger mode: 0
Integration Time (sec): 2.000000E-2
Scans to average: 10
Electric dark correction enabled: true
Nonlinearity correction enabled: false
Boxcar width: 0
XAxis mode: Wavelengths
Number of Pixels in Spectrum: 2048
>>>>>Begin Spectral Data<<<<<
341.393	-2.06
341.776	-2.06
342.16	-2.06
342.543	-61.04
342.927	-74.38
343.31	-66.69
343.693	-59.24
344.077	-70.99
344.46	-54.94
344.843	-56.07
345.226	-39.35
345.61	-32.12
345.993	-35.51
346.376	-10.88
346.759	2.68
347.142	27.09
347.525	39.07
347.908	69.12
348.291	80.42
348.674	99.86
349.057	107.54
349.44	118.61
349.823	140.31
350.206	159.52
350.588	207.65
350.971	213.07
351.354	217.59
351.737	244.71
352.119	224.6
352.502	245.16
352.884	259.4
353.267	278.38
353.65	291.94
354.032	271.83
354.414	315.67
354.797	300.53
355.179	313.64
355.562	315.22
355.944	318.38
356.326	321.32
356.709	324.93
357.091	329.68
357.473	325.84
357.855	317.48
358.238	338.72
358.62	338.95
359.002	351.15
359.384	328.1
359.766	340.08
360.148	333.97
360.53	322.9
360.912	353.86
361.294	338.27
361.676	305.5
362.057	342.34
362.439	324.71
362.821	308.44
363.203	310.47
363.584	320.19
363.966	309.57
364.348	312.96
364.729	313.18
365.111	325.16
365.493	326.29
365.874	328.1
366.256	317.03
366.637	307.31
367.019	324.93
367.4	308.89
367.781	311.15
368.163	325.61
368.544	291.04
368.925	303.92
369.306	316.12
369.688	299.4
370.069	314.31
370.45	303.92
370.831	302.34
371.212	297.14
371.593	283.13
371.974	307.31
372.355	314.31
372.736	284.48
373.117	298.49
373.498	307.08
373.879	289.91
374.26	331.71
374.641	334.88
375.021	293.75
375.402	310.92
375.783	303.24
376.163	349.12
376.544	314.31
376.925	304.37
377.305	312.73
377.686	312.73
378.066	318.38
378.447	321.32
378.827	323.13
379.208	310.25
379.588	332.17
379.968	343.01
380.349	332.17
380.729	301.88
381.109	319.51
381.489	350.92
381.87	336.69
382.25	349.34
382.63	339.17
383.01	336.01
383.39	322
383.77	322.22
384.15	320.87
384.53	345.95
384.91	357.25
385.29	354.09
385.67	338.72
386.049	374.88
386.429	358.38
386.809	352.96
387.189	364.26
387.568	354.76
387.948	342.11
388.328	347.99
388.707	347.31
389.087	353.41
389.466	364.26
389.846	354.99
390.225	350.7
390.605	371.49
390.984	371.04
391.363	355.89
391.743	363.13
392.122	376.23
392.501	377.59
392.881	385.5
393.26	364.93
393.639	384.37
394.018	372.84
394.397	377.36
394.776	374.88
395.155	400.64
395.534	396.57
395.913	370.58
396.292	377.36
396.671	429.34
397.05	368.55
397.429	394.54
397.808	389.11
398.186	395.44
398.565	388.21
398.944	388.21
399.323	431.82
399.701	409.23
400.08	417.81
400.458	403.8
400.837	429.79
401.215	404.71
401.594	416.23
401.972	425.72
402.351	433.86
402.729	460.3
403.107	418.94
403.486	434.99
403.864	459.85
404.242	427.31
404.62	442.22
404.999	443.58
405.377	451.71
405.755	460.52
406.133	446.97
406.511	469.34
406.889	456.91
407.267	485.38
407.645	473.41
408.023	489.22
408.401	492.39
408.779	498.04
409.156	504.59
409.534	507.53
409.912	529.9
410.29	530.58
410.667	552.05
411.045	550.69
411.422	561.76
411.8	550.69
412.178	561.76
412.555	561.09
412.933	587.98
413.31	604.25
413.687	615.1
414.065	608.09
414.442	632.5
414.819	632.27
415.197	646.73
415.574	656.23
415.951	650.35
416.328	658.71
416.705	665.94
417.082	687.19
417.46	684.7
417.837	701.2
418.214	729.67
418.591	738.71
418.967	731.93
419.344	709.56
419.721	724.02
420.098	744.81
420.475	747.3
420.852	788.43
421.228	806.96
421.605	790.91
421.982	805.15
422.358	825.03
422.735	844.02
423.111	832.49
423.488	874.75
423.864	858.48
424.241	886.28
424.617	914.52
424.994	923.56
425.37	954.3
425.746	955.65
426.123	975.31
426.499	996.56
426.875	1006.72
427.251	1017.35
427.627	1027.52
428.003	1040.17
428.379	1062.77
428.756	1043.79
429.132	1071.81
429.507	1095.76
429.883	1093.5
430.259	1132.6
430.635	1152.94
431.011	1166.72
431.387	1160.85
431.763	1178.7
432.138	1192.26
432.514	1235.19
432.89	1232.03
433.265	1257.34
433.641	1279.26
434.016	1297.11
434.392	1325.81
434.767	1357.45
435.143	1339.6
435.518	1361.29
435.894	1400.39
436.269	1428.18
436.644	1444.23
437.02	1497.79
437.395	1500.5
437.77	1525.36
438.145	1583.66
438.52	1578.46
438.895	1609.65
439.271	1636.09
439.646	1668.4
440.021	1670.89
440.395	1706.82
440.77	1690.55
441.145	1769.42
441.52	1764.9
441.895	1773.26
442.27	1811
442.645	1811.68
443.019	1855.74
443.394	1824.56
443.769	1876.31
444.143	1878.34
444.518	1895.97
444.892	1912.01
445.267	1923.76
445.641	1955.63
446.016	1966.25
446.39	1976.42
446.764	2000.15
447.139	2008.28
447.513	2038.34
447.887	2047.83
448.262	2057.54
448.636	2050.77
449.01	2106.13
449.384	2119.69
449.758	2128.05
450.132	2157.2
450.506	2174.38
450.88	2193.59
451.254	2227.94
451.628	2212.79
452.002	2248.05
452.376	2264.77
452.75	2296.86
453.123	2288.27
453.497	2344.54
453.871	2366.46
454.244	2376.41
454.618	2433.58
454.992	2420.93
455.365	2436.52
455.739	2505.67
456.112	2529.4
456.486	2537.31
456.859	2569.62
457.232	2612.78
457.606	2600.81
457.979	2626.8
458.352	2702.73
458.725	2704.08
459.099	2728.49
459.472	2767.13
459.845	2817.98
460.218	2821.82
460.591	2853.46
460.964	2872.21
461.337	2960.35
461.71	2982.72
462.083	3028.14
462.456	3032.66
462.829	3029.95
463.201	3061.36
463.574	3086.44
463.947	3119.66
464.32	3206.67
464.692	3242.82
465.065	3268.81
465.438	3279.66
465.81	3339.77
466.183	3391.75
466.555	3464.29
466.928	3476.26
467.3	3449.82
467.672	3501.12
468.045	3592.19
468.417	3584.28
468.789	3589.93
469.161	3670.38
469.534	3685.52
469.906	3821.34
470.278	3771.62
470.65	3824.5
471.022	3908.34
471.394	3982.92
471.766	4001.67
472.138	4051.16
472.51	4154.21
472.882	4146.3
473.253	4239.41
473.625	4254.1
473.997	4370.25
474.369	4386.3
474.74	4431.72
475.112	4503.36
475.484	4537.03
475.855	4594.88
476.227	4685.27
476.598	4751.26
476.97	4776.57
477.341	4924.14
477.713	4961.65
478.084	4986.51
478.455	5120.74
478.827	5168.88
479.198	5250.23
479.569	5311.7
479.94	5396.44
480.311	5450.22
480.682	5602.54
481.053	5621.97
481.424	5723.44
481.795	5753.49
482.166	5854.06
482.537	5921.62
482.908	6038.23
483.279	6087.72
483.65	6178.11
484.021	6299.02
484.391	6343.08
484.762	6373.59
485.133	6427.83
485.503	6439.8
485.874	6569.06
486.244	6652.23
486.615	6763.18
486.985	6843.41
487.356	6938.32
487.726	6995.27
488.097	7092.89
488.467	7137.64
488.837	7281.81
489.207	7385.09
489.578	7373.11
489.948	7410.85
490.318	7548.47
490.688	7582.82
491.058	7661.69
491.428	7734.01
491.798	7826.88
492.168	8008.8
492.538	7987.56
492.908	8084.05
493.278	8158.85
493.648	8157.05
494.017	8215.12
494.387	8317.72
494.757	8328.57
495.126	8381.67
495.496	8431.84
495.866	8479.07
496.235	8597.71
496.605	8583.25
496.974	8610.82
497.344	8679.74
497.713	8734.21
498.082	8780.98
498.452	8844.71
498.821	8857.59
499.19	8894.65
499.559	8940.53
499.928	8966.52
500.298	8995.89
500.667	9047.87
501.036	9016.68
501.405	9085.83
501.774	9149.11
502.143	9221.88
502.512	9211.25
502.88	9219.84
503.249	9276.34
503.618	9246.06
503.987	9338.94
504.356	9360.18
504.724	9360.63
505.093	9402.89
505.462	9391.14
505.83	9497.58
506.199	9503.68
506.567	9589.78
506.936	9529.66
507.304	9620.28
507.672	9625.93
508.041	9644.46
508.409	9662.54
508.777	9774.4
509.145	9768.75
509.514	9737.57
509.882	9744.8
510.25	9751.13
510.618	9818.7
510.986	9832.71
511.354	9853.95
511.722	9939.6
512.09	9900.95
512.458	9930.33
512.826	9949.77
513.193	9989.99
513.561	9986.38
513.929	10021.4
514.297	10069.76
514.664	10032.48
515.032	10075.64
515.4	10090.1
515.767	10075.64
516.135	10128.52
516.502	10057.79
516.869	10149.54
517.237	10157.44
517.604	10141.63
517.972	10178.01
518.339	10127.16
518.706	10186.6
519.073	10183.43
519.44	10144.11
519.808	10304.56
520.175	10243.77
520.542	10288.06
520.909	10286.48
521.276	10212.58
521.643	10274.05
522.009	10252.13
522.376	10333.03
522.743	10353.6
523.11	10349.98
523.477	10422.3
523.843	10452.35
524.21	10477.89
524.577	10484.89
524.943	10530.54
525.31	10508.62
525.676	10549.07
526.043	10473.37
526.409	10556.53
526.776	10586.13
527.142	10554.27
527.508	10539.58
527.874	10541.62
528.241	10535.51
528.607	10603.31
528.973	10580.94
529.339	10523.08
529.705	10593.14
530.071	10545.23
530.437	10576.19
530.803	10570.09
531.169	10571.67
531.535	10454.61
531.901	10437.89
532.267	10455.29
532.632	10560.37
532.998	10512.69
533.364	10537.55
533.73	10424.1
534.095	10507.94
534.461	10439.02
534.826	10481.96
535.192	10467.95
535.557	10474.5
535.923	10426.59
536.288	10362.86
536.653	10423.65
537.019	10335.52
537.384	10300.04
537.749	10356.08
538.114	10316.08
538.479	10279.7
538.845	10267.72
539.21	10220.04
539.575	10184.56
539.94	10105.24
540.305	10180.72
540.67	10114.06
541.034	10115.19
541.399	10091.46
541.764	10033.38
542.129	10052.36
542.494	9999.26
542.858	9997.9
543.223	9970.11
543.587	9877
543.952	9850.79
544.316	9776.21
544.681	9791.58
545.045	9819.6
545.41	9802.65
545.774	9686.72
546.138	9724.46
546.503	9678.36
546.867	9651.02
547.231	9668.19
547.595	9641.98
547.959	9600.85
548.324	9597.01
548.688	9557.23
549.052	9455.54
549.416	9553.84
549.779	9399.27
550.143	9431.59
550.507	9467.29
550.871	9410.12
551.235	9366.05
551.599	9385.71
551.962	9318.37
552.326	9277.02
552.689	9287.86
553.053	9274.3
553.417	9174.19
553.78	9281.08
554.143	9203.12
554.507	9182.56
554.87	9150.92
555.234	9261.88
555.597	9099.17
555.96	9143.23
556.323	9088.32
556.686	9119.96
557.05	9119.51
557.413	9067.98
557.776	9087.42
558.139	9110.69
558.502	9035.89
558.865	9048.32
559.228	9059.17
559.59	8980.3
559.953	9030.69
560.316	9060.52
560.679	9047.64
561.041	9012.84
561.404	9025.95
561.767	9060.52
562.129	8983.01
562.492	9055.78
562.854	9056
563.217	9074.54
563.579	8983.46
563.941	9027.53
564.304	9126.06
564.666	9143.69
565.028	9173.29
565.39	9078.15
565.753	9094.87
566.115	9126.29
566.477	9060.52
566.839	9087.87
567.201	9138.26
567.563	9160.86
567.925	9149.56
568.287	9201.54
568.648	9167.64
569.01	9172.84
569.372	9177.81
569.734	9131.26
570.095	9222.33
570.457	9224.14
570.819	9209.67
571.18	9164.25
571.542	9203.8
571.903	9228.2
572.265	9238.6
572.626	9275.43
572.987	9282.67
573.349	9288.77
573.71	9321.31
574.071	9305.94
574.432	9316.79
574.794	9359.05
575.155	9305.26
575.516	9309.56
575.877	9334.19
576.238	9389.1
576.599	9422.1
576.96	9423.68
577.32	9365.38
577.681	9447.63
578.042	9441.76
578.403	9438.14
578.763	9420.06
579.124	9472.94
579.485	9454.19
579.845	9510.23
580.206	9456.67
580.566	9473.39
580.927	9521.3
581.287	9488.08
581.648	9443.57
582.008	9551.13
582.368	9486.73
582.728	9590.45
583.089	9571.02
583.449	9567.63
583.809	9597.91
584.169	9565.6
584.529	9571.7
584.889	9637.68
585.249	9594.97
585.609	9543.45
585.969	9648.53
586.329	9625.93
586.688	9619.15
587.048	9712.26
587.408	9610.34
587.768	9626.16
588.127	9634.97
588.487	9590.91
588.846	9742.31
589.206	9667.29
589.565	9575.77
589.925	9739.38
590.284	9721.75
590.643	9705.93
591.003	9666.61
591.362	9773.27
591.721	9678.59
592.08	9646.27
592.44	9786.83
592.799	9714.97
593.158	9763.33
593.517	9723.78
593.876	9728.08
594.235	9715.65
594.593	9694.41
594.952	9785.48
595.311	9680.4
595.67	9761.75
596.029	9839.26
596.387	9762.43
596.746	9838.81
597.104	9726.04
597.463	9770.34
597.822	9798.81
598.18	9757.68
598.538	9807.17
598.897	9805.82
599.255	9730.34
599.613	9867.51
599.972	9751.58
600.33	9839.26
600.688	9742.77
601.046	9803.1
601.404	9867.06
601.762	9841.97
602.12	9863.89
602.478	9788.19
602.836	9892.59
603.194	9843.33
603.552	9759.72
603.91	9818.47
604.268	9919.94
604.625	9851.24
604.983	9857.57
605.341	9769.88
605.698	9870.67
606.056	9895.3
606.413	9872.48
606.771	9885.59
607.128	9960.61
607.485	9891.46
607.843	9881.29
608.2	9934.63
608.557	9874.97
608.914	9892.59
609.272	9952.48
609.629	9919.48
609.986	10011.23
610.343	9957
610.7	10037.67
611.057	10010.78
611.414	9985.25
611.771	9966.72
612.127	10020.73
612.484	10010.33
612.841	10067.28
613.198	9985.7
613.554	9965.81
613.911	10046.94
614.267	9981.63
614.624	10057.11
614.98	9989.54
615.337	10088.29
615.693	9991.35
616.05	9985.92
616.406	10088.07
616.762	10080.61
617.118	9984.57
617.475	10047.39
617.831	10067.73
618.187	10135.3
618.543	10044.23
618.899	10153.83
619.255	10074.51
619.611	10102.76
619.967	10186.82
620.323	10215.07
620.678	10161.29
621.034	10159.48
621.39	10119.25
621.746	10100.95
622.101	10205.81
622.457	10116.32
622.812	10138.46
623.168	10201.29
623.523	10153.15
623.879	10151.57
624.234	10147.28
624.589	10296.42
624.945	10262.3
625.3	10166.48
625.655	10187.5
626.01	10174.39
626.365	10140.72
626.72	10131.46
627.075	10179.82
627.43	10142.3
627.785	10075.19
628.14	10140.27
628.495	10113.38
628.85	10157.22
629.205	10039.03
629.559	10167.16
629.914	10063.21
630.269	10119.25
630.623	10135.75
630.978	10094.17
631.332	10058.24
631.687	10046.71
632.041	10026.6
632.396	10040.39
632.75	10022.31
633.104	10010.78
633.459	9956.77
633.813	9966.94
634.167	9974.85
634.521	9956.77
634.875	10013.27
635.229	9968.3
635.583	9839.04
635.937	9931.24
636.291	9879.49
636.645	9861.18
636.999	9852.82
637.352	9926.94
637.706	9799.04
638.06	9849.43
638.413	9796.1
638.767	9772.6
639.121	9790.45
639.474	9705.48
639.828	9740.96
640.181	9759.94
640.534	9723.56
640.888	9715.42
641.241	9713.16
641.594	9704.35
641.947	9718.36
642.301	9688.76
642.654	9661.41
643.007	9683.11
643.36	9692.6
643.713	9597.69
644.066	9697.12
644.419	9614.63
644.771	9540.74
645.124	9498.48
645.477	9494.64
645.83	9463.45
646.182	9404.24
646.535	9411.93
646.888	9353.17
647.24	9354.98
647.593	9340.29
647.945	9331.48
648.298	9243.57
648.65	9315.66
649.002	9280.41
649.355	9255.55
649.707	9363.12
650.059	9366.05
650.411	9471.36
650.763	9484.47
651.115	9597.69
651.467	9531.47
651.819	9542.77
652.171	9630.23
652.523	9504.35
652.875	9526.27
653.227	9494.19
653.578	9555.43
653.93	9490.12
654.282	9526.05
654.633	9460.06
654.985	9521.98
655.337	9567.4
655.688	9509.33
656.039	9549.33
656.391	9487.86
656.742	9512.49
657.094	9552.49
657.445	9525.6
657.796	9585.48
658.147	9526.73
658.498	9472.04
658.849	9552.49
659.2	9549.1
659.551	9512.94
659.902	9528.76
660.253	9598.82
660.604	9580.06
660.955	9564.47
661.306	9562.21
661.656	9592.94
662.007	9585.48
662.358	9648.98
662.708	9571.02
663.059	9611.7
663.409	9470.01
663.76	9581.87
664.11	9579.83
664.461	9578.48
664.811	9569.89
665.161	9600.85
665.511	9651.02
665.862	9592.49
666.212	9597.69
666.562	9590.68
666.912	9569.66
667.262	9591.81
667.612	9616.22
667.962	9599.72
668.312	9552.49
668.662	9635.88
669.011	9587.52
669.361	9562.88
669.711	9536.22
670.06	9547.29
670.41	9510
670.76	9428.88
671.109	9561.75
671.459	9504.81
671.808	9456.67
672.157	9526.5
672.507	9462.55
672.856	9456.22
673.205	9475.2
673.554	9505.71
673.904	9412.61
674.253	9503.68
674.602	9510.91
674.951	9317.69
675.3	9313.4
675.649	9474.75
675.998	9430.23
676.346	9467.97
676.695	9513.85
677.044	9411.25
677.393	9346.84
677.741	9426.16
678.09	9314.08
678.438	9430.01
678.787	9441.08
679.135	9391.14
679.484	9287.64
679.832	9365.15
680.181	9258.71
680.529	9321.31
680.877	9312.04
681.225	9227.07
681.573	9315.66
681.922	9218.26
682.27	9207.64
682.618	9214.64
682.966	9205.61
683.314	9199.73
683.661	9127.42
684.009	9173.52
684.357	9059.85
684.705	9089
685.053	9050.58
685.4	9076.8
685.748	8966.97
686.095	9037.47
686.443	8915.9
686.79	8964.93
687.138	8932.62
687.485	8902.34
687.832	8877.03
688.18	8901.21
688.527	8824.82
688.874	8746.86
689.221	8798.16
689.568	8774.66
689.915	8759.52
690.262	8718.61
690.609	8722
690.956	8697.37
691.303	8610.37
691.65	8612.17
691.997	8638.16
692.344	8540.76
692.69	8522.23
693.037	8489.47
693.383	8434.55
693.73	8506.87
694.077	8435.91
694.423	8416.25
694.769	8345.97
695.116	8325.63
695.462	8352.07
695.808	8344.39
696.155	8338.51
696.501	8229.36
696.847	8256.03
697.193	8194.56
697.539	8244.27
697.885	8189.59
698.231	8124.28
698.577	8059.19
698.923	8075.47
699.269	8018.29
699.614	8076.6
699.96	8000.67
700.306	7995.24
700.651	7929.25
700.997	7856.49
701.342	7829.37
701.688	7808.81
702.033	7802.48
702.379	7751.18
702.724	7773.33
703.069	7803.16
703.415	7673.67
703.76	7664.18
704.105	7616.72
704.45	7658.3
704.795	7559.32
705.14	7527.01
705.485	7555.03
705.83	7539.43
706.175	7522.26
706.52	7495.59
706.865	7489.27
707.209	7445.88
707.554	7425.09
707.899	7371.53
708.243	7357.97
708.588	7373.79
708.932	7283.85
709.277	7308.03
709.621	7289.5
709.966	7282.49
710.31	7321.59
710.654	7222.61
710.998	7163.85
711.342	7191.87
711.687	7209.05
712.031	7155.04
712.375	7162.72
712.719	7151.2
713.063	7144.42
713.407	7141.93
713.75	7096.51
714.094	7054.02
714.438	7034.82
714.782	7091.76
715.125	7006.34
715.469	7040.01
715.812	7046.79
716.156	6934.25
716.499	6995.49
716.843	6993.01
717.186	6957.3
717.53	6945.78
717.873	6938.09
718.216	6912.78
718.559	6978.55
718.902	6875.27
719.246	6837.76
719.589	6828.49
719.932	6815.84
720.275	6850.41
720.617	6798.66
720.96	6867.14
721.303	6828.72
721.646	6755.5
721.989	6745.11
722.331	6793.24
722.674	6806.8
723.016	6790.08
723.359	6780.58
723.701	6729.06
724.044	6754.37
724.386	6746.46
724.729	6786.23
725.071	6802.96
725.413	6720.92
725.755	6744.43
726.097	6720.02
726.439	6623.98
726.782	6684.54
727.124	6681.83
727.465	6715.95
727.807	6688.61
728.149	6681.83
728.491	6642.28
728.833	6654.26
729.175	6680.7
729.516	6619.01
729.858	6636.86
730.199	6664.43
730.541	6637.31
730.882	6628.05
731.224	6705.33
731.565	6626.24
731.906	6623.3
732.248	6648.16
732.589	6591.21
732.93	6617.88
733.271	6625.56
733.612	6626.01
733.953	6590.31
734.294	6650.87
734.635	6644.09
734.976	6656.75
735.317	6599.12
735.658	6579.69
735.999	6654.71
736.339	6624.88
736.68	6640.48
737.021	6650.87
737.361	6692
737.702	6707.14
738.042	6596.63
738.383	6596.18
738.723	6739
739.063	6653.13
739.404	6678.89
739.744	6726.35
740.084	6759.34
740.424	6713.92
740.764	6785.78
741.104	6793.92
741.444	6753.24
741.784	6742.39
742.124	6785.33
742.464	6730.19
742.804	6804.99
743.143	6771.55
743.483	6834.82
743.823	6830.07
744.162	6837.53
744.502	6899.45
744.841	6902.62
745.181	6942.39
745.52	6958.43
745.86	7045.66
746.199	7015.61
746.538	7035.72
746.877	7148.26
747.216	7198.88
747.556	7155.04
747.895	7218.54
748.234	7273.68
748.573	7303.51
748.911	7340.34
749.25	7426.22
749.589	7453.34
749.928	7530.17
750.267	7549.38
750.605	7644.74
750.944	7753.67
751.283	7755.02
751.621	7956.82
751.96	7887.22
752.298	8054.68
752.636	8135.35
752.975	8229.59
753.313	8278.4
753.651	8434.1
753.989	8448.11
754.327	8588.67
754.666	8676.58
755.004	8822.79
755.342	8982.11
755.679	9090.13
756.017	9185.04
756.355	9394.3
756.693	9447.18
757.031	9657.8
757.368	9768.3
757.706	9934.4
758.044	10063.21
758.381	10216.43
758.719	10411.9
759.056	10527.83
759.394	10722.63
759.731	10862.06
760.068	10995.39
760.405	11217.53
760.743	11371.88
761.08	11555.83
761.417	11645.99
761.754	11879.21
762.091	12074
762.428	12247.33
762.765	12382.7
763.102	12630.6
763.438	12760.54
763.775	12870.14
764.112	13113.75
764.449	13280.07
764.785	13323.24
765.122	13538.15
765.458	13666.51
765.795	13887.29
766.131	14089.32
