Data from hue_80_FLMS001491_68.txt Node
Date: Mon Feb 06 15:23:23 GMT 2017
User: dcchb
Spectrometer: FLMS00149
Trigger mode: 0
Integration Time (sec): 2.000000E-2
Scans to average: 10
Electric dark correction enabled: true
Nonlinearity correction enabled: false
Boxcar width: 0
XAxis mode: Wavelengths
Number of Pixels in Spectrum: 2048
>>>>>Begin Spectral Data<<<<<
341.393	-15.86
341.776	-15.86
342.16	-15.86
342.543	-63.54
342.927	-75.97
343.31	-63.77
343.693	-77.55
344.077	-52.7
344.46	-52.47
344.843	-56.54
345.226	-42.53
345.61	-38.69
345.993	-42.75
346.376	-0.95
346.759	3.57
347.142	18.04
347.525	49.45
347.908	51.03
348.291	84.02
348.674	105.49
349.057	116.34
349.44	123.57
349.823	128.32
350.206	162.89
350.588	195.88
350.971	213.96
351.354	221.42
351.737	246.96
352.119	253.96
352.502	277.69
352.884	279.72
353.267	276.79
353.65	278.59
354.032	292.61
354.414	298.93
354.797	314.98
355.179	331.02
355.562	301.19
355.944	321.08
356.326	329.44
356.709	335.77
357.091	341.19
357.473	341.87
357.855	338.71
358.238	345.03
358.62	343
359.002	346.62
359.384	327.41
359.766	344.13
360.148	344.36
360.53	341.87
360.912	325.15
361.294	345.49
361.676	328.76
362.057	350.68
362.439	321.08
362.821	323.11
363.203	312.49
363.584	328.08
363.966	328.99
364.348	333.28
364.729	315.2
365.111	311.14
365.493	326.95
365.874	331.47
366.256	308.42
366.637	315.2
367.019	316.56
367.4	307.07
367.781	298.71
368.163	309.33
368.544	294.19
368.925	301.87
369.306	319.95
369.688	312.49
370.069	322.21
370.45	324.69
370.831	321.31
371.212	321.08
371.593	301.64
371.974	326.5
372.355	314.98
372.736	300.51
373.117	307.07
373.498	310.23
373.879	292.38
374.26	300.97
374.641	322.66
375.021	297.8
375.402	313.62
375.783	327.18
376.163	328.31
376.544	326.28
376.925	296.22
377.305	330.8
377.686	328.76
378.066	330.12
378.447	300.51
378.827	334.19
379.208	335.09
379.588	334.64
379.968	328.08
380.349	338.71
380.729	319.27
381.109	312.04
381.489	307.29
381.87	329.67
382.25	329.44
382.63	354.07
383.01	321.98
383.39	343
383.77	336.22
384.15	334.86
384.53	337.8
384.91	334.41
385.29	340.51
385.67	335.09
386.049	349.55
386.429	339.38
386.809	350.23
387.189	325.82
387.568	346.16
387.948	341.42
388.328	362.66
388.707	352.49
389.087	355.2
389.466	335.99
389.846	350.91
390.225	377.8
390.605	361.3
390.984	359.95
391.363	367.86
391.743	363.34
392.122	351.81
392.501	350.46
392.881	358.14
393.26	382.32
393.639	373.06
394.018	351.13
394.397	362.21
394.776	346.84
395.155	378.93
395.534	351.36
395.913	379.61
396.292	370.8
396.671	382.09
397.05	359.27
397.429	377.57
397.808	382.32
398.186	395.2
398.565	389.1
398.944	392.26
399.323	367.86
399.701	413.96
400.08	384.35
400.458	389.55
400.837	383
401.215	402.88
401.594	421.42
401.972	400.4
402.351	377.12
402.729	415.09
403.107	395.43
403.486	404.69
403.864	399.95
404.242	401.98
404.62	408.53
404.999	418.48
405.377	403.11
405.755	404.01
406.133	412.83
406.511	405.6
406.889	413.28
407.267	435.65
407.645	438.59
408.023	423
408.401	410.57
408.779	425.71
409.156	424.13
409.534	414.41
409.912	419.16
410.29	440.85
410.667	462.32
411.045	454.18
411.422	445.14
411.8	434.75
412.178	415.09
412.555	438.59
412.933	442.66
413.31	447.86
413.687	429.55
414.065	469.55
414.442	433.62
414.819	465.71
415.197	472.04
415.574	468.87
415.951	465.03
416.328	473.84
416.705	478.82
417.082	468.42
417.46	474.3
417.837	504.58
418.214	486.05
418.591	468.65
418.967	480.85
419.344	500.51
419.721	506.38
420.098	495.31
420.475	487.85
420.852	486.05
421.228	491.92
421.605	501.87
421.982	506.61
422.358	494.63
422.735	519.49
423.111	524.24
423.488	520.4
423.864	524.24
424.241	549.32
424.617	524.24
424.994	557.23
425.37	554.29
425.746	562.2
426.123	573.05
426.499	541.41
426.875	548.87
427.251	559.26
427.627	555.88
428.003	571.02
428.379	557.23
428.756	575.76
429.132	568.98
429.507	573.28
429.883	552.71
430.259	573.28
430.635	604.69
431.011	594.29
431.387	598.36
431.763	601.52
432.138	601.75
432.514	597.23
432.89	653.73
433.265	636.33
433.641	634.07
434.016	644.46
434.392	643.1
434.767	655.99
435.143	636.55
435.518	626.61
435.894	639.94
436.269	643.1
436.644	678.58
437.02	675.65
437.395	670.45
437.77	683.56
438.145	694.18
438.52	686.27
438.895	684.01
439.271	682.43
439.646	718.36
440.021	713.61
440.395	708.87
440.77	686.72
441.145	724.68
441.52	728.75
441.895	730.56
442.27	744.12
442.645	722.65
443.019	744.12
443.394	740.05
443.769	760.39
444.143	745.93
444.518	766.72
444.892	749.77
445.267	775.98
445.641	768.98
446.016	784.12
446.39	789.54
446.764	777.79
447.139	787.28
447.513	786.38
447.887	787.73
448.262	792.03
448.636	787.96
449.01	826.15
449.384	815.08
449.758	811.24
450.132	808.98
450.506	816.21
450.88	838.13
451.254	841.52
451.628	861.4
452.002	853.04
452.376	873.61
452.75	859.14
453.123	891.91
453.497	915.87
453.871	887.17
454.244	896.66
454.618	916.54
454.992	928.07
455.365	912.93
455.739	936.43
456.112	953.6
456.486	944.34
456.859	979.14
457.232	971.23
457.606	976.66
457.979	961.51
458.352	991.12
458.725	980.95
459.099	1003.55
459.472	1015.52
459.845	1055.3
460.218	1038.57
460.591	1053.49
460.964	1069.76
461.337	1094.62
461.71	1107.5
462.083	1142.98
462.456	1130.1
462.829	1141.4
463.201	1180.27
463.574	1163.32
463.947	1180.94
464.32	1190.66
464.692	1191.11
465.065	1226.82
465.438	1225.24
465.81	1256.2
466.183	1293.03
466.555	1276.31
466.928	1301.84
467.3	1306.14
467.672	1342.3
468.045	1398.11
468.417	1401.73
468.789	1397.44
469.161	1415.97
469.534	1435.85
469.906	1475.85
470.278	1507.71
470.65	1536.41
471.022	1551.1
471.394	1586.13
471.766	1616.41
472.138	1639.91
472.51	1673.59
472.882	1690.53
473.253	1724.88
473.625	1761.49
473.997	1824.99
474.369	1854.6
474.74	1911.32
475.112	1958.32
475.484	1975.05
475.855	2036.06
476.227	2050.98
476.598	2139.79
476.97	2138.66
477.341	2213.91
477.713	2282.61
478.084	2322.38
478.455	2406.67
478.827	2464.3
479.198	2566.44
479.569	2598.99
479.94	2705.88
480.311	2719.66
480.682	2822.71
481.053	2922.82
481.424	3004.17
481.795	3059.99
482.166	3169.82
482.537	3225.18
482.908	3349.25
483.279	3431.28
483.65	3506.98
484.021	3651.39
484.391	3709.69
484.762	3813.87
485.133	3869.69
485.503	3969.34
485.874	4154.42
486.244	4257.25
486.615	4339.05
486.985	4442.33
487.356	4648.42
487.726	4702.43
488.097	4891.35
488.467	4939.49
488.837	5102.2
489.207	5183.1
489.578	5406.14
489.948	5420.83
490.318	5642.07
490.688	5706.02
491.058	5875.96
491.428	6039.35
491.798	6122.96
492.168	6364.76
492.538	6382.61
492.908	6616.28
493.278	6752.77
493.648	6848.37
494.017	7012.43
494.387	7137.62
494.757	7284.29
495.126	7422.59
495.496	7459.87
495.866	7602.02
496.235	7800.2
496.605	7907.55
496.974	8072.74
497.344	8210.14
497.713	8361.55
498.082	8454.42
498.452	8564.48
498.821	8691.93
499.19	8775.32
499.559	8954.3
499.928	9114.07
500.298	9240.62
500.667	9385.25
501.036	9398.81
501.405	9505.47
501.774	9617.11
502.143	9761.73
502.512	9864.33
502.88	9976.87
503.249	10084.89
503.618	10205.34
503.987	10300.25
504.356	10410.31
504.724	10577.53
505.093	10573.01
505.462	10749.96
505.83	10748.83
506.199	10907.92
506.567	11078.54
506.936	11092.1
507.304	11271.53
507.672	11338.64
508.041	11454.12
508.409	11501.8
508.777	11642.36
509.145	11812.98
509.514	11738.41
509.882	11950.38
510.25	11942.69
510.618	12064.73
510.986	12174.55
511.354	12288
511.722	12395.79
512.09	12485.73
512.458	12487.76
512.826	12565.28
513.193	12671.49
513.561	12811.15
513.929	12749.9
514.297	12945.61
514.664	13039.16
515.032	13073.74
515.4	13208.42
515.767	13315.54
516.135	13377.23
516.502	13242.77
516.869	13557.57
517.237	13576.1
517.604	13555.53
517.972	13676.21
518.339	13741.97
518.706	13732.93
519.073	13860.84
519.44	13884.79
519.808	13981.28
520.175	14058.12
520.542	14132.47
520.909	14257.66
521.276	14220.15
521.643	14310.32
522.009	14388.96
522.376	14522.29
522.743	14568.84
523.11	14671.89
523.477	14817.42
523.843	14889.28
524.21	14912.79
524.577	15008.38
524.943	15080.01
525.31	15083.85
525.676	15208.6
526.043	15218.31
526.409	15284.98
526.776	15418.08
527.142	15440.23
527.508	15434.58
527.874	15642.71
528.241	15586.67
528.607	15570.17
528.973	15831.18
529.339	15607.46
529.705	15804.06
530.071	15897.62
530.437	15820.33
530.803	15986.88
531.169	15911.4
531.535	15961.57
531.901	16078.63
532.267	16072.3
532.632	16044.06
532.998	16114.34
533.364	16040.89
533.73	16165.86
534.095	16255.8
534.461	16160.89
534.826	16336.48
535.192	16310.94
535.557	16465.06
535.923	16294.22
536.288	16364.27
536.653	16329.47
537.019	16306.42
537.384	16407.21
537.749	16354.56
538.114	16345.74
538.479	16415.8
538.845	16416.02
539.21	16406.98
539.575	16381.67
539.94	16429.36
540.305	16509.81
540.67	16430.94
541.034	16462.35
541.399	16413.31
541.764	16368.57
542.129	16406.31
542.494	16326.99
542.858	16361.79
543.223	16337.61
543.587	16398.62
543.952	16400.66
544.316	16337.61
544.681	16379.19
545.045	16364.73
545.41	16431.62
545.774	16471.61
546.138	16421.67
546.503	16395.46
546.867	16356.14
547.231	16471.61
547.595	16417.83
547.959	16484.72
548.324	16406.08
548.688	16330.83
549.052	16391.39
549.416	16211.73
549.779	16376.48
550.143	16371.05
550.507	16348.45
550.871	16328.57
551.235	16363.37
551.599	16436.36
551.962	16388.23
552.326	16319.53
552.689	16390.49
553.053	16276.82
553.417	16383.26
553.78	16477.94
554.143	16274.78
554.507	16361.56
554.87	16326.53
555.234	16505.96
555.597	16382.13
555.96	16388.45
556.323	16509.81
556.686	16393.42
557.05	16446.3
557.413	16539.18
557.776	16373.31
558.139	16496.25
558.502	16491.95
558.865	16523.82
559.228	16611.95
559.59	16703.93
559.953	16620.54
560.316	16737.6
560.679	16651.05
561.041	16774.43
561.404	16717.26
561.767	16825.5
562.129	16745.51
562.492	16877.25
562.854	16774.66
563.217	16811.94
563.579	16831.83
563.941	16917.93
564.304	17051.94
564.666	17108.21
565.028	17037.25
565.39	17151.6
565.753	17163.57
566.115	17137.36
566.477	17234.08
566.839	17194.53
567.201	17265.04
567.563	17258.71
567.925	17294.42
568.287	17269.56
568.648	17209.45
569.01	17360.63
569.372	17505.03
569.734	17364.92
570.095	17408.31
570.457	17575.54
570.819	17484.02
571.18	17507.75
571.542	17596.56
571.903	17558.37
572.265	17644.24
572.626	17705.48
572.987	17792.94
573.349	17749.32
573.71	17710
574.071	17829.77
574.432	17765.59
574.794	17866.83
575.155	17945.47
575.516	17837.45
575.877	17867.51
576.238	17886.04
576.599	17902.31
576.96	17906.61
577.32	18006.26
577.681	17941.18
578.042	18001.52
578.403	17938.92
578.763	18018.69
579.124	18001.29
579.485	18078.8
579.845	18121.29
580.206	18018.01
580.566	18081.29
580.927	18027.96
581.287	18104.11
581.648	18102.53
582.008	18146.15
582.368	18084
582.728	18134.17
583.089	18004.91
583.449	18015.3
583.809	18103.21
584.169	17997
584.529	18002.87
584.889	18159.25
585.249	18045.13
585.609	17952.03
585.969	18047.39
586.329	17981.86
586.688	18053.49
587.048	17995.64
587.408	17995.19
587.768	17976.89
588.127	17865.7
588.487	17886.72
588.846	18056.66
589.206	17911.58
589.565	17921.75
589.925	18028.64
590.284	17931.92
590.643	18041.97
591.003	18007.39
591.362	18041.52
591.721	17915.19
592.08	17907.96
592.44	18013.27
592.799	17948.86
593.158	17960.84
593.517	18011.46
593.876	17996.09
594.235	17926.27
594.593	17907.96
594.952	17852.37
595.311	17859.15
595.67	17977.11
596.029	18041.29
596.387	17899.15
596.746	17954.97
597.104	17852.37
597.463	17860.5
597.822	17977.34
598.18	17815.99
598.538	17957.9
598.897	17944.8
599.255	17853.27
599.613	18080.16
599.972	17888.75
600.33	17992.03
600.688	17879.04
601.046	17971.01
601.404	17921.75
601.762	17965.81
602.12	18014.17
602.478	18021.18
602.836	18055.08
603.194	17881.75
603.552	17997.22
603.91	17940.28
604.268	18075.64
604.625	17945.7
604.983	18037
605.341	17987.96
605.698	17990.22
606.056	18053.04
606.413	18046.26
606.771	18101.18
607.128	18086.94
607.485	17962.65
607.843	18045.13
608.2	18141.85
608.557	18113.83
608.914	18036.09
609.272	18193.6
609.629	18134.62
609.986	18238.35
610.343	18140.05
610.7	18314.73
611.057	18283.32
611.414	18191.57
611.771	18196.09
612.127	18319.93
612.484	18291.91
612.841	18433.37
613.198	18315.41
613.554	18297.56
613.911	18418.68
614.267	18339.81
614.624	18306.59
614.98	18406.71
615.337	18504.33
615.693	18446.48
616.05	18435.41
616.406	18596.3
616.762	18501.17
617.118	18603.99
617.475	18531.9
617.831	18470.21
618.187	18591.33
618.543	18613.93
618.899	18674.49
619.255	18684.66
619.611	18631.56
619.967	18794.94
620.323	18690.99
620.678	18589.3
621.034	18546.81
621.39	18601.73
621.746	18620.71
622.101	18828.39
622.457	18595.63
622.812	18700.71
623.168	18780.93
623.523	18805.56
623.879	18768.96
624.234	18649.64
624.589	18788.62
624.945	18792.68
625.3	18767.15
625.655	18853.47
626.01	18786.81
626.365	18767.6
626.72	18873.59
627.075	18767.6
627.43	18677.43
627.785	18678.56
628.14	18836.98
628.495	18750.43
628.85	18728.05
629.205	18736.87
629.559	18829.52
629.914	18676.53
630.269	18690.31
630.623	18723.08
630.978	18648.51
631.332	18714.72
631.687	18696.87
632.041	18598.56
632.396	18630.65
632.75	18574.16
633.104	18679.24
633.459	18507.72
633.813	18583.42
634.167	18543.2
634.521	18486.93
634.875	18506.36
635.229	18472.92
635.583	18456.2
635.937	18382.07
636.291	18345.01
636.645	18361.73
636.999	18267.27
637.352	18367.84
637.706	18251.23
638.06	18419.36
638.413	18324.22
638.767	18178.91
639.121	18323.09
639.474	18229.99
639.828	18225.69
640.181	18198.8
640.534	18221.63
640.888	18100.95
641.241	18138.24
641.594	18199.03
641.947	18156.32
642.301	18046.04
642.654	18147.5
643.007	18044.45
643.36	18118.35
643.713	18007.17
644.066	18125.58
644.419	17955.64
644.771	17849.88
645.124	17662.54
645.477	17653.96
645.83	17567.63
646.182	17528.31
646.535	17416
646.888	17468.42
647.24	17427.52
647.593	17538.25
647.945	17340.52
648.298	17425.71
648.65	17389.78
649.002	17399.73
649.355	17433.17
649.707	17378.26
650.059	17484.7
650.411	17709.77
650.763	17711.36
651.115	17890.56
651.467	17843.33
651.819	17832.03
652.171	17749.55
652.523	17796.1
652.875	17801.3
653.227	17757
653.578	17865.93
653.93	17922.65
654.282	17751.58
654.633	17762.43
654.985	17792.94
655.337	17820.73
655.688	17797
656.039	17806.5
656.391	17597.46
656.742	17663.22
657.094	17691.02
657.445	17829.32
657.796	17801.07
658.147	17730.11
658.498	17800.62
658.849	17787.51
659.2	17813.95
659.551	17786.16
659.902	17866.15
660.253	17825.7
660.604	17832.71
660.955	17692.83
661.306	17785.48
661.656	17698.7
662.007	17776.21
662.358	17768.53
662.708	17818.7
663.059	17812.37
663.409	17703.22
663.76	17823.22
664.11	17892.82
664.461	17813.73
664.811	17858.7
665.161	17804.24
665.511	17824.12
665.862	17842.43
666.212	17907.96
666.562	17873.39
666.912	17775.54
667.262	17810.11
667.612	17776.67
667.962	17891.46
668.312	17748.64
668.662	17832.48
669.011	17787.51
669.361	17759.26
669.711	17851.92
670.06	17703.67
670.41	17794.07
670.76	17716.55
671.109	17869.54
671.459	17818.7
671.808	17756.78
672.157	17808.98
672.507	17734.41
672.856	17773.5
673.205	17832.71
673.554	17792.03
673.904	17688.31
674.253	17805.14
674.602	17734.18
674.951	17566.28
675.3	17430.01
675.649	17663.9
675.998	17658.25
676.346	17727.63
676.695	17613.96
677.044	17554.52
677.393	17569.67
677.741	17603.79
678.09	17583.68
678.438	17512.49
678.787	17563.34
679.135	17540.51
679.484	17325.6
679.832	17446.28
680.181	17365.6
680.529	17337.35
680.877	17373.29
681.225	17274.31
681.573	17413.96
681.922	17222.56
682.27	17167.87
682.618	17198.15
682.966	17188.21
683.314	17177.13
683.661	17166.29
684.009	17054.65
684.357	17111.6
684.705	16939.4
685.053	16984.6
685.4	16929
685.748	16904.15
686.095	16900.08
686.443	16833.64
686.79	16777.6
687.138	16826.41
687.485	16849.23
687.832	16714.55
688.18	16781.44
688.527	16690.82
688.874	16533.76
689.221	16466.64
689.568	16449.92
689.915	16440.43
690.262	16486.98
690.609	16378.28
690.956	16336.48
691.303	16318.85
691.65	16161.57
691.997	16185.29
692.344	16174
692.69	16071.4
693.037	16043.38
693.383	15929.93
693.73	16031.63
694.077	15934.45
694.423	15887.45
694.769	15850.84
695.116	15743.95
695.462	15684.74
695.808	15650.85
696.155	15780.11
696.501	15525.88
696.847	15628.7
697.193	15412.89
697.539	15456.05
697.885	15282.27
698.231	15366.56
698.577	15285.88
698.923	15235.72
699.269	15208.82
699.614	15171.76
699.96	15017.64
700.306	15053.35
700.651	14935.61
700.997	14907.14
701.342	14857.42
701.688	14866.46
702.033	14781.94
702.379	14665.33
702.724	14656.52
703.069	14645.22
703.415	14457.66
703.76	14565.45
704.105	14502.4
704.45	14393.7
704.795	14427.37
705.14	14359.13
705.485	14277.77
705.83	14169.75
706.175	14212.24
706.52	14164.56
706.865	14247.72
707.209	14134.05
707.554	14089.76
707.899	13969.31
708.243	14000.72
708.588	13913.04
708.932	13896.32
709.277	13769.54
709.621	13817
709.966	13709.88
710.31	13822.65
710.654	13656.32
710.998	13632.37
711.342	13612.03
711.687	13620.39
712.031	13593.5
712.375	13500.85
712.719	13530.45
713.063	13527.96
713.407	13559.83
713.75	13456.33
714.094	13412.26
714.438	13351.24
714.782	13363.22
715.125	13340.4
715.469	13326.61
715.812	13200.51
716.156	13214.07
716.499	13172.72
716.843	13239.61
717.186	13121.19
717.53	13164.58
717.873	13185.37
718.216	13056.11
718.559	13145.15
718.902	12973.18
719.246	13034.42
719.589	12955.55
719.932	12927.08
720.275	12899.05
720.617	12959.16
720.96	12961.65
721.303	12867.87
721.646	12811.37
721.989	12756.01
722.331	12899.05
722.674	12821.77
723.016	12696.35
723.359	12796.91
723.701	12797.14
724.044	12821.54
724.386	12614.09
724.729	12786.74
725.071	12676.23
725.413	12722.79
725.755	12684.82
726.097	12675.78
726.439	12594.65
726.782	12625.16
727.124	12676.91
727.465	12591.26
727.807	12613.19
728.149	12540.19
728.491	12584.26
728.833	12595.78
729.175	12564.15
729.516	12545.62
729.858	12494.09
730.199	12557.37
730.541	12511.72
730.882	12519.85
731.224	12572.06
731.565	12457.03
731.906	12517.37
732.248	12573.64
732.589	12405.28
732.93	12394.43
733.271	12493.87
733.612	12439.86
733.953	12473.08
734.294	12496.8
734.635	12434.66
734.976	12414.77
735.317	12469.46
735.658	12506.52
735.999	12407.54
736.339	12390.82
736.68	12518.95
737.021	12425.17
737.361	12447.54
737.702	12507.2
738.042	12476.92
738.383	12522.57
738.723	12457.26
739.063	12520.76
739.404	12505.62
739.744	12480.31
740.084	12503.81
740.424	12441.66
740.764	12506.52
741.104	12524.15
741.444	12478.27
741.784	12508.78
742.124	12525.5
742.464	12560.08
742.804	12597.37
743.143	12524.37
743.483	12621.55
743.823	12558.27
744.162	12589.23
744.502	12650.02
744.841	12569.8
745.181	12710.13
745.52	12716.23
745.86	12706.52
746.199	12680.98
746.538	12739.51
746.877	12839.17
747.216	12805.95
747.556	12928.21
747.895	12874.42
748.234	13017.02
748.573	12995.77
748.911	13057.69
749.25	13162.55
749.589	13259.72
749.928	13201.42
750.267	13405.71
750.605	13327.74
750.944	13436.44
751.283	13461.07
751.621	13584.46
751.96	13615.87
752.298	13689.32
752.636	13870.55
752.975	13838.46
753.313	13954.17
753.651	14145.8
753.989	14043.66
754.327	14237.1
754.666	14280.94
755.004	14461.72
755.342	14533.36
755.679	14558.67
756.017	14694.49
756.355	14890.19
756.693	14897.19
