Data from hue_100_FLMS001491_00081.txt Node
Date: Tue Feb 07 17:03:45 GMT 2017
User: dcchb
Spectrometer: FLMS00149
Trigger mode: 0
Integration Time (sec): 2.000000E-2
Scans to average: 10
Electric dark correction enabled: true
Nonlinearity correction enabled: false
Boxcar width: 0
XAxis mode: Wavelengths
Number of Pixels in Spectrum: 2048
>>>>>Begin Spectral Data<<<<<
341.393	-21.96
341.776	-21.96
342.16	-21.96
342.543	-60.15
342.927	-61.74
343.31	-80.72
343.693	-71.45
344.077	-83.2
344.46	-50.89
344.843	-53.83
345.226	-36.88
345.61	-37.56
345.993	-14.51
346.376	9.22
346.759	34.08
347.142	23.46
347.525	41.76
347.908	52.61
348.291	86.28
348.674	88.54
349.057	93.06
349.44	131.48
349.823	143.68
350.206	155.43
350.588	216.45
350.971	233.17
351.354	236.56
351.737	242.21
352.119	247.86
352.502	240.4
352.884	263.23
353.267	299.38
353.65	287.41
354.032	304.58
354.414	287.18
354.797	316.11
355.179	323.11
355.562	350
355.944	321.08
356.326	329.67
356.709	309.78
357.091	332.6
357.473	339.38
357.855	350
358.238	338.71
358.62	364.47
359.002	332.38
359.384	341.42
359.766	344.36
360.148	345.49
360.53	347.52
360.912	330.8
361.294	323.11
361.676	335.99
362.057	345.49
362.439	324.92
362.821	337.8
363.203	337.58
363.584	304.36
363.966	353.62
364.348	331.02
364.729	335.77
365.111	327.86
365.493	328.99
365.874	312.72
366.256	326.05
366.637	286.05
367.019	310.91
367.4	333.73
367.781	317.01
368.163	320.85
368.544	302.1
368.925	319.05
369.306	322.44
369.688	293.28
370.069	307.75
370.45	328.08
370.831	302.55
371.212	324.24
371.593	302.32
371.974	300.06
372.355	321.98
372.736	311.36
373.117	316.33
373.498	320.63
373.879	332.6
374.26	317.46
374.641	331.02
375.021	311.14
375.402	324.24
375.783	353.17
376.163	334.86
376.544	329.21
376.925	331.02
377.305	326.28
377.686	354.3
378.066	333.06
378.447	344.13
378.827	339.38
379.208	342.55
379.588	354.75
379.968	345.49
380.349	331.25
380.729	327.86
381.109	349.1
381.489	341.42
381.87	344.58
382.25	346.84
382.63	362.43
383.01	333.73
383.39	357.91
383.77	343.68
384.15	345.94
384.53	372.38
384.91	366.73
385.29	349.1
385.67	338.25
386.049	347.52
386.429	367.86
386.809	354.3
387.189	370.34
387.568	362.66
387.948	355.2
388.328	366.95
388.707	374.41
389.087	375.99
389.466	371.7
389.846	373.28
390.225	387.97
390.605	373.51
390.984	371.02
391.363	375.77
391.743	377.8
392.122	391.81
392.501	397.91
392.881	391.13
393.26	394.3
393.639	400.17
394.018	404.01
394.397	387.74
394.776	407.18
395.155	405.37
395.534	384.13
395.913	418.48
396.292	415.54
396.671	398.59
397.05	406.95
397.429	425.03
397.808	413.51
398.186	438.36
398.565	409.44
398.944	421.87
399.323	403.34
399.701	414.18
400.08	398.14
400.458	431.81
400.837	426.84
401.215	419.38
401.594	432.94
401.972	424.58
402.351	427.52
402.729	427.07
403.107	449.66
403.486	446.27
403.864	460.74
404.242	437.23
404.62	468.19
404.999	467.06
405.377	433.39
405.755	450.79
406.133	464.8
406.511	459.61
406.889	458.25
407.267	485.82
407.645	463.67
408.023	476.78
408.401	477.69
408.779	502.77
409.156	486.5
409.534	498.7
409.912	498.48
410.29	490.57
410.667	491.47
411.045	505.03
411.422	503.9
411.8	494.41
412.178	525.59
412.555	519.72
412.933	531.92
413.31	501.41
413.687	517.91
414.065	530.57
414.442	542.09
414.819	519.04
415.197	562.2
415.574	569.43
415.951	549.32
416.328	565.14
416.705	549.32
417.082	534.18
417.46	550.9
417.837	556.33
418.214	555.88
418.591	574.63
418.967	577.34
419.344	570.34
419.721	587.51
420.098	585.25
420.475	586.61
420.852	618.02
421.228	606.27
421.605	595.65
421.982	610.34
422.358	593.61
422.735	632.48
423.111	623.67
423.488	607.17
423.864	619.15
424.241	647.4
424.617	618.7
424.994	627.74
425.37	630.9
425.746	666.61
426.123	693.27
426.499	646.49
426.875	668.87
427.251	691.92
427.627	670.45
428.003	695.53
428.379	713.61
428.756	691.69
429.132	703.67
429.507	715.42
429.883	715.19
430.259	734.18
430.635	722.88
431.011	734.4
431.387	755.64
431.763	758.13
432.138	751.58
432.514	765.59
432.89	766.94
433.265	765.36
433.641	777.79
434.016	799.26
434.392	806.94
434.767	827.96
435.143	808.75
435.518	840.84
435.894	811.01
436.269	851.23
436.644	831.35
437.02	830.44
437.395	860.27
437.77	855.3
438.145	881.06
438.52	860.95
438.895	885.81
439.271	871.8
439.646	892.59
440.021	916.32
440.395	911.35
440.77	922.19
441.145	919.71
441.52	934.17
441.895	952.02
442.27	943.66
442.645	941.18
443.019	961.97
443.394	979.59
443.769	960.16
444.143	983.89
444.518	1015.3
444.892	995.86
445.267	1023.89
445.641	1019.37
446.016	985.47
446.39	1015.75
446.764	1015.98
447.139	1027.73
447.513	1023.21
447.887	1037.44
448.262	1043.09
448.636	1020.95
449.01	1083.77
449.384	1053.94
449.758	1087.84
450.132	1090.32
450.506	1116.09
450.88	1110.44
451.254	1095.3
451.628	1118.12
452.002	1133.71
452.376	1161.96
452.75	1179.36
453.123	1159.02
453.497	1157.44
453.871	1180.72
454.244	1213.26
454.618	1177.1
454.992	1231.56
455.365	1248.74
455.739	1274.5
456.112	1252.81
456.486	1302.75
456.859	1274.27
457.232	1315.63
457.606	1313.14
457.979	1326.7
458.352	1365.35
458.725	1393.82
459.099	1394.95
459.472	1390.88
459.845	1416.87
460.218	1452.57
460.591	1486.92
460.964	1441.73
461.337	1498.9
461.71	1520.6
462.083	1535.51
462.456	1509.75
462.829	1565.11
463.201	1591.78
463.574	1599.46
463.947	1631.1
464.32	1684.66
464.692	1683.98
465.065	1709.74
465.438	1706.35
465.81	1767.37
466.183	1767.37
466.555	1789.97
466.928	1832.68
467.3	1821.15
467.672	1889.17
468.045	1911.55
468.417	1921.72
468.789	1968.27
469.161	1961.26
469.534	1997.65
469.906	2067.25
470.278	2097.08
470.65	2113.57
471.022	2165.78
471.394	2224.98
471.766	2262.95
472.138	2278.99
472.51	2378.2
472.882	2391.08
473.253	2424.07
473.625	2494.13
473.997	2528.25
474.369	2623.62
474.74	2653.22
475.112	2737.06
475.484	2763.5
475.855	2847.79
476.227	2864.52
476.598	2959.43
476.97	2995.36
477.341	3102.93
477.713	3186.99
478.084	3245.3
478.455	3394.22
478.827	3424.05
479.198	3517.38
479.569	3607.77
479.94	3695.23
480.311	3791.5
480.682	3909.23
481.053	4050.92
481.424	4138.83
481.795	4197.36
482.166	4338.37
482.537	4411.14
482.908	4587.63
483.279	4620.18
483.65	4845.03
484.021	4982.43
484.391	5091.58
484.762	5141.97
485.133	5265.81
485.503	5428.06
485.874	5596.19
486.244	5695.85
486.615	5861.95
486.985	5975.39
487.356	6150.53
487.726	6232.11
488.097	6491.31
488.467	6590.07
488.837	6781.47
489.207	6933.79
489.578	7073.22
489.948	7219.2
490.318	7365.41
490.688	7461.91
491.058	7678.4
491.428	7916.13
491.798	8026.64
492.168	8266.41
492.538	8392.28
492.908	8564.93
493.278	8724.47
493.648	8813.74
494.017	9013.73
494.387	9153.16
494.757	9237.91
495.126	9454.4
495.496	9506.83
495.866	9761.28
496.235	9853.71
496.605	10048.96
496.974	10075.62
497.344	10253.93
497.713	10472.22
498.082	10585.44
498.452	10752.44
498.821	10874.02
499.19	10991.08
499.559	11163.51
499.928	11258.87
500.298	11314.24
500.667	11452.31
501.036	11540.67
501.405	11730.27
501.774	11743.38
502.143	11918.06
502.512	11999.19
502.88	12162.8
503.249	12224.04
503.618	12304.72
503.987	12355.11
504.356	12501.78
504.724	12560.53
505.093	12676.23
505.462	12788.32
505.83	12886.85
506.199	12988.77
506.567	13121.19
506.936	13255.43
507.304	13306.27
507.672	13439.15
508.041	13402.09
508.409	13599.83
508.777	13696.09
509.145	13761.4
509.514	13756.43
509.882	13900.84
510.25	13965.47
510.618	14052.24
510.986	14027.84
511.354	14270.09
511.722	14343.76
512.09	14475.96
512.458	14432.12
512.826	14558.9
513.193	14519.8
513.561	14576.52
513.929	14732
514.297	14823.07
514.664	14926.12
515.032	14915.72
515.4	15034.14
515.767	15015.16
516.135	15077.53
516.502	14979.45
516.869	15266.9
517.237	15272.1
517.604	15222.16
517.972	15354.36
518.339	15379.89
518.706	15317.52
519.073	15459.21
519.44	15607.46
519.808	15667.12
520.175	15648.36
520.542	15784.85
520.909	15774.68
521.276	15776.94
521.643	15847.68
522.009	15952.76
522.376	15979.42
522.743	16071.4
523.11	16070.5
523.477	16172.41
523.843	16228.01
524.21	16360.43
524.577	16411.5
524.943	16439.98
525.31	16433.42
525.676	16566.98
526.043	16597.94
526.409	16490.82
526.776	16700.31
527.142	16649.24
527.508	16791.38
527.874	16791.83
528.241	16837.48
528.607	16725.39
528.973	16835
529.339	16850.14
529.705	16950.25
530.071	16909.12
530.437	16998.15
530.803	17091.71
531.169	17006.52
531.535	17000.41
531.901	16989.79
532.267	16926.07
532.632	17068.21
532.998	16990.47
533.364	17081.54
533.73	16991.83
534.095	17127.64
534.461	17067.76
534.826	17130.13
535.192	17056.23
535.557	17156.34
535.923	17134.87
536.288	17088.77
536.653	17058.72
537.019	17035.89
537.384	16947.53
537.749	17040.87
538.114	16970.58
538.479	16924.71
538.845	16859.4
539.21	16800.87
539.575	16841.77
539.94	16946.4
540.305	17027.08
540.67	16853.53
541.034	16860.08
541.399	16854.43
541.764	16714.32
542.129	16802.68
542.494	16733.53
542.858	16707.09
543.223	16700.76
543.587	16709.8
543.952	16625.06
544.316	16619.41
544.681	16583.25
545.045	16611.72
545.41	16526.98
545.774	16547.32
546.138	16444.27
546.503	16545.96
546.867	16460.99
547.231	16520.65
547.595	16416.25
547.959	16453.76
548.324	16211.96
548.688	16375.35
549.052	16312.98
549.416	16324.27
549.779	16262.81
550.143	16242.92
550.507	16270.26
550.871	16255.58
551.235	16054.68
551.599	16204.28
551.962	16131.96
552.326	16125.86
552.689	16178.74
553.053	15990.5
553.417	16061.91
553.78	16136.48
554.143	15976.49
554.507	16046.77
554.87	15965.41
555.234	16172.87
555.597	15985.75
555.96	15941.01
556.323	15992.53
556.686	16003.6
557.05	15988.24
557.413	15895.58
557.776	15921.57
558.139	15933.32
558.502	16007.22
558.865	15945.98
559.228	15982.81
559.59	16003.38
559.953	15924.96
560.316	16091.29
560.679	15975.13
561.041	16107.78
561.404	16181.23
561.767	16240.89
562.129	16082.02
562.492	16171.74
562.854	16089.48
563.217	16056.48
563.579	16063.04
563.941	16105.97
564.304	16172.87
564.666	16199.76
565.028	16237.27
565.39	16244.5
565.753	16170.38
566.115	16257.16
566.477	16289.02
566.839	16270.04
567.201	16354.33
567.563	16396.81
567.925	16387.78
568.287	16341.9
568.648	16409.92
569.01	16300.09
569.372	16494.21
569.734	16407.89
570.095	16532.63
570.457	16566.08
570.819	16569.24
571.18	16580.31
571.542	16611.05
571.903	16552.74
572.265	16690.59
572.626	16690.14
572.987	16625.96
573.349	16563.14
573.71	16809.23
574.071	16671.84
574.432	16728.56
574.794	16803.58
575.155	16758.61
575.516	16729.91
575.877	16794.09
576.238	16761.55
576.599	16856.69
576.96	16799.74
577.32	16816.92
577.681	16812.62
578.042	16810.36
578.403	16833.64
578.763	16852.17
579.124	16851.49
579.485	16985.73
579.845	16939.63
580.206	16909.12
580.566	16919.51
580.927	16859.85
581.287	16939.4
581.648	16883.13
582.008	17036.35
582.368	16840.42
582.728	16925.16
583.089	16867.99
583.449	16839.97
583.809	16832.28
584.169	16927.87
584.529	16890.81
584.889	16904.37
585.249	16804.94
585.609	16778.27
585.969	16868.21
586.329	16787.99
586.688	16774.66
587.048	16694.89
587.408	16724.04
587.768	16731.72
588.127	16770.14
588.487	16659.41
588.846	16834.77
589.206	16626.64
589.565	16718.16
589.925	16834.32
590.284	16715.68
590.643	16655.11
591.003	16827.54
591.362	16767.2
591.721	16707.31
592.08	16745.28
592.44	16711.83
592.799	16690.59
593.158	16655.56
593.517	16703.93
593.876	16651.95
594.235	16575.79
594.593	16623.93
594.952	16622.35
595.311	16631.38
595.67	16624.38
596.029	16687.88
596.387	16713.87
596.746	16679.07
597.104	16575.79
597.463	16611.27
597.822	16625.74
598.18	16539.41
598.538	16554.1
598.897	16599.97
599.255	16527.21
599.613	16632.74
599.972	16539.86
600.33	16691.04
600.688	16558.39
601.046	16586.64
601.404	16683.36
601.762	16540.09
602.12	16682.91
602.478	16675
602.836	16650.37
603.194	16581.89
603.552	16685.85
603.91	16515.91
604.268	16616.47
604.625	16548.9
604.983	16569.69
605.341	16613.08
605.698	16682.68
606.056	16579.41
606.413	16619.18
606.771	16588.67
607.128	16678.16
607.485	16636.58
607.843	16613.98
608.2	16697.37
608.557	16679.75
608.914	16698.73
609.272	16793.41
609.629	16757.48
609.986	16854.88
610.343	16752.06
610.7	16769.46
611.057	16833.87
611.414	16798.39
611.771	16785.5
612.127	16766.97
612.484	16815.56
612.841	16914.99
613.198	16819.4
613.554	16745.96
613.911	16949.12
614.267	16916.12
614.624	16924.03
614.98	16951.83
615.337	17036.35
615.693	16981.88
616.05	16934.2
616.406	17078.83
616.762	17024.14
617.118	16959.51
617.475	17002.22
617.831	17122.22
618.187	17054.88
618.543	17043.13
618.899	17158.38
619.255	17119.51
619.611	17115.44
619.967	17190.69
620.323	17188.88
620.678	17140.75
621.034	17061.88
621.39	17034.31
621.746	17114.99
622.101	17274.76
622.457	17112.05
622.812	17197.47
623.168	17098.49
623.523	17140.98
623.879	17194.76
624.234	17132.39
624.589	17216.68
624.945	17211.03
625.3	17203.57
625.655	17144.14
626.01	17161.77
626.365	17150.24
626.72	17192.5
627.075	17148.21
627.43	17131.48
627.785	17138.94
628.14	17152.95
628.495	17123.35
628.85	17033.41
629.205	17065.05
629.559	17140.98
629.914	17045.61
630.269	17045.61
630.623	16935.11
630.978	16938.5
631.332	17039.74
631.687	17042
632.041	17056.91
632.396	17036.8
632.75	16982.79
633.104	16955.9
633.459	16916.57
633.813	16880.64
634.167	16884.71
634.521	16769.01
634.875	16825.5
635.229	16821.21
635.583	16792.28
635.937	16828.89
636.291	16731.95
636.645	16738.5
636.999	16682.46
637.352	16753.19
637.706	16586.87
638.06	16761.78
638.413	16677.94
638.767	16693.53
639.121	16620.76
639.474	16524.27
639.828	16583.7
640.181	16595.68
640.534	16579.18
640.888	16525.62
641.241	16433.65
641.594	16503.7
641.947	16564.04
642.301	16540.99
642.654	16471.16
643.007	16458.73
643.36	16462.8
643.713	16451.95
644.066	16444.72
644.419	16365.85
644.771	16225.29
645.124	16130.83
645.477	16122.47
645.83	15938.07
646.182	15938.97
646.535	15815.36
646.888	15902.14
647.24	15840.67
647.593	15912.99
647.945	15864.4
648.298	15712.54
648.65	15789.82
649.002	15787.57
649.355	15805.42
649.707	15858.75
650.059	15927.67
650.411	16108.23
650.763	16221.23
651.115	16324.73
651.467	16212.86
651.819	16204.05
652.171	16150.49
652.523	16087.22
652.875	16230.94
653.227	16103.04
653.578	16271.62
653.93	16247.67
654.282	16091.29
654.633	16163.15
654.985	16200.66
655.337	16215.35
655.688	16155.01
656.039	16279.3
656.391	16121.57
656.742	16214.45
657.094	16075.92
657.445	16210.6
657.796	16101.46
658.147	16201.34
658.498	16228.01
658.849	16183.03
659.2	16235.46
659.551	16184.62
659.902	16298.74
660.253	16169.7
660.604	16209.7
660.955	16167.89
661.306	16202.7
661.656	16116.37
662.007	16227.1
662.358	16188.23
662.708	16164.73
663.059	16218.29
663.409	16140.78
663.76	16279.08
664.11	16216.93
664.461	16274.78
664.811	16229.36
665.161	16247.89
665.511	16125.41
665.862	16168.57
666.212	16223.71
666.562	16286.99
666.912	16288.79
667.262	16165.63
667.612	16288.12
667.962	16276.59
668.312	16193.88
668.662	16290.15
669.011	16238.4
669.361	16171.28
669.711	16238.85
670.06	16225.75
670.41	16088.35
670.76	16126.99
671.109	16175.58
671.459	16245.18
671.808	16072.98
672.157	16202.92
672.507	16054.9
672.856	16044.73
673.205	16087.22
673.554	16092.19
673.904	16081.34
674.253	16148.23
674.602	16073.43
674.951	15885.64
675.3	15783.5
675.649	16105.97
675.998	16027.56
676.346	16032.53
676.695	15986.43
677.044	15890.39
677.393	16016.71
677.741	15952.76
678.09	15917.73
678.438	15868.47
678.787	15880.44
679.135	15919.77
679.484	15797.06
679.832	15849.48
680.181	15719.54
680.529	15759.54
680.877	15764.74
681.225	15718.87
681.573	15765.19
681.922	15703.73
682.27	15618.98
682.618	15675.25
682.966	15564.07
683.314	15592.09
683.661	15547.35
684.009	15431.19
684.357	15476.16
684.705	15469.38
685.053	15384.64
685.4	15397.07
685.748	15261.48
686.095	15315.94
686.443	15168.6
686.79	15207.24
687.138	15280.69
687.485	15151.65
687.832	15203.4
688.18	15096.74
688.527	15049.05
688.874	15049.51
689.221	14970.86
689.568	14935.38
689.915	14870.75
690.262	14918.21
690.609	14797.99
690.956	14800.02
691.303	14695.84
691.65	14736.07
691.997	14755.28
692.344	14561.38
692.69	14526.81
693.037	14625.79
693.383	14382.18
693.73	14515.96
694.077	14416.75
694.423	14342.86
694.769	14334.27
695.116	14216.53
695.462	14212.47
695.808	14171.56
696.155	14228.06
696.501	14071.9
696.847	14017.22
697.193	13874.4
697.539	13952.59
697.885	13876.65
698.231	13857.9
698.577	13793.95
698.923	13812.7
699.269	13751.69
699.614	13646.38
699.96	13636.66
700.306	13554.63
700.651	13392.6
700.997	13399.38
701.342	13419.94
701.688	13354.18
702.033	13306.95
702.379	13264.92
702.724	13201.64
703.069	13271.47
703.415	13114.87
703.76	13113.29
704.105	13028.09
704.45	13071.25
704.795	12936.57
705.14	12913.74
705.485	12925.95
705.83	12908.09
706.175	12870.35
706.52	12759.4
706.865	12772.73
707.209	12739.96
707.554	12664.03
707.899	12630.36
708.243	12570.93
708.588	12557.14
708.932	12417.94
709.277	12499.29
709.621	12457.03
709.966	12513.75
710.31	12434.43
710.654	12349.01
710.998	12393.53
711.342	12291.61
711.687	12309.24
712.031	12279.41
712.375	12123.25
712.719	12191.05
713.063	12183.14
713.407	12181.56
713.75	12079.41
714.094	12097.72
714.438	12104.05
714.782	12059.3
715.125	12017.95
715.469	12058.62
715.812	11938.85
716.156	11922.36
716.499	11883.26
716.843	11913.32
717.186	11817.5
717.53	11995.35
717.873	11856.82
718.216	11797.84
718.559	11798.29
718.902	11669.48
719.246	11770.72
719.589	11714.9
719.932	11679.65
720.275	11730.72
720.617	11650.05
720.96	11612.08
721.303	11606.21
721.646	11581.35
721.989	11523.72
722.331	11687.33
722.674	11595.58
723.016	11623.61
723.359	11596.04
723.701	11637.62
724.044	11495.02
724.386	11489.83
724.729	11604.85
725.071	11467.9
725.413	11476.04
725.755	11485.31
726.097	11471.52
726.439	11398.53
726.782	11405.99
727.124	11442.37
727.465	11431.52
727.807	11334.8
728.149	11315.37
728.491	11343.84
728.833	11335.7
729.175	11372.99
729.516	11350.62
729.858	11308.13
730.199	11332.54
730.541	11316.95
730.882	11267.23
731.224	11382.03
731.565	11404.86
731.906	11291.64
732.248	11287.34
732.589	11241.92
732.93	11253.45
733.271	11314.01
733.612	11344.52
733.953	11305.42
734.294	11239.89
734.635	11269.27
734.976	11325.99
735.317	11266.55
735.658	11311.98
735.999	11271.75
736.339	11229.72
736.68	11275.14
737.021	11290.28
737.361	11247.8
737.702	11234.46
738.042	11266.1
738.383	11341.13
738.723	11358.3
739.063	11233.11
739.404	11325.54
739.744	11327.57
740.084	11245.31
740.424	11383.16
740.764	11291.64
741.104	11390.62
741.444	11228.81
741.784	11360.34
742.124	11394.91
742.464	11357.4
742.804	11475.14
743.143	11418.87
743.483	11491.86
743.823	11436.49
744.162	11422.93
744.502	11578.64
744.841	11572.76
745.181	11560.56
745.52	11453.22
745.86	11653.89
746.199	11667.22
746.538	11724.17
746.877	11779.99
747.216	11858.85
747.556	11882.36
747.895	11895.69
748.234	11942.69
748.573	11989.25
748.911	12080.09
749.25	12195.12
749.589	12217.94
749.928	12281.22
750.267	12520.08
750.605	12442.79
750.944	12560.08
751.283	12560.53
751.621	12796.68
751.96	12788.1
752.298	12820.86
752.636	13009.79
752.975	13061.31
753.313	13205.94
753.651	13354.86
753.989	13384.46
754.327	13502.65
754.666	13670.78
755.004	13760.27
755.342	13921.63
