Data from hue_270_FLMS001491_00030.txt Node
Date: Tue Feb 07 15:56:59 GMT 2017
User: dcchb
Spectrometer: FLMS00149
Trigger mode: 0
Integration Time (sec): 2.000000E-2
Scans to average: 10
Electric dark correction enabled: true
Nonlinearity correction enabled: false
Boxcar width: 0
XAxis mode: Wavelengths
Number of Pixels in Spectrum: 2048
>>>>>Begin Spectral Data<<<<<
341.393	-10.2
341.776	-10.2
342.16	-10.2
342.543	-61.95
342.927	-52.91
343.31	-69.18
343.693	-52.23
344.077	-47.03
344.46	-60.37
344.843	-66.24
345.226	-48.61
345.61	-16.98
345.993	-27.15
346.376	-5.9
346.759	-7.03
347.142	6.98
347.525	40.42
347.908	54.89
348.291	86.75
348.674	103.92
349.057	107.77
349.44	105.51
349.823	152.06
350.206	173.75
350.588	190.93
350.971	197.71
351.354	237.48
351.737	232.06
352.119	267.31
352.502	243.58
352.884	273.64
353.267	263.47
353.65	285.84
354.032	281.09
354.414	298.95
354.797	329.68
355.179	314.09
355.562	309.79
355.944	338.72
356.326	338.49
356.709	323.35
357.091	314.77
357.473	349.79
357.855	321.09
358.238	334.2
358.62	335.78
359.002	342.56
359.384	337.59
359.766	324.48
360.148	348.44
360.53	349.79
360.912	357.25
361.294	341.21
361.676	340.08
362.057	323.81
362.439	327.87
362.821	339.17
363.203	336.69
363.584	341.21
363.966	315.44
364.348	329.45
364.729	330.81
365.111	314.09
365.493	334.43
365.874	324.03
366.256	329
366.637	296.91
367.019	326.29
367.4	335.1
367.781	294.88
368.163	312.28
368.544	320.87
368.925	314.54
369.306	328.78
369.688	314.54
370.069	315.22
370.45	303.24
370.831	311.6
371.212	325.39
371.593	308.89
371.974	315.67
372.355	316.12
372.736	319.96
373.117	324.03
373.498	305.5
373.879	328.55
374.26	318.61
374.641	327.65
375.021	326.74
375.402	307.31
375.783	319.74
376.163	326.52
376.544	338.04
376.925	331.49
377.305	330.58
377.686	345.5
378.066	327.65
378.447	350.92
378.827	351.83
379.208	336.91
379.588	333.3
379.968	326.97
380.349	345.73
380.729	355.89
381.109	339.62
381.489	347.76
381.87	326.52
382.25	356.12
382.63	329.91
383.01	356.57
383.39	346.63
383.77	344.82
384.15	354.09
384.53	354.54
384.91	344.82
385.29	360.19
385.67	344.37
386.049	360.87
386.429	361.77
386.809	373.75
387.189	346.63
387.568	336.01
387.948	362.9
388.328	362
388.707	361.32
389.087	376.46
389.466	397.25
389.846	372.62
390.225	358.83
390.605	363.13
390.984	387.98
391.363	374.43
391.743	374.65
392.122	367.42
392.501	391.15
392.881	386.18
393.26	392.28
393.639	403.35
394.018	364.03
394.397	405.16
394.776	403.8
395.155	390.02
395.534	391.6
395.913	391.83
396.292	393.18
396.671	418.94
397.05	421.2
397.429	428.44
397.808	419.85
398.186	409.9
398.565	418.94
398.944	422.79
399.323	407.64
399.701	435.89
400.08	413.29
400.458	427.31
400.837	429.34
401.215	463.46
401.594	428.44
401.972	428.44
402.351	413.07
402.729	453.07
403.107	436.57
403.486	433.63
403.864	462.33
404.242	444.03
404.62	459.62
404.999	457.59
405.377	450.13
405.755	485.83
406.133	469.56
406.511	468.66
406.889	495.78
407.267	498.26
407.645	505.27
408.023	499.17
408.401	492.61
408.779	502.33
409.156	507.76
409.534	528.32
409.912	536.23
410.29	519.28
410.667	533.07
411.045	538.49
411.422	536
411.8	564.25
412.178	558.38
412.555	596.79
412.933	561.54
413.31	587.75
413.687	572.39
414.065	596.57
414.442	601.76
414.819	609.22
415.197	625.49
415.574	624.81
415.951	642.21
416.328	645.15
416.705	648.32
417.082	652.38
417.46	648.99
417.837	664.36
418.214	664.81
418.591	668.2
418.967	674.98
419.344	715.89
419.721	716.79
420.098	696.9
420.475	722.21
420.852	725.15
421.228	731.7
421.605	750.23
421.982	750.23
422.358	754.98
422.735	783.23
423.111	778.48
423.488	794.08
423.864	788.65
424.241	805.83
424.617	808.76
424.994	814.87
425.37	834.53
425.746	839.5
426.123	867.52
426.499	863.9
426.875	862.1
427.251	887.41
427.627	916.11
428.003	900.97
428.379	914.52
428.756	926.05
429.132	950.23
429.507	953.62
429.883	967.63
430.259	982.77
430.635	961.98
431.011	974.41
431.387	1015.31
431.763	1033.39
432.138	1036.33
432.514	1024.35
432.89	1060.51
433.265	1086.04
433.641	1125.59
434.016	1097.34
434.392	1113.84
434.767	1131.69
435.143	1151.58
435.518	1163.33
435.894	1197
436.269	1226.61
436.644	1231.58
437.02	1224.8
437.395	1250.11
437.77	1273.84
438.145	1296.66
438.52	1293.5
438.895	1325.36
439.271	1329.65
439.646	1356.32
440.021	1368.98
440.395	1376.21
440.77	1380.73
441.145	1396.55
441.52	1432.7
441.895	1410.56
442.27	1434.28
442.645	1410.33
443.019	1477.22
443.394	1491.01
443.769	1522.42
444.143	1484.9
444.518	1524
444.892	1541.63
445.267	1520.61
445.641	1556.09
446.016	1561.29
446.39	1560.16
446.764	1573.72
447.139	1594.96
447.513	1583.21
447.887	1607.16
448.262	1599.7
448.636	1602.19
449.01	1630.66
449.384	1644.22
449.758	1677.67
450.132	1680.38
450.506	1666.14
450.88	1674.73
451.254	1695.97
451.628	1710.89
452.002	1730.1
452.376	1732.81
452.75	1739.59
453.123	1765.58
453.497	1758.57
453.871	1819.58
454.244	1816.65
454.618	1814.39
454.992	1844.89
455.365	1872.24
455.739	1872.01
456.112	1928.06
456.486	1914.27
456.859	1923.54
457.232	1972.35
457.606	1954.95
457.979	2002.63
458.352	2027.49
458.725	2028.17
459.099	2042.63
459.472	2103.65
459.845	2094.83
460.218	2095.51
460.591	2133.02
460.964	2117.2
461.337	2199.01
461.71	2223.19
462.083	2234.04
462.456	2231.78
462.829	2268.61
463.201	2283.75
463.574	2275.17
463.947	2306.13
464.32	2339.8
464.692	2375.05
465.065	2370.53
465.438	2427.48
465.81	2441.94
466.183	2415.28
466.555	2491.21
466.928	2508.83
467.3	2517.65
467.672	2534.82
468.045	2605.33
468.417	2578.44
468.789	2588.83
469.161	2630.19
469.534	2689.62
469.906	2714.7
470.278	2721.93
470.65	2761.26
471.022	2806.9
471.394	2818.88
471.766	2889.39
472.138	2902.49
472.51	2949.95
472.882	2959.44
473.253	2971.87
473.625	3031.76
473.997	3071.08
474.369	3089.61
474.74	3110.4
475.112	3209.83
475.484	3200.57
475.855	3247.12
476.227	3301.81
476.598	3350.17
476.97	3349.71
477.341	3427.23
477.713	3491.41
478.084	3498.86
478.455	3575.92
478.827	3600.56
479.198	3701.12
479.569	3670.16
479.94	3777.27
480.311	3790.38
480.682	3871.06
481.053	3997.61
481.424	3993.31
481.795	4000.77
482.166	4106.53
482.537	4072.41
482.908	4190.14
483.279	4165.74
483.65	4237.83
484.021	4299.29
484.391	4342.68
484.762	4384.94
485.133	4465.39
485.503	4448.44
485.874	4552.85
486.244	4574.31
486.615	4682.79
486.985	4727.31
487.356	4765.27
487.726	4746.29
488.097	4883.46
488.467	4870.58
488.837	4924.36
489.207	5020.18
489.578	5071.02
489.948	5102.66
490.318	5128.42
490.688	5189.89
491.058	5211.59
491.428	5309.66
491.798	5275.31
492.168	5376.33
492.538	5437.34
492.908	5465.36
493.278	5524.12
493.648	5544.23
494.017	5580.16
494.387	5598.02
494.757	5629.43
495.126	5719.14
495.496	5701.74
495.866	5739.71
496.235	5807.95
496.605	5819.03
496.974	5820.84
497.344	5889.31
497.713	5946.71
498.082	5943.54
498.452	5981.96
498.821	5998.01
499.19	6029.64
499.559	6085.69
499.928	6114.61
500.298	6120.71
500.667	6204.78
501.036	6178.11
501.405	6222.18
501.774	6247.72
502.143	6302.63
502.512	6279.35
502.88	6343.99
503.249	6301.05
503.618	6400.03
503.987	6326.59
504.356	6466.02
504.724	6421.27
505.093	6453.81
505.462	6491.1
505.83	6455.62
506.199	6492.68
506.567	6574.26
506.936	6540.59
507.304	6591.21
507.672	6649.97
508.041	6627.59
508.409	6601.15
508.777	6598.44
509.145	6751.66
509.514	6739.46
509.882	6714.82
510.25	6756.63
510.618	6800.47
510.986	6791.21
511.354	6826.68
511.722	6884.31
512.09	6903.97
512.458	6928.6
512.826	6933.57
513.193	7010.18
513.561	6976.29
513.929	6999.56
514.297	7017.64
514.664	7094.93
515.032	7018.54
515.4	7108.03
515.767	7127.24
516.135	7198.65
516.502	7069.62
516.869	7150.52
517.237	7177.86
517.604	7154.59
517.972	7183.74
518.339	7245.88
518.706	7252.21
519.073	7259.89
519.44	7278.42
519.808	7360
520.175	7272.77
520.542	7331.08
520.909	7390.51
521.276	7384.64
521.643	7441.36
522.009	7438.42
522.376	7472.09
522.743	7528.59
523.11	7497.18
523.477	7599.77
523.843	7614.01
524.21	7647.91
524.577	7680.22
524.943	7689.04
525.31	7668.02
525.676	7753.44
526.043	7783.95
526.409	7788.02
526.776	7883.61
527.142	7855.81
527.508	7876.37
527.874	7910.5
528.241	7971.51
528.607	7932.19
528.973	7964.73
529.339	7954.34
529.705	7995.69
530.071	8039.53
530.437	8075.01
530.803	8138.97
531.169	8141.68
531.535	8132.87
531.901	8149.81
532.267	8191.17
532.632	8213.99
532.998	8199.08
533.364	8269.36
533.73	8218.96
534.095	8268.23
534.461	8262.13
534.826	8283.14
535.192	8309.81
535.557	8377.38
535.923	8300.09
536.288	8336.93
536.653	8432.07
537.019	8356.36
537.384	8379.41
537.749	8395.91
538.114	8454.66
538.479	8476.59
538.845	8409.69
539.21	8421.9
539.575	8479.75
539.94	8449.92
540.305	8507.09
540.67	8438.85
541.034	8529.01
541.399	8491.5
541.764	8469.81
542.129	8513.65
542.494	8592.74
542.858	8510.03
543.223	8492.86
543.587	8534.89
543.952	8610.14
544.316	8606.3
544.681	8580.99
545.045	8652.17
545.41	8653.76
545.774	8668.22
546.138	8683.36
546.503	8667.77
546.867	8687.88
547.231	8708.22
547.595	8704.38
547.959	8726.97
548.324	8722.68
548.688	8724.49
549.052	8776.69
549.416	8812.17
549.779	8677.03
550.143	8757.71
550.507	8871.15
550.871	8852.17
551.235	8802.45
551.599	8860.3
551.962	8840.19
552.326	8872.51
552.689	8903.24
553.053	8850.36
553.417	8894.65
553.78	9009.45
554.143	8992.73
554.507	8989.57
554.87	8975.78
555.234	9075.44
555.597	9004.93
555.96	8995.67
556.323	9027.08
556.686	9012.39
557.05	9107.98
557.413	9118.38
557.776	9164.02
558.139	9137.36
558.502	9207.19
558.865	9228.43
559.228	9272.5
559.59	9323.57
559.953	9311.59
560.316	9321.31
560.679	9368.31
561.041	9370.8
561.404	9413.51
561.767	9416.22
562.129	9451.47
562.492	9510.23
562.854	9438.59
563.217	9445.15
563.579	9553.62
563.941	9600.17
564.304	9587.52
564.666	9714.29
565.028	9708.42
565.39	9681.53
565.753	9773.5
566.115	9774.63
566.477	9907.73
566.839	9839.49
567.201	9893.95
567.563	9880.62
567.925	9969.43
568.287	9978.47
568.648	10051.23
569.01	10041.74
569.372	10155.64
569.734	10119.48
570.095	10128.74
570.457	10139.82
570.819	10195.18
571.18	10201.29
571.542	10273.15
571.903	10260.27
572.265	10351.79
572.626	10364.67
572.987	10342.98
573.349	10403.77
573.71	10460.26
574.071	10432.01
574.432	10507.04
574.794	10714.72
575.155	10539.81
575.516	10473.37
575.877	10599.69
576.238	10656.87
576.599	10688.28
576.96	10735.96
577.32	10823.19
577.681	10848.5
578.042	10850.53
578.403	10765.79
578.763	10830.2
579.124	10909.29
579.485	10955.16
579.845	11027.48
580.206	10980.47
580.566	10930.53
580.927	11074.93
581.287	11085.78
581.648	11026.35
582.008	11189.73
582.368	11149.74
582.728	11178.43
583.089	11224.31
583.449	11237.87
583.809	11207.13
584.169	11279.22
584.529	11302.95
584.889	11367.13
585.249	11384.98
585.609	11309.28
585.969	11417.75
586.329	11417.52
586.688	11428.15
587.048	11427.02
587.408	11445.09
587.768	11434.02
588.127	11506.34
588.487	11544.3
588.846	11582.04
589.206	11489.84
589.565	11638.99
589.925	11661.13
590.284	11731.87
590.643	11735.48
591.003	11791.98
591.362	11889.38
591.721	11708.36
592.08	11748.59
592.44	11820.23
592.799	11865.42
593.158	11850.06
593.517	11896.61
593.876	11918.3
594.235	11907.91
594.593	11987.91
594.952	11947.91
595.311	11990.62
595.67	11981.58
596.029	11989.94
596.387	12109.26
596.746	12083.04
597.104	12046.43
597.463	12059.09
597.822	12175.92
598.18	12084.4
598.538	12110.16
598.897	12202.36
599.255	12014.8
599.613	12311.51
599.972	12212.08
600.33	12314.68
600.688	12214.57
601.046	12247.11
601.404	12260.89
601.762	12278.97
602.12	12295.69
602.478	12311.96
602.836	12382.7
603.194	12251.85
603.552	12322.81
603.91	12317.39
604.268	12328.91
604.625	12357.84
604.983	12386.54
605.341	12276.71
605.698	12372.75
606.056	12384.73
606.413	12399.19
606.771	12393.54
607.128	12476.48
607.485	12438.29
607.843	12486.65
608.2	12443.26
608.557	12547.66
608.914	12502.47
609.272	12587.21
609.629	12535.91
609.986	12570.26
610.343	12525.74
610.7	12637.61
611.057	12689.81
611.414	12680.32
611.771	12665.63
612.127	12752.4
612.484	12676.47
612.841	12788.34
613.198	12583.37
613.554	12699.75
613.911	12763.93
614.267	12763.93
614.624	12730.03
614.98	12688.45
615.337	12801.22
615.693	12749.02
616.05	12862.68
616.406	12921.21
616.762	12895
617.118	12805.74
617.475	12806.41
617.831	12850.26
618.187	12867.43
618.543	12818.62
618.899	12996.92
619.255	12889.58
619.611	12867.43
619.967	12954.89
620.323	13020.87
620.678	12911.04
621.034	12866.98
621.39	12934.09
621.746	12814.55
622.101	13082.79
622.457	12921.21
622.812	12960.08
623.168	12992.4
623.523	12965.05
623.879	13027.2
624.234	12946.3
624.589	12980.42
624.945	12999.86
625.3	12953.76
625.655	13023.81
626.01	12982.46
626.365	13070.81
626.72	13022.68
627.075	12977.71
627.43	12956.47
627.785	12930.71
628.14	12991.49
628.495	12977.03
628.85	12961.66
629.205	12907.2
629.559	12917.82
629.914	12892.51
630.269	12889.35
630.623	12879.63
630.978	12846.64
631.332	12952.4
631.687	12890.25
632.041	12892.74
632.396	12873.76
632.75	12827.88
633.104	12847.32
633.459	12830.82
633.813	12696.81
634.167	12753.08
634.521	12798.96
634.875	12754.66
635.229	12702.01
635.583	12689.58
635.937	12611.84
636.291	12696.81
636.645	12648
636.999	12628.57
637.352	12723.25
637.706	12513.54
638.06	12635.35
638.413	12554.44
638.767	12595.57
639.121	12564.84
639.474	12492.52
639.828	12489.59
640.181	12507.21
640.534	12502.24
640.888	12455.01
641.241	12432.19
641.594	12502.24
641.947	12553.99
642.301	12402.58
642.654	12440.77
643.007	12469.25
643.36	12386.09
643.713	12405.52
644.066	12527.78
644.419	12336.37
644.771	12322.36
645.124	12144.06
645.477	12159.88
645.83	12119.88
646.182	12035.59
646.535	12030.16
646.888	12067
647.24	11916.49
647.593	12033.33
647.945	12073.55
648.298	11901.81
648.65	11909.49
649.002	11908.81
649.355	11995.14
649.707	11952.65
650.059	11951.97
650.411	12109.94
650.763	12127.34
651.115	12288.69
651.467	12321
651.819	12257.05
652.171	12212.53
652.523	12243.27
652.875	12329.14
653.227	12217.73
653.578	12227.45
653.93	12175.47
654.282	12146.55
654.633	12126.21
654.985	12138.64
655.337	12173.21
655.688	12171.63
656.039	12262.02
656.391	12132.99
656.742	12179.76
657.094	12167.11
657.445	12249.37
657.796	12140.9
658.147	12108.58
658.498	12201.46
658.849	12118.07
659.2	12220.22
659.551	12070.61
659.902	12184.74
660.253	12183.15
660.604	12226.77
660.955	12170.27
661.306	12227.45
661.656	12137.51
662.007	12166.21
662.358	12154.68
662.708	12135.02
663.059	12169.14
663.409	12152.19
663.76	12217.5
664.11	12152.87
664.461	12199.42
664.811	12259.08
665.161	12126.43
665.511	12219.76
665.862	12223.61
666.212	12267.67
666.562	12209.59
666.912	12179.09
667.262	12133.66
667.612	12233.55
667.962	12167.34
668.312	12194.23
668.662	12294.79
669.011	12112.2
669.361	12175.7
669.711	12227.45
670.06	12112.65
670.41	12133.21
670.76	12116.94
671.109	12197.84
671.459	12124.17
671.808	12125.3
672.157	12141.35
672.507	12053.44
672.856	12008.92
673.205	12116.26
673.554	12156.26
673.904	12067.23
674.253	12111.52
674.602	12092.08
674.951	11859.32
675.3	11848.7
675.649	11991.07
675.998	11958.53
676.346	11991.75
676.695	12054.8
677.044	11935.93
677.393	11944.97
677.741	11984.74
678.09	11947.68
678.438	11902.26
678.787	11901.35
679.135	11956.72
679.484	11887.34
679.832	11887.57
680.181	11802.83
680.529	11841.24
680.877	11754.92
681.225	11801.92
681.573	11836.95
681.922	11738.19
682.27	11712.66
682.618	11740.68
682.966	11669.5
683.314	11645.54
683.661	11672.21
684.009	11619.78
684.357	11568.03
684.705	11587.01
685.053	11504.98
685.4	11510.63
685.748	11459.11
686.095	11471.99
686.443	11422.27
686.79	11476.73
687.138	11469.05
687.485	11408.26
687.832	11378.43
688.18	11319.9
688.527	11345.89
688.874	11275.61
689.221	11256.85
689.568	11200.58
689.915	11215.72
690.262	11200.13
690.609	11093.01
690.956	11115.84
691.303	11064.77
691.65	10988.16
691.997	11036.29
692.344	10885.34
692.69	10933.92
693.037	10956.52
693.383	10905.45
693.73	10895.5
694.077	10769.18
694.423	10753.14
694.769	10751.55
695.116	10666.36
695.462	10760.14
695.808	10675.85
696.155	10707.49
696.501	10609.64
696.847	10577.55
697.193	10498.45
697.539	10513.37
697.885	10451
698.231	10407.83
698.577	10397.89
698.923	10382.75
699.269	10288.06
699.614	10255.97
699.96	10275.86
700.306	10243.77
700.651	10232.25
700.997	10137.33
701.342	10094.17
701.688	10093.94
702.033	9982.99
702.379	10021.18
702.724	10021.63
703.069	10004.45
703.415	9856.66
703.76	9874.97
704.105	9867.73
704.45	9844.01
704.795	9733.73
705.14	9736.21
705.485	9665.25
705.83	9643.33
706.175	9740.51
706.52	9672.49
706.865	9596.56
707.209	9639.94
707.554	9585.03
707.899	9535.09
708.243	9557.91
708.588	9478.82
708.932	9454.64
709.277	9453.28
709.621	9437.24
709.966	9357.69
710.31	9360.63
710.654	9295.32
710.998	9337.13
711.342	9314.3
711.687	9214.87
712.031	9258.49
712.375	9265.04
712.719	9211.48
713.063	9175.55
713.407	9264.36
713.75	9188.2
714.094	9200.18
714.438	9052.62
714.782	9123.12
715.125	9041.77
715.469	9169.45
715.812	9053.97
716.156	9043.35
716.499	9007.64
716.843	9024.59
717.186	8987.76
717.53	9009.23
717.873	9052.84
718.216	8957.48
718.559	8903.92
718.902	8920.64
719.246	8946.63
719.589	8913.64
719.932	8890.13
720.275	8866.86
720.617	8873.18
720.96	8861.89
721.303	8794.54
721.646	8837.93
721.989	8731.27
722.331	8833.64
722.674	8729.46
723.016	8822.11
723.359	8730.14
723.701	8712.74
724.044	8729.23
724.386	8662.34
724.729	8764.04
725.071	8667.54
725.413	8663.47
725.755	8690.82
726.097	8699.86
726.439	8639.97
726.782	8555.68
727.124	8712.29
727.465	8674.32
727.807	8639.52
728.149	8574.44
728.491	8587.09
728.833	8623.02
729.175	8543.02
729.516	8573.31
729.858	8643.13
730.199	8604.49
730.541	8583.7
730.882	8577.83
731.224	8556.58
731.565	8497.15
731.906	8499.18
732.248	8535.11
732.589	8520.65
732.93	8558.62
733.271	8522.69
733.612	8520.65
733.953	8525.4
734.294	8510.48
734.635	8432.97
734.976	8456.7
735.317	8390.49
735.658	8508.67
735.999	8487.43
736.339	8470.48
736.68	8546.41
737.021	8485.4
737.361	8462.35
737.702	8520.43
738.042	8585.06
738.383	8485.85
738.723	8547.54
739.063	8546.41
739.404	8545.28
739.744	8489.01
740.084	8515.45
740.424	8566.3
740.764	8528.34
741.104	8531.72
741.444	8578.05
741.784	8533.53
742.124	8595.45
742.464	8510.93
742.804	8528.34
743.143	8571.27
743.483	8573.31
743.823	8548.45
744.162	8566.3
744.502	8664.83
744.841	8608.11
745.181	8607.43
745.52	8676.58
745.86	8746.41
746.199	8765.84
746.538	8738.05
746.877	8858.72
747.216	8794.09
747.556	8898.49
747.895	8894.88
748.234	8925.84
748.573	8999.51
748.911	9057.81
749.25	9092.84
749.589	9137.81
749.928	9171.48
750.267	9271.37
750.605	9319.73
750.944	9320.4
751.283	9381.19
751.621	9489.44
751.96	9472.49
752.298	9641.75
752.636	9673.39
752.975	9682.88
753.313	9828.87
753.651	9979.6
753.989	9985.25
754.327	10164.45
754.666	10193.38
755.004	10303.88
755.342	10395.63
755.679	10535.51
756.017	10601.5
756.355	10784.55
756.693	10789.97
757.031	10995.84
757.368	11115.39
757.706	11219.56
758.044	11333.69
758.381	11453.46
758.719	11654.81
759.056	11768.02
759.394	11889.15
759.731	11926.66
760.068	12120.33
760.405	12267.9
760.743	12414.11
761.08	12622.69
