Data from hue_320_FLMS001491_96.txt Node
Date: Mon Feb 06 15:47:59 GMT 2017
User: dcchb
Spectrometer: FLMS00149
Trigger mode: 0
Integration Time (sec): 2.000000E-2
Scans to average: 10
Electric dark correction enabled: true
Nonlinearity correction enabled: false
Boxcar width: 0
XAxis mode: Wavelengths
Number of Pixels in Spectrum: 2048
>>>>>Begin Spectral Data<<<<<
341.393	-29.69
341.776	-29.69
342.16	-29.69
342.543	-85.05
342.927	-52.74
343.31	-69.46
343.693	-62.68
344.077	-74.89
344.46	-44.83
344.843	-68.11
345.226	-47.99
345.61	-48.67
345.993	-26.07
346.376	11.21
346.759	0.59
347.142	29.29
347.525	42.17
347.908	70.87
348.291	74.04
348.674	97.99
349.057	116.52
349.44	119.23
349.823	130.53
350.206	165.79
350.588	192.68
350.971	205.11
351.354	212.34
351.737	215.5
352.119	248.04
352.502	257.76
352.884	248.5
353.267	289.85
353.65	291.88
354.032	309.51
354.414	309.74
354.797	293.01
355.179	323.3
355.562	318.55
355.944	329.85
356.326	326.23
356.709	328.72
357.091	344.76
357.473	334.6
357.855	335.05
358.238	344.54
358.62	320.58
359.002	347.02
359.384	346.8
359.766	332.34
360.148	331.21
360.53	345.89
360.912	329.85
361.294	334.6
361.676	353.8
362.057	325.33
362.439	313.35
362.821	333.69
363.203	319.91
363.584	316.74
363.966	327.59
364.348	335.27
364.729	321.26
365.111	332.56
365.493	313.35
365.874	320.36
366.256	323.3
366.637	314.48
367.019	314.26
367.4	310.87
367.781	296.63
368.163	335.95
368.544	304.31
368.925	302.51
369.306	311.32
369.688	307.7
370.069	323.52
370.45	301.6
370.831	314.71
371.212	291.43
371.593	327.82
371.974	322.17
372.355	300.02
372.736	327.36
373.117	317.87
373.498	299.79
373.879	315.39
374.26	333.24
374.641	316.74
375.021	333.47
375.402	315.84
375.783	331.21
376.163	317.2
376.544	324.65
376.925	342.96
377.305	307.93
377.686	310.42
378.066	304.54
378.447	301.38
378.827	331.21
379.208	333.47
379.588	326.46
379.968	337.31
380.349	328.04
380.729	327.36
381.109	348.15
381.489	353.8
381.87	346.12
382.25	328.95
382.63	344.09
383.01	331.66
383.39	341.83
383.77	339.34
384.15	335.5
384.53	331.88
384.91	322.17
385.29	322.84
385.67	328.49
386.049	331.66
386.429	326.91
386.809	339.34
387.189	363.52
387.568	347.25
387.948	353.8
388.328	352.9
388.707	360.36
389.087	373.92
389.466	377.08
389.846	361.26
390.225	363.3
390.605	338.89
390.984	370.98
391.363	360.36
391.743	367.36
392.122	342.05
392.501	375.5
392.881	369.85
393.26	382.05
393.639	353.58
394.018	371.88
394.397	371.66
394.776	366.23
395.155	382.96
395.534	370.98
395.913	363.97
396.292	382.96
396.671	391.32
397.05	375.72
397.429	384.54
397.808	394.48
398.186	386.57
398.565	386.8
398.944	384.09
399.323	394.03
399.701	400.81
400.08	380.7
400.458	383.41
400.837	408.49
401.215	394.48
401.594	413.01
401.972	403.52
402.351	431.54
402.729	381.6
403.107	411.88
403.486	416.63
403.864	408.04
404.242	422.28
404.62	425.89
404.999	413.69
405.377	426.8
405.755	415.27
406.133	424.54
406.511	448.94
406.889	427.7
407.267	439.45
407.645	443.29
408.023	431.77
408.401	447.81
408.779	443.29
409.156	456.63
409.534	456.85
409.912	474.48
410.29	462.95
410.667	480.13
411.045	461.37
411.422	500.24
411.8	463.41
412.178	494.82
412.555	497.76
412.933	511.09
413.31	511.54
413.687	522.61
414.065	538.21
414.442	554.7
414.819	529.39
415.197	568.49
415.574	552.44
415.951	566.68
416.328	542.5
416.705	544.99
417.082	570.97
417.46	585.44
417.837	596.28
418.214	590.86
418.591	597.64
418.967	599.67
419.344	611.2
419.721	604.65
420.098	623.85
420.475	606.23
420.852	637.64
421.228	644.87
421.605	640.12
421.982	646.9
422.358	665.89
422.735	665.21
423.111	650.52
423.488	652.33
423.864	659.11
424.241	675.6
424.617	684.64
424.994	679.67
425.37	670.18
425.746	693
426.123	713.12
426.499	714.25
426.875	732.78
427.251	723.96
427.627	745.88
428.003	745.21
428.379	745.21
428.756	764.87
429.132	766.67
429.507	768.71
429.883	797.41
430.259	798.09
430.635	813.45
431.011	807.58
431.387	806.45
431.763	820.91
432.138	837.86
432.514	856.39
432.89	847.8
433.265	858.65
433.641	882.83
434.016	865.43
434.392	887.35
434.767	907.01
435.143	909.04
435.518	888.71
435.894	921.7
436.269	910.63
436.644	947.46
437.02	937.07
437.395	956.73
437.77	974.13
438.145	983.17
438.52	972.09
438.895	990.85
439.271	1008.7
439.646	1029.94
440.021	1014.58
440.395	1007.57
440.77	1010.51
441.145	1020.45
441.52	1038.76
441.895	1039.89
442.27	1055.03
442.645	1076.05
443.019	1068.36
443.394	1040.79
443.769	1063.16
444.143	1081.47
444.518	1088.25
444.892	1055.03
445.267	1092.99
445.641	1083.5
446.016	1070.4
446.39	1121.02
446.764	1061.81
447.139	1126.89
447.513	1120.79
447.887	1080.34
448.262	1122.15
448.636	1089.15
449.01	1137.74
449.384	1120.56
449.758	1147.23
450.132	1149.04
450.506	1174.57
450.88	1140.22
451.254	1173.44
451.628	1166.44
452.002	1155.59
452.376	1182.93
452.75	1198.75
453.123	1179.32
453.497	1225.65
453.871	1213.89
454.244	1223.61
454.618	1211.86
454.992	1221.35
455.365	1259.77
455.739	1264.51
456.112	1296.38
456.486	1259.54
456.859	1279.66
457.232	1296.38
457.606	1297.96
457.979	1281.24
458.352	1301.8
458.725	1337.73
459.099	1334.12
459.472	1355.13
459.845	1375.02
460.218	1353.78
460.591	1357.85
460.964	1354.91
461.337	1387
461.71	1382.48
462.083	1402.82
462.456	1456.83
462.829	1431.29
463.201	1455.24
463.574	1423.38
463.947	1463.38
464.32	1506.09
464.692	1490.05
465.065	1490.95
465.438	1516.49
465.81	1512.42
466.183	1539.76
466.555	1562.59
466.928	1572.53
467.3	1577.95
467.672	1587.9
468.045	1612.53
468.417	1617.95
468.789	1591.96
469.161	1634.67
469.534	1650.95
469.906	1675.8
470.278	1668.8
470.65	1701.11
471.022	1736.14
471.394	1737.5
471.766	1751.51
472.138	1756.48
472.51	1798.29
472.882	1796.93
473.253	1822.47
473.625	1830.6
473.997	1885.97
474.369	1861.34
474.74	1867.21
475.112	1916.93
475.484	1913.99
475.855	1938.62
476.227	1965.06
476.598	2032.4
476.97	2016.36
477.341	2095.45
477.713	2074.66
478.084	2089.8
478.455	2140.42
478.827	2090.93
479.198	2229.01
479.569	2185.85
479.94	2219.07
480.311	2245.96
480.682	2322.57
481.053	2325.28
481.424	2354.43
481.795	2343.81
482.166	2382.9
482.537	2418.61
482.908	2447.08
483.279	2445.95
483.65	2511.94
484.021	2534.76
484.391	2566.18
484.762	2540.64
485.133	2595.33
485.503	2574.31
485.874	2646.63
486.244	2678.71
486.615	2711.71
486.985	2728.21
487.356	2757.58
487.726	2781.31
488.097	2871.7
488.467	2823.34
488.837	2861.76
489.207	2916.67
489.578	2923.91
489.948	2971.36
490.318	2959.84
490.688	3019.27
491.058	3004.58
491.428	3087.74
491.798	3070.57
492.168	3164.35
492.538	3109.66
492.908	3155.54
493.278	3183.79
493.648	3194.18
494.017	3240.96
494.387	3253.16
494.757	3290.9
495.126	3297.46
495.496	3306.95
495.866	3328.42
496.235	3380.17
496.605	3332.71
496.974	3391.24
497.344	3395.53
497.713	3455.19
498.082	3461.97
498.452	3463.33
498.821	3502.87
499.19	3499.48
499.559	3526.38
499.928	3552.36
500.298	3560.05
500.667	3581.74
501.036	3552.59
501.405	3583.78
501.774	3617.22
502.143	3658.35
502.512	3661.74
502.88	3652.47
503.249	3678.69
503.618	3679.14
503.987	3682.3
504.356	3720.72
504.724	3736.09
505.093	3708.97
505.462	3748.74
505.83	3770.44
506.199	3805.01
506.567	3802.08
506.936	3798.69
507.304	3874.39
507.672	3873.71
508.041	3874.62
508.409	3841.4
508.777	3913.94
509.145	3897.21
509.514	3935.63
509.882	3932.47
510.25	3924.11
510.618	3935.63
510.986	3948.06
511.354	3997.32
511.722	4010.21
512.09	4036.19
512.458	3990.54
512.826	4009.08
513.193	4026.7
513.561	4019.92
513.929	4042.52
514.297	4125.46
514.664	4080.49
515.032	4125
515.4	4151.67
515.767	4120.03
516.135	4163.2
516.502	4113.03
516.869	4167.72
517.237	4191.67
517.604	4160.71
517.972	4177.21
518.339	4214.49
518.706	4207.94
519.073	4211.78
519.44	4270.31
519.808	4261.72
520.175	4292.01
520.542	4281.61
520.909	4328.84
521.276	4296.98
521.643	4326.81
522.009	4331.78
522.376	4376.3
522.743	4416.3
523.11	4405.22
523.477	4467.37
523.843	4454.04
524.21	4488.38
524.577	4488.84
524.943	4519.12
525.31	4501.72
525.676	4559.8
526.043	4570.42
526.409	4594.14
526.776	4618.1
527.142	4633.92
527.508	4616.74
527.874	4696.06
528.241	4711.66
528.607	4693.8
528.973	4807.47
529.339	4744.42
529.705	4795.04
530.071	4832.78
530.437	4852.67
530.803	4805.89
531.169	4904.65
531.535	4892.44
531.901	4846.79
532.267	4853.8
532.632	4944.42
532.998	4933.8
533.364	4935.38
533.73	4996.17
534.095	5021.25
534.461	5008.6
534.826	5016.05
535.192	5091.31
535.557	5152.1
535.923	5122.04
536.288	5127.69
536.653	5183.06
537.019	5155.49
537.384	5189.38
537.749	5179.21
538.114	5206.78
538.479	5313.67
538.845	5282.26
539.21	5265.99
539.575	5291.75
539.94	5315.03
540.305	5367.01
540.67	5336.5
541.034	5418.98
541.399	5392.32
541.764	5442.94
542.129	5473.67
542.494	5433.22
542.858	5441.81
543.223	5501.47
543.587	5555.93
543.952	5546.89
544.316	5556.38
544.681	5556.38
545.045	5638.41
545.41	5637.28
545.774	5683.38
546.138	5723.15
546.503	5692.65
546.867	5686.77
547.231	5795.7
547.595	5743.04
547.959	5781.01
548.324	5843.38
548.688	5848.58
549.052	5888.35
549.416	5863.49
549.779	5894.45
550.143	5851.29
550.507	5931.06
550.871	5955.46
551.235	5964.5
551.599	5992.53
551.962	5975.35
552.326	5992.98
552.689	6061
553.053	6034.56
553.417	6023.94
553.78	6108.91
554.143	6119.08
554.507	6129.02
554.87	6118.62
555.234	6170.15
555.597	6170.15
555.96	6216.25
556.323	6180.09
556.686	6218.06
557.05	6285.4
557.413	6273.2
557.776	6283.14
558.139	6383.25
558.502	6347.77
558.865	6331.73
559.228	6384.38
559.59	6387.77
559.953	6422.57
560.316	6560.87
560.679	6465.73
561.041	6489.01
561.404	6505.51
561.767	6553.19
562.129	6550.48
562.492	6543.02
562.854	6598.61
563.217	6598.39
563.579	6592.06
563.941	6614.2
564.304	6667.99
564.666	6671.15
565.028	6737.59
565.39	6796.35
565.753	6808.55
566.115	6788.44
566.477	6821.66
566.839	6806.06
567.201	6883.8
567.563	6870.24
567.925	6913.41
568.287	6937.13
568.648	6881.54
569.01	6974.87
569.372	7008.09
569.734	6989.56
570.095	7015.1
570.457	7044.02
570.819	7060.97
571.18	7109.56
571.542	7208.31
571.903	7258.03
572.265	7194.08
572.626	7306.16
572.987	7286.73
573.349	7378.93
573.71	7392.49
574.071	7480.4
574.432	7503.67
574.794	7605.14
575.155	7586.38
575.516	7598.36
575.877	7740.28
576.238	7758.13
576.599	7889.65
576.96	7923.1
577.32	8009.42
577.681	7978.69
578.042	8085.35
578.403	8190.89
578.763	8283.77
579.124	8350.2
579.485	8455.74
579.845	8547.71
580.206	8659.8
580.566	8696.18
580.927	8902.73
581.287	9057.98
581.648	9043.97
582.008	9257.52
582.368	9266.34
582.728	9517.41
583.089	9642.15
583.449	9751.07
583.809	9949.26
584.169	10133.66
584.529	10329.59
584.889	10533.88
585.249	10644.83
585.609	10790.82
585.969	11081.88
586.329	11237.59
586.688	11443
587.048	11621.53
587.408	11802.77
587.768	11998.92
588.127	12272.81
588.487	12425.13
588.846	12792.35
589.206	13030.31
589.565	13148.95
589.925	13474.14
590.284	13654.47
590.643	13933.56
591.003	14251.52
591.362	14543.26
591.721	14691.96
592.08	15049.01
592.44	15331.26
592.799	15589.11
593.158	15835.66
593.517	15999.04
593.876	16395.42
594.235	16687.84
594.593	17005.8
594.952	17326.69
595.311	17519.91
595.67	17847.36
596.029	18112.66
596.387	18509.03
596.746	18853.2
597.104	18918.97
597.463	19238.73
597.822	19635.11
598.18	19807.98
598.538	20087.3
598.897	20428.08
599.255	20601.86
599.613	21200.49
599.972	21361.16
600.33	21656.29
600.688	21853.58
601.046	22114.14
601.404	22504.18
601.762	22686.55
602.12	23121.12
602.478	23256.25
602.836	23512.07
603.194	23682.68
603.552	24102.56
603.91	24094.42
604.268	24479.27
604.625	24686.27
604.983	24998.81
605.341	25046.04
605.698	25509.08
606.056	25722.4
606.413	26011.89
606.771	26247.36
607.128	26651.87
607.485	26619.1
607.843	26846.22
608.2	27179.54
608.557	27490.94
608.914	27546.54
609.272	27975.9
609.629	28033.75
609.986	28383.58
610.343	28467.19
610.7	28860.17
611.057	28854.75
611.414	29157.57
611.771	29286.38
612.127	29514.62
612.484	29717.55
612.841	29894.5
613.198	30133.13
613.554	30206.13
613.911	30409.29
614.267	30767.24
614.624	30735.83
614.98	30924.3
615.337	31280
615.693	31309.6
616.05	31473.44
616.406	31764.28
616.762	31709.82
617.118	31917.95
617.475	32158.39
617.831	32248.78
618.187	32445.39
618.543	32517.48
618.899	32831.59
619.255	32796.34
619.611	32934.42
619.967	33144.13
620.323	33267.06
620.678	33255.99
621.034	33359.04
621.39	33456.44
621.746	33498.92
622.101	33945.46
622.457	33839.25
622.812	33931.68
623.168	34178
623.523	34122.41
623.879	34296.64
624.234	34187.49
624.589	34393.59
624.945	34395.4
625.3	34596.29
625.655	34554.94
626.01	34722.84
626.365	34748.38
626.72	34886.23
627.075	34885.78
627.43	34895.27
627.785	35076.51
628.14	35055.26
628.495	35208.48
628.85	35259.55
629.205	35119.22
629.559	35495.93
629.914	35301.13
630.269	35314.92
630.623	35225.2
630.978	35360.34
631.332	35438.53
631.687	35530.28
632.041	35380.45
632.396	35643.95
632.75	35494.58
633.104	35510.85
633.459	35525.99
633.813	35653.22
634.167	35523.5
634.521	35535.03
634.875	35569.15
635.229	35559.88
635.583	35552.2
635.937	35550.39
636.291	35580.22
636.645	35540.45
636.999	35612.99
637.352	35682.37
637.706	35460.45
638.06	35771.4
638.413	35663.38
638.767	35648.47
639.121	35677.62
639.474	35430.17
639.828	35402.83
640.181	35589.04
640.534	35436.5
640.888	35357.18
641.241	35446.44
641.594	35447.34
641.947	35516.95
642.301	35422.03
642.654	35550.84
643.007	35565.99
643.36	35508.36
643.713	35420.9
644.066	35542.71
644.419	35289.61
644.771	35142.49
645.124	34823.18
645.477	34806.01
645.83	34758.78
646.182	34425
646.535	34342.29
646.888	34493.02
647.24	34254.16
647.593	34507.03
647.945	34425.45
648.298	34270.88
648.65	34236.98
649.002	34163.54
649.355	34367.6
649.707	34200.15
650.059	34467.03
650.411	34806.91
650.763	34941.82
651.115	35216.39
651.467	35104.98
651.819	35173.23
652.171	35083.51
652.523	35139.56
652.875	34940.69
653.227	34953.8
653.578	35086.68
653.93	35064.98
654.282	34837.19
654.633	34893.69
654.985	34880.58
655.337	34933.69
655.688	34837.87
656.039	34894.59
656.391	34726.23
656.742	34700.47
657.094	34916.29
657.445	34935.04
657.796	34836.97
658.147	34875.61
658.498	34718.78
658.849	34959.22
659.2	34858.21
659.551	34816.4
659.902	34856.17
660.253	34895.72
660.604	34812.11
660.955	34575.05
661.306	34910.86
661.656	34871.09
662.007	34834.03
662.358	34676.29
662.708	34739.11
663.059	34671.09
663.409	34543.19
663.76	34658.66
664.11	34826.34
664.461	34763.52
664.811	34762.17
665.161	34741.37
665.511	34695.27
665.862	34711.09
666.212	34735.73
666.562	34789.96
666.912	34643.07
667.262	34552
667.612	34633.35
667.962	34673.13
668.312	34639.46
668.662	34735.95
669.011	34595.62
669.361	34512
669.711	34545.22
670.06	34430.42
670.41	34463.42
670.76	34318.11
671.109	34502.06
671.459	34412.8
671.808	34503.41
672.157	34616.86
672.507	34429.52
672.856	34454.83
673.205	34363.53
673.554	34512.23
673.904	34321.27
674.253	34585.67
674.602	34404.89
674.951	33797.9
675.3	33770.78
675.649	34196.08
675.998	34276.53
676.346	34235.63
676.695	34421.16
677.044	34074.73
677.393	34317.88
677.741	34376.41
678.09	34175.74
678.438	34191.56
678.787	34183.42
679.135	34168.73
679.484	33941.85
679.832	34005.12
680.181	34017.33
680.529	34034.73
680.877	33820.95
681.225	33822.98
681.573	34031.56
681.922	33859.82
682.27	33768.97
682.618	33800.38
682.966	33646.71
683.314	33673.38
683.661	33580.28
684.009	33425.48
684.357	33372.82
684.705	33449.43
685.053	33488.07
685.4	33305.48
685.748	33202.21
686.095	33284.01
686.443	33154.52
686.79	33043.11
687.138	33159.27
687.485	33036.79
687.832	33023
688.18	32875.89
688.527	32829.33
688.874	32816.45
689.221	32762.67
689.568	32657.36
689.915	32602.9
690.262	32591.15
690.609	32512.05
690.956	32311.83
691.303	32380.31
691.65	32145.51
691.997	32189.13
692.344	32014.44
692.69	31865.74
693.037	32068.45
693.383	31793.2
693.73	31967.89
694.077	31667.11
694.423	31618.29
694.769	31601.12
695.116	31582.36
695.462	31473.44
695.808	31420.78
696.155	31385.98
696.501	31188.02
696.847	31185.99
697.193	30866
697.539	31083.39
697.885	30826.68
698.231	30764.76
698.577	30851.31
698.923	30628.26
699.269	30487.48
699.614	30420.36
699.96	30393.69
700.306	30382.17
700.651	30336.07
700.997	30107.15
701.342	30174.72
701.688	30018.79
702.033	29973.59
702.379	29973.36
702.724	29972.01
703.069	30052.46
703.415	29557.33
703.76	29561.62
704.105	29678.68
704.45	29542.64
704.795	29459.93
705.14	29324.79
705.485	29356.21
705.83	29180.84
706.175	29243.89
706.52	29150.56
706.865	29070.79
707.209	28942.88
707.554	28911.02
707.899	28933.62
708.243	28753.51
708.588	28805.71
708.932	28660.63
709.277	28552.61
709.621	28704.7
709.966	28373.41
710.31	28510.8
710.654	28170.47
710.998	28251.83
711.342	28253.86
711.687	28256.57
712.031	27982.91
712.375	27959.63
712.719	27942.91
713.063	27917.37
713.407	28023.59
713.75	27899.52
714.094	27800.54
714.438	27669.24
714.782	27767.55
715.125	27475.13
715.469	27521.45
715.812	27419.53
716.156	27436.26
716.499	27453.43
716.843	27278.75
717.186	27280.55
717.53	27330.72
717.873	27386.77
718.216	27236.49
718.559	27114.91
718.902	27105.64
719.246	27081.24
719.589	27046.66
719.932	26919.21
720.275	26872.65
720.617	26780
720.96	26778.87
721.303	26750.17
721.646	26695.71
721.989	26615.03
722.331	26739.33
722.674	26425.21
723.016	26570.29
723.359	26490.74
723.701	26544.53
724.044	26341.82
724.386	26296.17
724.729	26387.92
725.071	26284.42
725.413	26321.26
725.755	26160.58
726.097	26194.93
726.439	26060.02
726.782	26006.01
727.124	26100.25
727.465	25968.05
727.807	25960.81
728.149	25885.56
728.491	25868.61
728.833	25972.79
729.175	25727.15
729.516	25666.59
729.858	25716.98
730.199	25649.86
730.541	25543.88
730.882	25586.36
731.224	25683.08
731.565	25458.23
731.906	25546.81
732.248	25568.06
732.589	25304.33
732.93	25271.12
733.271	25307.95
733.612	25338.68
733.953	25427.72
734.294	25243.32
734.635	25254.84
734.976	25134.17
735.317	24993.38
735.658	25148.86
735.999	25072.93
736.339	25036.55
736.68	25101.63
737.021	24917
737.361	24876.78
737.702	25020.95
738.042	24870.22
738.383	24785.03
738.723	24861.63
739.063	24599.95
739.404	24745.03
739.744	24686.72
740.084	24531.25
740.424	24633.62
740.764	24542.09
741.104	24608.31
741.444	24397.92
741.784	24363.79
742.124	24574.64
742.464	24307.98
742.804	24324.02
743.143	24247.87
743.483	24405.15
743.823	24223.46
744.162	24218.04
744.502	24272.05
744.841	24094.65
745.181	24222.56
745.52	24126.29
745.86	24139.17
746.199	24007.42
746.538	23935.78
746.877	24046.74
747.216	24058.27
747.556	23994.99
747.895	23948.66
748.234	23792.51
748.573	23789.12
748.911	23799.97
749.25	23803.58
749.589	23673.87
749.928	23670.93
750.267	23675.9
750.605	23579.18
750.944	23642.01
751.283	23404.05
751.621	23549.35
751.96	23420.32
752.298	23289.02
752.636	23326.53
752.975	23197.5
753.313	23109.36
753.651	23213.99
753.989	23155.46
754.327	23131.96
754.666	22946.2
755.004	22965.41
755.342	23023.26
755.679	22898.97
756.017	22782.14
756.355	22776.94
756.693	22736.49
757.031	22736.72
757.368	22626.66
757.706	22652.43
758.044	22533.56
758.381	22460.57
758.719	22327.46
759.056	22398.2
759.394	22327.01
759.731	22252.44
760.068	22147.81
