Data from hue_160_FLMS001491_00029.txt Node
Date: Tue Feb 07 16:50:58 GMT 2017
User: dcchb
Spectrometer: FLMS00149
Trigger mode: 0
Integration Time (sec): 2.000000E-2
Scans to average: 10
Electric dark correction enabled: true
Nonlinearity correction enabled: false
Boxcar width: 0
XAxis mode: Wavelengths
Number of Pixels in Spectrum: 2048
>>>>>Begin Spectral Data<<<<<
341.393	-3.95
341.776	-3.95
342.16	-3.95
342.543	-52.77
342.927	-68.36
343.31	-95.03
343.693	-60.22
344.077	-71.3
344.46	-55.48
344.843	-61.81
345.226	-48.47
345.61	-39.21
345.993	5.76
346.376	10.96
346.759	13.22
347.142	13.45
347.525	48.7
347.908	50.51
348.291	85.53
348.674	81.92
349.057	121.47
349.44	119.21
349.823	132.31
350.206	171.63
350.588	191.52
350.971	205.98
351.354	250.28
351.737	234.23
352.119	246.89
352.502	264.51
352.884	261.8
353.267	276.72
353.65	281.69
354.032	299.99
354.414	316.94
354.797	314.68
355.179	297.73
355.562	326.66
355.944	335.47
356.326	314.68
356.709	323.27
357.091	333.21
357.473	328.92
357.855	334.57
358.238	346.77
358.62	337.51
359.002	350.16
359.384	347.9
359.766	315.81
360.148	363.95
360.53	336.83
360.912	330.95
361.294	318.07
361.676	342.93
362.057	335.25
362.439	324.62
362.821	316.26
363.203	308.13
363.584	324.85
363.966	339.09
364.348	317.17
364.729	327.34
365.111	302.93
365.493	322.59
365.874	317.84
366.256	300.44
366.637	319.43
367.019	297.73
367.4	291.63
367.781	295.7
368.163	309.48
368.544	283.04
368.925	303.38
369.306	316.04
369.688	295.7
370.069	301.57
370.45	334.57
370.831	314.68
371.212	304.51
371.593	312.2
371.974	296.6
372.355	314.68
372.736	307.68
373.117	302.93
373.498	308.58
373.879	315.81
374.26	328.01
374.641	296.15
375.021	321.69
375.402	297.51
375.783	327.34
376.163	319.65
376.544	309.48
376.925	313.1
377.305	319.88
377.686	321.91
378.066	317.62
378.447	323.95
378.827	323.49
379.208	321.69
379.588	331.4
379.968	309.26
380.349	325.3
380.729	325.53
381.109	339.77
381.489	331.63
381.87	307
382.25	338.86
382.63	339.99
383.01	325.53
383.39	348.35
383.77	344.51
384.15	329.82
384.53	338.18
384.91	346.32
385.29	333.66
385.67	344.06
386.049	346.77
386.429	333.44
386.809	342.93
387.189	356.71
387.568	338.86
387.948	349.03
388.328	331.4
388.707	360.1
389.087	350.61
389.466	349.48
389.846	353.78
390.225	355.13
390.605	360.56
390.984	369.82
391.363	371.4
391.743	368.24
392.122	375.47
392.501	354.91
392.881	347.67
393.26	352.42
393.639	357.62
394.018	342.48
394.397	357.84
394.776	361.69
395.155	369.37
395.534	363.27
395.913	360.56
396.292	374.79
396.671	379.99
397.05	384.96
397.429	393.77
397.808	369.59
398.186	379.54
398.565	362.36
398.944	363.04
399.323	385.19
399.701	388.13
400.08	360.1
400.458	369.37
400.837	387.9
401.215	398.29
401.594	391.29
401.972	408.46
402.351	401.46
402.729	403.49
403.107	402.14
403.486	391.52
403.864	423.38
404.242	408.69
404.62	424.73
404.999	380.89
405.377	418.41
405.755	430.16
406.133	401.23
406.511	437.39
406.889	429.03
407.267	410.05
407.645	414.11
408.023	422.02
408.401	416.83
408.779	414.79
409.156	434.9
409.534	445.3
409.912	457.95
410.29	455.69
410.667	449.14
411.045	458.63
411.422	469.03
411.8	465.86
412.178	464.06
412.555	463.83
412.933	466.54
413.31	475.35
413.687	476.48
414.065	475.81
414.442	473.55
414.819	489.82
415.197	484.17
415.574	477.84
415.951	498.63
416.328	506.31
416.705	501.12
417.082	494.56
417.46	523.04
417.837	501.57
418.214	525.3
418.591	496.6
418.967	505.86
419.344	528.91
419.721	523.49
420.098	541.34
420.475	517.39
420.852	519.42
421.228	538.4
421.605	532.75
421.982	537.73
422.358	554.22
422.735	539.99
423.111	558.29
423.488	558.74
423.864	559.19
424.241	584.05
424.617	572.53
424.994	594
425.37	576.6
425.746	593.32
426.123	595.13
426.499	579.76
426.875	605.29
427.251	612.98
427.627	624.96
428.003	627.44
428.379	628.35
428.756	624.28
429.132	626.31
429.507	652.75
429.883	626.31
430.259	664.5
430.635	643.49
431.011	652.53
431.387	686.2
431.763	696.37
432.138	676.71
432.514	683.71
432.89	688
433.265	676.03
433.641	701.11
434.016	695.01
434.392	731.39
434.767	719.87
435.143	726.87
435.518	726.87
435.894	749.25
436.269	732.52
436.644	754.22
437.02	766.65
437.395	759.42
437.77	779.98
438.145	765.74
438.52	775.69
438.895	805.97
439.271	787.66
439.646	798.96
440.021	802.13
440.395	819.53
440.77	822.69
441.145	832.18
441.52	813.65
441.895	848.45
442.27	846.64
442.645	864.72
443.019	857.04
443.394	848.9
443.769	860.88
444.143	881.22
444.518	890.49
444.892	883.25
445.267	894.55
445.641	878.28
446.016	892.97
446.39	931.84
446.764	917.83
447.139	898.62
447.513	938.85
447.887	928.45
448.262	880.99
448.636	921.22
449.01	961.9
449.384	932.52
449.758	963.48
450.132	992.4
450.506	972.06
450.88	984.27
451.254	974.78
451.628	1016.81
452.002	999.41
452.376	1055.9
452.75	1026.3
453.123	1038.28
453.497	1037.37
453.871	1048
454.244	1092.06
454.618	1084.38
454.992	1103.81
455.365	1079.41
455.739	1118.73
456.112	1137.26
456.486	1144.26
456.859	1144.72
457.232	1149.24
457.606	1165.51
457.979	1167.99
458.352	1224.04
458.725	1217.26
459.099	1249.12
459.472	1265.84
459.845	1273.98
460.218	1308.1
460.591	1302.68
460.964	1301.55
461.337	1353.07
461.71	1337.7
462.083	1361.66
462.456	1400.53
462.829	1405.05
463.201	1421.54
463.574	1425.84
463.947	1463.35
464.32	1482.33
464.692	1515.1
465.065	1511.94
465.438	1551.26
465.81	1519.4
466.183	1570.69
466.555	1604.14
466.928	1614.08
467.3	1612.73
467.672	1674.65
468.045	1705.38
468.417	1734.3
468.789	1735.66
469.161	1754.42
469.534	1768.2
469.906	1836.9
470.278	1852.49
470.65	1893.17
471.022	1937.46
471.394	1953.06
471.766	1968.65
472.138	2011.59
472.51	2081.87
472.882	2120.28
473.253	2150.56
473.625	2222.88
473.997	2244.12
474.369	2284.57
474.74	2332.48
475.112	2374.29
475.484	2486.6
475.855	2540.84
476.227	2554.85
476.598	2628.07
476.97	2676.43
477.341	2797.33
477.713	2784.45
478.084	2889.75
478.455	2923.2
478.827	3015.17
479.198	3127.26
479.569	3162.52
479.94	3294.72
480.311	3342.17
480.682	3421.27
481.053	3548.04
481.424	3604.09
481.795	3659.45
482.166	3810.86
482.537	3863.97
482.908	3945.77
483.279	4065.32
483.65	4125.88
484.021	4296.72
484.391	4401.81
484.762	4452.65
485.133	4557.51
485.503	4679.31
485.874	4811.51
486.244	4895.13
486.615	5035.91
486.985	5180.54
487.356	5301.22
487.726	5390.25
488.097	5548.44
488.467	5642.45
488.837	5767.64
489.207	5858.94
489.578	6070.46
489.948	6134.41
490.318	6296.9
490.688	6403.79
491.058	6549.55
491.428	6667.28
491.798	6762.87
492.168	6979.36
492.538	7053.94
492.908	7153.6
493.278	7302.75
493.648	7362.41
494.017	7571.21
494.387	7670.65
494.757	7821.15
495.126	7884.2
495.496	7991.32
495.866	8072.44
496.235	8213.91
496.605	8385.66
496.974	8428.59
497.344	8516.73
497.713	8635.59
498.082	8715.36
498.452	8853.44
498.821	8919.2
499.19	9004.62
499.559	9125.3
499.928	9201.68
500.298	9325.29
500.667	9472.41
501.036	9397.83
501.405	9613.42
501.774	9600.31
502.143	9749.24
502.512	9811.15
502.88	9883.92
503.249	9943.81
503.618	10036.46
503.987	10100.41
504.356	10192.39
504.724	10219.05
505.093	10327.75
505.462	10341.31
505.83	10434.87
506.199	10544.47
506.567	10696.55
506.936	10608.65
507.304	10812.26
507.672	10864.01
508.041	10803.67
508.409	10887.51
508.777	10957.79
509.145	11088.41
509.514	11007.73
509.882	11147.16
510.25	11128.86
510.618	11239.59
510.986	11254.96
511.354	11351.68
511.722	11488.62
512.09	11446.82
512.458	11457.21
512.826	11535.4
513.193	11583.76
513.561	11561.84
513.929	11638.68
514.297	11782.4
514.664	11765.91
515.032	11771.1
515.4	11857.88
515.767	11895.85
516.135	11937.88
516.502	11868.28
516.869	11997.54
517.237	11959.8
517.604	12014.49
517.972	12067.82
518.339	12148.04
518.706	12122.96
519.073	12057.2
519.44	12072.79
519.808	12282.95
520.175	12243.41
520.542	12336.06
520.909	12316.63
521.276	12381.48
521.643	12401.59
522.009	12417.87
522.376	12407.47
522.743	12485.21
523.11	12498.99
523.477	12648.14
523.843	12510.97
524.21	12669.84
524.577	12710.51
524.943	12715.03
525.31	12611.31
525.676	12809.72
526.043	12794.35
526.409	12802.94
526.776	12880
527.142	12846.78
527.508	12839.1
527.874	12908.47
528.241	12869.15
528.607	12872.09
528.973	12951.64
529.339	12892.88
529.705	12938.3
530.071	13011.52
530.437	13022.14
530.803	13029.6
531.169	12916.84
531.535	12974.69
531.901	12974.46
532.267	12916.61
532.632	12939.66
532.998	12874.35
533.364	12950.73
533.73	12778.08
534.095	12981.92
534.461	12856.5
534.826	12910.06
535.192	12964.07
535.557	12870.06
535.923	12776.05
536.288	12860.34
536.653	12836.61
537.019	12794.35
537.384	12764.52
537.749	12734.24
538.114	12690.85
538.479	12699.21
538.845	12676.62
539.21	12539.9
539.575	12549.16
539.94	12560.91
540.305	12580.57
540.67	12487.47
541.034	12390.3
541.399	12392.56
541.764	12413.8
542.129	12417.64
542.494	12393.46
542.858	12342.16
543.223	12280.92
543.587	12245.44
543.952	12267.36
544.316	12186.01
544.681	12129.74
545.045	12151.66
545.41	12220.13
545.774	12109.63
546.138	12029.85
546.503	12026.46
546.867	11987.59
547.231	12033.47
547.595	12004.09
547.959	11920.93
548.324	11836.86
548.688	11833.47
549.052	11857.43
549.416	11766.36
549.779	11778.11
550.143	11701.95
550.507	11755.51
550.871	11680.71
551.235	11624.21
551.599	11649.98
551.962	11592.12
552.326	11574.72
552.689	11653.37
553.053	11546.25
553.417	11494.5
553.78	11647.26
554.143	11466.93
554.507	11473.26
554.87	11500.6
555.234	11555.29
555.597	11366.59
555.96	11389.19
556.323	11383.09
556.686	11403.2
557.05	11414.05
557.413	11402.53
557.776	11340.83
558.139	11352.36
558.502	11401.17
558.865	11382.86
559.228	11332.47
559.59	11351.23
559.953	11343.32
560.316	11424.45
560.679	11337.67
561.041	11386.03
561.404	11350.77
561.767	11276.65
562.129	11342.19
562.492	11394.84
562.854	11348.06
563.217	11263.09
563.579	11384.45
563.941	11413.15
564.304	11428.29
564.666	11405.69
565.028	11385.35
565.39	11363.66
565.753	11456.76
566.115	11353.49
566.477	11440.04
566.839	11404.78
567.201	11506.03
567.563	11459.25
567.925	11504.9
568.287	11457.44
568.648	11469.87
569.01	11518
569.372	11526.82
569.734	11479.81
570.095	11471.68
570.457	11541.05
570.819	11541.28
571.18	11469.42
571.542	11568.4
571.903	11558
572.265	11554.61
572.626	11615.85
572.987	11585.8
573.349	11575.63
573.71	11647.04
574.071	11607.04
574.432	11626.7
574.794	11653.82
575.155	11609.75
575.516	11682.97
575.877	11646.81
576.238	11643.65
576.599	11682.52
576.96	11617.66
577.32	11672.57
577.681	11736.53
578.042	11631.9
578.403	11690.2
578.763	11608.62
579.124	11641.16
579.485	11716.42
579.845	11722.06
580.206	11694.72
580.566	11667.83
580.927	11651.78
581.287	11724.55
581.648	11690.88
582.008	11731.1
582.368	11726.13
582.728	11707.15
583.089	11681.84
583.449	11682.97
583.809	11692.46
584.169	11681.84
584.529	11675.06
584.889	11682.97
585.249	11573.82
585.609	11611.11
585.969	11662.63
586.329	11575.63
586.688	11648.39
587.048	11561.84
587.408	11578.79
587.768	11540.37
588.127	11554.16
588.487	11579.47
588.846	11612.91
589.206	11490.66
589.565	11496.99
589.925	11573.14
590.284	11531.11
590.643	11526.82
591.003	11503.31
591.362	11513.48
591.721	11534.72
592.08	11502.86
592.44	11496.76
592.799	11576.53
593.158	11528.62
593.517	11487.27
593.876	11494.73
594.235	11480.26
594.593	11380.6
594.952	11455.86
595.311	11447.27
595.67	11443.2
596.029	11542.63
596.387	11489.53
596.746	11511.22
597.104	11412.24
597.463	11408.17
597.822	11498.34
598.18	11395.07
598.538	11412.92
598.897	11408.63
599.255	11386.25
599.613	11541.05
599.972	11402.98
600.33	11444.11
600.688	11419.02
601.046	11490.21
601.404	11449.08
601.762	11363.2
602.12	11435.07
602.478	11488.4
602.836	11379.47
603.194	11373.15
603.552	11424.45
603.91	11406.14
604.268	11370.66
604.625	11435.29
604.983	11439.36
605.341	11342.87
605.698	11411.79
606.056	11473.94
606.413	11394.16
606.771	11500.83
607.128	11450.21
607.485	11415.86
607.843	11414.95
608.2	11421.51
608.557	11519.58
608.914	11487.95
609.272	11398.91
609.629	11453.82
609.986	11536.31
610.343	11469.87
610.7	11551.67
611.057	11535.4
611.414	11486.82
611.771	11553.48
612.127	11626.47
612.484	11562.52
612.841	11606.14
613.198	11484.56
613.554	11570.66
613.911	11672.57
614.267	11616.08
614.624	11593.71
614.98	11618.79
615.337	11587.38
615.693	11643.87
616.05	11696.08
616.406	11678.9
616.762	11687.04
617.118	11730.65
617.475	11611.56
617.831	11698.56
618.187	11744.66
618.543	11657.66
618.899	11776.75
619.255	11739.01
619.611	11687.26
619.967	11788.73
620.323	11782.85
620.678	11775.62
621.034	11727.49
621.39	11725.68
621.746	11747.37
622.101	11794.38
622.457	11746.92
622.812	11712.57
623.168	11785.11
623.523	11819.24
623.879	11749.18
624.234	11738.56
624.589	11696.08
624.945	11703.31
625.3	11744.66
625.655	11721.84
626.01	11711.22
626.365	11754.61
626.72	11744.21
627.075	11745.79
627.43	11675.29
627.785	11692.46
628.14	11803.42
628.495	11744.44
628.85	11730.88
629.205	11646.81
629.559	11728.62
629.914	11703.08
630.269	11605.91
630.623	11686.36
630.978	11605.68
631.332	11650.65
631.687	11610.88
632.041	11559.81
632.396	11603.42
632.75	11675.29
633.104	11661.73
633.459	11528.17
633.813	11546.48
634.167	11548.51
634.521	11580.37
634.875	11589.41
635.229	11593.48
635.583	11547.38
635.937	11503.09
636.291	11516.87
636.645	11553.93
636.999	11439.36
637.352	11487.49
637.706	11374.73
638.06	11483.2
638.413	11422.64
638.767	11370.66
639.121	11444.56
639.474	11252.02
639.828	11309.19
640.181	11327.27
640.534	11346.71
640.888	11278.91
641.241	11292.92
641.594	11255.18
641.947	11235.98
642.301	11298.35
642.654	11277.33
643.007	11312.36
643.36	11203.66
643.713	11312.58
644.066	11278.46
644.419	11182.19
644.771	11155.3
645.124	11043.21
645.477	11063.32
645.83	10931.58
646.182	10934.06
646.535	10864.69
646.888	10914.63
647.24	10844.12
647.593	10928.41
647.945	10908.75
648.298	10869.43
648.65	10741.75
649.002	10884.12
649.355	10927.28
649.707	10848.42
650.059	10910.79
650.411	11047.28
650.763	10991.24
651.115	11103.55
651.467	11037.34
651.819	11105.13
652.171	11179.48
652.523	11103.78
652.875	11017.22
653.227	11089.31
653.578	11110.1
653.93	11084.57
654.282	11071.46
654.633	11048.41
654.985	11119.59
655.337	11101.06
655.688	11096.09
656.039	11148.97
656.391	11045.47
656.742	11058.81
657.094	11104.23
657.445	11106.04
657.796	11070.33
658.147	11150.55
658.498	11076.66
658.849	11077.79
659.2	11080.27
659.551	11086.6
659.902	11200.04
660.253	11125.92
660.604	11160.05
660.955	11092.25
661.306	11137.67
661.656	11111.01
662.007	11088.63
662.358	11187.62
662.708	11200.72
663.059	11134.28
663.409	11030.78
663.76	11149.42
664.11	11205.47
664.461	11146.03
664.811	11240.27
665.161	11102.87
665.511	11168.63
665.862	11108.97
666.212	11225.81
666.562	11179.03
666.912	11100.84
667.262	11126.83
667.612	11131.57
667.962	11242.53
668.312	11179.03
668.662	11273.04
669.011	11185.13
669.361	11134.74
669.711	11059.94
670.06	11119.37
670.41	11157.79
670.76	11126.83
671.109	11129.09
671.459	11154.62
671.808	11097.22
672.157	11114.62
672.507	11054.96
672.856	11081.18
673.205	11135.41
673.554	11131.57
673.904	11114.17
674.253	11172.47
674.602	11144.9
674.951	10919.83
675.3	10867.4
675.649	11011.8
675.998	10972.48
676.346	10989.88
676.695	11074.4
677.044	10999.82
677.393	10953.5
677.741	10994.17
678.09	10889.54
678.438	10953.27
678.787	10880.73
679.135	10938.81
679.484	10851.35
679.832	10931.13
680.181	10840.96
680.529	10845.48
680.877	10828.08
681.225	10812.03
681.573	10883.67
681.922	10827.17
682.27	10738.81
682.618	10702.88
682.966	10742.2
683.314	10774.52
683.661	10641.19
684.009	10694.75
684.357	10659.72
684.705	10625.82
685.053	10646.61
685.4	10580.17
685.748	10505.37
686.095	10539.5
686.443	10494.07
686.79	10504.92
687.138	10483.45
687.485	10443.68
687.832	10409.33
688.18	10515.77
688.527	10418.14
688.874	10363.46
689.221	10356
689.568	10263.57
689.915	10225.15
690.262	10295.66
690.609	10219.73
690.956	10207.53
691.303	10210.47
691.65	10131.6
691.997	10108.55
692.344	10024.03
692.69	10052.73
693.037	10043.92
693.383	9963.24
693.73	9907.88
694.077	9899.51
694.423	9911.04
694.769	9829.23
695.116	9803.7
695.462	9810.93
695.808	9751.72
696.155	9764.38
696.501	9682.12
696.847	9665.4
697.193	9615.45
697.539	9635.79
697.885	9580.88
698.231	9599.63
698.577	9468.56
698.923	9600.31
699.269	9514.67
699.614	9413.88
699.96	9402.35
700.306	9390.6
700.651	9273.32
700.997	9274.9
701.342	9240.1
701.688	9264.5
702.033	9198.06
702.379	9161.23
702.724	9161.68
703.069	9093.66
703.415	9030.38
703.76	8980.89
704.105	9059.08
704.45	8966.43
704.795	8989.26
705.14	8871.74
705.485	8872.42
705.83	8796.49
706.175	8809.15
706.52	8856.15
706.865	8803.72
707.209	8790.16
707.554	8660
707.899	8747.91
708.243	8659.55
708.588	8638.3
708.932	8653.67
709.277	8583.84
709.621	8646.44
709.966	8526.44
710.31	8601.47
710.654	8560.11
710.998	8464.07
711.342	8555.59
711.687	8479.89
712.031	8447.35
712.375	8452.32
712.719	8450.06
713.063	8368.48
713.407	8402.15
713.75	8331.65
714.094	8355.37
714.438	8309.27
714.782	8288.93
715.125	8300.23
715.469	8280.57
715.812	8218.88
716.156	8273.12
716.499	8212.33
716.843	8259.33
717.186	8170.97
717.53	8210.07
717.873	8181.82
718.216	8203.06
718.559	8116.74
718.902	8110.63
719.246	8104.31
719.589	8125.32
719.932	8084.42
720.275	8150.63
720.617	8082.16
720.96	8027.7
721.303	8085.55
721.646	8085.1
721.989	8021.6
722.331	8029.28
722.674	7970.75
723.016	8016.17
723.359	7943.63
723.701	8004.2
724.044	7997.42
724.386	7933.46
724.729	7989.28
725.071	7955.84
725.413	7982.28
725.755	7969.85
726.097	7961.94
726.439	7931.66
726.782	7880.58
727.124	7963.07
727.465	7874.48
727.807	7912.67
728.149	7823.64
728.491	7887.36
728.833	7907.48
729.175	7939.79
729.516	7876.06
729.858	7843.52
730.199	7866.8
730.541	7830.19
730.882	7874.71
731.224	7882.17
731.565	7843.97
731.906	7801.94
732.248	7933.24
732.589	7827.03
732.93	7768.27
733.271	7874.48
733.612	7851.66
733.953	7847.82
734.294	7817.76
734.635	7782.06
734.976	7812.34
735.317	7817.99
735.658	7802.85
735.999	7862.05
736.339	7840.36
736.68	7863.18
737.021	7848.27
737.361	7799.23
737.702	7920.36
738.042	7871.54
738.383	7853.69
738.723	7912
739.063	7863.86
739.404	7892.11
739.744	7904.31
740.084	7912.67
740.424	8001.26
740.764	7996.96
741.104	7975.95
741.444	7966.23
741.784	7936.63
742.124	8036.29
742.464	8003.07
742.804	8033.8
743.143	7996.96
743.483	8058.88
743.823	8143.63
744.162	8080.35
744.502	8121.93
744.841	8127.58
745.181	8214.13
745.52	8199.67
745.86	8259.78
746.199	8178.88
746.538	8305.66
746.877	8345.43
747.216	8407.35
747.556	8438.08
747.895	8450.06
748.234	8513.11
748.573	8540.68
748.911	8600.11
749.25	8670.62
749.589	8688.25
749.928	8740.22
750.267	8880.56
750.605	8945.19
750.944	9071.51
751.283	9050.95
751.621	9143.38
751.96	9137.5
752.298	9251.4
752.636	9397.15
752.975	9380.43
753.313	9456.59
753.651	9648.45
753.989	9791.04
754.327	9805.5
754.666	9922.56
755.004	10028.55
755.342	10194.65
755.679	10302.89
756.017	10317.81
756.355	10520.74
756.693	10625.82
757.031	10737.46
757.368	10885.48
757.706	10991.01
758.044	11099.48
758.381	11290.44
758.719	11492.47
759.056	11609.75
759.394	11751.44
759.731	11899.01
