Data from hue_38_FLMS001491_00016.txt Node
Date: Tue Feb 07 17:31:07 GMT 2017
User: dcchb
Spectrometer: FLMS00149
Trigger mode: 0
Integration Time (sec): 2.000000E-2
Scans to average: 10
Electric dark correction enabled: true
Nonlinearity correction enabled: false
Boxcar width: 0
XAxis mode: Wavelengths
Number of Pixels in Spectrum: 2048
>>>>>Begin Spectral Data<<<<<
341.393	-12.92
341.776	-12.92
342.16	-12.92
342.543	-58.35
342.927	-66.03
343.31	-62.41
343.693	-61.28
344.077	-40.95
344.46	-74.62
344.843	-48.85
345.226	-40.72
345.61	-62.19
345.993	-6.37
346.376	-5.69
346.759	0.64
347.142	43.12
347.525	46.96
347.908	51.71
348.291	62.55
348.674	96
349.057	102.1
349.44	113.63
349.823	122.89
350.206	148.88
350.588	206.96
350.971	204.92
351.354	214.64
351.737	241.31
352.119	258.26
352.502	259.16
352.884	257.13
353.267	279.95
353.65	297.12
354.032	306.16
354.414	300.06
354.797	306.16
355.179	322.21
355.562	333.28
355.944	324.24
356.326	325.82
356.709	354.3
357.091	329.21
357.473	331.47
357.855	326.73
358.238	344.13
358.62	361.3
359.002	349.1
359.384	338.25
359.766	329.21
360.148	349.33
360.53	351.59
360.912	340.51
361.294	352.04
361.676	331.25
362.057	323.56
362.439	338.71
362.821	336.9
363.203	350.68
363.584	343.68
363.966	324.69
364.348	342.1
364.729	337.12
365.111	336.9
365.493	322.21
365.874	309.33
366.256	332.15
366.637	324.02
367.019	312.72
367.4	321.98
367.781	318.14
368.163	338.48
368.544	321.98
368.925	308.88
369.306	326.28
369.688	324.47
370.069	307.29
370.45	311.59
370.831	331.93
371.212	334.64
371.593	348.42
371.974	307.29
372.355	314.07
372.736	311.36
373.117	321.98
373.498	322.66
373.879	333.96
374.26	320.18
374.641	331.02
375.021	324.02
375.402	322.89
375.783	323.34
376.163	342.55
376.544	320.85
376.925	342.55
377.305	326.95
377.686	312.72
378.066	325.15
378.447	324.69
378.827	332.83
379.208	343.68
379.588	322.89
379.968	342.32
380.349	321.53
380.729	354.98
381.109	328.54
381.489	369.44
381.87	352.04
382.25	338.48
382.63	333.06
383.01	352.72
383.39	347.52
383.77	342.1
384.15	344.81
384.53	365.15
384.91	356.33
385.29	345.49
385.67	341.87
386.049	372.83
386.429	344.13
386.809	376.44
387.189	358.14
387.568	348.42
387.948	349.33
388.328	343.45
388.707	364.69
389.087	349.78
389.466	364.92
389.846	365.15
390.225	364.02
390.605	354.3
390.984	350.91
391.363	376.67
391.743	370.12
392.122	369.67
392.501	383.9
392.881	388.2
393.26	384.35
393.639	371.25
394.018	373.06
394.397	387.97
394.776	383.68
395.155	382.55
395.534	366.73
395.913	406.95
396.292	392.26
396.671	373.06
397.05	387.74
397.429	398.59
397.808	382.09
398.186	362.43
398.565	387.97
398.944	379.38
399.323	406.95
399.701	405.37
400.08	390.46
400.458	409.21
400.837	395.88
401.215	400.4
401.594	390.23
401.972	410.79
402.351	414.64
402.729	411.25
403.107	386.16
403.486	408.08
403.864	393.62
404.242	421.42
404.62	410.12
404.999	410.79
405.377	415.54
405.755	414.41
406.133	423.9
406.511	426.16
406.889	421.42
407.267	441.98
407.645	436.78
408.023	421.87
408.401	444.47
408.779	423
409.156	453.73
409.534	458.7
409.912	438.36
410.29	438.36
410.667	454.86
411.045	449.89
411.422	468.42
411.8	440.4
412.178	445.6
412.555	454.18
412.933	442.21
413.31	491.7
413.687	470
414.065	481.07
414.442	468.65
414.819	488.31
415.197	495.09
415.574	482.2
415.951	492.83
416.328	487.18
416.705	513.16
417.082	486.5
417.46	515.42
417.837	512.26
418.214	502.54
418.591	513.84
418.967	496.44
419.344	508.19
419.721	515.42
420.098	503.9
420.475	502.32
420.852	514.52
421.228	531.92
421.605	521.07
421.982	545.48
422.358	545.03
422.735	564.01
423.111	535.76
423.488	545.93
423.864	559.94
424.241	557.23
424.617	535.31
424.994	585.48
425.37	564.01
425.746	583.67
426.123	553.62
426.499	572.82
426.875	573.28
427.251	595.65
427.627	608.08
428.003	579.15
428.379	582.32
428.756	612.82
429.132	612.82
429.507	605.59
429.883	601.3
430.259	612.6
430.635	622.31
431.011	600.62
431.387	627.96
431.763	656.21
432.138	660.28
432.514	645.59
432.89	649.21
433.265	653.73
433.641	672.03
434.016	650.79
434.392	664.12
434.767	684.91
435.143	665.25
435.518	680.17
435.894	668.87
436.269	695.53
436.644	709.32
437.02	719.26
437.395	698.47
437.77	708.41
438.145	711.58
438.52	723.33
438.895	701.41
439.271	742.76
439.646	740.73
440.021	740.73
440.395	720.39
440.77	734.85
441.145	745.02
441.52	754.06
441.895	760.39
442.27	770.78
442.645	757.9
443.019	783.89
443.394	782.76
443.769	787.96
444.143	790.67
444.518	791.35
444.892	802.42
445.267	798.35
445.641	806.04
446.016	822.08
446.39	817.11
446.764	813.04
447.139	814.63
447.513	829.31
447.887	841.74
448.262	837.45
448.636	825.02
449.01	832.03
449.384	843.55
449.758	853.04
450.132	864.34
450.506	860.95
450.88	888.3
451.254	851.91
451.628	877.9
452.002	868.41
452.376	882.19
452.75	918.8
453.123	907.96
453.497	931.01
453.871	924.45
454.244	931.68
454.618	950.67
454.992	968.75
455.365	983.66
455.739	993.38
456.112	980.04
456.486	961.51
456.859	980.5
457.232	1033.38
457.606	1004.45
457.979	1028.18
458.352	1026.15
458.725	1050.1
459.099	1063.43
459.472	1102.98
459.845	1092.13
460.218	1084.22
460.591	1100.49
460.964	1115.63
461.337	1125.58
461.71	1163.32
462.083	1137.78
462.456	1156.31
462.829	1159.93
463.201	1185.92
463.574	1177.78
463.947	1209.64
464.32	1236.08
464.692	1230.21
465.065	1249.42
465.438	1261.85
465.81	1288.96
466.183	1334.84
466.555	1343.65
466.928	1346.36
467.3	1385.68
467.672	1386.59
468.045	1394.27
468.417	1403.76
468.789	1457.77
469.161	1468.39
469.534	1482.18
469.906	1521.27
470.278	1512.69
470.65	1544.32
471.022	1591.1
471.394	1594.27
471.766	1646.69
472.138	1662.29
472.51	1675.39
472.882	1740.02
473.253	1746.35
473.625	1778.89
473.997	1800.59
474.369	1861.6
474.74	1893.24
475.112	1901.83
475.484	1941.83
475.855	2007.59
476.227	2025.22
476.598	2097.53
476.97	2129.39
477.341	2207.81
477.713	2223.4
478.084	2266.79
478.455	2350.63
478.827	2371.19
479.198	2462.49
479.569	2482.83
479.94	2580.91
480.311	2645.54
480.682	2691.64
481.053	2749.94
481.424	2846.89
481.795	2908.81
482.166	2974.79
482.537	3019.54
482.908	3123.04
483.279	3194.9
483.65	3268.35
484.021	3371.62
484.391	3461.56
484.762	3528.68
485.133	3618.62
485.503	3687.09
485.874	3767.32
486.244	3867.88
486.615	3994.43
486.985	4033.75
487.356	4163.01
487.726	4215.67
488.097	4367.75
488.467	4434.19
488.837	4566.62
489.207	4664.69
489.578	4762.09
489.948	4843.45
490.318	4904.01
490.688	5040.28
491.058	5169.54
491.428	5320.04
491.798	5410.66
492.168	5532.92
492.538	5579.02
492.908	5690.2
493.278	5756.87
493.648	5875.06
494.017	5999.35
494.387	6107.59
494.757	6166.58
495.126	6343.07
495.496	6402.95
495.866	6517.07
496.235	6636.17
496.605	6719.33
496.974	6791.42
497.344	6908.25
497.713	6983.95
498.082	7065.31
498.452	7168.81
498.821	7278.18
499.19	7380.33
499.559	7450.38
499.928	7569.7
500.298	7582.58
500.667	7738.06
501.036	7755.01
501.405	7921.33
501.774	7892.18
502.143	8072.06
502.512	8132.63
502.88	8194.54
503.249	8281.1
503.618	8356.57
503.987	8475.44
504.356	8532.84
504.724	8591.82
505.093	8622.1
505.462	8783
505.83	8816.67
506.199	8914.98
506.567	9052.6
506.936	9082.66
507.304	9188.87
507.672	9271.58
508.041	9344.8
508.409	9448.07
508.777	9506.37
509.145	9573.49
509.514	9624.34
509.882	9688.29
510.25	9761.73
510.618	9812.35
510.986	9905.23
511.354	9973.25
511.722	10143.65
512.09	10189.75
512.458	10154.72
512.826	10294.6
513.193	10371.44
513.561	10423.41
513.929	10462.28
514.297	10587.25
514.664	10619.57
515.032	10737.08
515.4	10747.25
515.767	10875.38
516.135	10956.05
516.502	10837.86
516.869	11020.91
517.237	11071.76
517.604	11083.06
517.972	11191.3
518.339	11316.5
518.706	11325.31
519.073	11375.48
519.44	11420.67
519.808	11623.61
520.175	11579.99
520.542	11723.27
520.909	11781.34
521.276	11885.29
521.643	11932.53
522.009	12035.35
522.376	12027.89
522.743	12097.27
523.11	12290.71
523.477	12339.07
523.843	12418.16
524.21	12568.89
524.577	12609.12
524.943	12642.79
525.31	12769.79
525.676	12852.28
526.043	12953.74
526.409	12871.71
526.776	13145.83
527.142	13132.49
527.508	13229.21
527.874	13355.54
528.241	13381.53
528.607	13458.36
528.973	13608.64
529.339	13594.85
529.705	13724.34
530.071	13873.49
530.437	13928.4
530.803	13924.34
531.169	14025.35
531.535	14078.46
531.901	14104.9
532.267	14243.88
532.632	14285.91
532.998	14337.21
533.364	14393.93
533.73	14463.76
534.095	14530.65
534.461	14613.58
534.826	14633.47
535.192	14744.2
535.557	14730.42
535.923	14829.85
536.288	14894.03
536.653	14988.49
537.019	14890.41
537.384	15063.52
537.749	15234.59
538.114	15190.07
538.479	15197.75
538.845	15362.49
539.21	15254.7
539.575	15356.84
539.94	15450.62
540.305	15571.3
540.67	15511.87
541.034	15630.28
541.399	15700.34
541.764	15705.08
542.129	15797.06
542.494	15856.72
542.858	15874.57
543.223	15906.66
543.587	15963.15
543.952	15983.49
544.316	16088.35
544.681	16086.77
545.045	16209.25
545.41	16374.22
545.774	16357.27
546.138	16400.43
546.503	16507.09
546.867	16541.44
547.231	16664.38
547.595	16742.57
547.959	16664.83
548.324	16732.85
548.688	16794.54
549.052	16862.11
549.416	16879.74
549.779	16966.07
550.143	17042.22
550.507	17094.2
550.871	17137.13
551.235	17146.85
551.599	17303.68
551.962	17356.34
552.326	17321.08
552.689	17481.76
553.053	17432.04
553.417	17506.16
553.78	17711.81
554.143	17554.75
554.507	17747.29
554.87	17851.01
555.234	17983.21
555.597	17867.06
555.96	17956.55
556.323	18045.81
556.686	18093.95
557.05	18185.02
557.413	18239.03
557.776	18216.65
558.139	18475.18
558.502	18480.15
558.865	18371.23
559.228	18608.06
559.59	18624.78
559.953	18611.9
560.316	18815.96
560.679	18814.38
561.041	18891.89
561.404	19036.07
561.767	19038.1
562.129	18972.34
562.492	19195.16
562.854	19241.94
563.217	19189.06
563.579	19269.51
563.941	19408.94
564.304	19575.71
564.666	19637.86
565.028	19642.6
565.39	19746.11
565.753	19860
566.115	19987.23
566.477	20032.65
566.839	20023.39
567.201	20179.31
567.563	20207.79
567.925	20309.25
568.287	20357.84
568.648	20426.31
569.01	20524.39
569.372	20658.4
569.734	20610.04
570.095	20771.84
570.457	20940.88
570.819	21007.77
571.18	20947.43
571.542	21082.57
571.903	21043.7
572.265	21236.24
572.626	21347.64
572.987	21406.85
573.349	21411.37
573.71	21632.61
574.071	21646.62
574.432	21769.33
574.794	22057.46
575.155	21933.84
575.516	21947.18
575.877	22148.3
576.238	22241.63
576.599	22378.8
576.96	22457.22
577.32	22502.42
577.681	22667.16
578.042	22885.91
578.403	22920.03
578.763	22976.53
579.124	23210.87
579.485	23385.78
579.845	23520.47
580.206	23539.23
580.566	23686.79
580.927	23929.5
581.287	24001.81
581.648	24133.79
582.008	24301.47
582.368	24423.72
582.728	24638.41
583.089	24684.28
583.449	24882.69
583.809	24995.46
584.169	25307.77
584.529	25362
584.889	25672.28
585.249	25702.33
585.609	25819.84
585.969	26235.43
586.329	26368.98
586.688	26514.29
587.048	26590.44
587.408	26891.68
587.768	27034.95
588.127	27170.09
588.487	27410.31
588.846	27853.24
589.206	27876.06
589.565	28015.04
589.925	28264.98
590.284	28419.78
590.643	28647.57
591.003	28835.36
591.362	29148.34
591.721	29345.17
592.08	29565.06
592.44	29772.96
592.799	30042.78
593.158	30162.33
593.517	30359.39
593.876	30578.14
594.235	30708.75
594.593	30871.69
594.952	31116.65
595.311	31313.71
595.67	31456.76
596.029	31936.97
596.387	31963.18
596.746	32296.74
597.104	32262.16
597.463	32480.46
597.822	32789.6
598.18	32864.63
598.538	33023.04
598.897	33376.71
599.255	33290.38
599.613	33792.29
599.972	33844.27
600.33	33937.6
600.688	34050.36
601.046	34356.34
601.404	34637.01
601.762	34675.88
602.12	35059.83
602.478	35026.16
602.836	35368.75
603.194	35281.97
603.552	35516.09
603.91	35518.57
604.268	35803.31
604.625	35871.33
604.983	36037.65
605.341	36053.92
605.698	36344.54
606.056	36561.26
606.413	36742.27
606.771	37048.02
607.128	37022.71
607.485	37005.99
607.843	37206.44
608.2	37469.25
608.557	37814.1
608.914	37646.88
609.272	37902.46
609.629	38062.23
609.986	38213.87
610.343	38182.91
610.7	38489.34
611.057	38485.95
611.414	38679.17
611.771	38823.57
612.127	39048.65
612.484	39186.27
612.841	39300.85
613.198	39103.34
613.554	39278.02
613.911	39644.79
614.267	39591.23
614.624	39739.25
614.98	39793.71
615.337	40052.46
615.693	40086.36
616.05	40016.98
616.406	40313.47
616.762	40357.09
617.118	40333.13
617.475	40429.63
617.831	40724.99
618.187	40612.9
618.543	40830.07
618.899	41070.97
619.255	40937.64
619.611	40942.38
619.967	41156.84
620.323	41360.68
620.678	41273
621.034	41161.36
621.39	41305.99
621.746	41311.41
622.101	41694.45
622.457	41437.29
622.812	41604.51
623.168	41756.37
623.523	41863.26
623.879	41994.79
624.234	41778.07
624.589	41875.92
624.945	41917.27
625.3	42225.74
625.655	42063.03
626.01	42195.01
626.365	42342.35
626.72	42183.93
627.075	42250.37
627.43	42276.59
627.785	42195.91
628.14	42329.24
628.495	42351.61
628.85	42358.17
629.205	42326.08
629.559	42431.38
629.914	42190.71
630.269	42395
630.623	42308.22
630.978	42265.96
631.332	42459.63
631.687	42575.34
632.041	42345.96
632.396	42549.35
632.75	42305.51
633.104	42528.78
633.459	42305.29
633.813	42354.32
634.167	42184.61
634.521	42288.79
634.875	42518.39
635.229	42398.16
635.583	42202.46
635.937	42291.95
636.291	42197.72
636.645	42462.12
636.999	42211.73
637.352	42280.2
637.706	42097.61
638.06	42306.87
638.413	42112.07
638.767	42079.98
639.121	42103.71
639.474	41911.62
639.828	42101.45
640.181	41986.88
640.534	41963.6
640.888	42076.82
641.241	41968.57
641.594	41870.95
641.947	42104.84
642.301	41789.37
642.654	41841.57
643.007	42003.6
643.36	41921.12
643.713	41898.97
644.066	42002.7
644.419	41686.32
644.771	41487
645.124	41103.28
645.477	41166.56
645.83	41035.94
646.182	40720.24
646.535	40687.7
646.888	40810.41
647.24	40451.55
647.593	40750.75
647.945	40697.42
648.298	40425.11
648.65	40499.01
649.002	40279.8
649.355	40513.69
649.707	40575.61
650.059	40711.43
650.411	41227.8
650.763	41351.64
651.115	41621.69
651.467	41454.23
651.819	41402.26
652.171	41356.38
652.523	41229.83
652.875	41197.97
653.227	41142.83
653.578	41315.48
653.93	41350.96
654.282	41132.21
654.633	41046.11
654.985	41007.01
655.337	40946
655.688	41113
656.039	41337.85
656.391	40924.53
656.742	41113.45
657.094	41102.61
657.445	41282.26
657.796	41024.42
658.147	40929.5
658.498	40991.87
658.849	41030.74
659.2	41001.37
659.551	40894.7
659.902	41101.25
660.253	41002.04
660.604	40994.59
660.955	40869.17
661.306	41087.46
661.656	40939.67
662.007	40950.07
662.358	41049.27
662.708	40988.26
663.059	41012.21
663.409	40649.74
663.76	41033.45
664.11	40839.79
664.461	40972.89
664.811	40974.47
665.161	40856.06
665.511	40781.71
665.862	40842.73
666.212	40926.11
666.562	40826
666.912	40901.03
667.262	40933.57
667.612	40668.27
667.962	40825.32
668.312	40829.62
668.662	40997.52
669.011	40866.23
669.361	40878.2
669.711	40771.31
670.06	40689.74
670.41	40629.62
670.76	40547.37
671.109	40712.56
671.459	40437.31
671.808	40660.81
672.157	40627.59
672.507	40339.91
672.856	40424.21
673.205	40525.45
673.554	40581.72
673.904	40392.57
674.253	40729.28
674.602	40567.48
674.951	40026.7
675.3	39830.32
675.649	40534.71
675.998	40320.71
676.346	40393.25
676.695	40520.25
677.044	40158.22
677.393	40362.06
677.741	40414.04
678.09	40322.06
678.438	40256.75
678.787	40357.09
679.135	40226.47
679.484	39990.77
679.832	40189.64
680.181	39939.92
680.529	40033.03
680.877	39936.08
681.225	39965.46
681.573	40084.33
681.922	39651.8
682.27	39703.09
682.618	39826.48
682.966	39654.06
683.314	39570.22
683.661	39626.71
684.009	39608.18
684.357	39254.52
684.705	39250.23
685.053	39400.5
685.4	39299.26
685.748	39149.89
686.095	39057.91
686.443	39109.44
686.79	39067.63
687.138	39153.05
687.485	38992.6
687.832	38944.47
688.18	38885.04
688.527	38665.16
688.874	38739.05
689.221	38596.68
689.568	38413.86
689.915	38513.07
690.262	38588.1
690.609	38465.84
690.956	38142.68
691.303	38265.17
691.65	38047.09
691.997	38033.99
692.344	37787.44
692.69	37797.16
693.037	37894.1
693.383	37504.96
693.73	37671.28
694.077	37475.58
694.423	37463.38
694.769	37380.9
695.116	37334.8
695.462	37232.65
695.808	37102.26
696.155	37176.16
696.501	36942.94
696.847	36949.49
697.193	36619.11
697.539	36758.31
697.885	36581.59
698.231	36405.33
698.577	36429.06
698.923	36482.84
699.269	36121.72
699.614	35989.29
699.96	35919.01
700.306	36013.93
700.651	35759.7
700.997	35683.54
701.342	35805.34
701.688	35543.88
702.033	35369.42
702.379	35504.33
702.724	35483.54
703.069	35488.06
703.415	35057.34
703.76	35046.27
704.105	35041.75
704.45	34958.59
704.795	34805.6
705.14	34783
705.485	34642.66
705.83	34563.12
706.175	34573.29
706.52	34524.93
706.865	34366.74
707.209	34328.55
707.554	34226.63
707.899	34311.15
708.243	34091.72
708.588	34109.8
708.932	33780.99
709.277	33741.22
709.621	33892.4
709.966	33649.69
710.31	33631.39
710.654	33471.39
710.998	33524.95
711.342	33366.09
711.687	33433.43
712.031	33155.47
712.375	32998.64
712.719	33145.07
713.063	33059.88
713.407	33263.04
713.75	32939.2
714.094	32918.64
714.438	32740.11
714.782	32839.09
715.125	32528.82
715.469	32745.31
715.812	32541.93
716.156	32451.76
716.499	32496.73
716.843	32405.21
717.186	32208.38
717.53	32405.21
717.873	32364.76
718.216	32251.09
718.559	32150.07
718.902	31995.5
719.246	32033.01
719.589	31900.81
719.932	31800.25
720.275	31819.23
720.617	31925.67
720.96	31627.15
721.303	31773.36
721.646	31702.85
721.989	31453.14
722.331	31609.75
722.674	31494.5
723.016	31480.94
723.359	31344.44
723.701	31424.44
724.044	31198.23
724.386	31157.78
724.729	31234.16
725.071	31121.63
725.413	31061.06
725.755	31140.16
726.097	30936.32
726.439	30944.68
726.782	30817
727.124	31053.38
727.465	30757.57
727.807	30792.82
728.149	30793.72
728.491	30659.04
728.833	30707.62
729.175	30537.91
729.516	30507.63
729.858	30447.07
730.199	30487.29
730.541	30367.29
730.882	30464.69
731.224	30264.92
731.565	30144.93
731.906	30231.03
732.248	30222.89
732.589	30064.48
732.93	29961.2
733.271	30057.92
733.612	29997.36
733.953	30127.75
734.294	29931.37
734.635	29766.86
734.976	29950.36
735.317	29773.41
735.658	29641.89
735.999	29772.73
736.339	29716.46
736.68	29707.65
737.021	29544.04
737.361	29461.56
737.702	29618.61
738.042	29532.51
738.383	29427.88
738.723	29432.4
739.063	29361.9
739.404	29377.26
739.744	29334.33
740.084	29138.17
740.424	29263.37
740.764	29179.3
741.104	29203.94
741.444	29001
741.784	28742.7
742.124	29078.52
742.464	28917.84
742.804	28881.68
743.143	28784.06
743.483	28910.38
743.823	28732.76
744.162	28764.63
744.502	28805.08
744.841	28634.23
745.181	28653.22
745.52	28480.79
745.86	28702.25
746.199	28590.39
746.538	28406.22
746.877	28509.49
747.216	28504.97
747.556	28519.43
747.895	28461.13
748.234	28323.28
748.573	28234.47
748.911	28196.96
749.25	28249.16
749.589	28158.09
749.928	28090.07
750.267	28029.28
750.605	28003.06
750.944	28020.24
751.283	27835.84
751.621	27960.35
751.96	27751.09
752.298	27743.86
752.636	27660.02
752.975	27645.11
753.313	27543.41
753.651	27599.23
753.989	27562.62
754.327	27337.32
754.666	27293.7
755.004	27273.14
755.342	27370.09
755.679	27283.76
756.017	27127.61
756.355	27159.7
756.693	27007.61
757.031	27134.16
