Data from hue_24_FLMS001491_00091.txt Node
Date: Tue Feb 07 17:13:00 GMT 2017
User: dcchb
Spectrometer: FLMS00149
Trigger mode: 0
Integration Time (sec): 2.000000E-2
Scans to average: 10
Electric dark correction enabled: true
Nonlinearity correction enabled: false
Boxcar width: 0
XAxis mode: Wavelengths
Number of Pixels in Spectrum: 2048
>>>>>Begin Spectral Data<<<<<
341.393	3.12
341.776	3.12
342.16	3.12
342.543	-74.62
342.927	-68.29
343.31	-59.02
343.693	-63.54
344.077	-65.13
344.46	-48.85
344.843	-40.27
345.226	-60.83
345.61	-32.58
345.993	-22.64
346.376	-4.11
346.759	6.29
347.142	30.24
347.525	18.04
347.908	46.96
348.291	88.77
348.674	94.64
349.057	112.05
349.44	133.51
349.823	146.62
350.206	163.57
350.588	198.82
350.971	237.92
351.354	241.08
351.737	266.17
352.119	254.41
352.502	279.05
352.884	294.64
353.267	298.71
353.65	317.69
354.032	318.82
354.414	317.01
354.797	328.54
355.179	330.12
355.562	336.45
355.944	354.07
356.326	343.68
356.709	361.98
357.091	350.23
357.473	333.73
357.855	359.95
358.238	356.33
358.62	354.52
359.002	358.37
359.384	362.66
359.766	347.97
360.148	361.76
360.53	350.68
360.912	368.99
361.294	358.14
361.676	354.52
362.057	348.88
362.439	333.96
362.821	322.21
363.203	351.81
363.584	343.23
363.966	339.61
364.348	343
364.729	322.44
365.111	340.29
365.493	338.03
365.874	318.82
366.256	315.43
366.637	332.6
367.019	321.98
367.4	332.15
367.781	313.85
368.163	329.89
368.544	345.26
368.925	323.56
369.306	333.96
369.688	345.49
370.069	339.84
370.45	318.59
370.831	347.97
371.212	318.14
371.593	321.76
371.974	338.48
372.355	333.51
372.736	344.81
373.117	347.29
373.498	352.49
373.879	340.97
374.26	332.83
374.641	318.82
375.021	353.62
375.402	339.16
375.783	329.67
376.163	358.82
376.544	346.62
376.925	350.91
377.305	324.47
377.686	352.26
378.066	331.7
378.447	340.51
378.827	340.51
379.208	361.98
379.588	364.02
379.968	359.04
380.349	357.24
380.729	359.04
381.109	345.94
381.489	344.81
381.87	359.5
382.25	363.79
382.63	334.64
383.01	369.21
383.39	376.67
383.77	348.2
384.15	371.25
384.53	359.72
384.91	366.05
385.29	384.81
385.67	395.2
386.049	382.77
386.429	357.46
386.809	389.55
387.189	394.75
387.568	395.65
387.948	377.12
388.328	391.59
388.707	402.66
389.087	396.11
389.466	401.53
389.846	384.58
390.225	405.6
390.605	379.61
390.984	401.75
391.363	408.53
391.743	398.14
392.122	390.68
392.501	405.37
392.881	420.29
393.26	414.86
393.639	421.87
394.018	418.03
394.397	424.13
394.776	416.22
395.155	421.19
395.534	422.55
395.913	418.93
396.292	430.68
396.671	447.63
397.05	434.75
397.429	421.87
397.808	433.62
398.186	415.54
398.565	434.97
398.944	448.31
399.323	460.28
399.701	446.05
400.08	413.28
400.458	461.87
400.837	453.51
401.215	448.53
401.594	439.72
401.972	459.15
402.351	446.73
402.729	466.39
403.107	460.06
403.486	465.26
403.864	481.3
404.242	458.48
404.62	471.13
404.999	484.01
405.377	479.27
405.755	486.27
406.133	468.42
406.511	476.78
406.889	484.24
407.267	494.41
407.645	498.7
408.023	511.58
408.401	494.86
408.779	499.83
409.156	505.26
409.534	518.59
409.912	532.6
410.29	522.88
410.667	519.04
411.045	559.72
411.422	532.15
411.8	521.3
412.178	547.51
412.555	531.92
412.933	553.84
413.31	553.84
413.687	538.93
414.065	538.25
414.442	545.93
414.819	566.72
415.197	558.14
415.574	580.73
415.951	571.24
416.328	582.99
416.705	571.02
417.082	587.96
417.46	567.85
417.837	610.56
418.214	610.11
418.591	615.31
418.967	593.61
419.344	627.51
419.721	633.16
420.098	607.17
420.475	643.33
420.852	619.15
421.228	631.58
421.605	637.91
421.982	625.48
422.358	625.48
422.735	628.64
423.111	656.66
423.488	666.83
423.864	658.7
424.241	661.86
424.617	684.46
424.994	705.48
425.37	685.82
425.746	679.71
426.123	696.44
426.499	698.92
426.875	680.84
427.251	700.05
427.627	717.23
428.003	722.2
428.379	722.42
428.756	732.37
429.132	713.39
429.507	732.82
429.883	731.92
430.259	773.5
430.635	753.38
431.011	766.04
431.387	764.91
431.763	805.81
432.138	775.53
432.514	808.52
432.89	789.77
433.265	829.77
433.641	824.12
434.016	829.77
434.392	824.57
434.767	855.3
435.143	867.28
435.518	864.34
435.894	859.6
436.269	874.06
436.644	907.5
437.02	891.23
437.395	902.53
437.77	895.08
438.145	915.87
438.52	901.85
438.895	913.38
439.271	931.91
439.646	950.22
440.021	958.8
440.395	959.25
440.77	942.76
441.145	945.02
441.52	988.18
441.895	956.77
442.27	1001.97
442.645	992.02
443.019	1004.45
443.394	969.65
443.769	1018.01
444.143	1015.52
444.518	1037.9
444.892	1008.74
445.267	1015.75
445.641	1032.92
446.016	1011.46
446.39	1034.05
446.764	1037.22
447.139	1062.08
447.513	1057.1
447.887	1064.11
448.262	1084.67
448.636	1086.03
449.01	1102.75
449.384	1122.64
449.758	1085.35
450.132	1116.54
450.506	1085.35
450.88	1119.93
451.254	1142.07
451.628	1158.35
452.002	1166.93
452.376	1170.1
452.75	1177.55
453.123	1185.46
453.497	1178.23
453.871	1218.23
454.244	1224.56
454.618	1222.07
454.992	1216.65
455.365	1243.09
455.739	1260.26
456.112	1290.77
456.486	1297.32
456.859	1288.29
457.232	1327.83
457.606	1328.51
457.979	1348.62
458.352	1375.29
458.725	1409.19
459.099	1396.98
459.472	1387.94
459.845	1411.45
460.218	1445.12
460.591	1445.57
460.964	1454.83
461.337	1481.73
461.71	1531.89
462.083	1512.46
462.456	1543.42
462.829	1531.44
463.201	1547.49
463.574	1588.39
463.947	1623.42
464.32	1612.8
464.692	1673.81
465.065	1678.33
465.438	1688.73
465.81	1700.03
466.183	1702.96
466.555	1758.78
466.928	1749.06
467.3	1756.97
467.672	1752.91
468.045	1822.51
468.417	1825.45
468.789	1832.68
469.161	1859.12
469.534	1907.48
469.906	1924.65
470.278	1954.26
470.65	1963.3
471.022	2005.55
471.394	2008.94
471.766	2078.1
472.138	2137.3
472.51	2125.1
472.882	2171.88
473.253	2206.45
473.625	2229.28
473.997	2253.68
474.369	2269.28
474.74	2286.68
475.112	2381.82
475.484	2394.02
475.855	2432.66
476.227	2472.66
476.598	2533.68
476.97	2556.73
477.341	2614.35
477.713	2634.46
478.084	2695.93
478.455	2774.12
478.827	2790.84
479.198	2899.99
479.569	2884.63
479.94	2970.95
480.311	2991.07
480.682	3039.2
481.053	3115.36
481.424	3166.65
481.795	3219.76
482.166	3319.87
482.537	3309.02
482.908	3463.6
483.279	3447.1
483.65	3525.51
484.021	3608.22
484.391	3624.95
484.762	3688.67
485.133	3728.67
485.503	3810.93
485.874	3919.63
486.244	3918.72
486.615	3997.14
486.985	4099.51
487.356	4137.25
487.726	4203.69
488.097	4271.03
488.467	4350.13
488.837	4385.15
489.207	4454.98
489.578	4555.77
489.948	4607.29
490.318	4661.98
490.688	4701.08
491.058	4746.95
491.428	4872.6
491.798	4940.62
492.168	5006.15
492.538	5035.76
492.908	5118.24
493.278	5174.51
493.648	5218.35
494.017	5275.07
494.387	5311
494.757	5358.23
495.126	5428.74
495.496	5437.1
495.866	5510.1
496.235	5553.71
496.605	5620.37
496.974	5711.45
497.344	5774.04
497.713	5809.75
498.082	5815.4
498.452	5908.73
498.821	5951.89
499.19	5955.73
499.559	6028.95
499.928	6047.48
500.298	6096.97
500.667	6151.43
501.036	6124.77
501.405	6192.79
501.774	6236.86
502.143	6251.32
502.512	6338.1
502.88	6380.35
503.249	6403.63
503.618	6416.29
503.987	6493.12
504.356	6489.73
504.724	6497.41
505.093	6571.99
505.462	6625.32
505.83	6655.83
506.199	6700.12
506.567	6724.07
506.936	6830.06
507.304	6792.1
507.672	6891.75
508.041	6936.72
508.409	6901.02
508.777	6955.03
509.145	6991.19
509.514	7073.44
509.882	7087.45
510.25	7072.09
510.618	7156.38
510.986	7165.42
511.354	7217.17
511.722	7267.79
512.09	7316.38
512.458	7334
512.826	7417.62
513.193	7411.74
513.561	7444.96
513.929	7475.92
514.297	7622.81
514.664	7578.97
515.032	7638.63
515.4	7674.78
515.767	7714.33
516.135	7821.9
516.502	7737.83
516.869	7846.76
517.237	7932.86
517.604	7916.13
517.972	7949.35
518.339	7977.37
518.706	8008.33
519.073	8043.14
519.44	8056.92
519.808	8125.39
520.175	8154.55
520.542	8248.78
520.909	8218.95
521.276	8327.65
521.643	8328.33
522.009	8428.44
522.376	8489
522.743	8545.27
523.11	8604.7
523.477	8622.78
523.843	8619.39
524.21	8713.4
524.577	8829.56
524.943	8842.89
525.31	8849.44
525.676	8950.68
526.043	8925.15
526.409	8989.55
526.776	9132.6
527.142	9125.59
527.508	9205.82
527.874	9259.15
528.241	9305.93
528.607	9327.62
528.973	9397.9
529.339	9455.75
529.705	9457.11
530.071	9557.67
530.437	9593.6
530.803	9646.03
531.169	9741.4
531.535	9737.78
531.901	9793.37
532.267	9793.15
532.632	9867.72
532.998	9864.11
533.364	9980.94
533.73	10012.58
534.095	10077.66
534.461	10123.76
534.826	10161.05
535.192	10246.47
535.557	10286.24
535.923	10258.44
536.288	10319.46
536.653	10367.59
537.019	10368.72
537.384	10442.62
537.749	10476.07
538.114	10479.68
538.479	10500.25
538.845	10587.93
539.21	10610.3
539.575	10670.64
539.94	10664.31
540.305	10756.28
540.67	10737.3
541.034	10799.22
541.399	10884.64
541.764	10912.67
542.129	10870.63
542.494	10967.13
542.858	11034.7
543.223	11071.3
543.587	11193.79
543.952	11093
544.316	11248.48
544.681	11230.17
545.045	11225.2
545.41	11379.55
545.774	11377.96
546.138	11330.73
546.503	11426.1
546.867	11428.36
547.231	11555.59
547.595	11568.24
547.959	11664.51
548.324	11744.06
548.688	11696.37
549.052	11752.87
549.416	11783.38
549.779	11797.84
550.143	11825.86
550.507	11929.59
550.871	11895.92
551.235	11933.43
551.599	12034.9
551.962	12020.66
552.326	12098.85
552.689	12166.87
553.053	12134.33
553.417	12236.25
553.78	12311.27
554.143	12347.2
554.507	12350.14
554.87	12348.56
555.234	12471.95
555.597	12468.78
555.96	12536.58
556.323	12535.9
556.686	12552.4
557.05	12656.35
557.413	12653.86
557.776	12688.44
558.139	12714.2
558.502	12861.09
558.865	12913.74
559.228	12935.89
559.59	13007.75
559.953	13003.23
560.316	13143.34
560.679	13111.7
561.041	13267.86
561.404	13314.64
561.767	13342.43
562.129	13260.4
562.492	13422.66
562.854	13428.76
563.217	13401.41
563.579	13538.58
563.941	13586.72
564.304	13671.46
564.666	13690.22
565.028	13758.92
565.39	13804.57
565.753	13880.5
566.115	13888.63
566.477	13950.78
566.839	13903.77
567.201	14107.61
567.563	14082.3
567.925	14146.7
568.287	14202.3
568.648	14275.51
569.01	14334.04
569.372	14451.33
569.734	14306.93
570.095	14515.28
570.457	14600.93
570.819	14566.58
571.18	14585.11
571.542	14725.45
571.903	14804.54
572.265	14823.07
572.626	14898.55
572.987	14896.52
573.349	14944.2
573.71	15116.62
574.071	15206.11
574.432	15220.8
574.794	15347.8
575.155	15395.71
575.516	15412.66
575.877	15473.45
576.238	15590.06
576.599	15749.6
576.96	15853.55
577.32	15885.87
577.681	15873.44
578.042	15994.34
578.403	16138.52
578.763	16332.18
579.124	16420.77
579.485	16538.28
579.845	16728.56
580.206	16784.15
580.566	16926.74
580.927	17037.7
581.287	17260.29
581.648	17277.7
582.008	17466.84
582.368	17668.87
582.728	17829.55
583.089	17971.46
583.449	18039.26
583.809	18332.81
584.169	18557.89
584.529	18708.17
584.889	19020.7
585.249	19143.41
585.609	19233.12
585.969	19495.94
586.329	19761.02
586.688	19984.29
587.048	20208.69
587.408	20506.99
587.768	20699.75
588.127	20928.9
588.487	21216.12
588.846	21552.61
589.206	21704.7
589.565	22046.84
589.925	22481.63
590.284	22539.7
590.643	23027.37
591.003	23400.47
591.362	23639.56
591.721	23999.78
592.08	24239.77
592.44	24523.38
592.799	24967.66
593.158	25095.34
593.517	25567.65
593.876	26042.66
594.235	26214.41
594.593	26467.74
594.952	26876.31
595.311	27182.07
595.67	27623.86
596.029	27983.85
596.387	28411.64
596.746	28869.93
597.104	29041
597.463	29376.59
597.822	29712.62
598.18	29914.2
598.538	30351.25
598.897	30993.27
599.255	30990.78
599.613	31772.23
599.972	31866.01
600.33	32321.37
600.688	32404.08
601.046	32964.29
601.404	33432.3
601.762	33565.63
602.12	34153.86
602.478	34354.76
602.836	34875.88
603.194	34889.21
603.552	35286.49
603.91	35443.09
604.268	35959.69
604.625	36249.17
604.983	36730.07
605.341	36720.57
605.698	37207.57
606.056	37582.92
606.413	37781.56
606.771	38337.48
607.128	38636.91
607.485	38572.73
607.843	38892.72
608.2	39364.12
608.557	39720.27
608.914	39905.58
609.272	40166.81
609.629	40434.37
609.986	40808.6
610.343	40995.72
610.7	41430.05
611.057	41510.5
611.414	41756.6
611.771	42083.14
612.127	42364.95
612.484	42526.98
612.841	42909.56
613.198	42877.93
613.554	43203.34
613.911	43622.99
614.267	43592.94
614.624	43890.1
614.98	44013.49
615.337	44453.03
615.693	44366.25
616.05	44672.46
616.406	44884.88
616.762	45008.72
617.118	45131.2
617.475	45306.56
617.831	45741.35
618.187	45830.84
618.543	45946.55
618.899	46198.74
619.255	46407.78
619.611	46484.84
619.967	46681.22
620.323	46807.77
620.678	46840.76
621.034	46864.94
621.39	46976.8
621.746	46893.64
622.101	47471.48
622.457	47346.06
622.812	47489.1
623.168	47627.86
623.523	47710.34
623.879	47893.16
624.234	47791.7
624.589	48135.19
624.945	48139.93
625.3	48202.76
625.655	48259.71
626.01	48400.72
626.365	48475.75
626.72	48557.1
627.075	48578.12
627.43	48539.02
627.785	48593.03
628.14	48650.66
628.495	48848.84
628.85	48783.31
629.205	48779.92
629.559	48915.51
629.914	48892.91
630.269	49002.28
630.623	48927.94
630.978	48951.21
631.332	49117.08
631.687	49308.27
632.041	49015.17
632.396	49222.39
632.75	49101.27
633.104	49194.14
633.459	49012
633.813	48974.72
634.167	49179.46
634.521	49176.29
634.875	49296.74
635.229	49184.88
635.583	49069.4
635.937	49078.89
636.291	49075.28
636.645	49080.02
636.999	49110.76
637.352	49218.55
637.706	49121.83
638.06	49228.72
638.413	49199.12
638.767	49113.47
639.121	49149.17
639.474	49067.14
639.828	48941.5
640.181	49103.07
640.534	49219.68
640.888	49009.06
641.241	48984.43
641.594	48963.42
641.947	49104.66
642.301	49063.07
642.654	49125.45
643.007	49099.46
643.36	49006.58
643.713	49066.92
644.066	49194.14
644.419	48838.9
644.771	48598.91
645.124	48447.72
645.477	48323.66
645.83	48131.35
646.182	48004.35
646.535	47978.36
646.888	48007.96
647.24	47790.57
647.593	48092.7
647.945	48067.17
648.298	47951.69
648.65	47674.64
649.002	47668.76
649.355	47762.09
649.707	47723
650.059	47927.06
650.411	48299.25
650.763	48344.9
651.115	48814.27
651.467	48651.33
651.819	48626.48
652.171	48605.46
652.523	48588.06
652.875	48578.12
653.227	48375.86
653.578	48732.24
653.93	48731.11
654.282	48409.31
654.633	48308.07
654.985	48407.95
655.337	48428.74
655.688	48521.39
656.039	48664.44
656.391	48308.52
656.742	48403.2
657.094	48417.67
657.445	48605.91
657.796	48411.79
658.147	48353.04
658.498	48342.42
658.849	48482.07
659.2	48399.81
659.551	48157.56
659.902	48300.38
660.253	48229.42
660.604	48478
660.955	48068.52
661.306	48381.74
661.656	48301.06
662.007	48225.81
662.358	48309.2
662.708	48271.91
663.059	48309.87
663.409	48060.39
663.76	48354.39
664.11	48235.3
664.461	48324.11
664.811	48294.06
665.161	48167.5
665.511	48149.88
665.862	48258.8
666.212	48252.93
666.562	48169.54
666.912	48176.77
667.262	48141.74
667.612	48159.82
667.962	48165.7
668.312	48140.84
668.662	48294.51
669.011	48167.96
669.361	48022.65
669.711	48105.59
670.06	48026.27
670.41	47953.5
670.76	47956.44
671.109	48024.46
671.459	48134.74
671.808	48051.8
672.157	48112.14
672.507	47806.16
672.856	47826.27
673.205	47966.15
673.554	48125.92
673.904	47878.7
674.253	47995.98
674.602	47898.81
674.951	47357.13
675.3	47139.96
675.649	47793.5
675.998	47688.87
676.346	47753.05
676.695	47904.46
677.044	47623.11
677.393	47618.37
677.741	47706.27
678.09	47654.07
678.438	47617.46
678.787	47640.51
679.135	47699.27
679.484	47392.84
679.832	47516.22
680.181	47437.58
680.529	47367.07
680.877	47271.71
681.225	47166.18
681.573	47473.29
681.922	47269.9
682.27	47091.15
682.618	47059.29
682.966	46986.97
683.314	47172.73
683.661	46964.82
684.009	46805.51
684.357	46593.53
684.705	46754.89
685.053	46750.59
685.4	46684.83
685.748	46537.49
686.095	46531.84
686.443	46252.75
686.79	46232.19
687.138	46262.47
687.485	46374.11
687.832	46214.11
688.18	46303.6
688.527	46069.93
688.874	46053.89
689.221	45924.85
689.568	45877.85
689.915	45746.33
690.262	45780.67
690.609	45575.48
690.956	45459.1
691.303	45421.81
691.65	45212.33
691.997	45207.81
692.344	44942.5
692.69	45111.99
693.037	44957.19
693.383	44591.1
693.73	44756.07
694.077	44568.05
694.423	44589.52
694.769	44503.87
695.116	44350.88
695.462	44455.51
695.808	44095.75
696.155	44336.64
696.501	43878.58
696.847	43895.07
697.193	43750.45
697.539	43913.83
697.885	43583.67
698.231	43365.82
698.577	43465.48
698.923	43446.72
699.269	43203.79
699.614	43022.33
699.96	42924.48
700.306	42938.72
700.651	42791.15
700.997	42783.47
701.342	42844.93
701.688	42609.23
702.033	42579.63
702.379	42293.31
702.724	42293.53
703.069	42428.67
703.415	41861.68
703.76	41981.23
704.105	42064.84
704.45	41835.02
704.795	41759.54
705.14	41527.68
705.485	41553.44
705.83	41434.12
706.175	41504.63
706.52	41455.82
706.865	41182.15
707.209	41193.45
707.554	40971.08
707.899	40964.3
708.243	40849.05
708.588	40742.62
708.932	40348.73
709.277	40355.05
709.621	40353.92
709.966	40219.01
710.31	40255.62
710.654	39982.41
710.998	40049.3
711.342	40054.27
711.687	39874.39
712.031	39762.3
712.375	39550.1
712.719	39747.61
713.063	39716.65
713.407	39735.64
713.75	39564.34
714.094	39477.56
714.438	39430.79
714.782	39367.06
715.125	39108.08
715.469	39398.92
715.812	39112.38
716.156	38887.07
716.499	38904.92
716.843	38805.94
717.186	38562.33
717.53	38876.9
717.873	38783.8
718.216	38777.02
718.559	38570.69
718.902	38345.16
719.246	38322.34
719.589	38237.37
719.932	38059.97
720.275	38144.04
720.617	38081.89
720.96	38002.12
721.303	38157.6
721.646	38071.5
721.989	37738.63
722.331	37969.58
722.674	37669.48
723.016	37819.53
723.359	37721.9
723.701	37643.49
724.044	37604.17
724.386	37255.7
724.729	37447.11
725.071	37360.56
725.413	37294.12
725.755	37377.28
726.097	37134.8
726.439	36868.14
726.782	36935.71
727.124	37273.1
727.465	36914.92
727.807	36791.31
728.149	36865.2
728.491	36727.35
728.833	36745.43
729.175	36658.65
729.516	36557.41
729.858	36498.66
730.199	36532.33
730.541	36424.99
730.882	36326.46
731.224	36526
731.565	36171.21
731.906	36284.65
732.248	36306.35
732.589	36080.14
732.93	35868.17
733.271	35950.2
733.612	36145.9
733.953	35878.79
734.294	35767.83
734.635	35877.21
734.976	35843.99
735.317	35677.21
735.658	35684.9
735.999	35581.62
736.339	35528.51
736.68	35672.92
737.021	35473.15
737.361	35360.16
737.702	35577.33
738.042	35321.29
738.383	35356.99
738.723	35418.46
739.063	35269.09
739.404	35293.49
739.744	35213.72
740.084	35078.36
740.424	35050.34
740.764	35066.83
741.104	35200.39
741.444	34974.41
741.784	34853.28
742.124	34837.91
742.464	34799.72
742.804	34699.16
743.143	34706.84
743.483	34830.23
743.823	34542.1
744.162	34507.98
744.502	34412.39
744.841	34371.94
745.181	34476.34
745.52	34397.47
745.86	34316.12
746.199	34321.32
746.538	34268.44
746.877	34249.45
747.216	34343.69
747.556	34192.28
747.895	34096.91
748.234	33936.92
748.573	33914.32
748.911	33983.02
749.25	33877.94
749.589	33827.09
749.928	33845.4
750.267	33811.27
750.605	33614.22
750.944	33660.54
751.283	33513.2
751.621	33636.36
751.96	33354.56
752.298	33340.55
752.636	33527.44
752.975	33210.16
753.313	33047.68
753.651	33230.95
753.989	33032.31
754.327	32915.7
754.666	32830.73
755.004	32808.13
755.342	32767.01
755.679	32699.89
756.017	32685.88
756.355	32665.54
756.693	32533.79
757.031	32536.28
757.368	32234.59
757.706	32377.41
