Data from hue_130_FLMS001491_00005.txt Node
Date: Tue Feb 07 16:57:04 GMT 2017
User: dcchb
Spectrometer: FLMS00149
Trigger mode: 0
Integration Time (sec): 2.000000E-2
Scans to average: 10
Electric dark correction enabled: true
Nonlinearity correction enabled: false
Boxcar width: 0
XAxis mode: Wavelengths
Number of Pixels in Spectrum: 2048
>>>>>Begin Spectral Data<<<<<
341.393	-18.88
341.776	-18.88
342.16	-18.88
342.543	-75.15
342.927	-72.44
343.31	-64.08
343.693	-82.84
344.077	-74.25
344.46	-57.53
344.843	-72.22
345.226	-36.96
345.61	-28.15
345.993	6.88
346.376	6.65
346.759	16.6
347.142	20.21
347.525	46.2
347.908	50.27
348.291	67.44
348.674	74.9
349.057	126.88
349.44	110.83
349.823	114.9
350.206	163.26
350.588	189.25
350.971	194.22
351.354	238.74
351.737	216.59
352.119	251.39
352.502	257.72
352.884	257.49
353.267	271.5
353.65	268.79
354.032	292.52
354.414	310.6
354.797	313.08
355.179	294.33
355.562	327.1
355.944	315.8
356.326	313.99
356.709	330.71
357.091	331.62
357.473	335.23
357.855	303.82
358.238	331.62
358.62	336.59
359.002	332.97
359.384	334.33
359.766	333.65
360.148	344.72
360.53	331.16
360.912	327.77
361.294	323.48
361.676	339.3
362.057	346.98
362.439	326.19
362.821	315.8
363.203	328.23
363.584	325.06
363.966	316.25
364.348	327.32
364.729	292.75
365.111	323.71
365.493	326.87
365.874	320.09
366.256	323.48
366.637	324.61
367.019	310.6
367.4	301.33
367.781	302.46
368.163	307.66
368.544	304.72
368.925	314.67
369.306	304.27
369.688	324.61
370.069	311.96
370.45	315.8
370.831	308.34
371.212	305.63
371.593	316.25
371.974	305.85
372.355	296.14
372.736	316.02
373.117	318.51
373.498	323.03
373.879	314.21
374.26	339.75
374.641	292.29
375.021	327.32
375.402	322.8
375.783	339.98
376.163	318.28
376.544	327.1
376.925	318.06
377.305	320.99
377.686	318.96
378.066	330.49
378.447	315.12
378.827	335.68
379.208	338.17
379.588	350.37
379.968	328.23
380.349	311.73
380.729	337.72
381.109	312.18
381.489	334.1
381.87	342.46
382.25	330.49
382.63	334.1
383.01	353.08
383.39	359.86
383.77	359.19
384.15	361.45
384.53	352.18
384.91	344.72
385.29	351.5
385.67	350.37
386.049	353.54
386.429	355.57
386.809	350.37
387.189	355.8
387.568	347.21
387.948	353.54
388.328	362.8
388.707	340.65
389.087	353.54
389.466	366.87
389.846	363.71
390.225	342.01
390.605	370.48
390.984	355.34
391.363	362.35
391.743	372.97
392.122	383.59
392.501	373.65
392.881	372.97
393.26	382.91
393.639	387.43
394.018	376.13
394.397	393.08
394.776	410.94
395.155	416.36
395.534	391.05
395.913	385.85
396.292	382.46
396.671	383.59
397.05	398.05
397.429	367.09
397.808	412.74
398.186	396.47
398.565	398.05
398.944	387.89
399.323	399.86
399.701	413.65
400.08	406.64
400.458	397.6
400.837	411.39
401.215	429.01
401.594	422.91
401.972	414.78
402.351	421.78
402.729	396.25
403.107	412.74
403.486	423.59
403.864	426.98
404.242	435.57
404.62	439.41
404.999	429.24
405.377	433.99
405.755	444.38
406.133	451.39
406.511	438.73
406.889	438.73
407.267	446.19
407.645	451.84
408.023	429.69
408.401	462.69
408.779	469.69
409.156	457.94
409.534	462.23
409.912	443.48
410.29	477.6
410.667	494.55
411.045	479.18
411.422	469.47
411.8	468.79
412.178	505.85
412.555	492.52
412.933	497.26
413.31	513.98
413.687	496.13
414.065	471.05
414.442	510.37
414.819	518.73
415.197	495.23
415.574	521.89
415.951	506.3
416.328	518.5
416.705	535.9
417.082	534.1
417.46	513.31
417.837	548.79
418.214	550.59
418.591	527.32
418.967	525.06
419.344	534.32
419.721	543.81
420.098	538.84
420.475	558.28
420.852	532.97
421.228	565.51
421.605	572.74
421.982	573.64
422.358	568.22
422.735	565.96
423.111	578.16
423.488	581.55
423.864	581.55
424.241	612.74
424.617	585.62
424.994	610.7
425.37	616.35
425.746	600.99
426.123	615
426.499	613.64
426.875	624.72
427.251	606.86
427.627	639.63
428.003	637.6
428.379	632.62
428.756	662.23
429.132	635.11
429.507	667.2
429.883	650.03
430.259	684.37
430.635	666.75
431.011	677.14
431.387	696.13
431.763	688.67
432.138	690.93
432.514	699.97
432.89	687.09
433.265	721.21
433.641	735.9
434.016	710.59
434.392	737.03
434.767	754.43
435.143	747.42
435.518	756.69
435.894	748.78
436.269	771.38
436.644	781.55
437.02	796.01
437.395	768.21
437.77	780.42
438.145	812.28
438.52	804.15
438.895	821.32
439.271	819.06
439.646	818.16
440.021	805.28
440.395	828.78
440.77	861.32
441.145	840.98
441.52	866.97
441.895	853.64
442.27	873.75
442.645	852.05
443.019	886.86
443.394	883.47
443.769	904.26
444.143	871.26
444.518	893.63
444.892	897.25
445.267	920.53
445.641	904.03
446.016	906.06
446.39	937.48
446.764	927.31
447.139	931.37
447.513	926.63
447.887	944.71
448.262	967.98
448.636	936.8
449.01	944.03
449.384	988.1
449.758	981.09
450.132	986.74
450.506	1005.5
450.88	1000.3
451.254	1001.88
451.628	1004.14
452.002	1056.57
452.376	1041.65
452.75	1057.92
453.123	1058.38
453.497	1088.88
453.871	1059.51
454.244	1104.02
454.618	1115.78
454.992	1109
455.365	1137.24
455.739	1161.65
456.112	1155.55
456.486	1146.28
456.859	1160.97
457.232	1185.38
457.606	1193.97
457.979	1194.19
458.352	1246.85
458.725	1242.78
459.099	1256.79
459.472	1283
459.845	1289.56
460.218	1290.69
460.591	1294.98
460.964	1319.39
461.337	1343.34
461.71	1366.62
462.083	1368.42
462.456	1371.81
462.829	1388.76
463.201	1428.99
463.574	1448.42
463.947	1447.07
464.32	1501.98
464.692	1508.31
465.065	1529.78
465.438	1528.65
465.81	1567.29
466.183	1603.9
466.555	1622.66
466.928	1633.05
467.3	1655.87
467.672	1687.29
468.045	1722.77
468.417	1742.43
468.789	1767.51
469.161	1778.13
469.534	1805.93
469.906	1815.87
470.278	1855.19
470.65	1926.38
471.022	1920.05
471.394	1989.65
471.766	2032.36
472.138	2049.76
472.51	2106.03
472.882	2136.77
473.253	2190.32
473.625	2215.18
473.997	2281.39
474.369	2329.53
474.74	2358.91
475.112	2404.78
475.484	2479.13
475.855	2537.43
476.227	2586.02
476.598	2672.8
476.97	2719.35
477.341	2835.05
477.713	2821.04
478.084	2897.65
478.455	2957.08
478.827	3084.09
479.198	3099
479.569	3210.18
479.94	3340.8
480.311	3385.32
480.682	3470.52
481.053	3592.32
481.424	3656.05
481.795	3812.2
482.166	3858.08
482.537	3971.97
482.908	4054.23
483.279	4115.24
483.65	4278.4
484.021	4390.04
484.391	4543.71
484.762	4620.77
485.133	4748.22
485.503	4801.78
485.874	4931.95
486.244	5056.92
486.615	5245.16
486.985	5318.38
487.356	5480.86
487.726	5627.97
488.097	5720.63
488.467	5874.97
488.837	6014.86
489.207	6146.6
489.578	6324.9
489.948	6453.26
490.318	6568.51
490.688	6625.01
491.058	6847.15
491.428	6972.57
491.798	7117.2
492.168	7294.37
492.538	7467.02
492.908	7629.05
493.278	7791.31
493.648	7890.06
494.017	8042.15
494.387	8170.28
494.757	8255.7
495.126	8379.54
495.496	8547.67
495.866	8702.69
496.235	8788.12
496.605	8926.87
496.974	9045.28
497.344	9206.41
497.713	9304.49
498.082	9505.84
498.452	9617.25
498.821	9656.34
499.19	9790.35
499.559	9914.41
499.928	10032.83
500.298	10209.77
500.667	10233.95
501.036	10367.51
501.405	10514.85
501.774	10643.89
502.143	10602.31
502.512	10799.14
502.88	10893.37
503.249	10904.9
503.618	11141.05
503.987	11060.6
504.356	11221.05
504.724	11331.33
505.093	11367.03
505.462	11406.13
505.83	11600.02
506.199	11719.56
506.567	11831.65
506.936	11799.34
507.304	12023.51
507.672	12051.08
508.041	12104.64
508.409	12270.96
508.777	12364.52
509.145	12345.76
509.514	12437.29
509.882	12522.71
510.25	12560.9
510.618	12625.3
510.986	12759.54
511.354	12862.36
511.722	12923.83
512.09	13053.31
512.458	13021.9
512.826	13115.69
513.193	13226.42
513.561	13119.08
513.929	13235.68
514.297	13324.95
514.664	13393.42
515.032	13431.16
515.4	13515.45
515.767	13496.47
516.135	13562.45
516.502	13482
516.869	13769.91
517.237	13704.37
517.604	13738.04
517.972	13862.79
518.339	13815.78
518.706	13822.11
519.073	13904.37
519.44	13969.45
519.808	14046.51
520.175	13981.2
520.542	14124.93
520.909	14159.95
521.276	14119.5
521.643	14290.34
522.009	14289.67
522.376	14393.84
522.743	14394.3
523.11	14417.12
523.477	14579.83
523.843	14587.74
524.21	14711.8
524.577	14737.79
524.943	14710.67
525.31	14671.8
525.676	14841.06
526.043	14885.81
526.409	14901.18
526.776	15007.16
527.142	15001.74
527.508	14975.98
527.874	14963.55
528.241	15026.6
528.607	15069.53
528.973	15039.7
529.339	15027.05
529.705	15087.16
530.071	15168.06
530.437	15161.73
530.803	15209.19
531.169	15242.18
531.535	15114.5
531.901	15114.73
532.267	15187.5
532.632	15110.44
532.998	15093.94
533.364	15178.23
533.73	15067.95
534.095	15136.65
534.461	15136.65
534.826	15140.27
535.192	15171.45
535.557	15167.84
535.923	15180.94
536.288	15159.47
536.653	15126.03
537.019	15048.97
537.384	15037.9
537.749	15045.13
538.114	14896.43
538.479	14914.96
538.845	14951.12
539.21	14830.9
539.575	14792.7
539.94	14840.84
540.305	14900.05
540.67	14848.52
541.034	14857.11
541.399	14761.97
541.764	14769.43
542.129	14832.93
542.494	14684.01
542.858	14669.09
543.223	14586.83
543.587	14675.87
543.952	14534.86
544.316	14630
544.681	14504.8
545.045	14570.56
545.41	14576.89
545.774	14498.25
546.138	14380.51
546.503	14401.08
546.867	14340.51
547.231	14309.33
547.595	14300.51
547.959	14339.16
548.324	14260.97
548.688	14213.28
549.052	14227.07
549.416	14252.61
549.779	14137.58
550.143	14139.16
550.507	14107.98
550.871	14127.64
551.235	14097.13
551.599	14131.25
551.962	13993.86
552.326	14041.09
552.689	14025.72
553.053	13859.62
553.417	13933.07
553.78	14060.07
554.143	13855.33
554.507	13896.23
554.87	13905.27
555.234	13898.72
555.597	13789.79
555.96	13753.41
556.323	13805.84
556.686	13809.45
557.05	13753.41
557.413	13828.66
557.776	13831.37
558.139	13869.34
558.502	13828.89
558.865	13803.58
559.228	13752.51
559.59	13824.14
559.953	13738.49
560.316	13910.24
560.679	13803.35
561.041	13831.6
561.404	13876.8
561.767	13889.9
562.129	13814.2
562.492	13854.88
562.854	13815.55
563.217	13819.4
563.579	13875.67
563.941	13936.46
564.304	13910.47
564.666	13936.23
565.028	13877.25
565.39	13937.13
565.753	13980.97
566.115	13944.82
566.477	13950.69
566.839	13969.68
567.201	14037.92
567.563	14051.48
567.925	14135.32
568.287	14086.51
568.648	14085.15
569.01	14156.56
569.372	14122.67
569.734	14021.65
570.095	14207.41
570.457	14195.66
570.819	14199.27
571.18	14143.68
571.542	14257.8
571.903	14286.95
572.265	14227.3
572.626	14282.21
572.987	14231.59
573.349	14258.26
573.71	14381.64
574.071	14351.13
574.432	14304.36
574.794	14415.54
575.155	14316.11
575.516	14391.58
575.877	14343.9
576.238	14375.99
576.599	14337.57
576.96	14318.82
577.32	14349.1
577.681	14403.11
578.042	14438.36
578.403	14449.66
578.763	14388.87
579.124	14380.29
579.485	14418.93
579.845	14451.7
580.206	14339.61
580.566	14484.24
580.927	14405.82
581.287	14508.87
581.648	14466.61
582.008	14425.71
582.368	14434.07
582.728	14405.14
583.089	14413.05
583.449	14427.29
583.809	14387.74
584.169	14472.71
584.529	14322.21
584.889	14364.24
585.249	14355.2
585.609	14277.69
585.969	14289.67
586.329	14272.49
586.688	14366.5
587.048	14311.36
587.408	14304.81
587.768	14279.05
588.127	14300.74
588.487	14258.03
588.846	14344.81
589.206	14245.83
589.565	14250.12
589.925	14277.69
590.284	14220.97
590.643	14201.76
591.003	14194.98
591.362	14319.72
591.721	14200.63
592.08	14232.94
592.44	14311.36
592.799	14265.03
593.158	14243.34
593.517	14199.27
593.876	14219.84
594.235	14152.04
594.593	14163.57
594.952	14171.93
595.311	14214.19
595.67	14084.02
596.029	14244.02
596.387	14157.24
596.746	14260.74
597.104	14153.63
597.463	14126.51
597.822	14121.54
598.18	14084.7
598.538	14110.01
598.897	14150.69
599.255	14079.5
599.613	14280.63
599.972	14187.75
600.33	14233.17
600.688	14092.16
601.046	14164.25
601.404	14185.04
601.762	14165.6
602.12	14180.07
602.478	14168.31
602.836	14176.45
603.194	14206.96
603.552	14143.91
603.91	14067.75
604.268	14246.96
604.625	14109.11
604.983	14154.3
605.341	14074.31
605.698	14197.24
606.056	14156.34
606.413	14157.24
606.771	14142.33
607.128	14175.77
607.485	14168.54
607.843	14160.63
608.2	14176.45
608.557	14327.41
608.914	14280.85
609.272	14348.87
609.629	14260.29
609.986	14292.15
610.343	14349.1
610.7	14337.35
611.057	14314.98
611.414	14318.37
611.771	14310.01
612.127	14399.95
612.484	14312.04
612.841	14464.58
613.198	14340.96
613.554	14286.73
613.911	14460.96
614.267	14347.07
614.624	14433.39
614.98	14385.26
615.337	14506.38
615.693	14491.24
616.05	14397.69
616.406	14543.22
616.762	14444.92
617.118	14461.87
617.475	14416.67
617.831	14568.3
618.187	14591.13
618.543	14500.28
618.899	14668.87
619.255	14635.65
619.611	14597.91
619.967	14601.75
620.323	14660.96
620.678	14584.12
621.034	14495.31
621.39	14557
621.746	14543.9
622.101	14697.79
622.457	14476.33
622.812	14600.17
623.168	14626.83
623.523	14616.21
623.879	14672.93
624.234	14540.51
624.589	14536.44
624.945	14624.8
625.3	14635.65
625.655	14650.56
626.01	14663.22
626.365	14604.91
626.72	14636.78
627.075	14646.72
627.43	14591.81
627.785	14493.96
628.14	14613.5
628.495	14644.46
628.85	14585.7
629.205	14476.1
629.559	14643.33
629.914	14548.87
630.269	14541.86
630.623	14562.2
630.978	14505.03
631.332	14474.52
631.687	14555.65
632.041	14546.61
632.396	14494.86
632.75	14467.74
633.104	14488.98
633.459	14492.6
633.813	14382.55
634.167	14316.56
634.521	14405.37
634.875	14405.82
635.229	14297.12
635.583	14307.07
635.937	14332.6
636.291	14319.95
636.645	14253.28
636.999	14216.67
637.352	14187.07
637.706	14135.55
638.06	14214.19
638.413	14172.61
638.767	14114.98
639.121	14230.23
639.474	14040.18
639.828	14100.52
640.181	14092.38
640.534	14153.17
640.888	14085.83
641.241	14026.85
641.594	14003.12
641.947	14047.41
642.301	14046.28
642.654	14070.46
643.007	14044.93
643.36	14016.68
643.713	14002.44
644.066	14084.93
644.419	14006.06
644.771	13890.13
645.124	13757.93
645.477	13765.84
645.83	13663.69
646.182	13572.17
646.535	13630.25
646.888	13608.55
647.24	13557.71
647.593	13629.12
647.945	13584.83
648.298	13438.84
648.65	13439.97
649.002	13426.19
649.355	13493.08
649.707	13497.15
650.059	13560.42
650.411	13705.95
650.763	13769
651.115	13947.53
651.467	13824.14
651.819	13819.62
652.171	13784.82
652.523	13802.9
652.875	13801.09
653.227	13778.49
653.578	13773.75
653.93	13789.11
654.282	13705.95
654.633	13671.15
654.985	13779.17
655.337	13721.09
655.688	13779.85
656.039	13867.76
656.391	13745.05
656.742	13797.25
657.094	13742.11
657.445	13793.41
657.796	13775.56
658.147	13837.02
658.498	13786.18
658.849	13813.29
659.2	13760.42
659.551	13788.66
659.902	13822.56
660.253	13793.18
660.604	13856.01
660.955	13720.42
661.306	13863.92
661.656	13863.92
662.007	13802
662.358	13818.94
662.708	13813.07
663.059	13894.65
663.409	13780.3
663.76	13951.37
664.11	13936.91
664.461	13804.71
664.811	13798.61
665.161	13802.67
665.511	13814.88
665.862	13757.03
666.212	13807.65
666.562	13878.83
666.912	13795.22
667.262	13853.07
667.612	13824.59
667.962	13849
668.312	13779.17
668.662	13865.95
669.011	13835.89
669.361	13777.14
669.711	13746.4
670.06	13765.84
670.41	13828.66
670.76	13776.91
671.109	13797.48
671.459	13760.19
671.808	13773.07
672.157	13787.76
672.507	13700.08
672.856	13771.04
673.205	13733.75
673.554	13729.91
673.904	13723.13
674.253	13777.59
674.602	13684.03
674.951	13488.33
675.3	13446.98
675.649	13651.72
675.998	13629.8
676.346	13631.6
676.695	13726.29
677.044	13607.65
677.393	13567.88
677.741	13537.82
678.09	13525.17
678.438	13537.14
678.787	13555
679.135	13497.37
679.484	13471.16
679.832	13477.03
680.181	13493.53
680.529	13465.28
680.877	13355
681.225	13378.73
681.573	13340.31
681.922	13401.78
682.27	13371.27
682.618	13199.98
682.966	13204.05
683.314	13268.68
683.661	13228.23
684.009	13171.96
684.357	13158.62
684.705	13151.39
685.053	13080.88
685.4	13157.27
685.748	12999.31
686.095	13088.57
686.443	13026.65
686.79	12980.77
687.138	13005.86
687.485	12981.23
687.832	12931.51
688.18	12918.18
688.527	12793.89
688.874	12835.92
689.221	12753.44
689.568	12792.3
689.915	12631.41
690.262	12779.2
690.609	12692.42
690.956	12644.74
691.303	12602.48
691.65	12548.92
691.997	12527.45
692.344	12314.8
692.69	12400.45
693.037	12465.76
693.383	12300.11
693.73	12389.38
694.077	12159.78
694.423	12143.96
694.769	12132.66
695.116	12145.99
695.462	12177.41
695.808	12062.61
696.155	12149.61
696.501	11974.25
696.847	11941.25
697.193	11823.29
697.539	11912.33
697.885	11838.43
698.231	11813.57
698.577	11715.72
698.923	11748.94
699.269	11658.32
699.614	11642.5
699.96	11624.88
700.306	11522.28
700.651	11541.72
700.997	11460.81
701.342	11482.96
701.688	11426.69
702.033	11409.74
702.379	11368.84
702.724	11212.23
703.069	11297.43
703.415	11118
703.76	11193.48
704.105	11198.22
704.45	11074.84
704.795	11070.09
705.14	10997.32
705.485	11035.51
705.83	10868.74
706.175	10942.64
706.52	10934.05
706.865	10874.62
707.209	10849.98
707.554	10733.6
707.899	10853.6
708.243	10729.31
708.588	10804.79
708.932	10671
709.277	10704.22
709.621	10661.51
709.966	10551.91
710.31	10577.22
710.654	10497.22
710.998	10502.87
711.342	10509.88
711.687	10409.54
712.031	10428.98
712.375	10374.97
712.719	10423.55
713.063	10334.74
713.407	10430.79
713.75	10353.72
714.094	10447.06
714.438	10289.55
714.782	10284.57
715.125	10319.6
715.469	10268.53
715.812	10233.05
716.156	10200.28
716.499	10103.79
716.843	10212.03
717.186	10144.01
717.53	10232.82
717.873	10201.41
718.216	10117.12
718.559	10120.74
718.902	10047.74
719.246	10048.65
719.589	10050.23
719.932	9972.49
720.275	9988.99
720.617	9963.45
720.96	10003.23
721.303	9982.89
721.646	9918.71
721.989	9903.79
722.331	9937.46
722.674	9888.2
723.016	9845.49
723.359	9809.56
723.701	9892.72
724.044	9838.26
724.386	9772.27
724.729	9858.6
725.071	9807.07
725.413	9769.56
725.755	9846.39
726.097	9700.63
726.439	9744.02
726.782	9729.33
727.124	9774.76
727.465	9714.87
727.807	9692.05
728.149	9748.54
728.491	9666.29
728.833	9728.43
729.175	9702.89
729.516	9639.17
729.858	9699.96
730.199	9705.38
730.541	9717.36
730.882	9608.43
731.224	9651.82
731.565	9652.27
731.906	9683.23
732.248	9603.69
732.589	9617.47
732.93	9578.6
733.271	9699.73
733.612	9679.17
733.953	9658.38
734.294	9647.75
734.635	9640.52
734.976	9669.22
735.317	9647.98
735.658	9716
735.999	9585.16
736.339	9615.44
736.68	9702.89
737.021	9619.73
737.361	9619.28
737.702	9684.59
738.042	9601.2
738.383	9666.96
738.723	9638.94
739.063	9612.5
739.404	9698.15
739.744	9677.81
740.084	9684.82
740.424	9749.67
740.764	9701.76
741.104	9800.29
741.444	9723.01
741.784	9744.48
742.124	9750.12
742.464	9794.64
742.804	9737.92
743.143	9865.15
743.483	9867.86
743.823	9835.77
744.162	9883.68
744.502	9917.35
744.841	9899.27
745.181	9972.04
745.52	10029.67
745.86	10005.03
746.199	10093.84
746.538	10087.52
746.877	10147.18
747.216	10325.7
747.556	10203.22
747.895	10276.44
748.234	10340.17
748.573	10354.85
748.911	10435.08
749.25	10447.96
749.589	10565.7
749.928	10646.82
750.267	10769.76
750.605	10689.76
750.944	10802.98
751.283	10835.29
751.621	11022.63
751.96	11053.14
752.298	11155.29
752.636	11308.95
752.975	11389.86
753.313	11457.88
753.651	11619.45
753.989	11665.33
754.327	11774.48
754.666	11844.31
755.004	12068.93
755.342	12158.88
755.679	12233.45
756.017	12324.52
756.355	12618.07
756.693	12674.34
757.031	12776.49
757.368	12870.49
757.706	13131.96
