Data from hue_340_FLMS001491_69.txt Node
Date: Mon Feb 06 15:43:27 GMT 2017
User: dcchb
Spectrometer: FLMS00149
Trigger mode: 0
Integration Time (sec): 2.000000E-2
Scans to average: 10
Electric dark correction enabled: true
Nonlinearity correction enabled: false
Boxcar width: 0
XAxis mode: Wavelengths
Number of Pixels in Spectrum: 2048
>>>>>Begin Spectral Data<<<<<
341.393	1.54
341.776	1.54
342.16	1.54
342.543	-68.06
342.927	-67.39
343.31	-61.51
343.693	-70.77
344.077	-74.84
344.46	-70.55
344.843	-38.23
345.226	-29.87
345.61	-19.25
345.993	-22.87
346.376	-6.6
346.759	2.9
347.142	12.39
347.525	40.63
347.908	68.88
348.291	74.08
348.674	82.44
349.057	113.17
349.44	114.53
349.823	130.35
350.206	159.28
350.588	182.33
350.971	208.31
351.354	213.29
351.737	247.41
352.119	244.47
352.502	260.06
352.884	272.04
353.267	270.68
353.65	298.03
354.032	291.7
354.414	287.86
354.797	312.94
355.179	311.36
355.562	312.27
355.944	329.21
356.326	309.55
356.709	309.78
357.091	332.38
357.473	340.74
357.855	335.54
358.238	332.6
358.62	350.23
359.002	319.5
359.384	341.87
359.766	333.28
360.148	324.92
360.53	343.45
360.912	326.95
361.294	333.28
361.676	324.47
362.057	329.89
362.439	342.77
362.821	326.28
363.203	320.4
363.584	327.86
363.966	314.98
364.348	315.43
364.729	307.75
365.111	321.98
365.493	320.4
365.874	328.54
366.256	308.2
366.637	317.01
367.019	293.74
367.4	329.67
367.781	304.81
368.163	329.67
368.544	315.43
368.925	312.04
369.306	300.97
369.688	308.88
370.069	320.4
370.45	323.34
370.831	310.46
371.212	319.95
371.593	286.05
371.974	322.66
372.355	299.16
372.736	304.13
373.117	308.88
373.498	321.53
373.879	301.42
374.26	314.98
374.641	316.11
375.021	312.94
375.402	318.14
375.783	310.68
376.163	310.91
376.544	335.99
376.925	315.66
377.305	293.74
377.686	310.68
378.066	321.98
378.447	321.08
378.827	332.83
379.208	335.54
379.588	316.33
379.968	320.63
380.349	340.29
380.729	325.37
381.109	324.02
381.489	330.12
381.87	323.79
382.25	321.76
382.63	335.09
383.01	320.85
383.39	328.76
383.77	338.48
384.15	343.9
384.53	361.3
384.91	317.46
385.29	344.36
385.67	344.36
386.049	357.91
386.429	339.38
386.809	343.23
387.189	350.23
387.568	341.19
387.948	348.2
388.328	338.93
388.707	345.03
389.087	352.04
389.466	365.82
389.846	377.12
390.225	352.26
390.605	367.41
390.984	354.3
391.363	352.72
391.743	336.45
392.122	357.24
392.501	350.68
392.881	365.15
393.26	368.08
393.639	349.78
394.018	355.88
394.397	381.19
394.776	355.65
395.155	377.12
395.534	364.24
395.913	382.77
396.292	369.67
396.671	345.71
397.05	373.96
397.429	355.43
397.808	363.11
398.186	375.09
398.565	368.08
398.944	386.16
399.323	379.38
399.701	390.46
400.08	378.48
400.458	371.7
400.837	379.38
401.215	383.45
401.594	379.16
401.972	390.46
402.351	377.12
402.729	389.55
403.107	390.91
403.486	427.97
403.864	410.57
404.242	400.4
404.62	424.13
404.999	415.77
405.377	388.42
405.755	400.17
406.133	419.16
406.511	426.84
406.889	409.44
407.267	457.35
407.645	414.64
408.023	414.64
408.401	429.78
408.779	409.89
409.156	423.68
409.534	428.87
409.912	435.43
410.29	429.1
410.667	441.53
411.045	426.16
411.422	437.91
411.8	448.08
412.178	464.8
412.555	445.6
412.933	461.64
413.31	468.42
413.687	470.23
414.065	504.35
414.442	481.98
414.819	476.33
415.197	491.47
415.574	500.51
415.951	488.98
416.328	517.23
416.705	506.61
417.082	502.32
417.46	507.97
417.837	521.53
418.214	506.38
418.591	531.02
418.967	511.58
419.344	545.25
419.721	531.24
420.098	531.24
420.475	529.44
420.852	548.64
421.228	544.12
421.605	551.36
421.982	567.4
422.358	563.33
422.735	561.75
423.111	566.04
423.488	579.6
423.864	567.63
424.241	583.9
424.617	589.32
424.994	572.37
425.37	582.32
425.746	585.48
426.123	621.41
426.499	607.4
426.875	620.96
427.251	626.38
427.627	636.33
428.003	636.55
428.379	634.74
428.756	638.13
429.132	638.81
429.507	654.18
429.883	678.13
430.259	670
430.635	674.52
431.011	651.24
431.387	677.45
431.763	662.09
432.138	674.74
432.514	712.48
432.89	710.67
433.265	738.7
433.641	718.36
434.016	724.68
434.392	730.56
434.767	726.49
435.143	714.74
435.518	749.77
435.894	781.41
436.269	768.98
436.644	759.49
437.02	773.72
437.395	797.22
437.77	800.39
438.145	801.52
438.52	803.55
438.895	809.43
439.271	814.63
439.646	820.5
440.021	811.01
440.395	820.28
440.77	790.67
441.145	816.43
441.52	846.26
441.895	817.56
442.27	873.16
442.645	837.9
443.019	832.48
443.394	841.97
443.769	874.74
444.143	845.81
444.518	860.95
444.892	871.57
445.267	878.58
445.641	881.97
446.016	900.5
446.39	892.36
446.764	917
447.139	902.98
447.513	898.01
447.887	881.52
448.262	892.36
448.636	893.27
449.01	910.22
449.384	883.55
449.758	949.31
450.132	909.09
450.506	931.23
450.88	939.37
451.254	921.52
451.628	940.05
452.002	934.4
452.376	960.16
452.75	964.9
453.123	963.55
453.497	945.24
453.871	953.83
454.244	997.9
454.618	992.25
454.992	997.67
455.365	980.5
455.739	1003.1
456.112	1021.17
456.486	1032.47
456.859	1019.82
457.232	1037.9
457.606	1077.22
457.979	1030.89
458.352	1077.22
458.725	1065.01
459.099	1097.78
459.472	1098.01
459.845	1110.66
460.218	1118.12
460.591	1098.91
460.964	1120.83
461.337	1138.68
461.71	1138.01
462.083	1162.64
462.456	1174.62
462.829	1151.11
463.201	1154.73
463.574	1184.79
463.947	1202.19
464.32	1233.37
464.692	1210.77
465.065	1213.49
465.438	1230.21
465.81	1258.68
466.183	1260.72
466.555	1284.9
466.928	1313.37
467.3	1290.32
467.672	1328.28
468.045	1321.05
468.417	1353.14
468.789	1357.21
469.161	1373.71
469.534	1385.46
469.906	1393.14
470.278	1406.7
470.65	1432.01
471.022	1429.98
471.394	1433.37
471.766	1472.69
472.138	1503.65
472.51	1530.76
472.882	1483.08
473.253	1557.88
473.625	1557.43
473.997	1597.2
474.369	1607.82
474.74	1624.32
475.112	1648.28
475.484	1652.12
475.855	1674.94
476.227	1702.06
476.598	1703.42
476.97	1750.42
477.341	1773.7
477.713	1812.57
478.084	1804.88
478.455	1866.58
478.827	1869.29
479.198	1907.48
479.569	1893.24
479.94	1937.08
480.311	1978.21
480.682	2004.2
481.053	2032.9
481.424	2046.01
481.795	2098.43
482.166	2101.82
482.537	2123.07
482.908	2143.63
483.279	2159.9
483.65	2227.24
484.021	2266.56
484.391	2269.73
484.762	2277.64
485.133	2314.02
485.503	2367.58
485.874	2441.25
486.244	2401.02
486.615	2456.16
486.985	2485.99
487.356	2493.45
487.726	2573
488.097	2580.23
488.467	2584.07
488.837	2621.58
489.207	2658.87
489.578	2697.29
489.948	2709.26
490.318	2778.42
490.688	2750.39
491.058	2799.88
491.428	2838.08
491.798	2862.48
492.168	2949.94
492.538	2910.16
492.908	2961.01
493.278	2978.41
493.648	3005.75
494.017	3023.15
494.387	3051.4
494.757	3094.11
495.126	3102.25
495.496	3102.93
495.866	3186.99
496.235	3169.37
496.605	3206.88
496.974	3188.35
497.344	3235.13
497.713	3285.97
498.082	3241.45
498.452	3320.32
498.821	3333.88
499.19	3346.54
499.559	3402.35
499.928	3345.86
500.298	3409.59
500.667	3407.1
501.036	3416.82
501.405	3410.04
501.774	3475.8
502.143	3489.81
502.512	3475.8
502.88	3491.17
503.249	3508.57
503.618	3522.12
503.987	3532.29
504.356	3562.58
504.724	3587.66
505.093	3623.37
505.462	3635.34
505.83	3635.12
506.199	3671.05
506.567	3702.23
506.936	3689.8
507.304	3729.8
507.672	3704.04
508.041	3706.75
508.409	3732.97
508.777	3770.48
509.145	3803.7
509.514	3770.71
509.882	3824.49
510.25	3810.25
510.618	3866.75
510.986	3854.77
511.354	3905.17
511.722	3875.79
512.09	3935.67
512.458	3885.28
512.826	3920.76
513.193	3913.3
513.561	3951.04
513.929	3946.07
514.297	3977.93
514.664	3998.95
515.032	4031.04
515.4	4030.13
515.767	4050.92
516.135	4057.03
516.502	4036.91
516.869	4130.02
517.237	4104.03
517.604	4075.56
517.972	4114.88
518.339	4127.98
518.706	4118.04
519.073	4144.48
519.44	4153.52
519.808	4185.61
520.175	4186.51
520.542	4220.41
520.909	4250.47
521.276	4221.54
521.643	4241.43
522.009	4274.65
522.376	4275.55
522.743	4329.79
523.11	4306.29
523.477	4346.74
523.843	4371.82
524.21	4382.89
524.577	4426.96
524.943	4429.22
525.31	4422.89
525.676	4470.12
526.043	4501.76
526.409	4547.18
526.776	4588.76
527.142	4554.64
527.508	4571.81
527.874	4580.85
528.241	4618.14
528.607	4620.4
528.973	4730
529.339	4685.71
529.705	4727.29
530.071	4752.15
530.437	4780.62
530.803	4786.95
531.169	4827.85
531.535	4796.89
531.901	4822.43
532.267	4842.99
532.632	4869.66
532.998	4903.33
533.364	4926.16
533.73	4960.96
534.095	5018.81
534.461	4979.71
534.826	5033.27
535.192	5086.83
535.557	5016.1
535.923	5059.49
536.288	5078.92
536.653	5117.79
537.019	5123.89
537.384	5141.74
537.749	5202.31
538.114	5162.76
538.479	5146.04
538.845	5212.02
539.21	5233.04
539.575	5237.79
539.94	5237.56
540.305	5301.29
540.67	5309.65
541.034	5284.79
541.399	5370.21
541.764	5340.83
542.129	5408.85
542.494	5399.36
542.858	5434.39
543.223	5403.88
543.587	5463.09
543.952	5477.33
544.316	5545.8
544.681	5475.97
545.045	5542.64
545.41	5602.07
545.774	5640.49
546.138	5628.28
546.503	5649.75
546.867	5664.67
547.231	5700.82
547.595	5742.18
547.959	5732.91
548.324	5733.59
548.688	5753.93
549.052	5774.95
549.416	5768.62
549.779	5852.46
550.143	5809.75
550.507	5877.09
550.871	5927.03
551.235	5907.15
551.599	5917.09
551.962	5969.97
552.326	5939.24
552.689	6029.4
553.053	5996.86
553.417	5986.01
553.78	6057.65
554.143	6083.64
554.507	6079.12
554.87	6102.17
555.234	6146.91
555.597	6132.45
555.96	6108.72
556.323	6186.24
556.686	6193.24
557.05	6223.52
557.413	6224.65
557.776	6222.17
558.139	6302.16
558.502	6280.02
558.865	6268.27
559.228	6341.71
559.59	6358.89
559.953	6340.13
560.316	6396.17
560.679	6418.09
561.041	6411.77
561.404	6469.62
561.767	6493.57
562.129	6556.62
562.492	6524.98
562.854	6537.86
563.217	6559.79
563.579	6573.8
563.941	6582.16
564.304	6657.86
564.666	6675.26
565.028	6661.48
565.39	6653.34
565.753	6673.23
566.115	6760.01
566.477	6763.4
566.839	6764.07
567.201	6837.52
567.563	6829.83
567.925	6862.6
568.287	6865.54
568.648	6854.47
569.01	6949.61
569.372	6968.59
569.734	6985.99
570.095	7010.62
570.457	7067.12
570.819	7060.11
571.18	7108.02
571.542	7188.02
571.903	7195.7
572.265	7222.37
572.626	7253.78
572.987	7261.01
573.349	7307.79
573.71	7370.84
574.071	7329.48
574.432	7401.12
574.794	7519.31
575.155	7562.47
575.516	7550.04
575.877	7691.96
576.238	7658.06
576.599	7797.49
576.96	7850.82
577.32	7827.55
577.681	7981.22
578.042	8020.99
578.403	8046.3
578.763	8159.74
579.124	8246.75
579.485	8345.73
579.845	8425.95
580.206	8524.93
580.566	8551.82
580.927	8679.73
581.287	8795.66
581.648	8953.39
582.008	9103.22
582.368	9161.07
582.728	9297.11
583.089	9431.35
583.449	9526.26
583.809	9689.19
584.169	9872.01
584.529	10069.52
584.889	10226.81
585.249	10309.29
585.609	10477.65
585.969	10703.18
586.329	10822.72
586.688	11049.61
587.048	11322.82
587.408	11387.45
587.768	11664.28
588.127	11839.42
588.487	12074.67
588.846	12324.83
589.206	12453.87
589.565	12733.41
589.925	13042.33
590.284	13197.12
590.643	13413.16
591.003	13663.78
591.362	14021.74
591.721	14262.86
592.08	14546.92
592.44	14772
592.799	15039.79
593.158	15367.01
593.517	15511.87
593.876	15865.76
594.235	16020.78
594.593	16333.31
594.952	16680.65
595.311	16855.33
595.67	17223.46
596.029	17480.63
596.387	17764.69
596.746	18101.4
597.104	18282.64
597.463	18613.48
597.822	18965.56
598.18	19111.09
598.538	19395.61
598.897	19837.63
599.255	20004.63
599.613	20592.86
599.972	20644.84
600.33	20983.36
600.688	21108.1
601.046	21519.62
601.404	21923.9
601.762	22014.07
602.12	22405.47
602.478	22597.1
602.836	22890.2
603.194	23090.65
603.552	23244.77
603.91	23548.27
604.268	23938.76
604.625	23968.82
604.983	24343.05
605.341	24466.21
605.698	24834.56
606.056	25134.21
606.413	25307.09
606.771	25634.76
607.128	25851.03
607.485	25965.83
607.843	26246.5
608.2	26639.94
608.557	26951.57
608.914	27022.75
609.272	27262.97
609.629	27527.6
609.986	27958.09
610.343	27749.96
610.7	28338.87
611.057	28389.27
611.414	28521.69
611.771	28866.54
612.127	29096.82
612.484	29254.78
612.841	29345.4
613.198	29507.88
613.554	29683.47
613.911	30043.24
614.267	30159.84
614.624	30287.3
614.98	30400.97
615.337	30743.78
615.693	30852.71
616.05	30919.14
616.406	31322.07
616.762	31263.09
617.118	31429.41
617.475	31601.61
617.831	31718.22
618.187	31925.22
618.543	32019.45
618.899	32312.33
619.255	32411.53
619.611	32500.12
619.967	32669.61
620.323	32867.34
620.678	32802.03
621.034	32785.31
621.39	32903.27
621.746	32983.5
622.101	33508.91
622.457	33263.26
622.812	33468.68
623.168	33623.03
623.523	33664.61
623.879	33922.46
624.234	33654.44
624.589	33998.61
624.945	33990.02
625.3	34147.53
625.655	34163.58
626.01	34354.31
626.365	34442.67
626.72	34580.97
627.075	34564.02
627.43	34641.98
627.785	34570.57
628.14	34623.91
628.495	34772.38
628.85	34809.44
629.205	34730.12
629.559	35027.06
629.914	35011.47
630.269	34933.95
630.623	34983.22
630.978	34930.79
631.332	35148.41
631.687	35222.99
632.041	35041.97
632.396	35136.66
632.75	35115.64
633.104	35196.77
633.459	35100.5
633.813	35221.18
634.167	35133.05
634.521	35183.89
634.875	35272.7
635.229	35344.57
635.583	35115.87
635.937	35245.81
636.291	35084.01
636.645	35102.09
636.999	35243.32
637.352	35293.72
637.706	35167.39
638.06	35329.2
638.413	35124.46
638.767	35306.37
639.121	35281.97
639.474	35071.35
639.828	35172.82
640.181	35299.37
640.534	35145.93
640.888	35163.55
641.241	35085.59
641.594	35180.28
641.947	35284.45
642.301	35189.31
642.654	35155.19
643.007	35156.1
643.36	35213.27
643.713	35113.38
644.066	35292.36
644.419	35028.42
644.771	34806.05
645.124	34423.46
645.477	34431.37
645.83	34263.46
646.182	34166.97
646.535	34118.61
646.888	34202.22
647.24	34021.44
647.593	34287.19
647.945	34090.59
648.298	34069.57
648.65	33878.16
649.002	33932.62
649.355	34117.03
649.707	34053.98
650.059	34187.76
650.411	34589.56
650.763	34601.53
651.115	34947.74
651.467	34887.85
651.819	34712.94
652.171	34730.8
652.523	34705.03
652.875	34696.67
653.227	34650.8
653.578	34738.25
653.93	34652.83
654.282	34463.23
654.633	34454.87
654.985	34634.08
655.337	34601.08
655.688	34566.73
656.039	34698.03
656.391	34380.52
656.742	34505.04
657.094	34503.46
657.445	34679.27
657.796	34525.38
658.147	34517.24
658.498	34196.8
658.849	34612.61
659.2	34440.63
659.551	34462.55
659.902	34560.86
660.253	34439.05
660.604	34589.33
660.955	34291.49
661.306	34497.36
661.656	34422.1
662.007	34410.35
662.358	34328.09
662.708	34304.37
663.059	34438.37
663.409	34156.12
663.76	34467.53
664.11	34503.01
664.461	34411.93
664.811	34332.39
665.161	34385.04
665.511	34337.13
665.862	34468.88
666.212	34425.95
666.562	34347.53
666.912	34412.84
667.262	34358.38
667.612	34265.05
667.962	34354.08
668.312	34339.17
668.662	34493.97
669.011	34380.07
669.361	34276.57
669.711	34327.64
670.06	34232.5
670.41	34221.2
670.76	34219.17
671.109	34322.44
671.459	34195.22
671.808	34092.62
672.157	34233.63
672.507	34078.61
672.856	34110.25
673.205	34161.09
673.554	34310.92
673.904	33969.91
674.253	34223.69
674.602	34046.07
674.951	33622.8
675.3	33442.92
675.649	34050.59
675.998	33922
676.346	33977.6
676.695	34090.59
677.044	33823.02
677.393	33936.69
677.741	33991.15
678.09	33875.45
678.438	33813.31
678.787	33967.88
679.135	33956.35
679.484	33678.62
679.832	33871.38
680.181	33511.84
680.529	33745.96
680.877	33570.37
681.225	33491.96
681.573	33867.77
681.922	33583.48
682.27	33421.45
682.618	33454.9
682.966	33338.97
683.314	33444.05
683.661	33414.22
684.009	33154.79
684.357	33165.87
684.705	33135.36
685.053	33037.06
685.4	33176.49
685.748	33011.07
686.095	32979.88
686.443	32850.39
686.79	32785.99
687.138	32828.02
687.485	32824.18
687.832	32683.17
688.18	32739.89
688.527	32531.53
688.874	32401.82
689.221	32600.91
689.568	32427.13
689.915	32297.41
690.262	32292.22
690.609	32337.19
690.956	32107.14
691.303	31987.82
691.65	32012.9
691.997	31913.47
692.344	31772.23
692.69	31849.29
693.037	31719.58
693.383	31538.11
693.73	31725
694.077	31471.9
694.423	31398.45
694.769	31508.28
695.116	31336.53
695.462	31274.84
695.808	31083.89
696.155	31363.43
696.501	30949.88
696.847	30940.39
697.193	30655.42
697.539	30887.73
697.885	30683.9
698.231	30516.67
698.577	30482.77
698.923	30519.16
699.269	30313.96
699.614	30155.77
699.96	30197.13
700.306	30155.55
700.651	29998.26
700.997	30060.64
701.342	29937.25
701.688	29923.24
702.033	29817.48
702.379	29820.42
702.724	29539.75
703.069	29855.67
703.415	29256.59
703.76	29471.5
704.105	29320.32
704.45	29303.82
704.795	29117.16
705.14	29040.78
705.485	28998.29
705.83	28955.58
706.175	29083.03
706.52	28921.46
706.865	28867.22
707.209	28727.11
707.554	28688.24
707.899	28795.36
708.243	28563.95
708.588	28524.41
708.932	28403.73
709.277	28333.68
709.621	28348.59
709.966	28134.59
710.31	28226.33
710.654	28009.84
710.998	28111.53
711.342	28184.53
711.687	27949.73
712.031	27741.38
712.375	27769.62
712.719	27830.86
713.063	27769.62
713.407	27860.24
713.75	27664.54
714.094	27613.24
714.438	27469.29
714.782	27518.56
715.125	27405.79
715.469	27430.65
715.812	27316.75
716.156	27233.37
716.499	27267.72
716.843	27224.33
717.186	27069.98
717.53	27148.4
717.873	27208.51
718.216	27011.45
718.559	26885.58
718.902	26749.76
719.246	26901.4
719.589	26671.8
719.932	26603.1
720.275	26642.42
720.617	26592.93
720.96	26587.51
721.303	26581.86
721.646	26510
721.989	26454.86
722.331	26543.89
722.674	26359.49
723.016	26389.09
723.359	26281.98
723.701	26228.65
724.044	26235.43
724.386	25961.53
724.729	26162.21
725.071	26052.15
725.413	26058.48
725.755	26136.9
726.097	25895.55
726.439	25800.86
726.782	25778.49
727.124	25922.44
727.465	25755.44
727.807	25730.35
728.149	25636.57
728.491	25531.72
728.833	25707.3
729.175	25540.3
729.516	25463.02
729.858	25415.79
730.199	25549.57
730.541	25482.45
730.882	25414.66
731.224	25487.88
731.565	25207.43
731.906	25303.7
732.248	25346.64
732.589	25147.54
732.93	25141.67
733.271	25109.81
733.612	25180.54
733.953	25147.77
734.294	24978.28
734.635	24878.63
734.976	24971.28
735.317	24819.87
735.658	24820.77
735.999	24975.12
736.339	24819.19
736.68	24735.13
737.021	24774.9
737.361	24702.13
737.702	24705.07
738.042	24689.03
738.383	24595.7
738.723	24632.3
739.063	24571.29
739.404	24503.95
739.744	24497.62
740.084	24334.01
740.424	24467.34
740.764	24382.59
741.104	24462.59
741.444	24314.12
741.784	24238.87
742.124	24281.81
742.464	24296.04
742.804	24194.35
743.143	24149.83
743.483	24218.3
743.823	24014.02
744.162	23983.73
744.502	24103.73
744.841	23883.17
745.181	23967.01
745.52	23913.91
745.86	23928.59
746.199	23912.55
746.538	23885.21
746.877	23961.36
747.216	23889.95
747.556	23722.27
747.895	23711.88
748.234	23690.86
748.573	23618.55
748.911	23517.08
749.25	23522.05
749.589	23365.22
749.928	23362.96
750.267	23501.03
750.605	23397.31
750.944	23412.68
751.283	23323.19
751.621	23347.37
751.96	23183.75
752.298	23177.43
752.636	23079.58
752.975	23141.5
753.313	22992.12
753.651	23118.22
753.989	22922.52
754.327	22862.41
754.666	22828.28
755.004	22820.37
755.342	22721.62
755.679	22725.46
756.017	22514.39
756.355	22736.99
756.693	22569.08
757.031	22479.14
757.368	22470.33
757.706	22448.86
758.044	22261.97
758.381	22478.91
758.719	22246.83
759.056	22208.87
759.394	22202.09
759.731	22047.97
760.068	21990.57
760.405	21983.79
760.743	21921.64
