Data from hue_200_FLMS001491_00027.txt Node
Date: Tue Feb 07 16:43:03 GMT 2017
User: dcchb
Spectrometer: FLMS00149
Trigger mode: 0
Integration Time (sec): 2.000000E-2
Scans to average: 10
Electric dark correction enabled: true
Nonlinearity correction enabled: false
Boxcar width: 0
XAxis mode: Wavelengths
Number of Pixels in Spectrum: 2048
>>>>>Begin Spectral Data<<<<<
341.393	-10.83
341.776	-10.83
342.16	-10.83
342.543	-53.32
342.927	-54.9
343.31	-72.98
343.693	-54.45
344.077	-79.08
344.46	-56.26
344.843	-47.67
345.226	-29.82
345.61	-23.94
345.993	-15.8
346.376	-28.69
346.759	8.83
347.142	11.77
347.525	48.6
347.908	59.67
348.291	73.91
348.674	96.06
349.057	109.84
349.44	124.53
349.823	139.45
350.206	164.3
350.588	196.39
350.971	202.95
351.354	220.8
351.737	245.43
352.119	263.28
352.502	261.48
352.884	267.58
353.267	273
353.65	297.86
354.032	303.51
354.414	326.56
354.797	343.73
355.179	308.93
355.562	315.94
355.944	322.72
356.326	339.21
356.709	349.16
357.091	338.08
357.473	323.62
357.855	335.37
358.238	340.8
358.62	321.14
359.002	332.21
359.384	344.64
359.766	327.69
360.148	340.57
360.53	331.53
360.912	315.03
361.294	334.02
361.676	324.75
362.057	332.43
362.439	341.02
362.821	346.45
363.203	316.62
363.584	323.17
363.966	333.79
364.348	328.82
364.729	321.36
365.111	305.77
365.493	325.43
365.874	319.33
366.256	346.45
366.637	327.24
367.019	317.52
367.4	321.36
367.781	329.27
368.163	318.88
368.544	291.31
368.925	319.55
369.306	308.25
369.688	325.66
370.069	305.54
370.45	330.63
370.831	309.84
371.212	324.53
371.593	308.25
371.974	332.43
372.355	324.07
372.736	322.72
373.117	325.43
373.498	342.15
373.879	323.4
374.26	313.45
374.641	327.69
375.021	316.39
375.402	331.76
375.783	310.29
376.163	328.37
376.544	329.95
376.925	332.89
377.305	328.82
377.686	319.78
378.066	310.51
378.447	312.77
378.827	342.38
379.208	298.76
379.588	324.98
379.968	317.97
380.349	331.3
380.729	345.77
381.109	327.24
381.489	345.99
381.87	344.41
382.25	340.57
382.63	347.8
383.01	348.93
383.39	334.69
383.77	331.98
384.15	349.61
384.53	331.53
384.91	350.29
385.29	354.81
385.67	352.55
386.049	353.68
386.429	370.85
386.809	352.32
387.189	358.87
387.568	343.06
387.948	351.64
388.328	359.33
388.707	354.81
389.087	348.93
389.466	369.5
389.846	365.43
390.225	349.84
390.605	366.33
390.984	384.64
391.363	386.44
391.743	373.79
392.122	365.65
392.501	378.08
392.881	381.02
393.26	378.08
393.639	361.36
394.018	373.56
394.397	387.57
394.776	371.3
395.155	388.03
395.534	388.03
395.913	407.91
396.292	397.52
396.671	400.91
397.05	398.2
397.429	392.32
397.808	401.13
398.186	391.19
398.565	379.67
398.944	420.34
399.323	405.65
399.701	400.91
400.08	399.33
400.458	403.62
400.837	430.51
401.215	405.88
401.594	413.79
401.972	413.11
402.351	444.52
402.729	451.08
403.107	441.13
403.486	435.71
403.864	428.93
404.242	453.79
404.62	460.57
404.999	440.91
405.377	469.83
405.755	466.67
406.133	457.18
406.511	452.21
406.889	486.78
407.267	480.23
407.645	490.4
408.023	521.58
408.401	498.31
408.779	500.57
409.156	521.36
409.534	524.07
409.912	524.97
410.29	536.72
410.667	535.37
411.045	548.93
411.422	570.85
411.8	543.5
412.178	578.98
412.555	573.11
412.933	587.12
413.31	583.28
413.687	607.68
414.065	617.17
414.442	616.04
414.819	626.89
415.197	662.82
415.574	649.04
415.951	657.4
416.328	673.44
416.705	687
417.082	672.31
417.46	691.3
417.837	723.16
418.214	726.32
418.591	705.53
418.967	748.47
419.344	739.43
419.721	758.19
420.098	777.39
420.475	772.65
420.852	798.64
421.228	790.28
421.605	801.12
421.982	796.6
422.358	838.64
422.735	863.04
423.111	871.63
423.488	867.79
423.864	898.07
424.241	905.53
424.617	934.9
424.994	945.98
425.37	958.63
425.746	969.71
426.123	989.82
426.499	973.32
426.875	1037.95
427.251	1039.53
427.627	1068.01
428.003	1050.16
428.379	1072.53
428.756	1083.15
429.132	1098.52
429.507	1131.51
429.883	1123.15
430.259	1138.74
430.635	1140.32
431.011	1164.28
431.387	1186.88
431.763	1215.12
432.138	1206.08
432.514	1236.14
432.89	1255.8
433.265	1281.79
433.641	1329.92
434.016	1326.08
434.392	1338.28
434.767	1382.35
435.143	1399.75
435.518	1462.12
435.894	1442.01
436.269	1477.49
436.644	1496.92
437.02	1537.37
437.395	1524.04
437.77	1560.88
438.145	1629.58
438.52	1624.38
438.895	1630.03
439.271	1666.86
439.646	1724.04
440.021	1758.84
440.395	1782.34
440.77	1762.23
441.145	1778.05
441.52	1850.59
441.895	1831.6
442.27	1870.47
442.645	1911.38
443.019	1921.77
443.394	1894.65
443.769	1978.27
444.143	1959.74
444.518	1965.16
444.892	2023.01
445.267	2040.19
445.641	2033.41
446.016	2120.41
446.39	2084.48
446.764	2125.61
447.139	2084.48
447.513	2152.05
447.887	2145.72
448.262	2119.73
448.636	2176
449.01	2238.37
449.384	2226.62
449.758	2268.43
450.132	2297.13
450.506	2290.8
450.88	2275.89
451.254	2341.42
451.628	2346.39
452.002	2387.3
452.376	2356.11
452.75	2418.03
453.123	2414.41
453.497	2462.77
453.871	2523.79
454.244	2568.76
454.618	2537.8
454.992	2607.86
455.365	2601.75
455.739	2675.88
456.112	2685.37
456.486	2707.29
456.859	2723.56
457.232	2787.29
457.606	2765.82
457.979	2819.6
458.352	2877.23
458.725	2898.92
459.099	2909.09
459.472	2955.42
459.845	2993.83
460.218	3030.67
460.591	3028.41
460.964	3073.15
461.337	3125.81
461.71	3138.91
462.083	3204
462.456	3204.22
462.829	3235.64
463.201	3283.09
463.574	3282.64
463.947	3359.7
464.32	3419.36
464.692	3465.01
465.065	3509.75
465.438	3573.03
465.81	3584.78
466.183	3626.81
466.555	3672.69
466.928	3725.79
467.3	3723.31
467.672	3723.31
468.045	3819.12
468.417	3832.68
468.789	3909.74
469.161	3955.39
469.534	4009.63
469.906	4104.09
470.278	4065.67
470.65	4116.29
471.022	4233.58
471.394	4285.55
471.766	4376.62
472.138	4357.19
472.51	4461.59
472.882	4508.6
473.253	4543.62
473.625	4625.43
473.997	4665.65
474.369	4716.73
474.74	4780.68
475.112	4864.07
475.484	4952.43
475.855	5019.09
476.227	5030.62
476.598	5175.92
476.97	5205.53
477.341	5332.08
477.713	5350.61
478.084	5385.18
478.455	5525.74
478.827	5590.38
479.198	5764.16
479.569	5694.1
479.94	5866.53
480.311	5861.78
480.682	6033.08
481.053	6162.11
481.424	6248.66
481.795	6230.13
482.166	6354.88
482.537	6420.18
482.908	6578.6
483.279	6631.25
483.65	6687.52
484.021	6857.46
484.391	6931.13
484.762	6955.54
485.133	6991.69
485.503	7117.57
485.874	7219.49
486.244	7307.62
486.615	7388.07
486.985	7453.15
487.356	7664.67
487.726	7692.24
488.097	7798.23
488.467	7836.64
488.837	8013.81
489.207	8080.25
489.578	8075.73
489.948	8235.73
490.318	8273.47
490.688	8374.26
491.058	8411.54
491.428	8502.16
491.798	8594.36
492.168	8733.8
492.538	8753
492.908	8793
493.278	8917.75
493.648	8926.56
494.017	9047.01
494.387	9038.87
494.757	9109.15
495.126	9239.09
495.496	9209.72
495.866	9301.92
496.235	9371.29
496.605	9398.86
496.974	9380.33
497.344	9543.27
497.713	9521.57
498.082	9576.71
498.452	9695.8
498.821	9706.2
499.19	9673.88
499.559	9731.28
499.928	9782.36
500.298	9784.62
500.667	9967.66
501.036	9857.61
501.405	9936.02
501.774	9900.32
502.143	10030.03
502.512	10014.67
502.88	10078.85
503.249	10013.76
503.618	10161.55
503.987	10215.56
504.356	10183.48
504.724	10197.49
505.093	10224.15
505.462	10281.55
505.83	10263.93
506.199	10275.68
506.567	10460.53
506.936	10455.11
507.304	10452.62
507.672	10462.79
508.041	10517.93
508.409	10496.91
508.777	10613.52
509.145	10566.29
509.514	10601.32
509.882	10671.37
510.25	10602
510.618	10605.38
510.986	10611.71
511.354	10678.15
511.722	10732.84
512.09	10753.86
512.458	10714.53
512.826	10785.04
513.193	10763.57
513.561	10754.99
513.929	10808.77
514.297	10897.35
514.664	10908.2
515.032	10936.22
515.4	10915.21
515.767	10900.52
516.135	10950.69
516.502	10822.78
516.869	10970.8
517.237	10953.85
517.604	10985.94
517.972	11026.62
518.339	11020.29
518.706	10952.95
519.073	10966.51
519.44	10984.36
519.808	11046.05
520.175	11049.44
520.542	11014.64
520.909	11129.89
521.276	10995.66
521.643	11057.58
522.009	11085.15
522.376	11114.3
522.743	11112.49
523.11	11156.78
523.477	11198.14
523.843	11173.51
524.21	11234.97
524.577	11263.67
524.943	11181.42
525.31	11225.03
525.676	11213.73
526.043	11200.85
526.409	11244.01
526.776	11256.67
527.142	11310.9
527.508	11192.71
527.874	11281.98
528.241	11226.61
528.607	11209.66
528.973	11251.47
529.339	11154.07
529.705	11210.57
530.071	11249.89
530.437	11159.27
530.803	11260.51
531.169	11243.79
531.535	11168.76
531.901	11101.19
532.267	11085.37
532.632	11039.27
532.998	11092.38
533.364	11073.17
533.73	11011.48
534.095	11022.1
534.461	10909.11
534.826	10913.17
535.192	10956.34
535.557	10959.5
535.923	10854.42
536.288	10838.37
536.653	10852.38
537.019	10731.71
537.384	10756.57
537.749	10730.58
538.114	10691.48
538.479	10624.59
538.845	10583.46
539.21	10558.15
539.575	10513.64
539.94	10491.72
540.305	10404.03
540.67	10348.89
541.034	10305.96
541.399	10321.55
541.764	10384.15
542.129	10220.99
542.494	10182.35
542.858	10162.68
543.223	10103.03
543.587	10153.65
543.952	10033.2
544.316	9991.62
544.681	9928.79
545.045	9966.98
545.41	9956.81
545.774	9919.53
546.138	9823.94
546.503	9771.51
546.867	9802.92
547.231	9736.71
547.595	9676.37
547.959	9609.7
548.324	9625.52
548.688	9580.55
549.052	9532.42
549.416	9482.93
549.779	9419.43
550.143	9400.9
550.507	9433.89
550.871	9372.42
551.235	9369.26
551.599	9284.52
551.962	9256.04
552.326	9207.68
552.689	9249.71
553.053	9082.94
553.417	9076.84
553.78	9165.65
554.143	9129.04
554.507	9032.09
554.87	9043.84
555.234	9016.27
555.597	8918.42
555.96	8940.57
556.323	8950.29
556.686	8898.76
557.05	8946.22
557.413	8872.32
557.776	8807.24
558.139	8853.11
558.502	8844.3
558.865	8804.75
559.228	8815.6
559.59	8780.12
559.953	8767.02
560.316	8892.66
560.679	8791.65
561.041	8747.81
561.404	8807.24
561.767	8781.7
562.129	8678.2
562.492	8774.92
562.854	8745.77
563.217	8689.28
563.579	8733.12
563.941	8766.56
564.304	8697.19
564.666	8725.43
565.028	8636.85
565.39	8682.5
565.753	8692.44
566.115	8724.3
566.477	8680.46
566.839	8686.57
567.201	8756.85
567.563	8741.48
567.925	8700.58
568.287	8736.73
568.648	8721.37
569.01	8729.95
569.372	8753.68
569.734	8732.89
570.095	8800.69
570.457	8707.36
570.819	8707.36
571.18	8710.97
571.542	8776.51
571.903	8780.8
572.265	8767.02
572.626	8783.51
572.987	8755.04
573.349	8723.63
573.71	8758.65
574.071	8737.19
574.432	8738.99
574.794	8783.51
575.155	8799.33
575.516	8768.6
575.877	8782.16
576.238	8721.37
576.599	8796.39
576.96	8830.52
577.32	8791.87
577.681	8812.66
578.042	8847.92
578.403	8817.18
578.763	8760.69
579.124	8810.86
579.485	8823.74
579.845	8861.02
580.206	8760.46
580.566	8762.04
580.927	8821.93
581.287	8845.88
581.648	8797.52
582.008	8812.21
582.368	8758.2
582.728	8844.98
583.089	8790.97
583.449	8769.73
583.809	8791.2
584.169	8781.48
584.529	8762.04
584.889	8829.16
585.249	8807.47
585.609	8766.34
585.969	8769.28
586.329	8775.83
586.688	8726.11
587.048	8805.21
587.408	8730.41
587.768	8773.57
588.127	8715.49
588.487	8775.15
588.846	8780.12
589.206	8747.81
589.565	8647.7
589.925	8714.59
590.284	8760.01
590.643	8727.47
591.003	8680.92
591.362	8768.82
591.721	8673.23
592.08	8680.46
592.44	8754.13
592.799	8768.15
593.158	8700.12
593.517	8740.8
593.876	8702.84
594.235	8623.52
594.593	8612.67
594.952	8629.17
595.311	8653.57
595.67	8708.03
596.029	8713.23
596.387	8708.03
596.746	8727.69
597.104	8641.37
597.463	8652.44
597.822	8658.32
598.18	8588.71
598.538	8656.28
598.897	8712.78
599.255	8664.87
599.613	8722.5
599.972	8608.15
600.33	8640.01
600.688	8622.61
601.046	8654.93
601.404	8697.41
601.762	8657.64
602.12	8687.92
602.478	8676.62
602.836	8692.21
603.194	8677.07
603.552	8634.36
603.91	8583.74
604.268	8691.54
604.625	8645.44
604.983	8609.96
605.341	8609.05
605.698	8638.21
606.056	8659.45
606.413	8597.08
606.771	8703.29
607.128	8648.15
607.485	8632.33
607.843	8648.6
608.2	8655.61
608.557	8698.54
608.914	8678.43
609.272	8706.23
609.629	8728.6
609.986	8726.56
610.343	8707.58
610.7	8748.94
611.057	8678.66
611.414	8687.02
611.771	8703.51
612.127	8702.16
612.484	8664.87
612.841	8777.18
613.198	8718.2
613.554	8778.54
613.911	8734.47
614.267	8792.78
614.624	8661.48
614.98	8739.22
615.337	8816.05
615.693	8805.21
616.05	8741.71
616.406	8769.73
616.762	8802.95
617.118	8755.49
617.475	8727.69
617.831	8845.21
618.187	8795.72
618.543	8806.56
618.899	8866.67
619.255	8813.12
619.611	8797.3
619.967	8858.99
620.323	8774.92
620.678	8781.25
621.034	8779.22
621.39	8783.29
621.746	8834.36
622.101	8885.2
622.457	8872.1
622.812	8758.88
623.168	8896.73
623.523	8815.6
623.879	8934.24
624.234	8827.58
624.589	8872.1
624.945	8828.93
625.3	8800.23
625.655	8901.7
626.01	8821.48
626.365	8855.15
626.72	8831.65
627.075	8793.23
627.43	8813.57
627.785	8803.4
628.14	8823.51
628.495	8828.03
628.85	8784.64
629.205	8772.89
629.559	8840.69
629.914	8747.13
630.269	8761.14
630.623	8777.18
630.978	8827.58
631.332	8739.67
631.687	8751.42
632.041	8734.7
632.396	8741.48
632.75	8698.99
633.104	8776.51
633.459	8706
633.813	8662.16
634.167	8665.32
634.521	8687.7
634.875	8645.44
635.229	8622.16
635.583	8654.48
635.937	8625.78
636.291	8573.8
636.645	8579.9
636.999	8551.65
637.352	8572.44
637.706	8546.68
638.06	8584.2
638.413	8526.12
638.767	8557.08
639.121	8509.85
639.474	8461.26
639.828	8532.45
640.181	8478.44
640.534	8524.54
640.888	8448.38
641.241	8439.79
641.594	8451.54
641.947	8533.12
642.301	8437.08
642.654	8489.73
643.007	8492.67
643.36	8455.61
643.713	8447.02
644.066	8464.42
644.419	8423.3
644.771	8327.48
645.124	8246.12
645.477	8189.86
645.83	8156.18
646.182	8187.14
646.535	8205
646.888	8202.06
647.24	8139.24
647.593	8203.87
647.945	8128.84
648.298	8110.54
648.65	8153.47
649.002	8013.14
649.355	8151.89
649.707	8175.39
650.059	8166.58
650.411	8190.31
650.763	8320.02
651.115	8358.66
651.467	8344.88
651.819	8317.76
652.171	8382.39
652.523	8306.46
652.875	8286.8
653.227	8326.35
653.578	8332
653.93	8325.44
654.282	8311.89
654.633	8285.22
654.985	8289.97
655.337	8279.8
655.688	8300.36
656.039	8356.63
656.391	8298.33
656.742	8300.36
657.094	8304.65
657.445	8328.61
657.796	8331.32
658.147	8282.28
658.498	8250.64
658.849	8333.81
659.2	8301.26
659.551	8323.41
659.902	8348.5
660.253	8297.65
660.604	8294.26
660.955	8253.81
661.306	8337.2
661.656	8380.13
662.007	8336.97
662.358	8418.55
662.708	8368.38
663.059	8397.99
663.409	8332.68
663.76	8372.9
664.11	8366.35
664.461	8386.69
664.811	8362.73
665.161	8346.46
665.511	8364.77
665.862	8440.24
666.212	8345.33
666.562	8334.94
666.912	8384.88
667.262	8335.61
667.612	8372
667.962	8400.25
668.312	8383.3
668.662	8394.6
669.011	8401.83
669.361	8366.35
669.711	8353.24
670.06	8322.96
670.41	8366.8
670.76	8319.8
671.109	8317.99
671.459	8360.02
671.808	8312.56
672.157	8345.78
672.507	8306.91
672.856	8320.7
673.205	8324.09
673.554	8322.28
673.904	8285.22
674.253	8316.18
674.602	8280.25
674.951	8163.19
675.3	8104.66
675.649	8222.17
675.998	8264.88
676.346	8193.25
676.695	8241.83
677.044	8158.67
677.393	8196.18
677.741	8244.09
678.09	8190.99
678.438	8145.79
678.787	8138.11
679.135	8153.92
679.484	8107.37
679.832	8121.61
680.181	8111.21
680.529	8117.77
680.877	8115.05
681.225	8073.93
681.573	8107.6
681.922	8062.85
682.27	8038.22
682.618	8005.23
682.966	8009.3
683.314	8034.38
683.661	7979.47
684.009	7992.57
684.357	7900.15
684.705	7922.52
685.053	7922.74
685.4	7948.28
685.748	7870.32
686.095	7892.01
686.443	7835.97
686.79	7808.17
687.138	7860.15
687.485	7779.02
687.832	7839.58
688.18	7757.55
688.527	7730.66
688.874	7749.64
689.221	7702.18
689.568	7671
689.915	7656.76
690.262	7628.06
690.609	7645.24
690.956	7534.51
691.303	7523.43
691.65	7525.24
691.997	7519.36
692.344	7401.4
692.69	7405.24
693.037	7468.97
693.383	7363.66
693.73	7392.36
694.077	7343.32
694.423	7327.96
694.769	7313.04
695.116	7291.12
695.462	7291.8
695.808	7241.41
696.155	7210.67
696.501	7231.91
696.847	7214.51
697.193	7111.69
697.539	7139.49
697.885	7101.75
698.231	7099.04
698.577	7044.57
698.923	7075.76
699.269	7004.8
699.614	6993.05
699.96	6931.81
700.306	6945.14
700.651	6883.67
700.997	6900.4
701.342	6838.48
701.688	6820.63
702.033	6861.3
702.379	6804.58
702.724	6766.16
703.069	6791.25
703.415	6633.74
703.76	6700.85
704.105	6691.14
704.45	6664.92
704.795	6618.6
705.14	6608.43
705.485	6640.52
705.83	6632.61
706.175	6581.08
706.52	6596.68
706.865	6565.49
707.209	6510.13
707.554	6457.92
707.899	6512.39
708.243	6439.17
708.588	6433.07
708.932	6320.75
709.277	6325.05
709.621	6372.05
709.966	6318.94
710.31	6367.08
710.654	6276.91
710.998	6341.99
711.342	6306.06
711.687	6288.89
712.031	6224.94
712.375	6232.62
712.719	6229.91
713.063	6235.78
713.407	6245.73
713.75	6198.5
714.094	6132.28
714.438	6176.35
714.782	6144.49
715.125	6171.6
715.469	6125.73
715.812	6161.66
716.156	6067.2
716.499	6080.31
716.843	6171.83
717.186	6101.1
717.53	6049.57
717.873	6116.92
718.216	6074.66
718.559	6017.03
718.902	6052.74
719.246	6058.39
719.589	6009.35
719.932	5987.88
720.275	6036.69
720.617	5987.65
720.96	5992.17
721.303	6010.93
721.646	6041.89
721.989	5935.9
722.331	5985.17
722.674	5942
723.016	5971.38
723.359	5994.43
723.701	5947.43
724.044	5916.92
724.386	5901.1
724.729	5914.89
725.071	5931.61
725.413	5906.07
725.755	5940.42
726.097	5900.88
726.439	5863.81
726.782	5889.58
727.124	5908.11
727.465	5874.89
727.807	5863.81
728.149	5901.78
728.491	5811.16
728.833	5894.55
729.175	5802.8
729.516	5863.14
729.858	5787.43
730.199	5832.63
730.541	5843.7
730.882	5895.68
731.224	5831.27
731.565	5825.17
731.906	5889.8
732.248	5839.86
732.589	5836.47
732.93	5856.58
733.271	5864.49
733.612	5842.12
733.953	5841.89
734.294	5838.28
734.635	5846.64
734.976	5835.57
735.317	5831.73
735.658	5857.49
735.999	5867.88
736.339	5836.7
736.68	5930.25
737.021	5876.02
737.361	5897.71
737.702	5880.54
738.042	5863.36
738.383	5916.02
738.723	5866.98
739.063	5876.92
739.404	5896.36
739.744	5890.48
740.084	5918.5
740.424	5944.49
740.764	5968.44
741.104	5994.21
741.444	5915.11
741.784	5964.15
742.124	5995.79
742.464	6036.47
742.804	6063.36
743.143	6065.39
743.483	6045.28
743.823	6052.28
744.162	6121.44
744.502	6140.87
744.841	6140.42
745.181	6183.35
745.52	6212.28
745.86	6225.16
746.199	6219.51
746.538	6294.54
746.877	6381.09
747.216	6386.29
747.556	6401.65
747.895	6447.53
748.234	6521.2
748.573	6532.95
748.911	6538.6
749.25	6582.21
749.589	6650.91
749.928	6730.91
750.267	6819.04
750.605	6847.74
750.944	6919.83
751.283	6971.36
751.621	7110.79
751.96	7073.95
752.298	7184.01
752.636	7332.25
752.975	7339.93
753.313	7520.95
753.651	7641.85
753.989	7742.18
754.327	7778.34
754.666	7866.93
755.004	7972.69
755.342	8144.43
755.679	8245.9
756.017	8300.59
756.355	8490.41
756.693	8604.53
757.031	8820.57
757.368	8905.32
757.706	9012.21
758.044	9186.89
758.381	9327.68
758.719	9527.9
759.056	9668.46
759.394	9772.86
759.731	9941.67
760.068	10127.66
760.405	10248.11
760.743	10379.18
761.08	10582.33
761.417	10684.93
761.754	10912.04
762.091	11124.24
762.428	11269.32
762.765	11491.69
763.102	11613.49
763.438	11782.53
763.775	11932.58
764.112	12107.94
764.449	12348.39
764.785	12484.66
765.122	12604.43
765.458	12825.67
765.795	12949.96
766.131	13191.53
766.467	13303.39
766.804	13409.83
