Data from hue_30_FLMS001491_11.txt Node
Date: Mon Feb 06 15:04:48 GMT 2017
User: dcchb
Spectrometer: FLMS00149
Trigger mode: 0
Integration Time (sec): 2.000000E-2
Scans to average: 10
Electric dark correction enabled: true
Nonlinearity correction enabled: false
Boxcar width: 0
XAxis mode: Wavelengths
Number of Pixels in Spectrum: 2048
>>>>>Begin Spectral Data<<<<<
341.393	-13.86
341.776	-13.86
342.16	-13.86
342.543	-61.54
342.927	-52.05
343.31	-51.37
343.693	-62.89
344.077	-60.63
344.46	-64.25
344.843	-45.27
345.226	-54.98
345.61	-28.77
345.993	-8.21
346.376	-14.31
346.759	-9.79
347.142	41.28
347.525	30.89
347.908	68.18
348.291	80.38
348.674	73.37
349.057	106.37
349.44	120.38
349.823	150.66
350.206	162.64
350.588	209.42
350.971	212.13
351.354	241.28
351.737	256.87
352.119	247.15
352.502	259.81
352.884	290.32
353.267	280.15
353.65	307.49
354.032	305.68
354.414	286.02
354.797	324.44
355.179	323.99
355.562	340.49
355.944	318.11
356.326	332.35
356.709	348.62
357.091	345.23
357.473	346.81
357.855	342.75
358.238	321.28
358.62	333.71
359.002	342.97
359.384	334.84
359.766	317.66
360.148	315.4
360.53	346.81
360.912	338.45
361.294	335.29
361.676	312.69
362.057	347.26
362.439	333.03
362.821	298.23
363.203	331.45
363.584	333.25
363.966	333.25
364.348	300.49
364.729	320.15
365.111	324.89
365.493	315.85
365.874	337.55
366.256	324.44
366.637	342.52
367.019	313.14
367.4	330.99
367.781	328.06
368.163	298.45
368.544	319.92
368.925	300.71
369.306	323.99
369.688	307.27
370.069	321.5
370.45	309.3
370.831	312.24
371.212	319.47
371.593	295.97
371.974	305.23
372.355	309.3
372.736	326.93
373.117	321.28
373.498	321.5
373.879	310.43
374.26	332.8
374.641	306.81
375.021	315.85
375.402	333.48
375.783	320.15
376.163	323.54
376.544	325.57
376.925	330.99
377.305	330.99
377.686	331.45
378.066	341.16
378.447	320.37
378.827	330.09
379.208	343.42
379.588	343.65
379.968	330.09
380.349	326.47
380.729	319.69
381.109	328.73
381.489	342.29
381.87	348.85
382.25	324.21
382.63	328.28
383.01	347.26
383.39	345.23
383.77	343.65
384.15	347.26
384.53	327.6
384.91	342.29
385.29	344.33
385.67	364.44
386.049	343.88
386.429	342.75
386.809	336.87
387.189	354.72
387.568	352.46
387.948	335.51
388.328	367.83
388.707	355.4
389.087	363.31
389.466	356.08
389.846	347.49
390.225	362.18
390.605	367.83
390.984	361.95
391.363	381.16
391.743	355.4
392.122	381.84
392.501	366.93
392.881	369.64
393.26	367.38
393.639	358.11
394.018	349.07
394.397	378.45
394.776	374.83
395.155	356.08
395.534	415.29
395.913	374.38
396.292	373.25
396.671	370.09
397.05	390.2
397.429	366.7
397.808	397.21
398.186	368.96
398.565	392.46
398.944	383.2
399.323	394.95
399.701	389.52
400.08	400.14
400.458	388.17
400.837	380.71
401.215	401.5
401.594	391.78
401.972	401.05
402.351	394.27
402.729	396.98
403.107	403.53
403.486	421.84
403.864	439.47
404.242	382.29
404.62	427.49
404.999	424.78
405.377	409.41
405.755	404.21
406.133	404.89
406.511	418
406.889	408.51
407.267	418
407.645	434.04
408.023	414.16
408.401	436.75
408.779	431.1
409.156	434.49
409.534	445.12
409.912	427.49
410.29	450.54
410.667	442.4
411.045	453.93
411.422	428.62
411.8	442.4
412.178	446.47
412.555	456.87
412.933	448.51
413.31	475.17
413.687	483.08
414.065	489.18
414.442	498.9
414.819	460.93
415.197	469.75
415.574	470.43
415.951	480.59
416.328	464.78
416.705	485.11
417.082	499.58
417.46	503.42
417.837	498.22
418.214	498
418.591	503.64
418.967	497.09
419.344	509.97
419.721	518.11
420.098	508.39
420.475	514.49
420.852	494.61
421.228	513.14
421.605	521.27
421.982	519.24
422.358	532.34
422.735	537.54
423.111	541.38
423.488	563.08
423.864	535.51
424.241	552.46
424.617	546.81
424.994	533.02
425.37	556.3
425.746	533.93
426.123	546.81
426.499	554.72
426.875	548.84
427.251	570.99
427.627	552.01
428.003	560.37
428.379	563.98
428.756	585.68
429.132	590.65
429.507	598.56
429.883	611.89
430.259	589.52
430.635	599.91
431.011	617.31
431.387	644.43
431.763	613.25
432.138	645.11
432.514	641.49
432.89	614.15
433.265	660.93
433.641	626.58
434.016	660.93
434.392	636.97
434.767	683.98
435.143	671.55
435.518	661.83
435.894	665.67
436.269	695.28
436.644	687.59
437.02	677.2
437.395	693.24
437.77	689.4
438.145	701.38
438.52	713.81
438.895	717.65
439.271	727.59
439.646	744.99
440.021	730.53
440.395	709.74
440.77	718.33
441.145	742.06
441.52	747.03
441.895	765.11
442.27	765.78
442.645	777.76
443.019	749.74
443.394	781.6
443.769	763.3
444.143	764.43
444.518	772.11
444.892	774.6
445.267	781.6
445.641	791.1
446.016	788.16
446.39	797.87
446.764	814.6
447.139	788.84
447.513	787.25
447.887	787.71
448.262	807.37
448.636	815.5
449.01	839.23
449.384	810.53
449.758	838.1
450.132	840.36
450.506	835.39
450.88	848.27
451.254	859.57
451.628	848.72
452.002	872.67
452.376	872.45
452.75	896.18
453.123	878.1
453.497	892.11
453.871	897.98
454.244	926.46
454.618	913.35
454.992	942.73
455.365	923.97
455.739	958.32
456.112	967.36
456.486	975.27
456.859	979.56
457.232	989.73
457.606	971.66
457.979	1002.84
458.352	1034.7
458.725	1022.28
459.099	1021.15
459.472	1028.38
459.845	1055.04
460.218	1085.1
460.591	1054.59
460.964	1052.56
461.337	1090.52
461.71	1075.83
462.083	1102.27
462.456	1129.39
462.829	1130.75
463.201	1139.79
463.574	1156.74
463.947	1166.23
464.32	1174.36
464.692	1207.36
465.065	1194.47
465.438	1213.68
465.81	1246.9
466.183	1266.11
466.555	1274.7
466.928	1282.16
467.3	1283.74
467.672	1307.01
468.045	1314.47
468.417	1342.94
468.789	1357.18
469.161	1350.18
469.534	1390.63
469.906	1428.14
470.278	1438.99
470.65	1458.87
471.022	1478.08
471.394	1511.75
471.766	1482.6
472.138	1537.29
472.51	1589.72
472.882	1597.18
473.253	1630.39
473.625	1643.28
473.997	1671.98
474.369	1681.92
474.74	1670.85
475.112	1710.17
475.484	1774.35
475.855	1795.81
476.227	1825.64
476.598	1878.75
476.97	1909.03
477.341	1924.85
477.713	1954
478.084	1998.97
478.455	2038.07
478.827	2074
479.198	2099.08
479.569	2157.61
479.94	2224.28
480.311	2242.13
480.682	2299.76
481.053	2371.62
481.424	2428.34
481.795	2445.29
482.166	2518.06
482.537	2535.46
482.908	2626.75
483.279	2575.91
483.65	2699.29
484.021	2740.42
484.391	2821.78
484.762	2820.65
485.133	2858.84
485.503	2930.25
485.874	2960.08
486.244	3043.01
486.615	3101.99
486.985	3141.32
487.356	3227.64
487.726	3297.24
488.097	3340.63
488.467	3342.44
488.837	3424.25
489.207	3466.96
489.578	3568.2
489.948	3600.29
490.318	3673.51
490.688	3668.53
491.058	3789.89
491.428	3812.71
491.798	3914.63
492.168	3984.68
492.538	3980.39
492.908	4040.28
493.278	4138.13
493.648	4136.32
494.017	4251.34
494.387	4273.94
494.757	4297.22
495.126	4369.98
495.496	4442.98
495.866	4489.75
496.235	4500.6
496.605	4566.59
496.974	4577.44
497.344	4647.26
497.713	4678
498.082	4720.48
498.452	4777.2
498.821	4816.07
499.19	4902.63
499.559	4943.98
499.928	4943.3
500.298	4984.66
500.667	5023.98
501.036	5045.22
501.405	5106.91
501.774	5168.16
502.143	5193.47
502.512	5160.25
502.88	5235.05
503.249	5345.55
503.618	5361.14
503.987	5317.76
504.356	5431.2
504.724	5440.46
505.093	5470.52
505.462	5506.9
505.83	5517.75
506.199	5557.52
506.567	5642.49
506.936	5636.17
507.304	5752.09
507.672	5743.51
508.041	5733.34
508.409	5829.15
508.777	5846.1
509.145	5885.65
509.514	5898.76
509.882	5870.51
510.25	5967.23
510.618	6006.1
510.986	6036.83
511.354	6091.29
511.722	6107.57
512.09	6183.27
512.458	6169.94
512.826	6198.86
513.193	6235.7
513.561	6282.48
513.929	6312.53
514.297	6326.32
514.664	6397.05
515.032	6380.33
515.4	6410.83
515.767	6431.62
516.135	6475.69
516.502	6444.28
516.869	6551.62
517.237	6616.25
517.604	6537.61
517.972	6611.28
518.339	6668.91
518.706	6651.28
519.073	6713.43
519.44	6718.17
519.808	6798.17
520.175	6757.27
520.542	6822.35
520.909	6915.45
521.276	6918.62
521.643	6943.48
522.009	6947.77
522.376	6999.75
522.743	7051.27
523.11	7116.58
523.477	7198.38
523.843	7190.47
524.21	7235.45
524.577	7288.33
524.943	7345.95
525.31	7331.26
525.676	7399.73
526.043	7416.68
526.409	7456.68
526.776	7502.33
527.142	7579.39
527.508	7582.1
527.874	7643.57
528.241	7646.73
528.607	7683.57
528.973	7817.35
529.339	7739.39
529.705	7827.52
530.071	7995.88
530.437	7987.29
530.803	7956.56
531.169	7952.94
531.535	7986.39
531.901	8066.61
532.267	8095.54
532.632	8200.84
532.998	8156.1
533.364	8200.39
533.73	8262.99
534.095	8270.67
534.461	8312.71
534.826	8369.88
535.192	8374.85
535.557	8436.09
535.923	8468.18
536.288	8556.09
536.653	8480.84
537.019	8498.46
537.384	8552.02
537.749	8558.12
538.114	8687.61
538.479	8670.66
538.845	8697.33
539.21	8677.67
539.575	8721.06
539.94	8838.34
540.305	8814.39
540.67	8888.96
541.034	8929.41
541.399	8956.53
541.764	9030.43
542.129	9022.29
542.494	9009.18
542.858	9064.78
543.223	9128.95
543.587	9179.8
543.952	9173.25
544.316	9197.43
544.681	9214.6
545.045	9291.44
545.41	9296.86
545.774	9356.07
546.138	9391.55
546.503	9453.92
546.867	9469.06
547.231	9479
547.595	9555.16
547.959	9568.94
548.324	9555.61
548.688	9615.72
549.052	9694.82
549.416	9679.45
549.779	9718.09
550.143	9781.59
550.507	9845.32
550.871	9815.26
551.235	9769.16
551.599	9861.14
551.962	9891.19
552.326	9862.49
552.689	9984.3
553.053	10001.25
553.417	10028.14
553.78	10073.34
554.143	10011.64
554.507	10107.01
554.87	10185.42
555.234	10257.51
555.597	10184.52
555.96	10237.85
556.323	10247.57
556.686	10276.72
557.05	10398.53
557.413	10366.21
557.776	10404.85
558.139	10406.44
558.502	10482.82
558.865	10551.06
559.228	10527.79
559.59	10572.76
559.953	10634.23
560.316	10746.54
560.679	10724.39
561.041	10799.87
561.404	10777.27
561.767	10854.79
562.129	10872.86
562.492	10982.47
562.854	10910.83
563.217	10966.42
563.579	11027.66
563.941	11078.06
564.304	11104.27
564.666	11086.19
565.028	11198.5
565.39	11223.82
565.753	11293.42
566.115	11250.93
566.477	11300.42
566.839	11312.4
567.201	11395.11
567.563	11335.68
567.925	11482.11
568.287	11524.6
568.648	11527.99
569.01	11635.1
569.372	11637.14
569.734	11629.68
570.095	11729.11
570.457	11776.79
570.819	11888.88
571.18	11842.78
571.542	11938.6
571.903	12024.92
572.265	12068.76
572.626	12101.53
572.987	12143.56
573.349	12183.34
573.71	12259.27
574.071	12327.74
574.432	12419.26
574.794	12476.89
575.155	12509.88
575.516	12568.64
575.877	12760.95
576.238	12766.83
576.599	12850.44
576.96	12995.52
577.32	12946.93
577.681	13128.62
578.042	13239.36
578.403	13202.75
578.763	13329.07
579.124	13479.57
579.485	13567.03
579.845	13718.89
580.206	13742.84
580.566	13828.49
580.927	14039.56
581.287	14063.06
581.648	14262.61
582.008	14506.89
582.368	14636.38
582.728	14750.05
583.089	14886.77
583.449	15137.38
583.809	15187.1
584.169	15466.42
584.529	15540.99
584.889	15880.64
585.249	15978.04
585.609	16048.55
585.969	16371.7
586.329	16488.08
586.688	16812.37
587.048	16947.05
587.408	17227.5
587.768	17338
588.127	17538.23
588.487	17659.35
588.846	18046.23
589.206	18098.66
589.565	18348.6
589.925	18733.9
590.284	18948.81
590.643	19329.36
591.003	19310.38
591.362	19772.29
591.721	19876.02
592.08	20074.2
592.44	20530.91
592.799	20709.22
593.158	20866.27
593.517	21183.55
593.876	21433.72
594.235	21628.06
594.593	21881.84
594.952	22263.3
595.311	22451.77
595.67	22662.84
596.029	23191.64
596.387	23318.86
596.746	23626.88
597.104	23849.7
597.463	23999.75
597.822	24360.64
598.18	24474.31
598.538	24678.15
598.897	24993.4
599.255	25115.65
599.613	25696.2
599.972	25671.12
600.33	25979.59
600.688	26074.95
601.046	26413.47
601.404	26815.04
601.762	26884.19
602.12	27234.24
602.478	27382.71
602.836	27571.41
603.194	27676.26
603.552	27986.09
603.91	28149.25
604.268	28432.4
604.625	28603.47
604.983	28854.76
605.341	28895.21
605.698	29325.94
606.056	29432.38
606.413	29669.21
606.771	29943.55
607.128	30234.16
607.485	30111.45
607.843	30282.75
608.2	30766.8
608.557	30964.09
608.914	30897.42
609.272	31299.22
609.629	31439.78
609.986	31722.94
610.343	31743.73
610.7	32077.5
611.057	32155.47
611.414	32303.71
611.771	32451.73
612.127	32710.93
612.484	32791.84
612.841	33041.77
613.198	33089.68
613.554	33287.87
613.911	33429.56
614.267	33684.69
614.624	33683.34
614.98	33906.83
615.337	34008.75
615.693	34256.88
616.05	34274.96
616.406	34545.69
616.762	34406.26
617.118	34603.31
617.475	34775.74
617.831	34973.25
618.187	35013.02
618.543	35118.1
618.899	35443.97
619.255	35409.62
619.611	35508.15
619.967	35671.76
620.323	35691.65
620.678	35717.18
621.034	35899.1
621.39	35718.99
621.746	35904.07
622.101	36391.97
622.457	36116.04
622.812	36382.25
623.168	36397.16
623.523	36454.56
623.879	36757.61
624.234	36371.85
624.589	36732.3
624.945	36868.34
625.3	36906.08
625.655	36925.29
626.01	37038.73
626.365	36941.56
626.72	37100.2
627.075	37190.59
627.43	37130.25
627.785	37080.99
628.14	37205.73
628.495	37265.16
628.85	37351.26
629.205	37238.5
629.559	37587.42
629.914	37279.63
630.269	37327.08
630.623	37367.99
630.978	37381.77
631.332	37623.8
631.687	37502.45
632.041	37511.26
632.396	37634.42
632.75	37455.22
633.104	37679.39
633.459	37429.45
633.813	37525.27
634.167	37511.49
634.521	37399.62
634.875	37518.94
635.229	37416.57
635.583	37473.52
635.937	37407.53
636.291	37363.24
636.645	37385.16
636.999	37423.35
637.352	37452.05
637.706	37318.5
638.06	37540.64
638.413	37470.36
638.767	37353.98
639.121	37455.44
639.474	37205.5
639.828	37299.51
640.181	37440.98
640.534	37445.05
640.888	37424.03
641.241	37229.91
641.594	37299.29
641.947	37397.59
642.301	37298.38
642.654	37295.67
643.007	37342.68
643.36	37325.73
643.713	37174.32
644.066	37396.01
644.419	37108.78
644.771	36823.37
645.124	36641.45
645.477	36535.69
645.83	36200.79
646.182	36200.79
646.535	36092.77
646.888	36189.94
647.24	35904.07
647.593	36224.74
647.945	36092.99
648.298	35982.26
648.65	35894.35
649.002	35885.99
649.355	36228.36
649.707	35879.89
650.059	36049.83
650.411	36499.76
650.763	36605.75
651.115	36990.37
651.467	36828.57
651.819	36762.8
652.171	36787.21
652.523	36650.94
652.875	36655.46
653.227	36577.05
653.578	36887.32
653.93	36743.37
654.282	36637.61
654.633	36534.56
654.985	36600.77
655.337	36389.48
655.688	36579.98
656.039	36719.42
656.391	36342.02
656.742	36584.28
657.094	36468.8
657.445	36709.92
657.796	36543.83
658.147	36511.29
658.498	36400.78
658.849	36552.19
659.2	36378.86
659.551	36311.52
659.902	36567.33
660.253	36500.21
660.604	36498.63
660.955	36457.28
661.306	36454.56
661.656	36457.5
662.007	36465.41
662.358	36335.47
662.708	36526.65
663.059	36523.26
663.409	36095.93
663.76	36419.08
664.11	36420.67
664.461	36540.21
664.811	36359.43
665.161	36377.73
665.511	36262.25
665.862	36379.54
666.212	36445.07
666.562	36476.94
666.912	36415.7
667.262	36297.05
667.612	36290.27
667.962	36365.75
668.312	36288.69
668.662	36440.78
669.011	36392.19
669.361	36212.76
669.711	36239.88
670.06	36142.48
670.41	36119.21
670.76	36023.39
671.109	36307.68
671.459	36135.93
671.808	36137.28
672.157	36125.99
672.507	35987.23
672.856	35993.56
673.205	36041.02
673.554	36193.1
673.904	36124.18
674.253	36238.52
674.602	36124.18
674.951	35568.49
675.3	35465.21
675.649	35962.6
675.998	35891.19
676.346	36042.82
676.695	35940
677.044	35816.39
677.393	35881.25
677.741	35787.24
678.09	35725.09
678.438	35724.64
678.787	35871.75
679.135	35849.38
679.484	35570.97
679.832	35616.62
680.181	35475.61
680.529	35580.91
680.877	35540.69
681.225	35429.73
681.573	35523.52
681.922	35394.7
682.27	35196.52
682.618	35309.96
682.966	35211.66
683.314	35294.14
683.661	35227.93
684.009	35012.79
684.357	34979.35
684.705	34954.26
685.053	34813.7
685.4	34932.8
685.748	34723.54
686.095	34684.89
686.443	34612.35
686.79	34622.75
687.138	34747.49
687.485	34665.91
687.832	34479.02
688.18	34560.83
688.527	34367.84
688.874	34360.83
689.221	34266.6
689.568	34187.96
689.915	34037.45
690.262	34151.12
690.609	33928.08
690.956	33891.47
691.303	33999.26
691.65	33790.23
691.997	33751.13
692.344	33665.71
692.69	33685.15
693.037	33564.24
693.383	33265.27
693.73	33334.65
694.077	33237.93
694.423	33205.38
694.769	33154.99
695.116	33101.66
695.462	32958.16
695.808	32881.78
696.155	32939.85
696.501	32677.26
696.847	32777.37
697.193	32427.55
697.539	32665.06
697.885	32380.32
698.231	32328.57
698.577	32209.7
698.923	32233.21
699.269	32017.62
699.614	31894.01
699.96	31789.38
700.306	31848.81
700.651	31777.4
700.997	31650.17
701.342	31739.43
701.688	31674.12
702.033	31381.03
702.379	31401.36
702.724	31282.5
703.069	31400.69
703.415	31064.65
703.76	31018.32
704.105	31111.2
704.45	31054.48
704.795	30761.83
705.14	30654.04
705.485	30582.85
705.83	30611.55
706.175	30553.93
706.52	30372.24
706.865	30357.1
707.209	30294.95
707.554	30277.1
707.899	30260.6
708.243	30034.39
708.588	30117.1
708.932	29991.46
709.277	29983.1
709.621	29834.4
709.966	29760.95
710.31	29852.48
710.654	29574.52
710.998	29552.6
711.342	29636.89
711.687	29613.39
712.031	29410
712.375	29277.13
712.719	29234.64
713.063	29261.76
713.407	29387.41
713.75	29182.66
714.094	29129.11
714.438	29049.56
714.782	29079.84
715.125	28864.03
715.469	29049.79
715.812	28740.64
716.156	28728.67
716.499	28680.53
716.843	28765.95
717.186	28448.67
717.53	28637.37
717.873	28552.85
718.216	28505.85
718.559	28391.5
718.902	28318.28
719.246	28292.52
719.589	28162.13
719.932	28096.82
720.275	28088.23
720.617	28006.88
720.96	28046.65
721.303	27913.32
721.646	28122.81
721.989	27782.48
722.331	27936.14
722.674	27815.02
723.016	27939.31
723.359	27744.51
723.701	27800.55
724.044	27558.98
724.386	27486.21
724.729	27565.08
725.071	27472.88
725.413	27533.89
725.755	27321.47
726.097	27322.15
726.439	27143.17
726.782	27183.4
727.124	27321.02
727.465	27138.2
727.807	27053.68
728.149	27001.48
728.491	27089.84
728.833	27151.31
729.175	26833.8
729.516	26920.58
729.858	26909.73
730.199	26829.05
730.541	26816.4
730.882	26781.15
731.224	26864.31
731.565	26713.13
731.906	26711.77
732.248	26683.52
732.589	26523.3
732.93	26472.23
733.271	26576.86
733.612	26575.28
733.953	26465.45
734.294	26389.07
734.635	26343.42
734.976	26447.6
735.317	26270.43
735.658	26294.38
735.999	26336.41
736.339	26301.16
736.68	26297.09
737.021	26076.76
737.361	26034.27
737.702	26236.3
738.042	25991.79
738.383	25988.62
738.723	25996.08
739.063	25923.09
739.404	25837.22
739.744	25874.05
740.084	25825.24
740.424	25738.91
740.764	25604.23
741.104	25908.85
741.444	25690.1
741.784	25636.09
742.124	25655.75
742.464	25575.98
742.804	25420.5
743.143	25536.66
743.483	25431.13
743.823	25249.89
744.162	25352.48
744.502	25414.63
744.841	25325.59
745.181	25304.8
745.52	25231.81
745.86	25273.39
746.199	25227.97
746.538	25171.24
746.877	25164.47
747.216	25275.2
747.556	25064.36
747.895	25180.96
748.234	25036.56
748.573	25047.41
748.911	24907.3
749.25	24957.69
749.589	24772.61
749.928	24800.86
750.267	24803.35
750.605	24730.35
750.944	24676.12
751.283	24626.85
751.621	24733.52
751.96	24413.98
752.298	24588.89
752.636	24512.05
752.975	24363.81
753.313	24291.49
753.651	24355.9
753.989	24205.39
754.327	24326.97
754.666	24122.01
755.004	24257.6
755.342	24260.31
755.679	24049.01
756.017	24033.42
756.355	24042.46
756.693	24031.61
757.031	23922.92
757.368	23739.64
757.706	23797.04
758.044	23712.53
758.381	23818.51
758.719	23724.28
759.056	23748.91
759.394	23691.06
