Data from hue_60_FLMS001491_19.txt Node
Date: Mon Feb 06 15:12:01 GMT 2017
User: dcchb
Spectrometer: FLMS00149
Trigger mode: 0
Integration Time (sec): 2.000000E-2
Scans to average: 10
Electric dark correction enabled: true
Nonlinearity correction enabled: false
Boxcar width: 0
XAxis mode: Wavelengths
Number of Pixels in Spectrum: 2048
>>>>>Begin Spectral Data<<<<<
341.393	-1.12
341.776	-1.12
342.16	-1.12
342.543	-61.23
342.927	-72.53
343.31	-68.01
343.693	-68.68
344.077	-77.5
344.46	-47.22
344.843	-37.27
345.226	-43.15
345.61	-45.63
345.993	-20.55
346.376	8.38
346.759	8.83
347.142	5.21
347.525	35.95
347.908	42.72
348.291	97.86
348.674	105.1
349.057	103.97
349.44	130.63
349.823	161.59
350.206	160.24
350.588	190.52
350.971	224.87
351.354	213.57
351.737	259.22
352.119	255.37
352.502	256.96
352.884	285.88
353.267	276.62
353.65	263.74
354.032	312.32
354.414	317.07
354.797	322.49
355.179	322.72
355.562	326.56
355.944	329.27
356.326	349.61
356.709	325.2
357.091	327.92
357.473	376.05
357.855	352.1
358.238	364.52
358.62	348.03
359.002	332.66
359.384	364.98
359.766	365.88
360.148	341.47
360.53	324.07
360.912	330.17
361.294	341.02
361.676	352.77
362.057	352.77
362.439	325.43
362.821	336.73
363.203	337.41
363.584	328.37
363.966	344.64
364.348	331.08
364.729	322.72
365.111	327.92
365.493	334.24
365.874	311.42
366.256	321.81
366.637	311.19
367.019	314.36
367.4	328.37
367.781	314.81
368.163	321.36
368.544	331.76
368.925	310.97
369.306	315.71
369.688	314.36
370.069	321.36
370.45	304.41
370.831	324.98
371.212	311.87
371.593	336.5
371.974	325.43
372.355	304.19
372.736	352.77
373.117	330.85
373.498	313.9
373.879	317.07
374.26	311.64
374.641	319.1
375.021	333.34
375.402	322.72
375.783	326.79
376.163	322.94
376.544	335.37
376.925	329.95
377.305	356.61
377.686	316.84
378.066	335.37
378.447	331.53
378.827	345.54
379.208	340.34
379.588	344.64
379.968	336.05
380.349	348.25
380.729	334.69
381.109	342.38
381.489	330.17
381.87	333.56
382.25	341.47
382.63	342.15
383.01	340.8
383.39	345.99
383.77	341.7
384.15	345.99
384.53	339.67
384.91	350.97
385.29	362.26
385.67	346.22
386.049	359.1
386.429	369.04
386.809	378.31
387.189	357.07
387.568	353.23
387.948	374.47
388.328	340.57
388.707	340.34
389.087	363.17
389.466	356.39
389.846	366.33
390.225	361.13
390.605	372.66
390.984	359.33
391.363	372.66
391.743	376.73
392.122	371.3
392.501	369.72
392.881	363.17
393.26	374.69
393.639	380.34
394.018	372.89
394.397	368.59
394.776	380.34
395.155	370.4
395.534	392.32
395.913	360.91
396.292	362.94
396.671	390.96
397.05	378.76
397.429	372.66
397.808	369.5
398.186	356.61
398.565	377.41
398.944	414.24
399.323	386.9
399.701	379.67
400.08	401.13
400.458	415.82
400.837	387.8
401.215	389.83
401.594	388.25
401.972	410.4
402.351	403.17
402.729	405.88
403.107	391.64
403.486	425.77
403.864	414.47
404.242	420.57
404.62	418.08
404.999	398.42
405.377	405.88
405.755	409.49
406.133	424.41
406.511	407.01
406.889	431.19
407.267	436.84
407.645	428.25
408.023	445.88
408.401	404.75
408.779	449.49
409.156	451.75
409.534	427.8
409.912	438.19
410.29	446.78
410.667	450.62
411.045	437.74
411.422	442.94
411.8	444.07
412.178	446.33
412.555	438.65
412.933	453.11
413.31	468.25
413.687	465.54
414.065	459.44
414.442	480
414.819	475.93
415.197	462.15
415.574	477.29
415.951	482.04
416.328	495.82
416.705	474.35
417.082	468.48
417.46	508.7
417.837	499.21
418.214	500.57
418.591	487.01
418.967	506.22
419.344	500.57
419.721	508.48
420.098	513.9
420.475	498.76
420.852	505.31
421.228	501.47
421.605	504.41
421.982	517.51
422.358	526.33
422.735	508.7
423.111	517.29
423.488	540.34
423.864	528.14
424.241	542.82
424.617	522.49
424.994	522.49
425.37	520
425.746	542.82
426.123	550.28
426.499	536.27
426.875	565.2
427.251	553.22
427.627	550.73
428.003	555.03
428.379	562.94
428.756	572.43
429.132	587.8
429.507	595.7
429.883	582.6
430.259	597.29
430.635	601.81
431.011	593.44
431.387	607.46
431.763	634.35
432.138	609.94
432.514	614.69
432.89	622.37
433.265	607
433.641	642.26
434.016	636.16
434.392	633.67
434.767	636.16
435.143	617.85
435.518	649.04
435.894	660.56
436.269	672.09
436.644	688.81
437.02	655.59
437.395	696.49
437.77	691.52
438.145	687.91
438.52	688.13
438.895	701.01
439.271	698.98
439.646	713.67
440.021	740.56
440.395	703.27
440.77	714.35
441.145	712.31
441.52	734.91
441.895	722.48
442.27	722.71
442.645	730.62
443.019	747.11
443.394	729.03
443.769	742.82
444.143	729.71
444.518	746.89
444.892	744.18
445.267	748.24
445.641	755.47
446.016	766.32
446.39	760.22
446.764	774.68
447.139	788.47
447.513	804.06
447.887	798.19
448.262	791.41
448.636	785.08
449.01	801.35
449.384	805.87
449.758	824.63
450.132	819.65
450.506	806.09
450.88	832.53
451.254	831.18
451.628	831.86
452.002	839.09
452.376	868.69
452.75	883.61
453.123	866.66
453.497	865.3
453.871	865.75
454.244	881.57
454.618	882.25
454.992	923.83
455.365	915.02
455.739	948.92
456.112	921.8
456.486	919.76
456.859	923.61
457.232	927.67
457.606	943.04
457.979	962.25
458.352	962.25
458.725	990.72
459.099	1009.25
459.472	1021.46
459.845	1027.56
460.218	1013.77
460.591	1047.9
460.964	1073.43
461.337	1064.62
461.71	1079.31
462.083	1097.39
462.456	1090.83
462.829	1139.42
463.201	1124.05
463.574	1134.67
463.947	1149.81
464.32	1166.54
464.692	1165.63
465.065	1202.47
465.438	1184.84
465.81	1240.66
466.183	1250.6
466.555	1269.59
466.928	1286.76
467.3	1293.77
467.672	1281.56
468.045	1319.3
468.417	1305.06
468.789	1332.86
469.161	1388.9
469.534	1407.43
469.906	1453.99
470.278	1462.35
470.65	1447.43
471.022	1503.48
471.394	1544.15
471.766	1558.17
472.138	1604.72
472.51	1626.41
472.882	1660.54
473.253	1669.57
473.625	1740.08
473.997	1769.23
474.369	1777.14
474.74	1823.24
475.112	1884.94
475.484	1924.03
475.855	1983.24
476.227	2014.2
476.598	2077.47
476.97	2119.28
477.341	2184.59
477.713	2270.24
478.084	2280.86
478.455	2335.32
478.827	2421.19
479.198	2512.04
479.569	2540.74
479.94	2629.32
480.311	2722.88
480.682	2811.47
481.053	2843.33
481.424	2931.91
481.795	3008.75
482.166	3114.51
482.537	3239.93
482.908	3308.63
483.279	3369.19
483.65	3489.41
484.021	3622.74
484.391	3683.31
484.762	3772.57
485.133	3873.13
485.503	4031.77
485.874	4159.45
486.244	4211.88
486.615	4367.36
486.985	4526.22
487.356	4593.34
487.726	4751.53
488.097	4894.8
488.467	4971.63
488.837	5176.15
489.207	5276.26
489.578	5440.32
489.948	5519.87
490.318	5707.21
490.688	5779.3
491.058	5946.98
491.428	6120.98
491.798	6245.05
492.168	6458.83
492.538	6583.57
492.908	6711.7
493.278	6916.67
493.648	7034.63
494.017	7141.75
494.387	7329.54
494.757	7474.17
495.126	7677.1
495.496	7818.34
495.866	7941.73
496.235	8107.82
496.605	8267.14
496.974	8383.97
497.344	8556.85
497.713	8700.58
498.082	8864.87
498.452	8976.05
498.821	9207.23
499.19	9268.7
499.559	9504.85
499.928	9520.22
500.298	9749.36
500.667	9816.71
501.036	9859.64
501.405	10097.6
501.774	10214.66
502.143	10403.36
502.512	10531.26
502.88	10705.27
503.249	10808.77
503.618	10905.49
503.987	11077.69
504.356	11202.66
504.724	11398.81
505.093	11474.06
505.462	11624.57
505.83	11744.56
506.199	11917.21
506.567	12157.43
506.936	12165.8
507.304	12334.15
507.672	12427.03
508.041	12665.44
508.409	12824.54
508.777	12935.49
509.145	13140.23
509.514	13125.54
509.882	13239.89
510.25	13403.73
510.618	13514.69
510.986	13634.46
511.354	13827.67
511.722	14009.36
512.09	14209.13
512.458	14217.95
512.826	14393.76
513.193	14526.86
513.561	14584.94
513.929	14751.04
514.297	14942.45
514.664	15090.01
515.032	15137.02
515.4	15280.06
515.767	15428.76
516.135	15533.62
516.502	15529.32
516.869	15781.97
517.237	15965.24
517.604	15952.82
517.972	16134.28
518.339	16297.21
518.706	16403.88
519.073	16502.41
519.44	16614.94
519.808	16933.81
520.175	16866.01
520.542	17105.1
520.909	17173.35
521.276	17283.4
521.643	17475.94
522.009	17678.65
522.376	17783.5
522.743	17888.81
523.11	18065.3
523.477	18243.38
523.843	18370.6
524.21	18499.87
524.577	18712.29
524.943	18810.37
525.31	18877.48
525.676	19126.97
526.043	19277.25
526.409	19439.5
526.776	19586.62
527.142	19583.23
527.508	19719.5
527.874	19867.97
528.241	20106.6
528.607	20146.83
528.973	20330.1
529.339	20428.86
529.705	20569.87
530.071	20849.86
530.437	20818
530.803	20924.66
531.169	21051.66
531.535	21066.13
531.901	21272.9
532.267	21357.64
532.632	21578.66
532.998	21597.41
533.364	21675.83
533.73	21761.7
534.095	21920.12
534.461	21965.09
534.826	22113.11
535.192	22233.78
535.557	22384.06
535.923	22307.22
536.288	22531.17
536.653	22706.31
537.019	22589.25
537.384	22746.31
537.749	22759.42
538.114	22863.82
538.479	22911.73
538.845	23118.28
539.21	23089.58
539.575	23194.66
539.94	23303.81
540.305	23428.78
540.67	23447.31
541.034	23511.49
541.399	23522.33
541.764	23703.12
542.129	23838.26
542.494	23756.9
542.858	23974.52
543.223	23890.23
543.587	24118.48
543.952	24181.07
544.316	24240.05
544.681	24274.86
545.045	24427.62
545.41	24415.87
545.774	24488.86
546.138	24578.35
546.503	24568.18
546.867	24712.36
547.231	24873.48
547.595	24955.06
547.959	24931.79
548.324	25063.76
548.688	25012.46
549.052	25251.78
549.416	25275.06
549.779	25349.18
550.143	25427.37
550.507	25588.72
550.871	25723.63
551.235	25623.52
551.599	25845.44
551.962	25879.33
552.326	26046.11
552.689	26079.1
553.053	26039.56
553.417	26161.36
553.78	26467.57
554.143	26334.69
554.507	26471.86
554.87	26570.16
555.234	26856.94
555.597	26737.16
555.96	26803.83
556.323	27020.55
556.686	27060.32
557.05	27222.58
557.413	27309.58
557.776	27329.24
558.139	27555.45
558.502	27607.2
558.865	27571.27
559.228	28073.17
559.59	27989.56
559.953	27991.59
560.316	28368.76
560.679	28260.74
561.041	28496.44
561.404	28691.46
561.767	28828.18
562.129	28768.75
562.492	29154.28
562.854	28910.67
563.217	29095.29
563.579	29182.3
563.941	29457.54
564.304	29497.32
564.666	29697.09
565.028	29688.73
565.39	29838.78
565.753	30020.24
566.115	30057.53
566.477	30245.55
566.839	30328.71
567.201	30603.05
567.563	30584.29
567.925	30685.08
568.287	30777.28
568.648	30794.46
569.01	31073.32
569.372	31262.69
569.734	31156.71
570.095	31279.64
570.457	31427.21
570.819	31691.38
571.18	31581.56
571.542	31781.1
571.903	31796.92
572.265	31938.61
572.626	32104.71
572.987	32081.88
573.349	32246.85
573.71	32393.51
574.071	32488.43
574.432	32523.23
574.794	32816.33
575.155	32665.6
575.516	32523.45
575.877	32830.79
576.238	32833.5
576.599	32906.04
576.96	33009.54
577.32	33096.32
577.681	33264.22
578.042	33326.14
578.403	33245.92
578.763	33329.08
579.124	33440.72
579.485	33435.29
579.845	33542.18
580.206	33486.37
580.566	33557.78
580.927	33518.68
581.287	33900.37
581.648	33563.2
582.008	33924.09
582.368	33816.53
582.728	33806.13
583.089	33847.03
583.449	33772.23
583.809	33946.47
584.169	34027.14
584.529	33892
584.889	34125.67
585.249	33902.4
585.609	33839.12
585.969	34110.3
586.329	34058.55
586.688	34178.1
587.048	34107.14
587.408	34116.41
587.768	34047.03
588.127	34207.25
588.487	34134.03
588.846	34269.17
589.206	34152.11
589.565	34186.46
589.925	34273.69
590.284	34180.36
590.643	34177.65
591.003	34306
591.362	34415.61
591.721	34320.02
592.08	34370.18
592.44	34428.26
592.799	34442.5
593.158	34218.1
593.517	34420.13
593.876	34470.29
594.235	34364.76
594.593	34472.1
594.952	34496.96
595.311	34371.31
595.67	34629.39
596.029	34688.37
596.387	34700.8
596.746	34964.97
597.104	34659.22
597.463	34744.64
597.822	34968.36
598.18	34664.87
598.538	34799.1
598.897	35020.11
599.255	34759.78
599.613	35135.14
599.972	34905.99
600.33	35174.91
600.688	34924.97
601.046	34979.89
601.404	35155.47
601.762	35148.47
602.12	35350.05
602.478	35452.87
602.836	35401.8
603.194	35155.25
603.552	35418.97
603.91	35209.94
604.268	35378.29
604.625	35377.61
604.983	35624.39
605.341	35451.51
605.698	35501.45
606.056	35746.87
606.413	35673.2
606.771	35766.31
607.128	35850.14
607.485	35774.44
607.843	35806.53
608.2	35896.02
608.557	36149.8
608.914	36025.73
609.272	36304.82
609.629	36247.65
609.986	36396.12
610.343	36187.31
610.7	36577.58
611.057	36463.46
611.414	36585.04
611.771	36496.68
612.127	36718.14
612.484	36731.7
612.841	36803.34
613.198	36738.26
613.554	36755.88
613.911	37033.39
614.267	36879.95
614.624	37032.03
614.98	37103.22
615.337	37202.88
615.693	37159.49
616.05	37161.52
616.406	37506.82
616.762	37276.1
617.118	37353.61
617.475	37337.79
617.831	37448.07
618.187	37533.72
618.543	37620.49
618.899	37776.87
619.255	37624.11
619.611	37760.15
619.967	37847.61
620.323	37896.42
620.678	37782.52
621.034	37810.09
621.39	37740.94
621.746	37712.69
622.101	38082.18
622.457	37770.55
622.812	38117.43
623.168	38099.8
623.523	38096.87
623.879	38289.4
624.234	38056.87
624.589	38249.63
624.945	38232.91
625.3	38247.37
625.655	38272.45
626.01	38196.98
626.365	38349.29
626.72	38308.61
627.075	38293.92
627.43	38283.98
627.785	38185.68
628.14	38292.34
628.495	38335.73
628.85	38485.1
629.205	38290.31
629.559	38442.85
629.914	38258.22
630.269	38267.03
630.623	38258.9
630.978	38263.64
631.332	38282.62
631.687	38411.66
632.041	38305.22
632.396	38472.9
632.75	38111.33
633.104	38298.67
633.459	38086.24
633.813	38210.99
634.167	38159.46
634.521	38127.6
634.875	38147.71
635.229	38235.39
635.583	37899.81
635.937	38055.06
636.291	37877.44
636.645	38053.7
636.999	37982.74
637.352	38180.93
637.706	37832.47
638.06	37876.98
638.413	37948.17
638.767	37854.61
639.121	37906.36
639.474	37810.77
639.828	37755.18
640.181	37795.86
640.534	37771.68
640.888	37705.24
641.241	37584.56
641.594	37651.45
641.947	37730.32
642.301	37531.68
642.654	37663.43
643.007	37638.57
643.36	37691.9
643.713	37521.51
644.066	37535.07
644.419	37452.14
644.771	37172.14
645.124	36867.29
645.477	36903.45
645.83	36546.17
646.182	36451.26
646.535	36457.13
646.888	36424.59
647.24	36236.12
647.593	36432.28
647.945	36436.57
648.298	36176.24
648.65	36173.98
649.002	36107.09
649.355	36227.99
649.707	36202.45
650.059	36224.37
650.411	36638.6
650.763	36768.99
651.115	37246.04
651.467	36942.09
651.819	36938.93
652.171	37046.27
652.523	36844.02
652.875	36846.05
653.227	36774.87
653.578	36885.6
653.93	36924.24
654.282	36828.88
654.633	36557.92
654.985	36630.69
655.337	36625.27
655.688	36683.8
656.039	36873.62
656.391	36554.08
656.742	36515.89
657.094	36578.49
657.445	36649.22
657.796	36482.67
658.147	36540.97
658.498	36562.67
658.849	36725.38
659.2	36568.09
659.551	36380.75
659.902	36503.69
660.253	36469.34
660.604	36602.89
660.955	36399.96
661.306	36516.79
661.656	36416.01
662.007	36418.04
662.358	36436.8
662.708	36325.39
663.059	36314.99
663.409	36312.73
663.76	36451.03
664.11	36490.35
664.461	36376.46
664.811	36305.27
665.161	36401.77
665.511	36395.89
665.862	36336.91
666.212	36276.57
666.562	36265.5
666.912	36303.92
667.262	36274.31
667.612	36294.2
667.962	36227.76
668.312	36237.71
668.662	36373.3
669.011	36253.75
669.361	36229.12
669.711	36145.28
670.06	36172.85
670.41	36094.43
670.76	36098.27
671.109	36212.4
671.459	36300.3
671.808	36209.91
672.157	36145.73
672.507	35868.9
672.856	35992.97
673.205	35974.44
673.554	36151.15
673.904	35909.35
674.253	36201.1
674.602	35947.32
674.951	35483.15
675.3	35263.27
675.649	35933.08
675.998	35935.11
676.346	35840.2
676.695	36064.15
677.044	35747.1
677.393	35857.6
677.741	35856.92
678.09	35638.17
678.438	35682.47
678.787	35739.64
679.135	35679.08
679.484	35513.43
679.832	35525.41
680.181	35371.74
680.529	35653.54
680.877	35404.51
681.225	35341.46
681.573	35578.06
681.922	35337.84
682.27	35235.02
682.618	35187.11
682.966	35144.63
683.314	35209.48
683.661	35134.23
684.009	34844.75
684.357	34810.17
684.705	34901.02
685.053	34925.65
685.4	34820.79
685.748	34620.35
686.095	34697.41
686.443	34601.14
686.79	34504.87
687.138	34586.45
687.485	34515.94
687.832	34560.69
688.18	34469.84
688.527	34295.16
688.874	34286.8
689.221	34289.96
689.568	34203.41
689.915	34116.18
690.262	34027.82
690.609	33944.43
690.956	33886.13
691.303	33678.9
691.65	33675.06
691.997	33637.55
692.344	33470.55
692.69	33333.6
693.037	33397.1
693.383	33165.02
693.73	33358.91
694.077	33077.34
694.423	33177.9
694.769	32983.1
695.116	32853.84
695.462	32744.46
695.808	32685.03
696.155	32733.62
696.501	32628.53
696.847	32567.52
697.193	32356.45
697.539	32467.86
697.885	32257.02
698.231	32135.89
698.577	32211.37
698.923	32068.1
699.269	31967.76
699.614	31867.42
699.96	31799.63
700.306	31894.77
700.651	31728.67
700.997	31614.32
701.342	31471.95
701.688	31556.7
702.033	31505.63
702.379	31302.24
702.724	31319.87
703.069	31236.48
703.415	30908.13
703.76	30970.73
704.105	30900.9
704.45	30874.46
704.795	30821.35
705.14	30551.53
705.485	30699.09
705.83	30554.46
706.175	30617.06
706.52	30392.21
706.865	30392.66
707.209	30346.56
707.554	30177.07
707.899	30330.06
708.243	30090.3
708.588	30035.61
708.932	29861.83
709.277	29803.52
709.621	29780.47
709.966	29521.5
710.31	29697.99
710.654	29488.96
710.998	29592.23
711.342	29585.22
711.687	29408.05
712.031	29227.27
712.375	29215.52
712.719	29243.31
713.063	29076.09
713.407	29323.08
713.75	29086.93
714.094	29084.22
714.438	28871.8
714.782	29021.17
715.125	28749.77
715.469	28858.46
715.812	28708.64
716.156	28670.67
716.499	28627.74
716.843	28608.08
717.186	28404.69
717.53	28519.26
717.873	28578.25
718.216	28633.16
718.559	28388.87
718.902	28197.69
719.246	28326.27
719.589	28128.09
719.932	28002.67
720.275	28030.92
720.617	28046.73
720.96	27886.96
721.303	28082.21
721.646	27950.69
721.989	27849.23
722.331	27852.84
722.674	27760.41
723.016	27749.79
723.359	27681.09
723.701	27730.58
724.044	27481.33
724.386	27301.44
724.729	27496.24
725.071	27385.73
725.413	27416.47
725.755	27366.98
726.097	27300.99
726.439	27129.47
726.782	27137.15
727.124	27209.47
727.465	27046.99
727.807	27021.68
728.149	26934.22
728.491	26994.78
728.833	26850.38
729.175	26818.29
729.516	26823.26
729.858	26743.27
730.199	26805.86
730.541	26704.62
730.882	26804.51
731.224	26678.41
731.565	26471.86
731.906	26598.41
732.248	26611.74
732.589	26513.22
732.93	26361.81
733.271	26473.22
733.612	26432.31
733.953	26377.85
734.294	26353.67
734.635	26287.68
734.976	26343.28
735.317	26124.98
735.658	26247.23
735.999	26216.27
736.339	25955.26
736.68	26242.49
737.021	25997.97
737.361	25855.38
737.702	26042.27
738.042	26039.56
738.383	25904.87
738.723	25920.46
739.063	25794.82
739.404	25891.54
739.744	25728.15
740.084	25780.58
740.424	25680.69
740.764	25547.82
741.104	25628.04
741.444	25528.38
741.784	25513.02
742.124	25536.74
742.464	25378.33
742.804	25414.26
743.143	25273.47
743.483	25397.54
743.823	25198
744.162	25150.54
744.502	25224.44
744.841	25103.76
745.181	25228.5
745.52	25079.81
745.86	24981.96
746.199	24930.88
746.538	25032.58
746.877	25013.59
747.216	24990.54
747.556	24969.75
747.895	24825.58
748.234	24779.25
748.573	24662.87
748.911	24706.48
749.25	24654.06
749.589	24536.54
749.928	24573.61
750.267	24642.08
750.605	24640.72
750.944	24468.98
751.283	24369.99
751.621	24460.61
751.96	24245.03
752.298	24334.74
752.636	24233.05
752.975	24090.91
753.313	24000.74
753.651	24103.34
753.989	23986.73
754.327	23979.72
754.666	23826.96
755.004	23933.62
755.342	23893.4
755.679	23705.15
756.017	23647.08
756.355	23802.33
756.693	23675.55
