Data from hue_160_FLMS001491_00095.txt Node
Date: Tue Feb 07 16:51:57 GMT 2017
User: dcchb
Spectrometer: FLMS00149
Trigger mode: 0
Integration Time (sec): 2.000000E-2
Scans to average: 10
Electric dark correction enabled: true
Nonlinearity correction enabled: false
Boxcar width: 0
XAxis mode: Wavelengths
Number of Pixels in Spectrum: 2048
>>>>>Begin Spectral Data<<<<<
341.393	3.76
341.776	3.76
342.16	3.76
342.543	-73.53
342.927	-56.35
343.31	-72.85
343.693	-76.47
344.077	-62.46
344.46	-59.97
344.843	-61.33
345.226	-38.5
345.61	-37.82
345.993	-15.45
346.376	5.56
346.759	21.84
347.142	20.71
347.525	36.98
347.908	53.93
348.291	71.55
348.674	96.18
349.057	118.1
349.44	125.34
349.823	137.76
350.206	145.45
350.588	193.81
350.971	211.44
351.354	236.52
351.737	251.43
352.119	246.91
352.502	258.67
352.884	260.02
353.267	275.84
353.65	306.35
354.032	323.52
354.414	316.52
354.797	306.57
355.179	321.26
355.562	312.68
355.944	309.29
356.326	321.26
356.709	347.7
357.091	336.18
357.473	337.53
357.855	321.71
358.238	343.86
358.62	361.26
359.002	332.34
359.384	338.44
359.766	367.14
360.148	332.34
360.53	340.47
360.912	342.05
361.294	337.08
361.676	321.26
362.057	354.48
362.439	332.34
362.821	315.39
363.203	323.3
363.584	326.23
363.966	327.36
364.348	332.56
364.729	319.91
365.111	311.09
365.493	308.83
365.874	314.94
366.256	344.54
366.637	328.04
367.019	314.26
367.4	328.72
367.781	326.69
368.163	281.94
368.544	316.29
368.925	335.5
369.306	322.84
369.688	316.97
370.069	335.05
370.45	308.83
370.831	325.56
371.212	320.36
371.593	298.21
371.974	325.1
372.355	310.64
372.736	319.23
373.117	323.52
373.498	310.42
373.879	307.48
374.26	307.7
374.641	311.77
375.021	305.22
375.402	331.88
375.783	325.78
376.163	312.22
376.544	339.12
376.925	326.01
377.305	305.22
377.686	316.52
378.066	332.34
378.447	324.88
378.827	335.73
379.208	331.66
379.588	320.58
379.968	307.03
380.349	348.38
380.729	349.96
381.109	333.24
381.489	313.81
381.87	317.42
382.25	333.47
382.63	341.6
383.01	341.15
383.39	336.63
383.77	368.49
384.15	355.61
384.53	345.89
384.91	335.73
385.29	336.4
385.67	337.31
386.049	355.16
386.429	337.99
386.809	349.51
387.189	348.61
387.568	339.57
387.948	341.83
388.328	376.63
388.707	365.1
389.087	364.65
389.466	379.11
389.846	362.17
390.225	367.82
390.605	364.88
390.984	370.3
391.363	357.19
391.743	376.85
392.122	353.13
392.501	357.87
392.881	376.18
393.26	368.04
393.639	368.95
394.018	386.8
394.397	365.1
394.776	373.01
395.155	378.66
395.534	358.55
395.913	371.2
396.292	382.73
396.671	401.71
397.05	379.79
397.429	403.29
397.808	375.72
398.186	388.83
398.565	382.73
398.944	401.03
399.323	385.89
399.701	416.85
400.08	394.71
400.458	413.92
400.837	417.76
401.215	401.49
401.594	418.89
401.972	421.83
402.351	410.07
402.729	403.29
403.107	402.16
403.486	412.56
403.864	417.76
404.242	386.35
404.62	393.58
404.999	457.98
405.377	422.95
405.755	439
406.133	458.43
406.511	422.95
406.889	439.9
407.267	460.47
407.645	430.41
408.023	460.24
408.401	439.23
408.779	444.2
409.156	433.8
409.534	459.11
409.912	461.82
410.29	456.4
410.667	460.02
411.045	468.38
411.422	456.63
411.8	470.19
412.178	471.32
412.555	504.31
412.933	479
413.31	458.21
413.687	493.01
414.065	470.19
414.442	497.08
414.819	506.57
415.197	486.23
415.574	500.02
415.951	518.09
416.328	502.05
416.705	504.76
417.082	516.74
417.46	524.42
417.837	528.26
418.214	533.23
418.591	521.94
418.967	502.05
419.344	533.01
419.721	536.62
420.098	529.39
420.475	537.53
420.852	547.92
421.228	561.93
421.605	541.37
421.982	542.27
422.358	567.81
422.735	550.41
423.111	579.34
423.488	575.49
423.864	570.52
424.241	571.43
424.617	567.13
424.994	570.97
425.37	593.8
425.746	590.41
426.123	577.53
426.499	583.18
426.875	578.66
427.251	610.97
427.627	603.97
428.003	619.79
428.379	617.53
428.756	631.76
429.132	637.19
429.507	648.49
429.883	657.75
430.259	659.11
430.635	646.68
431.011	662.95
431.387	683.29
431.763	693.68
432.138	686.22
432.514	702.95
432.89	656.85
433.265	695.04
433.641	728.71
434.016	729.61
434.392	719.67
434.767	716.05
435.143	714.47
435.518	728.48
435.894	747.01
436.269	757.86
436.644	753.57
437.02	775.26
437.395	767.13
437.77	767.13
438.145	758.54
438.52	795.15
438.895	803.51
439.271	802.83
439.646	832.66
440.021	800.8
440.395	848.03
440.77	806.45
441.145	817.29
441.52	838.09
441.895	850.06
442.27	871.3
442.645	840.8
443.019	857.75
443.394	858.42
443.769	872.43
444.143	889.61
444.518	880.34
444.892	875.15
445.267	918.08
445.641	908.59
446.016	895.71
446.39	916.5
446.764	911.53
447.139	926.67
447.513	935.03
447.887	938.65
448.262	948.59
448.636	968.48
449.01	957.18
449.384	963.73
449.758	978.87
450.132	977.29
450.506	1008.93
450.88	999.66
451.254	989.27
451.628	990.4
452.002	1023.62
452.376	1014.8
452.75	1003.5
453.123	1029.94
453.497	1055.71
453.871	1044.18
454.244	1067.68
454.618	1090.28
454.992	1097.97
455.365	1093.45
455.739	1134.8
456.112	1153.78
456.486	1138.19
456.859	1172.77
457.232	1185.87
457.606	1167.57
457.979	1172.77
458.352	1220
458.725	1254.12
459.099	1228.36
459.472	1258.87
459.845	1288.92
460.218	1260.9
460.591	1304.06
460.964	1308.81
461.337	1336.38
461.71	1341.12
462.083	1375.25
462.456	1371.86
462.829	1379.99
463.201	1430.39
463.574	1428.58
463.947	1446.88
464.32	1476.71
464.692	1490.05
465.065	1516.26
465.438	1535.69
465.81	1537.95
466.183	1568.69
466.555	1597.39
466.928	1650.27
467.3	1625.64
467.672	1667.22
468.045	1706.54
468.417	1733.2
468.789	1745.86
469.161	1749.02
469.534	1806.87
469.906	1816.36
470.278	1838.06
470.65	1878.06
471.022	1917.15
471.394	1976.36
471.766	2008.68
472.138	2036.92
472.51	2111.72
472.882	2109.69
473.253	2196.24
473.625	2217.03
473.997	2247.54
474.369	2285.96
474.74	2309.23
475.112	2394.65
475.484	2428.78
475.855	2526.18
476.227	2569.57
476.598	2652.95
476.97	2673.29
477.341	2736.57
477.713	2806.17
478.084	2806.17
478.455	2936.79
478.827	3011.14
479.198	3154.63
479.569	3160.51
479.94	3250.9
480.311	3336.78
480.682	3411.58
481.053	3517.34
481.424	3637.11
481.795	3686.6
482.166	3762.98
482.537	3853.6
482.908	3955.97
483.279	4071.45
483.65	4162.52
484.021	4299.92
484.391	4388.05
484.762	4481.61
485.133	4580.36
485.503	4641.38
485.874	4782.16
486.244	4889.73
486.615	5084.53
486.985	5126.33
487.356	5263.05
487.726	5392.32
488.097	5518.64
488.467	5637.28
488.837	5803.83
489.207	5891.06
489.578	6044.73
489.948	6148.68
490.318	6299.18
490.688	6418.73
491.058	6500.54
491.428	6632.28
491.798	6772.84
492.168	6965.16
492.538	7060.75
492.908	7166.28
493.278	7295.77
493.648	7404.69
494.017	7547.29
494.387	7669.54
494.757	7765.81
495.126	7928.52
495.496	7987.95
495.866	8119.02
496.235	8211.22
496.605	8361.73
496.974	8487.6
497.344	8525.34
497.713	8700.48
498.082	8726.92
498.452	8853.47
498.821	8987.93
499.19	9021.37
499.559	9120.13
499.928	9213.46
500.298	9323.96
500.667	9501.59
501.036	9459.33
501.405	9598.98
501.774	9629.04
502.143	9753.33
502.512	9796.27
502.88	9949.48
503.249	9927.56
503.618	10105.19
503.987	10095.69
504.356	10204.17
504.724	10223.83
505.093	10271.96
505.462	10410.04
505.83	10485.29
506.199	10531.39
506.567	10688.45
506.936	10719.18
507.304	10839.18
507.672	10860.19
508.041	10918.95
508.409	10997.82
508.777	11051.83
509.145	11196.01
509.514	11140.19
509.882	11244.37
510.25	11193.97
510.618	11264.93
510.986	11227.64
511.354	11388.32
511.722	11481.87
512.09	11586.28
512.458	11562.1
512.826	11633.73
513.193	11695.43
513.561	11736.33
513.929	11805.03
514.297	11923.67
514.664	11876.67
515.032	11867.4
515.4	12012.71
515.767	12033.5
516.135	12008.64
516.502	12014.97
516.869	12090.9
517.237	12104.46
517.604	12035.76
517.972	12194.85
518.339	12239.37
518.706	12245.92
519.073	12249.99
519.44	12272.59
519.808	12379.25
520.175	12328.4
520.542	12419.7
520.909	12415.41
521.276	12377.22
521.643	12529.08
522.009	12526.59
522.376	12574.95
522.743	12591
523.11	12663.54
523.477	12741.28
523.843	12753.03
524.21	12780.82
524.577	12859.69
524.943	12829.41
525.31	12820.82
525.676	12868.73
526.043	12982.62
526.409	12923.64
526.776	13003.87
527.142	12987.14
527.508	12984.66
527.874	13038.22
528.241	13067.82
528.607	13005
528.973	13104.2
529.339	13050.87
529.705	13108.27
530.071	13148.04
530.437	13167.7
530.803	13172.45
531.169	13132.68
531.535	13057.2
531.901	13080.02
532.267	13089.97
532.632	13114.15
532.998	12991.66
533.364	13093.58
533.73	13018.33
534.095	13102.4
534.461	13091.77
534.826	13103.3
535.192	13009.74
535.557	13074.83
535.923	12996.18
536.288	12896.07
536.653	13025.56
537.019	12985.79
537.384	12877.09
537.749	12919.58
538.114	12853.36
538.479	12800.71
538.845	12823.08
539.21	12804.1
539.575	12845.91
539.94	12795.74
540.305	12707.6
540.67	12776.98
541.034	12749.64
541.399	12761.61
541.764	12648.62
542.129	12555.97
542.494	12595.74
542.858	12613.82
543.223	12547.38
543.587	12569.75
543.952	12474.62
544.316	12460.83
544.681	12400.04
545.045	12476.88
545.41	12369.31
545.774	12383.54
546.138	12306.48
546.503	12317.33
546.867	12249.76
547.231	12311.91
547.595	12224.68
547.959	12238.46
548.324	12205.92
548.688	12124.12
549.052	12063.78
549.416	12072.14
549.779	12088.64
550.143	12060.39
550.507	12076.89
550.871	11999.6
551.235	11968.87
551.599	11967.28
551.962	11937.23
552.326	11890
552.689	11842.54
553.053	11780.4
553.417	11809.1
553.78	11807.74
554.143	11858.59
554.507	11765.03
554.87	11794.41
555.234	11813.84
555.597	11703.56
555.96	11715.77
556.323	11697.01
556.686	11690.23
557.05	11738.59
557.413	11675.09
557.776	11678.93
558.139	11662.21
558.502	11629.21
558.865	11586.05
559.228	11720.06
559.59	11679.38
559.953	11623.11
560.316	11707.86
560.679	11649.78
561.041	11744.24
561.404	11707.18
561.767	11741.08
562.129	11574.3
562.492	11701.53
562.854	11692.04
563.217	11681.42
563.579	11611.81
563.941	11699.95
564.304	11731.81
564.666	11752.15
565.028	11692.49
565.39	11781.98
565.753	11778.14
566.115	11831.47
566.477	11805.93
566.839	11767.06
567.201	11835.99
567.563	11918.25
567.925	11875.76
568.287	11868.98
568.648	11833.5
569.01	11882.99
569.372	11969.54
569.734	11797.12
570.095	11931.35
570.457	11974.97
570.819	11957.79
571.18	11922.31
571.542	11894.52
571.903	11989.88
572.265	12049.54
572.626	11985.81
572.987	11946.49
573.349	12039.37
573.71	12033.72
574.071	11983.55
574.432	12085.02
574.794	12093.83
575.155	12061.97
575.516	11970
575.877	12056.77
576.238	12057.45
576.599	12021.52
576.96	12124.34
577.32	12098.35
577.681	12066.26
578.042	12088.64
578.403	12110.33
578.763	12044.57
579.124	12122.99
579.485	12074.17
579.845	12115.3
580.206	12092.48
580.566	12121.18
580.927	12077.79
581.287	12132.7
581.648	12076.43
582.008	12232.36
582.368	12076.43
582.728	12113.5
583.089	12138.13
583.449	12116.43
583.809	12075.98
584.169	12101.74
584.529	12044.34
584.889	12140.39
585.249	12082.99
585.609	12015.87
585.969	12079.6
586.329	11998.47
586.688	12045.7
587.048	12017.23
587.408	11964.8
587.768	12018.81
588.127	11944.69
588.487	11968.87
588.846	12050.67
589.206	11903.78
589.565	11980.62
589.925	12011.35
590.284	11929.77
590.643	11974.74
591.003	11960.5
591.362	11936.1
591.721	11907.85
592.08	11970.45
592.44	11930.22
592.799	11943.33
593.158	11909.88
593.517	11904.24
593.876	11825.82
594.235	11840.96
594.593	11792.6
594.952	11832.82
595.311	11907.17
595.67	11851.58
596.029	11966.38
596.387	11983.78
596.746	11973.16
597.104	11862.43
597.463	11840.51
597.822	11862.2
598.18	11847.06
598.538	11791.7
598.897	11889.55
599.255	11740.62
599.613	11969.32
599.972	11823.79
600.33	11874.41
600.688	11793.73
601.046	11869.89
601.404	11866.5
601.762	11820.62
602.12	11908.98
602.478	11797.57
602.836	11833.95
603.194	11773.39
603.552	11882.77
603.91	11842.99
604.268	11851.58
604.625	11784.46
604.983	11869.43
605.341	11818.81
605.698	11839.38
606.056	11898.36
606.413	11868.08
606.771	11891.81
607.128	11854.74
607.485	11814.75
607.843	11819.94
608.2	11966.15
608.557	12008.87
608.914	11926.38
609.272	11990.33
609.629	12017
609.986	11982.2
610.343	11994.4
610.7	11959.15
611.057	11973.84
611.414	12017.9
611.771	11946.27
612.127	12075.08
612.484	12007.06
612.841	12060.84
613.198	11967.74
613.554	11965.02
613.911	12044.34
614.267	12073.27
614.624	12019.49
614.98	12002.54
615.337	12141.06
615.693	12113.95
616.05	12047.28
616.406	12110.56
616.762	12089.77
617.118	12086.15
617.475	12086.38
617.831	12067.62
618.187	12169.99
618.543	12190.78
618.899	12265.13
619.255	12193.49
619.611	12153.95
619.967	12198.46
620.323	12237.33
620.678	12201.4
621.034	12138.13
621.39	12185.81
621.746	12205.47
622.101	12194.17
622.457	12128.64
622.812	12253.38
623.168	12262.64
623.523	12235.07
623.879	12274.85
624.234	12142.19
624.589	12243.44
624.945	12177.22
625.3	12244.79
625.655	12172.7
626.01	12265.58
626.365	12270.78
626.72	12246.37
627.075	12185.81
627.43	12220.84
627.785	12161.63
628.14	12234.62
628.495	12200.27
628.85	12139.94
629.205	12115.3
629.559	12202.53
629.914	12090.9
630.269	12179.71
630.623	12089.09
630.978	12064
631.332	12120.5
631.687	12151.23
632.041	12078.02
632.396	12109.65
632.75	12027.62
633.104	12025.36
633.459	11983.55
633.813	12022.88
634.167	12031.46
634.521	11988.75
634.875	11996.21
635.229	11988.53
635.583	11924.8
635.937	11904.69
636.291	11918.02
636.645	11945.82
636.999	11821.98
637.352	11855.87
637.706	11863.33
638.06	11859.72
638.413	11877.57
638.767	11808.19
639.121	11869.89
639.474	11825.82
639.828	11807.51
640.181	11852.26
640.534	11775.65
640.888	11806.38
641.241	11680.96
641.594	11699.27
641.947	11781.53
642.301	11638.25
642.654	11713.51
643.007	11656.11
643.36	11642.77
643.713	11666.28
644.066	11660.63
644.419	11633.28
644.771	11529.56
645.124	11413.17
645.477	11442.55
645.83	11377.47
646.182	11348.32
646.535	11260.18
646.888	11296.12
647.24	11195.78
647.593	11326.4
647.945	11231.26
648.298	11245.72
648.65	11179.96
649.002	11089.79
649.355	11207.3
649.707	11282.78
650.059	11327.3
650.411	11403.68
650.763	11442.1
651.115	11520.52
651.467	11519.39
651.819	11537.69
652.171	11552.15
652.523	11500.86
652.875	11450.69
653.227	11451.37
653.578	11490.01
653.93	11476
654.282	11412.72
654.633	11434.19
654.985	11462.89
655.337	11465.15
655.688	11405.04
656.039	11545.15
656.391	11437.81
656.742	11488.43
657.094	11465.83
657.445	11572.72
657.796	11499.05
658.147	11530.23
658.498	11484.59
658.849	11554.19
659.2	11488.88
659.551	11541.98
659.902	11462.66
660.253	11572.49
660.604	11590.8
660.955	11548.09
661.306	11558.03
661.656	11539.95
662.007	11566.39
662.358	11601.64
662.708	11523.23
663.059	11532.72
663.409	11480.97
663.76	11575.2
664.11	11534.75
664.461	11541.08
664.811	11593.06
665.161	11568.2
665.511	11497.69
665.862	11458.82
666.212	11527.75
666.562	11553.96
666.912	11500.4
667.262	11470.8
667.612	11523.45
667.962	11518.71
668.312	11521.42
668.662	11534.08
669.011	11539.95
669.361	11553.28
669.711	11448.43
670.06	11562.78
670.41	11509.67
670.76	11457.02
671.109	11483
671.459	11546.28
671.808	11433.51
672.157	11513.74
672.507	11437.58
672.856	11476.68
673.205	11449.11
673.554	11520.52
673.904	11463.79
674.253	11521.19
674.602	11504.25
674.951	11290.01
675.3	11276.23
675.649	11434.42
675.998	11399.84
676.346	11396
676.695	11370.92
677.044	11297.92
677.393	11401.42
677.741	11411.82
678.09	11300.18
678.438	11319.39
678.787	11280.75
679.135	11345.61
679.484	11298.6
679.832	11312.16
680.181	11229.22
680.529	11173.63
680.877	11114.65
681.225	11137.48
681.573	11259.96
681.922	11110.36
682.27	11122.79
682.618	11076.01
682.966	11093.86
683.314	11115.78
683.661	11053.18
684.009	10963.69
684.357	10948.55
684.705	10983.36
685.053	10956.01
685.4	10949.46
685.748	10922.57
686.095	10899.74
686.443	10852.51
686.79	10822.46
687.138	10902.23
687.485	10758.28
687.832	10854.55
688.18	10757.37
688.527	10692.97
688.874	10711.5
689.221	10655
689.568	10699.52
689.915	10665.17
690.262	10684.83
690.609	10568.9
690.956	10535.91
691.303	10520.09
691.65	10450.71
691.997	10394.67
692.344	10354.67
692.69	10280.32
693.037	10358.96
693.383	10238.52
693.73	10291.4
694.077	10202.81
694.423	10171.63
694.769	10245.3
695.116	10108.8
695.462	10105.41
695.808	10069.03
696.155	10072.64
696.501	10022.48
696.847	9942.48
697.193	9915.36
697.539	10005.3
697.885	9850.96
698.231	9804.4
698.577	9859.99
698.923	9783.39
699.269	9802.37
699.614	9743.61
699.96	9625.88
700.306	9606.44
700.651	9558.53
700.997	9540
701.342	9542.94
701.688	9503.62
702.033	9485.32
702.379	9450.51
702.724	9548.14
703.069	9388.37
703.415	9336.17
703.76	9349.73
704.105	9252.33
704.45	9378.2
704.795	9183.85
705.14	9196.06
705.485	9184.08
705.83	9151.99
706.175	9180.01
706.52	9087.36
706.865	9119.45
707.209	9016.4
707.554	9065.21
707.899	9038.1
708.243	8952.22
708.588	8978.66
708.932	8910.19
709.277	8912
709.621	8915.39
709.966	8856.41
710.31	8830.64
710.654	8759.68
710.998	8729.63
711.342	8780.25
711.687	8721.04
712.031	8682.17
712.375	8588.62
712.719	8668.39
713.063	8690.53
713.407	8686.01
713.75	8653.92
714.094	8632.91
714.438	8577.32
714.782	8593.14
715.125	8536.19
715.469	8554.27
715.812	8552.91
716.156	8462.29
716.499	8496.87
716.843	8478.79
717.186	8507.26
717.53	8520.37
717.873	8515.4
718.216	8500.26
718.559	8393.14
718.902	8343.88
719.246	8406.7
719.589	8339.13
719.932	8333.71
720.275	8348.4
720.617	8355.63
720.96	8301.39
721.303	8323.76
721.646	8281.96
721.989	8280.6
722.331	8321.28
722.674	8269.98
723.016	8332.35
723.359	8220.26
723.701	8260.26
724.044	8245.57
724.386	8155.63
724.729	8227.27
725.071	8210.32
725.413	8225.24
725.755	8215.07
726.097	8182.98
726.439	8187.04
726.782	8198.57
727.124	8178.91
727.465	8116.54
727.807	8180.94
728.149	8165.8
728.491	8139.59
728.833	8150.89
729.175	8085.58
729.516	8132.13
729.858	8159.02
730.199	8143.2
730.541	8156.76
730.882	8090.32
731.224	8110.66
731.565	8062.08
731.906	8108.18
732.248	8123.09
732.589	8091.45
732.93	8014.62
733.271	8101.4
733.612	8033.83
733.953	8089.42
734.294	8084.9
734.635	8056.2
734.976	8058.91
735.317	8061.17
735.658	8078.8
735.999	8049.87
736.339	8048.74
736.68	8066.37
737.021	8060.95
737.361	8087.84
737.702	8088.52
738.042	8079.93
738.383	8141.17
738.723	8100.49
739.063	8153.15
739.404	8153.15
739.744	8177.1
740.084	8153.37
740.424	8165.12
740.764	8179.14
741.104	8173.94
741.444	8141.85
741.784	8173.94
742.124	8169.87
742.464	8286.93
742.804	8239.47
743.143	8219.36
743.483	8265.46
743.823	8252.13
744.162	8351.11
744.502	8386.36
744.841	8362.86
745.181	8397.89
745.52	8471.1
745.86	8439.92
746.199	8459.58
746.538	8475.62
746.877	8586.58
747.216	8594.27
747.556	8624.1
747.895	8680.14
748.234	8651.21
748.573	8731.66
748.911	8767.37
749.25	8892.11
749.589	8921.71
749.928	8976.4
750.267	9031.09
750.605	9139.34
750.944	9136.62
751.283	9242.16
751.621	9313.79
751.96	9285.77
752.298	9458.65
752.636	9545.2
752.975	9564.64
753.313	9730.96
753.651	9871.52
753.989	9843.72
754.327	10007.56
754.666	10113.55
755.004	10209.14
755.342	10339.08
755.679	10491.39
756.017	10557.83
756.355	10632.4
756.693	10779.74
757.031	10934.09
757.368	11069.23
757.706	11182.22
758.044	11258.15
758.381	11479.16
758.719	11601.42
759.056	11756.44
759.394	11924.57
759.731	12079.15
760.068	12082.76
