Data from hue_100_FLMS001491_00040.txt Node
Date: Tue Feb 07 17:03:05 GMT 2017
User: dcchb
Spectrometer: FLMS00149
Trigger mode: 0
Integration Time (sec): 2.000000E-2
Scans to average: 10
Electric dark correction enabled: true
Nonlinearity correction enabled: false
Boxcar width: 0
XAxis mode: Wavelengths
Number of Pixels in Spectrum: 2048
>>>>>Begin Spectral Data<<<<<
341.393	-20.32
341.776	-20.32
342.16	-20.32
342.543	-58.97
342.927	-66.88
343.31	-83.15
343.693	-74.79
344.077	-68.68
344.46	-52.87
344.843	-50.83
345.226	-34.11
345.61	-37.27
345.993	-23.49
346.376	24.19
346.759	-6.54
347.142	20.35
347.525	50.63
347.908	50.86
348.291	63.74
348.674	102.38
349.057	119.56
349.44	117.98
349.823	133.57
350.206	176.96
350.588	198.2
350.971	215.15
351.354	244.08
351.737	242.49
352.119	266.45
352.502	267.35
352.884	287.24
353.267	286.33
353.65	297.86
354.032	296.5
354.414	305.99
354.797	313.45
355.179	324.3
355.562	331.98
355.944	332.21
356.326	333.34
356.709	330.63
357.091	342.6
357.473	355.49
357.855	350.51
358.238	342.38
358.62	327.92
359.002	350.74
359.384	339.44
359.766	359.33
360.148	332.43
360.53	338.99
360.912	340.8
361.294	341.47
361.676	345.54
362.057	315.03
362.439	338.08
362.821	339.44
363.203	347.58
363.584	334.47
363.966	338.99
364.348	336.73
364.729	337.41
365.111	341.47
365.493	328.37
365.874	323.85
366.256	317.52
366.637	315.03
367.019	303.51
367.4	313.23
367.781	308.25
368.163	334.02
368.544	335.37
368.925	315.26
369.306	331.53
369.688	329.72
370.069	335.82
370.45	331.53
370.831	340.34
371.212	305.54
371.593	326.56
371.974	322.94
372.355	337.41
372.736	337.41
373.117	331.76
373.498	330.85
373.879	332.66
374.26	322.04
374.641	328.82
375.021	337.63
375.402	342.38
375.783	336.28
376.163	335.15
376.544	338.08
376.925	337.41
377.305	348.48
377.686	329.95
378.066	330.85
378.447	348.03
378.827	337.86
379.208	368.82
379.588	358.65
379.968	343.73
380.349	354.81
380.729	351.64
381.109	371.76
381.489	364.75
381.87	354.81
382.25	356.61
382.63	361.13
383.01	360.23
383.39	351.42
383.77	375.37
384.15	358.87
384.53	375.15
384.91	367.91
385.29	362.04
385.67	360.68
386.049	366.78
386.429	395.48
386.809	359.55
387.189	361.59
387.568	395.71
387.948	367.91
388.328	363.17
388.707	382.6
389.087	368.37
389.466	388.03
389.846	385.77
390.225	416.05
390.605	390.96
390.984	388.48
391.363	392.55
391.743	410.4
392.122	385.54
392.501	392.09
392.881	428.93
393.26	381.47
393.639	414.24
394.018	400.68
394.397	410.4
394.776	402.94
395.155	431.64
395.534	437.52
395.913	407.24
396.292	442.94
396.671	433.9
397.05	422.83
397.429	431.42
397.808	411.98
398.186	434.13
398.565	421.7
398.944	415.37
399.323	422.83
399.701	426.9
400.08	425.99
400.458	446.1
400.837	458.53
401.215	452.66
401.594	428.7
401.972	447.69
402.351	486.33
402.729	430.96
403.107	487.46
403.486	465.09
403.864	477.06
404.242	457.4
404.62	456.27
404.999	471.19
405.377	481.81
405.755	476.84
406.133	490.85
406.511	490.17
406.889	496.72
407.267	494.46
407.645	503.73
408.023	467.35
408.401	505.76
408.779	495.37
409.156	498.76
409.534	524.07
409.912	514.35
410.29	520.9
410.667	557.29
411.045	503.28
411.422	538.53
411.8	538.53
412.178	563.84
412.555	552.32
412.933	550.51
413.31	554.35
413.687	556.16
414.065	564.97
414.442	564.07
414.819	591.19
415.197	600.9
415.574	570.17
415.951	584.63
416.328	591.86
416.705	613.56
417.082	608.81
417.46	600.22
417.837	632.77
418.214	610.85
418.591	624.4
418.967	607.46
419.344	604.74
419.721	597.29
420.098	628.7
420.475	647.45
420.852	611.98
421.228	633.22
421.605	651.97
421.982	656.27
422.358	665.53
422.735	674.35
423.111	675.7
423.488	678.87
423.864	676.15
424.241	666.21
424.617	680
424.994	679.09
425.37	717.28
425.746	707.79
426.123	708.24
426.499	707.79
426.875	705.53
427.251	731.07
427.627	742.59
428.003	751.86
428.379	760.9
428.756	735.81
429.132	757.06
429.507	768.58
429.883	777.62
430.259	793.89
430.635	778.75
431.011	759.32
431.387	813.33
431.763	817.17
432.138	799.32
432.514	828.24
432.89	855.13
433.265	864.62
433.641	839.99
434.016	864.17
434.392	877.28
434.767	885.19
435.143	863.04
435.518	896.71
435.894	916.83
436.269	907.56
436.644	919.09
437.02	934
437.395	919.31
437.77	944.4
438.145	916.15
438.52	966.32
438.895	978.52
439.271	990.72
439.646	971.06
440.021	991.85
440.395	1001.12
440.77	1014.45
441.145	997.28
441.52	1023.26
441.895	1023.49
442.27	1055.13
442.645	1035.24
443.019	1045.18
443.394	1043.15
443.769	1040.21
444.143	1065.07
444.518	1073.88
444.892	1070.72
445.267	1088.12
445.641	1115.69
446.016	1093.09
446.39	1094.22
446.764	1098.97
447.139	1132.19
447.513	1130.61
447.887	1122.7
448.262	1139.42
448.636	1159.98
449.01	1157.27
449.384	1171.28
449.758	1176.71
450.132	1191.17
450.506	1199.76
450.88	1238.4
451.254	1198.85
451.628	1227.1
452.002	1228.68
452.376	1253.54
452.75	1272.52
453.123	1276.82
453.497	1302.8
453.871	1302.13
454.244	1335.57
454.618	1301.22
454.992	1345.74
455.365	1366.31
455.739	1411.05
456.112	1385.74
456.486	1407.21
456.859	1423.03
457.232	1464.83
457.606	1454.89
457.979	1441.11
458.352	1489.01
458.725	1518.84
459.099	1546.64
459.472	1562.23
459.845	1572.4
460.218	1588.22
460.591	1607.88
460.964	1610.82
461.337	1671.83
461.71	1668.44
462.083	1656.02
462.456	1714.09
462.829	1705.73
463.201	1734.21
463.574	1744.83
463.947	1816.69
464.32	1814.2
464.692	1824.6
465.065	1850.81
465.438	1901.66
465.81	1966.97
466.183	1924.71
466.555	1986.4
466.928	1994.99
467.3	2022.56
467.672	2026.85
468.045	2111.15
468.417	2108.21
468.789	2114.08
469.161	2156.57
469.534	2214.87
469.906	2265.49
470.278	2298.03
470.65	2337.13
471.022	2368.77
471.394	2401.98
471.766	2437.24
472.138	2466.39
472.51	2513.62
472.882	2602.88
473.253	2655.76
473.625	2694.18
473.997	2772.6
474.369	2816.21
474.74	2875.87
475.112	2957
475.484	2975.76
475.855	3099.59
476.227	3118.35
476.598	3195.41
476.97	3252.13
477.341	3366.71
477.713	3430.21
478.084	3478.11
478.455	3625.46
478.827	3666.81
479.198	3804.21
479.569	3825.22
479.94	3954.26
480.311	4040.81
480.682	4123.07
481.053	4300.47
481.424	4379.33
481.795	4472.66
482.166	4624.07
482.537	4733.67
482.908	4809.61
483.279	4916.72
483.65	5117.39
484.021	5221.8
484.391	5342.02
484.762	5497.5
485.133	5579.53
485.503	5692.97
485.874	5860.65
486.244	5981.55
486.615	6210.02
486.985	6287.76
487.356	6486.62
487.726	6598.03
488.097	6756.22
488.467	6928.65
488.837	7130.45
489.207	7214.51
489.578	7449.08
489.948	7544.22
490.318	7757.32
490.688	7812.92
491.058	8102.4
491.428	8203.64
491.798	8395.95
492.168	8603.86
492.538	8718.2
492.908	8931.08
493.278	9050.62
493.648	9155.93
494.017	9341.24
494.387	9533.32
494.757	9698.97
495.126	9885.18
495.496	9942.8
495.866	10101.9
496.235	10321.55
496.605	10452.85
496.974	10545.5
497.344	10754.31
497.713	10909.56
498.082	11063.68
498.452	11164.69
498.821	11331.47
499.19	11336.89
499.559	11618.24
499.928	11664.11
500.298	11841.06
500.667	12022.3
501.036	12050.54
501.405	12220.71
501.774	12302.52
502.143	12401.95
502.512	12532.34
502.88	12692.11
503.249	12759
503.618	12944.53
503.987	13059.11
504.356	13113.34
504.724	13311.75
505.093	13365.09
505.462	13340.68
505.83	13519.66
506.199	13584.74
506.567	13866.54
506.936	13838.29
507.304	13994.22
507.672	14115.8
508.041	14183.37
508.409	14282.58
508.777	14383.14
509.145	14473.08
509.514	14450.03
509.882	14753.75
510.25	14631.04
510.618	14791.04
510.986	14774.99
511.354	15020.86
511.722	15097.7
512.09	15202.55
512.458	15198.48
512.826	15320.74
513.193	15391.93
513.561	15391.93
513.929	15540.17
514.297	15667.17
514.664	15729.77
515.032	15705.59
515.4	15860.61
515.767	15908.75
516.135	16082.76
516.502	15890.9
516.869	16118.46
517.237	16286.37
517.604	16143.32
517.972	16302.64
518.339	16371.56
518.706	16415.85
519.073	16440.94
519.44	16431.67
519.808	16648.16
520.175	16553.03
520.542	16746.01
520.909	16735.39
521.276	16685.45
521.643	16901.04
522.009	16944.65
522.376	17020.36
522.743	17021.04
523.11	17116.17
523.477	17294.7
523.843	17362.5
524.21	17435.04
524.577	17465.54
524.943	17529.72
525.31	17593.68
525.676	17684.97
526.043	17719.32
526.409	17762.71
526.776	17826.66
527.142	17819.88
527.508	17905.76
527.874	17881.8
528.241	17946.89
528.607	18021.69
528.973	18077.5
529.339	18043.16
529.705	18177.39
530.071	18117.73
530.437	18296.26
530.803	18250.83
531.169	18299.65
531.535	18196.37
531.901	18211.51
532.267	18196.15
532.632	18311.17
532.998	18331.96
533.364	18415.58
533.73	18298.29
534.095	18397.72
534.461	18497.38
534.826	18385.97
535.192	18446.99
535.557	18409.02
535.923	18437.27
536.288	18406.99
536.653	18457.38
537.019	18404.73
537.384	18432.3
537.749	18444.27
538.114	18342.36
538.479	18263.26
538.845	18368.34
539.21	18263.04
539.575	18369.47
539.94	18281.79
540.305	18326.54
540.67	18256.48
541.034	18315.92
541.399	18346.2
541.764	18277.05
542.129	18208.8
542.494	18195.47
542.858	18200.44
543.223	18188.24
543.587	18226.43
543.952	18159.54
544.316	18109.82
544.681	18087.45
545.045	18158.86
545.41	18166.54
545.774	18136.26
546.138	17994.8
546.503	18153.44
546.867	17893.55
547.231	17967
547.595	17966.77
547.959	17964.29
548.324	17938.07
548.688	17860.56
549.052	17909.15
549.416	17814.23
549.779	17833.67
550.143	17828.47
550.507	17874.35
550.871	17783.95
551.235	17694.01
551.599	17871.18
551.962	17769.94
552.326	17741.47
552.689	17773.11
553.053	17659.21
553.417	17644.75
553.78	17924.29
554.143	17647.23
554.507	17753.45
554.87	17746.21
555.234	17861.69
555.597	17612.43
555.96	17629.83
556.323	17626.9
556.686	17674.35
557.05	17697.85
557.413	17725.42
557.776	17564.75
558.139	17720.23
558.502	17711.41
558.865	17698.31
559.228	17727.01
559.59	17842.48
559.953	17785.99
560.316	17886.78
560.679	17751.64
561.041	17816.72
561.404	17906.66
561.767	18036.15
562.129	17740.56
562.492	17878.41
562.854	17949.6
563.217	17888.81
563.579	17913.44
563.941	18010.84
564.304	17996.83
564.666	18077.05
565.028	18037.96
565.39	18113.66
565.753	18122.02
566.115	18211.06
566.477	18223.04
566.839	18330.83
567.201	18336.03
567.563	18235.69
567.925	18333.32
568.287	18371.96
568.648	18366.31
569.01	18372.64
569.372	18525.85
569.734	18382.36
570.095	18494.44
570.457	18513.88
570.819	18504.39
571.18	18552.07
571.542	18615.12
571.903	18652.63
572.265	18601.33
572.626	18709.35
572.987	18718.39
573.349	18654.44
573.71	18728.56
574.071	18785.73
574.432	18758.16
574.794	18891.95
575.155	18789.58
575.516	18786.19
575.877	18802.68
576.238	18859.63
576.599	18836.36
576.96	18865.73
577.32	18836.58
577.681	18959.97
578.042	18917.93
578.403	18861.44
578.763	18838.16
579.124	19010.14
579.485	18958.84
579.845	19045.16
580.206	18958.84
580.566	18930.59
580.927	18921.1
581.287	19081.55
581.648	18984.37
582.008	18987.31
582.368	18875
582.728	18966.3
583.089	18965.39
583.449	18949.35
583.809	18976.24
584.169	19004.49
584.529	19011.27
584.889	18969.91
585.249	18999.51
585.609	18768.79
585.969	18993.41
586.329	18753.19
586.688	18865.05
587.048	18888.78
587.408	18827.54
587.768	18756.36
588.127	18751.16
588.487	18777.37
588.846	18842.91
589.206	18777.37
589.565	18676.81
589.925	18901.66
590.284	18778.05
590.643	18697.6
591.003	18874.55
591.362	18823.93
591.721	18755.45
592.08	18838.84
592.44	18829.12
592.799	18911.83
593.158	18757.71
593.517	18768.33
593.876	18762.68
594.235	18764.94
594.593	18740.99
594.952	18736.7
595.311	18746.64
595.67	18738.96
596.029	18736.7
596.387	18815.11
596.746	18823.47
597.104	18686.3
597.463	18616.93
597.822	18794.77
598.18	18613.76
598.538	18717.94
598.897	18810.14
599.255	18538.28
599.613	18850.37
599.972	18670.03
600.33	18744.83
600.688	18614.44
601.046	18724.04
601.404	18821.67
601.762	18813.76
602.12	18778.05
602.478	18801.33
602.836	18699.18
603.194	18642.24
603.552	18701.44
603.91	18618.06
604.268	18707.32
604.625	18608.11
604.983	18756.58
605.341	18663.03
605.698	18746.64
606.056	18832.97
606.413	18689.24
606.771	18839.07
607.128	18783.02
607.485	18792.97
607.843	18712.52
608.2	18874.32
608.557	18907.77
608.914	18835.68
609.272	18902.34
609.629	18879.74
609.986	18939.18
610.343	18875.68
610.7	19184.59
611.057	18955.45
611.414	18978.27
611.771	18931.49
612.127	19069.12
612.484	18964.49
612.841	19147.99
613.198	19021.66
613.554	19046.74
613.911	19076.35
614.267	19059.17
614.624	19049.91
614.98	19020.08
615.337	19172.84
615.693	19025.73
616.05	19163.13
616.406	19241.32
616.762	19146.63
617.118	19177.59
617.475	19226.85
617.831	19233.63
618.187	19223.24
618.543	19214.42
618.899	19255.78
619.255	19343.01
619.611	19201.54
619.967	19380.3
620.323	19395.21
620.678	19255.78
621.034	19324.48
621.39	19231.82
621.746	19340.97
622.101	19487.19
622.457	19312.73
622.812	19289
623.168	19375.32
623.523	19352.27
623.879	19439.05
624.234	19365.38
624.589	19492.83
624.945	19443.34
625.3	19417.13
625.655	19322.9
626.01	19393.18
626.365	19393.85
626.72	19247.64
627.075	19332.16
627.43	19251.49
627.785	19346.4
628.14	19265.04
628.495	19324.03
628.85	19260.98
629.205	19271.82
629.559	19318.83
629.914	19182.56
630.269	19205.61
630.623	19172.17
630.978	19185.05
631.332	19234.31
631.687	19127.87
632.041	19185.72
632.396	19178.04
632.75	19063.92
633.104	19087.42
633.459	19013.07
633.813	19045.62
634.167	18910.7
634.521	18992.96
634.875	19004.03
635.229	19017.14
635.583	18865.96
635.937	18925.17
636.291	18894.88
636.645	18885.62
636.999	18813.3
637.352	18937.37
637.706	18769.24
638.06	18804.04
638.413	18782.35
638.767	18868.67
639.121	18700.09
639.474	18582.35
639.828	18635
640.181	18683.82
640.534	18609.69
640.888	18668.45
641.241	18523.14
641.594	18565.85
641.947	18641.11
642.301	18523.82
642.654	18590.49
643.007	18667.09
643.36	18510.04
643.713	18465.52
644.066	18594.33
644.419	18442.92
644.771	18341.68
645.124	18194.56
645.477	18187.11
645.83	18164.96
646.182	18011.07
646.535	17922.03
646.888	17950.5
647.24	17833.22
647.593	17993.89
647.945	17862.82
648.298	17858.53
648.65	17792.77
649.002	17788.47
649.355	17871.41
649.707	17920.9
650.059	18011.74
650.411	18196.6
650.763	18101.69
651.115	18292.87
651.467	18282.02
651.819	18260.1
652.171	18226.43
652.523	18223.94
652.875	18183.04
653.227	18169.71
653.578	18228.91
653.93	18216.71
654.282	18149.59
654.633	18088.58
654.985	18106.66
655.337	18202.25
655.688	18176.03
656.039	18268.69
656.391	18099.2
656.742	18193.43
657.094	18091.74
657.445	18295.58
657.796	18138.97
658.147	18201.12
658.498	18140.33
658.849	18157.5
659.2	18111.4
659.551	18157.73
659.902	18262.81
660.253	18191.17
660.604	18357.5
660.955	18077.73
661.306	18314.79
661.656	18167.67
662.007	18213.32
662.358	18283.83
662.708	18185.3
663.059	18224.17
663.409	18133.77
663.76	18227.33
664.11	18233.43
664.461	18204.73
664.811	18260.78
665.161	18215.13
665.511	18258.97
665.862	18184.17
666.212	18248.12
666.562	18254.22
666.912	18183.04
667.262	18190.27
667.612	18185.52
667.962	18269.82
668.312	18258.29
668.662	18292.87
669.011	18198.86
669.361	18223.49
669.711	18167.9
670.06	18096.71
670.41	18110.05
670.76	18186.88
671.109	18227.11
671.459	18149.82
671.808	18141.46
672.157	18158.41
672.507	18091.97
672.856	18089.03
673.205	18065.3
673.554	18010.39
673.904	17946.43
674.253	18034.34
674.602	17935.36
674.951	17808.59
675.3	17640.45
675.649	18044.96
675.998	17965.64
676.346	17919.99
676.695	17944.63
677.044	17835.25
677.393	17832.77
677.741	17985.3
678.09	17873.67
678.438	17760.68
678.787	17753.67
679.135	17754.8
679.484	17714.35
679.832	17640.45
680.181	17685.2
680.529	17715.03
680.877	17614.24
681.225	17559.33
681.573	17669.61
681.922	17526.78
682.27	17519.33
682.618	17484.98
682.966	17463.06
683.314	17470.29
683.661	17331.54
684.009	17305.32
684.357	17320.91
684.705	17264.64
685.053	17241.82
685.4	17192.56
685.748	17104.88
686.095	17096.97
686.443	17044.09
686.79	17058.32
687.138	17074.82
687.485	17100.13
687.832	16952.11
688.18	17001.6
688.527	16888.84
688.874	16808.16
689.221	16780.59
689.568	16759.35
689.915	16664.89
690.262	16617.88
690.609	16590.09
690.956	16500.37
691.303	16551.44
691.65	16440.03
691.997	16470.99
692.344	16369.53
692.69	16314.16
693.037	16290.89
693.383	16212.92
693.73	16213.83
694.077	16108.07
694.423	16125.47
694.769	16026.94
695.116	15962.31
695.462	15917.56
695.808	15786.49
696.155	15953.49
696.501	15714.4
696.847	15787.85
697.193	15555.76
697.539	15633.73
697.885	15490.45
698.231	15506.95
698.577	15458.36
698.923	15479.16
699.269	15358.03
699.614	15319.16
699.96	15222.66
700.306	15208.2
700.651	15115.55
700.997	15144.02
701.342	15109.45
701.688	15054.08
702.033	14962.33
702.379	14929.79
702.724	14901.32
703.069	14845.95
703.415	14710.36
703.76	14695.67
704.105	14680.31
704.45	14630.36
704.795	14549.91
705.14	14523.02
705.485	14521.44
705.83	14359.18
706.175	14501.1
706.52	14413.42
706.865	14245.52
707.209	14224.95
707.554	14158.29
707.899	14309.69
708.243	14057.95
708.588	14055.46
708.932	14028.12
709.277	13991.28
709.621	13987.67
709.966	13961.68
710.31	13970.95
710.654	13785.87
710.998	13870.84
711.342	13774.34
711.687	13761.91
712.031	13670.39
712.375	13690.05
712.719	13766.21
713.063	13604.4
713.407	13611.18
713.75	13544.52
714.094	13586.32
714.438	13550.84
714.782	13543.39
715.125	13456.38
715.469	13475.14
715.812	13390.4
716.156	13363.73
716.499	13297.52
716.843	13267.46
717.186	13273.11
717.53	13336.39
717.873	13308.82
718.216	13305.43
718.559	13230.17
718.902	13142.49
719.246	13174.58
719.589	13097.07
719.932	13109.27
720.275	13110.63
720.617	13020.91
720.96	13049.16
721.303	13094.81
721.646	13050.74
721.989	12978.2
722.331	13047.81
722.674	12989.05
723.016	13026.56
723.359	12911.77
723.701	12948.6
724.044	12946.79
724.386	12831.54
724.729	12903.63
725.071	12901.14
725.413	12930.75
725.755	12895.04
726.097	12842.84
726.439	12719.91
726.782	12723.75
727.124	12811.43
727.465	12787.02
727.807	12800.13
728.149	12774.37
728.491	12703.18
728.833	12680.13
729.175	12651.21
729.516	12747.02
729.858	12663.86
730.199	12682.62
730.541	12685.56
730.882	12638.1
731.224	12676.74
731.565	12672.22
731.906	12634.71
732.248	12648.72
732.589	12568.5
732.93	12562.85
733.271	12585.67
733.612	12615.95
733.953	12631.55
734.294	12600.13
734.635	12549.29
734.976	12522.62
735.317	12526.46
735.658	12533.7
735.999	12541.15
736.339	12542.06
736.68	12648.72
737.021	12559.01
737.361	12564.88
737.702	12525.33
738.042	12554.49
738.383	12547.25
738.723	12648.5
739.063	12625.22
739.404	12643.3
739.744	12639.46
740.084	12611.66
740.424	12532.34
740.764	12623.41
741.104	12673.81
741.444	12597.42
741.784	12608.72
742.124	12689.85
742.464	12646.24
742.804	12688.27
743.143	12644.2
743.483	12675.61
743.823	12676.29
744.162	12739.57
744.502	12770.3
744.841	12829.06
745.181	12868.15
745.52	12890.75
745.86	12928.71
746.199	12932.56
746.538	13057.3
746.877	13096.17
747.216	13144.75
747.556	13142.49
747.895	13288.7
748.234	13222.72
748.573	13280.57
748.911	13327.35
749.25	13472.65
749.589	13467.68
749.928	13506.78
750.267	13674
750.605	13713.33
750.944	13692.54
751.283	13893.43
751.621	14014.79
751.96	14046.2
752.298	14145.86
752.636	14212.97
752.975	14272.63
753.313	14314.21
753.651	14532.06
753.989	14583.13
754.327	14711.94
754.666	14844.37
755.004	14973.18
