Data from hue_260_FLMS001491_00082.txt Node
Date: Tue Feb 07 15:59:42 GMT 2017
User: dcchb
Spectrometer: FLMS00149
Trigger mode: 0
Integration Time (sec): 2.000000E-2
Scans to average: 10
Electric dark correction enabled: true
Nonlinearity correction enabled: false
Boxcar width: 0
XAxis mode: Wavelengths
Number of Pixels in Spectrum: 2048
>>>>>Begin Spectral Data<<<<<
341.393	-3.14
341.776	-3.14
342.16	-3.14
342.543	-59.41
342.927	-67.31
343.31	-65.51
343.693	-60.76
344.077	-48.33
344.46	-61.21
344.843	-56.47
345.226	-49.01
345.61	-47.43
345.993	-19.86
346.376	-23.7
346.759	23.53
347.142	41.84
347.525	26.24
347.908	49.29
348.291	78.67
348.674	102.62
349.057	110.08
349.44	90.65
349.823	155.5
350.206	162.51
350.588	174.03
350.971	194.15
351.354	206.8
351.737	225.11
352.119	240.02
352.502	254.03
352.884	275.5
353.267	275.05
353.65	266.46
354.032	312.11
354.414	285.67
354.797	314.14
355.179	297.87
355.562	320.7
355.944	309.4
356.326	337.19
356.709	307.14
357.091	310.98
357.473	329.74
357.855	338.32
358.238	317.31
358.62	338.55
359.002	345.1
359.384	306.69
359.766	315.95
360.148	336.74
360.53	335.16
360.912	338.32
361.294	310.3
361.676	328.38
362.057	318.44
362.439	329.51
362.821	333.8
363.203	311.21
363.584	327.93
363.966	337.87
364.348	327.93
364.729	310.53
365.111	312.34
365.493	332.9
365.874	321.6
366.256	309.62
366.637	309.62
367.019	304.88
367.4	317.31
367.781	306.69
368.163	305.1
368.544	308.49
368.925	286.12
369.306	328.38
369.688	317.99
370.069	305.1
370.45	303.75
370.831	327.48
371.212	298.33
371.593	292.45
371.974	301.26
372.355	301.94
372.736	321.38
373.117	317.08
373.498	316.18
373.879	292.45
374.26	304.43
374.641	296.97
375.021	309.4
375.402	312.79
375.783	301.49
376.163	334.71
376.544	315.73
376.925	328.83
377.305	320.7
377.686	312.11
378.066	332.67
378.447	317.76
378.827	317.53
379.208	335.39
379.588	320.92
379.968	311.88
380.349	324.09
380.729	332.22
381.109	348.95
381.489	322.73
381.87	339.23
382.25	321.83
382.63	329.06
383.01	320.25
383.39	339.68
383.77	352.79
384.15	322.73
384.53	340.81
384.91	345.1
385.29	323.41
385.67	337.19
386.049	344.43
386.429	342.39
386.809	344.2
387.189	347.14
387.568	352.11
387.948	347.59
388.328	353.24
388.707	358.44
389.087	374.71
389.466	356.63
389.846	374.71
390.225	356.4
390.605	348.95
390.984	354.82
391.363	382.84
391.743	382.17
392.122	368.61
392.501	370.87
392.881	368.61
393.26	373.8
393.639	349.62
394.018	391.88
394.397	373.58
394.776	393.24
395.155	385.78
395.534	373.35
395.913	376.74
396.292	398.44
396.671	395.27
397.05	390.98
397.429	395.05
397.808	386.23
398.186	389.62
398.565	405.22
398.944	406.8
399.323	402.73
399.701	417.87
400.08	389.4
400.458	391.66
400.837	411.54
401.215	414.48
401.594	420.58
401.972	435.27
402.351	420.58
402.729	401.6
403.107	448.6
403.486	446.8
403.864	431.88
404.242	423.75
404.62	436.63
404.999	452.67
405.377	437.76
405.755	452.22
406.133	461.03
406.511	461.49
406.889	461.26
407.267	481.6
407.645	457.87
408.023	456.97
408.401	478.43
408.779	472.56
409.156	507.13
409.534	476.63
409.912	498.55
410.29	497.42
410.667	530.41
411.045	514.37
411.422	507.81
411.8	535.16
412.178	549.17
412.555	546.91
412.933	532.22
413.31	574.02
413.687	571.31
414.065	576.96
414.442	587.36
414.819	612.67
415.197	590.3
415.574	603.18
415.951	609.73
416.328	628.03
416.705	630.52
417.082	642.5
417.46	635.94
417.837	653.12
418.214	648.37
418.591	660.12
418.967	679.33
419.344	660.8
419.721	689.73
420.098	689.05
420.475	703.29
420.852	707.13
421.228	724.75
421.605	710.97
421.982	736.73
422.358	735.83
422.735	731.99
423.111	774.92
423.488	770.4
423.864	776.05
424.241	786.67
424.617	794.81
424.994	815.15
425.37	811.08
425.746	834.58
426.123	848.82
426.499	880.01
426.875	848.59
427.251	868.25
427.627	882.04
428.003	886.11
428.379	902.83
428.756	898.54
429.132	909.16
429.507	942.38
429.883	935.14
430.259	957.52
430.635	960.23
431.011	963.84
431.387	997.29
431.763	1024.41
432.138	1000.45
432.514	1039.55
432.89	1040.45
433.265	1078.19
433.641	1110.96
434.016	1097.4
434.392	1118.87
434.767	1128.81
435.143	1164.29
435.518	1148.92
435.894	1164.97
436.269	1206.32
436.644	1213.78
437.02	1242.26
437.395	1216.72
437.77	1248.13
438.145	1279.99
438.52	1286.32
438.895	1315.93
439.271	1313.21
439.646	1350.05
440.021	1353.66
440.395	1394.34
440.77	1368.35
441.145	1396.38
441.52	1444.06
441.895	1408.8
442.27	1452.19
442.645	1464.4
443.019	1455.58
443.394	1466.2
443.769	1513.43
444.143	1466.66
444.518	1509.14
444.892	1481.35
445.267	1540.33
445.641	1539.87
446.016	1573.32
446.39	1612.42
446.764	1560.67
447.139	1595.01
447.513	1601.57
447.887	1628.01
448.262	1657.61
448.636	1627.33
449.01	1644.5
449.384	1654.9
449.758	1663.26
450.132	1701.9
450.506	1698.74
450.88	1723.37
451.254	1705.52
451.628	1732.86
452.002	1758.85
452.376	1757.95
452.75	1769.93
453.123	1802.47
453.497	1809.25
453.871	1828.23
454.244	1861
454.618	1860.54
454.992	1897.38
455.365	1873.43
455.739	1924.5
456.112	1939.86
456.486	1969.92
456.859	1954.78
457.232	2005.17
457.606	2014.89
457.979	1992.97
458.352	2068.22
458.725	2078.62
459.099	2114.32
459.472	2138.73
459.845	2166.07
460.218	2204.04
460.591	2178.95
460.964	2184.38
461.337	2235.22
461.71	2273.64
462.083	2356.12
462.456	2305.73
462.829	2314.32
463.201	2372.4
463.574	2340.53
463.947	2396.58
464.32	2437.03
464.692	2449.91
465.065	2462.79
465.438	2499.17
465.81	2556.12
466.183	2561.54
466.555	2610.36
466.928	2587.53
467.3	2628.43
467.672	2638.6
468.045	2723.8
468.417	2708.88
468.789	2733.52
469.161	2816.9
469.534	2796.79
469.906	2883.79
470.278	2829.78
470.65	2898.03
471.022	2954.07
471.394	2957.69
471.766	3011.02
472.138	3037.24
472.51	3091.47
472.882	3173.73
473.253	3144.13
473.625	3200.62
473.997	3276.33
474.369	3279.72
474.74	3354.06
475.112	3367.85
475.484	3418.7
475.855	3446.94
476.227	3502.08
476.598	3592.7
476.97	3608.97
477.341	3684
477.713	3714.96
478.084	3752.47
478.455	3808.52
478.827	3843.99
479.198	3960.38
479.569	3934.84
479.94	3996.76
480.311	4080.37
480.682	4152.69
481.053	4227.71
481.424	4234.72
481.795	4350.42
482.166	4331.67
482.537	4388.61
482.908	4442.62
483.279	4483.75
483.65	4615.73
484.021	4682.17
484.391	4695.5
484.762	4766.91
485.133	4798.32
485.503	4815.49
485.874	4933.01
486.244	5010.29
486.615	5053.68
486.985	5046
487.356	5171.87
487.726	5168.03
488.097	5308.82
488.467	5271.98
488.837	5421.81
489.207	5486.89
489.578	5477.62
489.948	5505.19
490.318	5612.99
490.688	5583.84
491.058	5685.75
491.428	5718.97
491.798	5844.17
492.168	5909.93
492.538	5896.14
492.908	5971.62
493.278	6067.21
493.648	5992.41
494.017	6119.42
494.387	6139.53
494.757	6165.74
495.126	6202.35
495.496	6243.25
495.866	6286.42
496.235	6328.68
496.605	6356.25
496.974	6404.15
497.344	6452.29
497.713	6495.68
498.082	6478.28
498.452	6561.66
498.821	6497.94
499.19	6594.88
499.559	6617.48
499.928	6685.95
500.298	6721.66
500.667	6712.17
501.036	6758.72
501.405	6732.96
501.774	6795.78
502.143	6832.84
502.512	6822.45
502.88	6910.81
503.249	6835.33
503.618	6908.55
503.987	6948.55
504.356	7002.56
504.724	7019.5
505.093	7004.36
505.462	7025.15
505.83	7107.86
506.199	7119.84
506.567	7225.6
506.936	7188.09
507.304	7240.52
507.672	7201.42
508.041	7319.61
508.409	7307.63
508.777	7322.1
509.145	7365.26
509.514	7334.07
509.882	7394.64
510.25	7370.23
510.618	7466.5
510.986	7466.27
511.354	7503.79
511.722	7549.89
512.09	7577.91
512.458	7531.13
512.826	7620.84
513.193	7549.89
513.561	7565.93
513.929	7618.13
514.297	7638.02
514.664	7655.65
515.032	7695.42
515.4	7716.89
515.767	7744.23
516.135	7781.97
516.502	7739.26
516.869	7819.03
517.237	7777.45
517.604	7754.17
517.972	7821.07
518.339	7815.87
518.706	7841.18
519.073	7904.68
519.44	7904.68
519.808	7934.06
520.175	7946.03
520.542	7986.94
520.909	7984.45
521.276	7984.9
521.643	7995.75
522.009	8051.79
522.376	8045.01
522.743	8139.25
523.11	8143.54
523.477	8159.14
523.843	8183.32
524.21	8216.54
524.577	8231.9
524.943	8207.04
525.31	8228.96
525.676	8303.09
526.043	8303.76
526.409	8361.84
526.776	8350.77
527.142	8371.79
527.508	8393.25
527.874	8469.18
528.241	8448.85
528.607	8430.09
528.973	8484.55
529.339	8470.77
529.705	8461.5
530.071	8581.95
530.437	8467.6
530.803	8545.11
531.169	8504.21
531.535	8508.05
531.901	8563.19
532.267	8579.92
532.632	8597.77
532.998	8523.87
533.364	8635.96
533.73	8634.15
534.095	8672.34
534.461	8657.88
534.826	8669.4
535.192	8661.27
535.557	8662.63
535.923	8636.64
536.288	8625.11
536.653	8695.17
537.019	8650.2
537.384	8630.08
537.749	8657.65
538.114	8614.27
538.479	8627.6
538.845	8653.36
539.21	8614.04
539.575	8569.97
539.94	8636.19
540.305	8671.66
540.67	8618.78
541.034	8643.42
541.399	8617.65
541.764	8647.26
542.129	8630.99
542.494	8629.63
542.858	8637.09
543.223	8619.69
543.587	8648.16
543.952	8589.41
544.316	8586.47
544.681	8561.61
545.045	8619.46
545.41	8643.42
545.774	8626.24
546.138	8630.08
546.503	8607.94
546.867	8560.48
547.231	8590.76
547.595	8574.04
547.959	8599.12
548.324	8549.63
548.688	8563.87
549.052	8615.39
549.416	8581.72
549.779	8558.45
550.143	8569.07
550.507	8550.54
550.871	8565
551.235	8569.75
551.599	8555.28
551.962	8569.52
552.326	8530.2
552.689	8535.17
553.053	8569.52
553.417	8551.22
553.78	8601.84
554.143	8549.63
554.507	8555.96
554.87	8592.12
555.234	8648.39
555.597	8557.09
555.96	8616.07
556.323	8585.11
556.686	8558.67
557.05	8626.69
557.413	8649.74
557.776	8685.45
558.139	8612.46
558.502	8669.18
558.865	8670.31
559.228	8643.64
559.59	8680.25
559.953	8758.67
560.316	8807.25
560.679	8773.36
561.041	8746.46
561.404	8788.72
561.767	8792.79
562.129	8732
562.492	8849.74
562.854	8841.15
563.217	8866.46
563.579	8891.77
563.941	8939
564.304	8897.42
564.666	8962.73
565.028	8875.5
565.39	8930.41
565.753	9053.58
566.115	9057.64
566.477	9014.93
566.839	9079.34
567.201	9136.06
567.563	9134.48
567.925	9142.16
568.287	9213.8
568.648	9143.29
569.01	9167.7
569.372	9291.08
569.734	9185.32
570.095	9285.21
570.457	9244.98
570.819	9331.76
571.18	9306.68
571.542	9366.11
571.903	9371.76
572.265	9385.32
572.626	9352.1
572.987	9428.71
573.349	9409.95
573.71	9494.47
574.071	9451.98
574.432	9430.29
574.794	9566.78
575.155	9582.38
575.516	9515.03
575.877	9589.83
576.238	9663.95
576.599	9614.92
576.96	9603.17
577.32	9634.13
577.681	9733.11
578.042	9717.29
578.403	9752.09
578.763	9742.6
579.124	9773.1
579.485	9787.34
579.845	9789.83
580.206	9800.9
580.566	9834.35
580.927	9888.58
581.287	9919.99
581.648	9925.64
582.008	9939.43
582.368	10004.28
582.728	9936.94
583.089	9954.79
583.449	9952.53
583.809	10041.35
584.169	10045.64
584.529	10002.03
584.889	10080.44
585.249	10025.53
585.609	9991.86
585.969	10128.8
586.329	10036.83
586.688	10037.28
587.048	10141.46
587.408	10116.37
587.768	10087.22
588.127	10086.77
588.487	10092.87
588.846	10214.22
589.206	10235.47
589.565	10171.96
589.925	10237.73
590.284	10175.35
590.643	10232.53
591.003	10236.14
591.362	10254.9
591.721	10187.33
592.08	10273.2
592.44	10302.36
592.799	10285.63
593.158	10301
593.517	10337.16
593.876	10277.27
594.235	10329.7
594.593	10352.52
594.952	10293.99
595.311	10261.91
595.67	10398.17
596.029	10461.67
596.387	10402.47
596.746	10400.66
597.104	10392.98
597.463	10370.83
597.822	10438.17
598.18	10419.19
598.538	10413.77
598.897	10417.16
599.255	10356.82
599.613	10556.13
599.972	10491.05
600.33	10524.95
600.688	10441.11
601.046	10466.87
601.404	10600.88
601.762	10487.21
602.12	10585.74
602.478	10549.81
602.836	10553.42
603.194	10604.95
603.552	10572.41
603.91	10511.84
604.268	10563.82
604.625	10496.25
604.983	10588.22
605.341	10590.94
605.698	10537.6
606.056	10488.79
606.413	10587.32
606.771	10588.9
607.128	10585.96
607.485	10578.73
607.843	10650.37
608.2	10585.96
608.557	10696.47
608.914	10595.68
609.272	10705.74
609.629	10778.95
609.986	10751.84
610.343	10636.13
610.7	10767.88
611.057	10709.58
611.414	10656.92
611.771	10773.08
612.127	10783.93
612.484	10814.43
612.841	10826.41
613.198	10779.86
613.554	10707.77
613.911	10847.65
614.267	10759.07
614.624	10788.67
614.98	10782.12
615.337	10859.4
615.693	10806.52
616.05	10842.23
616.406	10881.78
616.762	10913.64
617.118	10877.93
617.475	10903.92
617.831	10829.35
618.187	10932.17
618.543	10935.56
618.899	10936.01
619.255	10939.4
619.611	10900.31
619.967	10939.18
620.323	10994.77
620.678	10963.36
621.034	10912.28
621.39	10869.8
621.746	10931.72
622.101	11038.38
622.457	10909.57
622.812	10973.75
623.168	11004.48
623.523	10984.37
623.879	11024.82
624.234	10939.63
624.589	10992.28
624.945	10968.78
625.3	11009
625.655	11013.3
626.01	10966.97
626.365	11008.55
626.72	10982.79
627.075	10937.14
627.43	10960.19
627.785	10952.51
628.14	10935.56
628.495	10930.59
628.85	10916.58
629.205	10904.83
629.559	10957.93
629.914	10873.87
630.269	10909.57
630.623	10848.1
630.978	10847.65
631.332	10925.62
631.687	10868.9
632.041	10861.44
632.396	10935.56
632.75	10797.94
633.104	10779.63
633.459	10762.91
633.813	10703.93
634.167	10746.41
634.521	10704.61
634.875	10792.51
635.229	10710.26
635.583	10718.84
635.937	10697.83
636.291	10663.93
636.645	10672.06
636.999	10694.89
637.352	10718.16
637.706	10611.5
638.06	10630.03
638.413	10586.42
638.767	10626.64
639.121	10598.39
639.474	10554.33
639.828	10522.92
640.181	10549.81
640.534	10615.79
640.888	10561.11
641.241	10458.51
641.594	10476.59
641.947	10527.44
642.301	10526.76
642.654	10440.88
643.007	10473.43
643.36	10479.07
643.713	10455.57
644.066	10446.99
644.419	10420.77
644.771	10352.52
645.124	10223.49
645.477	10282.7
645.83	10237.73
646.182	10189.82
646.535	10171.74
646.888	10126.77
647.24	10057.62
647.593	10051.52
647.945	10096.26
648.298	10041.8
648.65	10017.17
649.002	10020.56
649.355	10002.03
649.707	10014.45
650.059	10105.98
650.411	10223.04
650.763	10284.73
651.115	10334.9
651.467	10311.4
651.819	10315.01
652.171	10314.79
652.523	10282.24
652.875	10272.53
653.227	10269.81
653.578	10295.8
653.93	10362.47
654.282	10212.42
654.633	10225.07
654.985	10164.51
655.337	10223.94
655.688	10305.97
656.039	10258.74
656.391	10237.5
656.742	10272.98
657.094	10233.43
657.445	10249.7
657.796	10261.91
658.147	10216.26
658.498	10234.34
658.849	10279.76
659.2	10274.33
659.551	10178.74
659.902	10206.09
660.253	10263.49
660.604	10277.27
660.955	10225.97
661.306	10215.35
661.656	10259.19
662.007	10251.51
662.358	10187.11
662.708	10280.89
663.059	10247.22
663.409	10204.05
663.76	10268.46
664.11	10296.71
664.461	10225.75
664.811	10228.91
665.161	10223.94
665.511	10190.72
665.862	10212.64
666.212	10300.32
666.562	10203.83
666.912	10217.84
667.262	10218.06
667.612	10207.22
667.962	10250.15
668.312	10255.58
668.662	10242.92
669.011	10192.98
669.361	10236.14
669.711	10163.6
670.06	10167.67
670.41	10160.67
670.76	10195.24
671.109	10153.21
671.459	10208.35
671.808	10159.54
672.157	10161.12
672.507	10107.56
672.856	10114.56
673.205	10133.32
673.554	10170.61
673.904	10077.96
674.253	10138.07
674.602	10169.93
674.951	9895.36
675.3	9877.51
675.649	10087.22
675.998	10069.82
676.346	10094.68
676.695	10104.4
677.044	9992.99
677.393	10014.45
677.741	10106.43
678.09	9951.41
678.438	9922.93
678.787	9960.44
679.135	10016.26
679.484	9881.35
679.832	9976.49
680.181	9905.3
680.529	9899.65
680.877	9887.45
681.225	9903.27
681.573	9954.57
681.922	9855.36
682.27	9772.2
682.618	9790.05
682.966	9796.15
683.314	9810.84
683.661	9776.49
684.009	9731.98
684.357	9688.81
684.705	9719.09
685.053	9716.61
685.4	9724.29
685.748	9605.65
686.095	9609.95
686.443	9667.57
686.79	9601.36
687.138	9544.18
687.485	9611.3
687.832	9449.05
688.18	9491.53
688.527	9500.8
688.874	9456.28
689.221	9446.79
689.568	9389.16
689.915	9325.43
690.262	9360.69
690.609	9266.23
690.956	9313
691.303	9251.76
691.65	9267.58
691.997	9234.14
692.344	9187.58
692.69	9229.62
693.037	9167.92
693.383	9006.8
693.73	9092.67
694.077	9035.04
694.423	9056.74
694.769	8983.52
695.116	9008.83
695.462	8989.62
695.808	8922.05
696.155	8909.4
696.501	8832.34
696.847	8858.55
697.193	8749.18
697.539	8828.5
697.885	8820.81
698.231	8672.34
698.577	8710.99
698.923	8655.17
699.269	8645.68
699.614	8574.49
699.96	8574.27
700.306	8536.3
700.651	8543.31
700.997	8516.87
701.342	8453.14
701.688	8467.6
702.033	8476.42
702.379	8387.38
702.724	8385.8
703.069	8360.26
703.415	8258.34
703.76	8318.91
704.105	8249.3
704.45	8265.8
704.795	8244.11
705.14	8151
705.485	8147.84
705.83	8141.28
706.175	8174.73
706.52	8100.83
706.865	8026.03
707.209	8045.01
707.554	8000.27
707.899	8005.69
708.243	7939.25
708.588	7932.48
708.932	7847.96
709.277	7918.24
709.621	7900.61
709.966	7831.01
710.31	7834.85
710.654	7806.83
710.998	7778.58
711.342	7809.99
711.687	7755.98
712.031	7725.7
712.375	7688.19
712.719	7737
713.063	7631.01
713.407	7671.92
713.75	7691.35
714.094	7622.43
714.438	7550.11
714.782	7563.22
715.125	7633.95
715.469	7604.35
715.812	7584.01
716.156	7550.56
716.499	7611.58
716.843	7526.84
717.186	7529.1
717.53	7504.24
717.873	7546.72
718.216	7514.63
718.559	7428.53
718.902	7394.18
719.246	7440.96
719.589	7362.09
719.932	7370
720.275	7379.72
720.617	7386.27
720.96	7406.84
721.303	7369.78
721.646	7347.63
721.989	7291.36
722.331	7387.63
722.674	7309.44
723.016	7386.5
723.359	7281.64
723.701	7310.8
724.044	7265.83
724.386	7257.01
724.729	7306.73
725.071	7229.44
725.413	7275.77
725.755	7281.19
726.097	7214.98
726.439	7197.81
726.782	7212.95
727.124	7270.8
727.465	7216.34
727.807	7209.56
728.149	7206.84
728.491	7175.66
728.833	7206.62
729.175	7179.27
729.516	7158.94
729.858	7180.63
730.199	7202.32
730.541	7150.35
730.882	7121.42
731.224	7156.9
731.565	7120.74
731.906	7120.07
732.248	7170.91
732.589	7110.12
732.93	7123.68
733.271	7097.47
733.612	7168.65
733.953	7158.03
734.294	7103.12
734.635	7083.91
734.976	7106.28
735.317	7005.72
735.658	7033.29
735.999	7133.4
736.339	7118.71
736.68	7127.07
737.021	7149.22
737.361	7091.59
737.702	7160.52
738.042	7159.16
738.383	7118.49
738.723	7116
739.063	7152.16
739.404	7103.57
739.744	7198.94
740.084	7114.19
740.424	7213.85
740.764	7172.5
741.104	7187.41
741.444	7145.15
741.784	7179.73
742.124	7231.25
742.464	7207.75
742.804	7177.47
743.143	7193.06
743.483	7207.97
743.823	7229.22
744.162	7260.18
744.502	7292.49
744.841	7266.28
745.181	7304.69
745.52	7325.94
745.86	7368.2
746.199	7384.01
746.538	7358.25
746.877	7419.04
747.216	7483.45
747.556	7471.02
747.895	7574.52
748.234	7518.7
748.573	7541.98
748.911	7654.52
749.25	7710.11
749.589	7708.75
749.928	7769.09
750.267	7810.9
750.605	7841.86
750.944	7944.9
751.283	7977.9
751.621	8002.3
751.96	8081.62
752.298	8167.05
752.636	8222.86
752.975	8307.61
753.313	8315.97
753.651	8423.99
753.989	8428.51
754.327	8545.11
754.666	8548.05
755.004	8703.75
755.342	8902.39
755.679	8961.15
756.017	9050.19
756.355	9126.57
756.693	9184.19
757.031	9317.75
757.368	9447.69
757.706	9497.63
758.044	9590.51
758.381	9850.62
758.719	9875.7
759.056	10069.37
759.394	10107.11
759.731	10192.08
760.068	10303.94
760.405	10388
760.743	10601.11
761.08	10689.46
761.417	10754.77
761.754	10866.18
762.091	11008.33
762.428	11109.79
762.765	11269.11
763.102	11399.05
763.438	11511.36
763.775	11630.46
764.112	11742.32
764.449	11926.04
