Data from hue_00_FLMS001491_97.txt Node
Date: Mon Feb 06 15:30:42 GMT 2017
User: dcchb
Spectrometer: FLMS00149
Trigger mode: 0
Integration Time (sec): 2.000000E-2
Scans to average: 10
Electric dark correction enabled: true
Nonlinearity correction enabled: false
Boxcar width: 0
XAxis mode: Wavelengths
Number of Pixels in Spectrum: 2048
>>>>>Begin Spectral Data<<<<<
341.393	-20.68
341.776	-20.68
342.16	-20.68
342.543	-45.31
342.927	-67.68
343.31	-64.97
343.693	-68.36
344.077	-71.75
344.46	-51.86
344.843	-43.28
345.226	-46.89
345.61	-24.75
345.993	-19.32
346.376	4.41
346.759	-0.79
347.142	36.5
347.525	41.92
347.908	55.48
348.291	64.07
348.674	99.32
349.057	90.28
349.44	109.94
349.823	113.33
350.206	137.96
350.588	189.71
350.971	214.34
351.354	219.54
351.737	232.42
352.119	246.66
352.502	282.37
352.884	269.26
353.267	300.22
353.65	288.69
354.032	286.89
354.414	315.81
354.797	310.61
355.179	324.4
355.562	323.72
355.944	327.56
356.326	320.1
356.709	351.97
357.091	332.08
357.473	329.82
357.855	344.96
358.238	338.41
358.62	317.39
359.002	368.92
359.384	354
359.766	332.76
360.148	340.44
360.53	316.49
360.912	324.85
361.294	325.53
361.676	321.01
362.057	332.08
362.439	313.1
362.821	321.01
363.203	323.27
363.584	317.62
363.966	317.84
364.348	328.24
364.729	317.39
365.111	338.64
365.493	308.13
365.874	325.08
366.256	330.95
366.637	309.03
367.019	306.55
367.4	327.11
367.781	300.22
368.163	320.33
368.544	313.1
368.925	271.97
369.306	323.72
369.688	307.22
370.069	338.86
370.45	309.48
370.831	303.83
371.212	317.62
371.593	294.79
371.974	303.61
372.355	305.42
372.736	314
373.117	309.26
373.498	312.65
373.879	310.61
374.26	320.33
374.641	308.58
375.021	312.65
375.402	315.81
375.783	314.68
376.163	331.86
376.544	314.68
376.925	306.77
377.305	315.58
377.686	327.34
378.066	332.53
378.447	313.55
378.827	312.87
379.208	331.4
379.588	322.14
379.968	322.82
380.349	339.09
380.729	335.25
381.109	305.64
381.489	306.55
381.87	345.19
382.25	327.79
382.63	340.89
383.01	326.66
383.39	339.99
383.77	326.21
384.15	330.5
384.53	311.52
384.91	329.6
385.29	340.89
385.67	334.79
386.049	335.7
386.429	344.74
386.809	358.07
387.189	339.31
387.568	342.25
387.948	347.45
388.328	344.74
388.707	332.53
389.087	373.21
389.466	366.43
389.846	356.49
390.225	353.78
390.605	346.54
390.984	345.19
391.363	368.69
391.743	359.2
392.122	350.39
392.501	350.84
392.881	370.05
393.26	353.55
393.639	359.2
394.018	339.99
394.397	358.07
394.776	351.29
395.155	375.7
395.534	369.59
395.913	375.24
396.292	375.24
396.671	387.22
397.05	365.3
397.429	381.35
397.808	379.54
398.186	380.44
398.565	371.4
398.944	386.32
399.323	377.28
399.701	375.47
400.08	393.1
400.458	392.87
400.837	368.01
401.215	395.36
401.594	398.07
401.972	408.24
402.351	397.84
402.729	391.74
403.107	387
403.486	375.92
403.864	389.26
404.242	398.97
404.62	405.75
404.999	412.98
405.377	391.29
405.755	413.66
406.133	395.36
406.511	425.86
406.889	428.8
407.267	424.73
407.645	429.25
408.023	408.01
408.401	429.71
408.779	414.11
409.156	422.7
409.534	446.43
409.912	434.9
410.29	446.88
410.667	441.68
411.045	449.59
411.422	443.27
411.8	451.17
412.178	435.81
412.555	443.04
412.933	435.13
413.31	429.93
413.687	443.72
414.065	450.27
414.442	444.62
414.819	436.26
415.197	466.09
415.574	493.89
415.951	453.89
416.328	478.52
416.705	474.9
417.082	485.07
417.46	493.66
417.837	488.01
418.214	485.3
418.591	492.76
418.967	483.72
419.344	471.96
419.721	483.94
420.098	489.37
420.475	514.9
420.852	517.16
421.228	517.16
421.605	527.33
421.982	526.65
422.358	504.05
422.735	526.2
423.111	532.08
423.488	534.11
423.864	541.79
424.241	537.73
424.617	551.06
424.994	515.13
425.37	537.27
425.746	553.77
426.123	553.54
426.499	558.29
426.875	550.38
427.251	545.64
427.627	558.29
428.003	557.39
428.379	593.09
428.756	559.42
429.132	581.34
429.507	582.24
429.883	595.35
430.259	591.96
430.635	597.84
431.011	589.02
431.387	614.11
431.763	613.88
432.138	620.21
432.514	628.35
432.89	608.91
433.265	642.13
433.641	656.14
434.016	641.68
434.392	639.87
434.767	665.41
435.143	650.04
435.518	669.02
435.894	657.95
436.269	659.98
436.644	648.01
437.02	690.72
437.395	683.26
437.77	682.81
438.145	693.43
438.52	711.51
438.895	708.79
439.271	708.12
439.646	720.32
440.021	723.71
440.395	723.48
440.77	706.54
441.145	747.89
441.52	720.55
441.895	752.64
442.27	758.51
442.645	730.26
443.019	748.12
443.394	753.99
443.769	748.57
444.143	753.09
444.518	772.75
444.892	755.35
445.267	744.5
445.641	766.65
446.016	758.29
446.39	805.74
446.764	811.84
447.139	773.43
447.513	764.84
447.887	784.73
448.262	800.32
448.636	798.06
449.01	816.36
449.384	808.23
449.758	805.06
450.132	817.49
450.506	830.37
450.88	828.57
451.254	824.72
451.628	834.67
452.002	847.1
452.376	847.77
452.75	852.07
453.123	867.66
453.497	876.7
453.871	857.49
454.244	882.8
454.618	895.91
454.992	904.72
455.365	904.5
455.739	907.66
456.112	906.53
456.486	919.86
456.859	931.16
457.232	945.85
457.606	968.68
457.979	938.39
458.352	957.38
458.725	1004.61
459.099	958.51
459.472	1006.87
459.845	996.24
460.218	1003.7
460.591	1005.51
460.964	1040.99
461.337	1034.66
461.71	1057.49
462.083	1039.41
462.456	1049.12
462.829	1070.82
463.201	1099.75
463.574	1091.84
463.947	1105.85
464.32	1091.38
464.692	1128.44
465.065	1151.5
465.438	1179.52
465.81	1193.98
466.183	1189.91
466.555	1234.43
466.928	1202.34
467.3	1207.76
467.672	1198.27
468.045	1252.51
468.417	1249.12
468.789	1263.58
469.161	1271.27
469.534	1289.57
469.906	1316.01
470.278	1342.9
470.65	1360.76
471.022	1369.12
471.394	1394.88
471.766	1417.48
472.138	1423.8
472.51	1450.02
472.882	1462
473.253	1502.22
473.625	1492.28
473.997	1525.27
474.369	1527.98
474.74	1560.3
475.112	1577.47
475.484	1596.91
475.855	1605.27
476.227	1624.25
476.598	1690.92
476.97	1711.71
477.341	1746.06
477.713	1749.67
478.084	1793.74
478.455	1801.65
478.827	1833.74
479.198	1887.97
479.569	1894.98
479.94	1913.73
480.311	1947.41
480.682	2012.94
481.053	2029.89
481.424	2036.67
481.795	2115.76
482.166	2130.45
482.537	2141.3
482.908	2180.39
483.279	2224.69
483.65	2240.96
484.021	2311.92
484.391	2343.1
484.762	2390.78
485.133	2405.47
485.503	2436.21
485.874	2470.33
486.244	2530.67
486.615	2570.67
486.985	2608.18
487.356	2635.98
487.726	2641.85
488.097	2700.38
488.467	2744.9
488.837	2794.84
489.207	2851.79
489.578	2911.22
489.948	2898.12
490.318	2921.62
490.688	2949.19
491.058	3015.4
491.428	3045.46
491.798	3068.05
492.168	3106.7
492.538	3159.13
492.908	3210.42
493.278	3248.62
493.648	3251.78
494.017	3303.75
494.387	3359.8
494.757	3334.26
495.126	3383.75
495.496	3400.48
495.866	3432.79
496.235	3471.89
496.605	3475.05
496.974	3539.91
497.344	3593.46
497.713	3607.02
498.082	3564.77
498.452	3647.93
498.821	3656.29
499.19	3656.06
499.559	3709.17
499.928	3724.99
500.298	3751.65
500.667	3760.01
501.036	3788.26
501.405	3811.31
501.774	3839.79
502.143	3839.56
502.512	3875.94
502.88	3909.16
503.249	3959.56
503.618	3988.93
503.987	3976.28
504.356	3973.12
504.724	4005.21
505.093	4028.71
505.462	4049.95
505.83	4068.93
506.199	4115.03
506.567	4169.95
506.936	4131.3
507.304	4167.91
507.672	4211.53
508.041	4170.62
508.409	4228.7
508.777	4248.59
509.145	4295.37
509.514	4295.82
509.882	4329.94
510.25	4329.94
510.618	4370.85
510.986	4341.69
511.354	4438.41
511.722	4370.85
512.09	4484.06
512.458	4411.97
512.826	4551.63
513.193	4513.21
513.561	4483.84
513.929	4536.26
514.297	4569.71
514.664	4571.29
515.032	4596.83
515.4	4590.5
515.767	4637.51
516.135	4637.05
516.502	4633.21
516.869	4651.52
517.237	4693.55
517.604	4686.09
517.972	4745.07
518.339	4733.55
518.706	4779.87
519.073	4793.43
519.44	4798.86
519.808	4813.32
520.175	4834.11
520.542	4912.53
520.909	4883.83
521.276	4898.06
521.643	4905.97
522.009	4953.43
522.376	4976.03
522.743	4926.54
523.11	5018.51
523.477	5069.13
523.843	5082.01
524.21	5136.93
524.577	5140.77
524.943	5159.53
525.31	5167.66
525.676	5251.73
526.043	5223.7
526.409	5256.92
526.776	5347.32
527.142	5345.74
527.508	5342.35
527.874	5401.33
528.241	5399.07
528.607	5391.61
528.973	5439.74
529.339	5496.92
529.705	5514.54
530.071	5526.07
530.437	5571.04
530.803	5605.84
531.169	5616.91
531.535	5658.5
531.901	5685.61
532.267	5696.91
532.632	5695.78
532.998	5750.02
533.364	5755.67
533.73	5784.37
534.095	5788.66
534.461	5876.12
534.826	5935.78
535.192	5898.49
535.557	5919.73
535.923	5906.4
536.288	5914.31
536.653	6011.93
537.019	5947.75
537.384	6023.91
537.749	6034.98
538.114	6084.25
538.479	6099.61
538.845	6121.76
539.21	6112.72
539.575	6149.56
539.94	6181.65
540.305	6199.05
540.67	6203.79
541.034	6258.48
541.399	6211.25
541.764	6263.68
542.129	6338.03
542.494	6345.71
542.858	6331.92
543.223	6336.9
543.587	6437.46
543.952	6438.14
544.316	6471.58
544.681	6494.18
545.045	6542.77
545.41	6504.35
545.774	6601.3
546.138	6568.3
546.503	6596.55
546.867	6590.9
547.231	6669.54
547.595	6733.95
547.959	6731.69
548.324	6737.34
548.688	6798.35
549.052	6815.08
549.416	6746.83
549.779	6827.5
550.143	6825.02
550.507	6828.86
550.871	6880.16
551.235	6874.06
551.599	6955.64
551.962	6928.52
552.326	7002.19
552.689	6946.82
553.053	6942.76
553.417	6967.16
553.78	7088.51
554.143	7022.3
554.507	7047.39
554.87	7100.72
555.234	7196.53
555.597	7158.57
555.96	7170.55
556.323	7224.56
556.686	7197.66
557.05	7276.31
557.413	7289.19
557.776	7260.04
558.139	7342.52
558.502	7292.12
558.865	7402.86
559.228	7425.45
559.59	7352.24
559.953	7419.8
560.316	7475.62
560.679	7450.31
561.041	7590.87
561.404	7628.39
561.767	7626.13
562.129	7624.09
562.492	7726.92
562.854	7675.17
563.217	7679.01
563.579	7687.37
563.941	7799.23
564.304	7794.03
564.666	7808.27
565.028	7790.42
565.39	7822.05
565.753	7853.69
566.115	7943.41
566.477	7932.11
566.839	7959
567.201	7998.55
567.563	7977.98
567.925	8069.51
568.287	8046.68
568.648	8111.76
569.01	8121.03
569.372	8183.17
569.734	8184.53
570.095	8214.59
570.457	8268.14
570.819	8346.11
571.18	8330.74
571.542	8438.76
571.903	8409.38
572.265	8493.9
572.626	8544.07
572.987	8526.44
573.349	8493.67
573.71	8605.08
574.071	8639.89
574.432	8742.48
574.794	8791.07
575.155	8836.72
575.516	8847.34
575.877	8878.52
576.238	8964.4
576.599	9008.92
576.96	9010.27
577.32	9171.62
577.681	9216.37
578.042	9326.2
578.403	9389.02
578.763	9474.67
579.124	9505.63
579.485	9597.15
579.845	9768.22
580.206	9776.81
580.566	9870.81
580.927	9996.91
581.287	10097.02
581.648	10122.11
582.008	10340.41
582.368	10502.89
582.728	10534.98
583.089	10654.3
583.449	10800.51
583.809	10946.27
584.169	11065.13
584.529	11287.95
584.889	11381.96
585.249	11519.36
585.609	11728.39
585.969	11904.21
586.329	12040.7
586.688	12237.98
587.048	12357.98
587.408	12636.16
587.768	12789.83
588.127	12972.2
588.487	13167.22
588.846	13486.99
589.206	13578.51
589.565	13900.99
589.925	14034.32
590.284	14281.09
590.643	14566.96
591.003	14777.58
591.362	15071.36
591.721	15294.85
592.08	15445.36
592.44	15804.44
592.799	15952.46
593.158	16273.81
593.517	16482.84
593.876	16857.07
594.235	16989.95
594.593	17263.84
594.952	17540.22
595.311	17779.98
595.67	18000.32
596.029	18383.13
596.387	18620.87
596.746	18981.31
597.104	19164.81
597.463	19409.77
597.822	19734.51
598.18	19928.18
598.538	20120.26
598.897	20620.59
599.255	20765.22
599.613	21197.75
599.972	21323.85
600.33	21659.43
600.688	21833.44
601.046	22089.7
601.404	22402.01
601.762	22576.24
602.12	22939.17
602.478	23146.4
602.836	23430.01
603.194	23598.81
603.552	23882.87
603.91	24022.76
604.268	24386.36
604.625	24505.68
604.983	24815.28
605.341	24999.23
605.698	25344.53
606.056	25620.91
606.413	25713.56
606.771	26085.3
607.128	26304.73
607.485	26287.11
607.843	26655.01
608.2	26868.11
608.557	27120.76
608.914	27241.88
609.272	27688.2
609.629	27853.39
609.986	28080.73
610.343	28129.77
610.7	28668.51
611.057	28734.72
611.414	28855.85
611.771	29071.44
612.127	29288.38
612.484	29407.48
612.841	29589.84
613.198	29577.87
613.554	29835.94
613.911	30062.6
614.267	30185.53
614.624	30301.92
614.98	30535.13
615.337	30806.76
615.693	30860.32
616.05	30992.29
616.406	31211.04
616.762	31334.88
617.118	31462.79
617.475	31553.41
617.831	31753.18
618.187	31989.1
618.543	32118.59
618.899	32383.67
619.255	32395.65
619.611	32502.31
619.967	32688.75
620.323	32823.66
620.678	32778.69
621.034	32832.7
621.39	33053.93
621.746	33018.23
622.101	33508.38
622.457	33204.89
622.812	33394.94
623.168	33559
623.523	33633.58
623.879	33799.45
624.234	33624.54
624.589	33820.92
624.945	33970.07
625.3	33926.45
625.655	34073.34
626.01	34252.32
626.365	34239.21
626.72	34295.03
627.075	34216.16
627.43	34394.46
627.785	34334.35
628.14	34607.79
628.495	34540.22
628.85	34555.14
629.205	34504.06
629.559	34784.51
629.914	34588.36
630.269	34916.03
630.623	34730.95
630.978	34658.41
631.332	34829.48
631.687	34927.33
632.041	34835.13
632.396	35026.99
632.75	34899.53
633.104	34838.74
633.459	34752.19
633.813	34940.21
634.167	34902.47
634.521	34860.67
634.875	34893.88
635.229	34995.8
635.583	34883.04
635.937	34880.1
636.291	34875.13
636.645	34873.32
636.999	34904.05
637.352	35061.34
637.706	34864.73
638.06	35148.57
638.413	34983.15
638.767	34896.14
639.121	34914.9
639.474	34754
639.828	34859.99
640.181	34905.18
640.534	34860.21
640.888	34822.93
641.241	34647.56
641.594	34844.17
641.947	34831.06
642.301	34896.14
642.654	34838.52
643.007	34858.41
643.36	34971.85
643.713	34779.31
644.066	34958.97
644.419	34725.53
644.771	34492.99
645.124	34357.85
645.477	34253
645.83	33880.58
646.182	33848.49
646.535	33843.29
646.888	33907.24
647.24	33694.82
647.593	33882.39
647.945	33718.55
648.298	33611.21
648.65	33524.88
649.002	33578.67
649.355	33520.14
649.707	33624.77
650.059	33704.31
650.411	34010.07
650.763	34057.97
651.115	34498.19
651.467	34207.35
651.819	34492.31
652.171	34217.29
652.523	34247.8
652.875	34254.35
653.227	34151.98
653.578	34390.85
653.93	34408.93
654.282	34165.99
654.633	34106.11
654.985	34207.35
655.337	34280.34
655.688	34244.64
656.039	34256.61
656.391	34025.66
656.742	34045.77
657.094	34179.55
657.445	34286.9
657.796	34117.41
658.147	34032.44
658.498	34053.45
658.849	34101.82
659.2	34050.29
659.551	33976.39
659.902	34062.04
660.253	33982.5
660.604	34137.52
660.955	33940.46
661.306	34103.62
661.656	34065.43
662.007	34107.01
662.358	34092.55
662.708	34099.78
663.059	33989.05
663.409	33861.82
663.76	34108.37
664.11	34067.01
664.461	34111.98
664.811	34091.87
665.161	34032.89
665.511	33937.3
665.862	33930.52
666.212	33952.21
666.562	34061.14
666.912	34020.91
667.262	33915.61
667.612	33996.28
667.962	33935.72
668.312	33844.65
668.662	34102.95
669.011	33802.84
669.361	33841.03
669.711	33697.76
670.06	33730.75
670.41	33759
670.76	33678.1
671.109	33802.61
671.459	33832.22
671.808	33807.59
672.157	33924.64
672.507	33656.63
672.856	33751.99
673.205	33784.54
673.554	33690.75
673.904	33742.05
674.253	33874.7
674.602	33672.22
674.951	33201.27
675.3	33195.62
675.649	33667.93
675.998	33554.26
676.346	33657.31
676.695	33750.41
677.044	33561.49
677.393	33630.87
677.741	33531.43
678.09	33556.74
678.438	33524.66
678.787	33403.75
679.135	33502.28
679.484	33354.26
679.832	33459.8
680.181	33158.56
680.529	33434.04
680.877	33312.91
681.225	33211.9
681.573	33425
681.922	33083.08
682.27	33018.68
682.618	32922.19
682.966	32895.07
683.314	33150.43
683.661	32958.12
684.009	32842.64
684.357	32626.15
684.705	32680.16
685.053	32686.71
685.4	32728.29
685.748	32561.97
686.095	32531.01
686.443	32466.15
686.79	32439.94
687.138	32436.55
687.485	32409.43
687.832	32298.02
688.18	32122.21
688.527	32214.18
688.874	32150.45
689.221	32098.93
689.568	31880.4
689.915	31896.68
690.262	31972.15
690.609	31786.62
690.956	31711.82
691.303	31682.9
691.65	31548.44
691.997	31448.55
692.344	31401.1
692.69	31210.82
693.037	31363.13
693.383	31097.6
693.73	31180.76
694.077	31038.17
694.423	31006.08
694.769	31057.6
695.116	30914.1
695.462	30866.42
695.808	30626.2
696.155	30769.7
696.501	30479.76
696.847	30506.43
697.193	30173.33
697.539	30542.13
697.885	30190.51
698.231	30106.89
698.577	30064.63
698.923	29931.76
699.269	29905.99
699.614	29685.66
699.96	29847.01
700.306	29667.36
700.651	29594.14
700.997	29551.43
701.342	29470.07
701.688	29524.53
702.033	29320.92
702.379	29427.14
702.724	29249.06
703.069	29302.17
703.415	28967.03
703.76	29122.06
704.105	29024.43
704.45	29023.3
704.795	28844.55
705.14	28747.15
705.485	28768.4
705.83	28637.33
706.175	28746.02
706.52	28561.62
706.865	28482.98
707.209	28514.17
707.554	28305.81
707.899	28391.46
708.243	28176.55
708.588	28278.47
708.932	28004.8
709.277	28009.09
709.621	27977
709.966	27800.29
710.31	27839.38
710.654	27539.73
710.998	27621.76
711.342	27708.09
711.687	27607.97
712.031	27546.96
712.375	27352.84
712.719	27381.09
713.063	27349.22
713.407	27452.5
713.75	27255.44
714.094	27217.93
714.438	27087.31
714.782	27147.2
715.125	26995.34
715.469	26920.54
715.812	26895
716.156	26819.75
716.499	26832.4
716.843	26845.51
717.186	26670.37
717.53	26785.4
717.873	26703.14
718.216	26685.06
718.559	26602.58
718.902	26441.9
719.246	26462.92
719.589	26290.95
719.932	26280.78
720.275	26316.48
720.617	26259.76
720.96	26201.91
721.303	26170.95
721.646	26192.42
721.989	26006.43
722.331	26062.7
722.674	26056.38
723.016	26067.9
723.359	25968.92
723.701	25965.53
724.044	25794.46
724.386	25711.08
724.729	25815.03
725.071	25626.78
725.413	25654.81
725.755	25730.06
726.097	25524.41
726.439	25408.94
726.782	25584.53
727.124	25584.98
727.465	25443.06
727.807	25450.07
728.149	25283.74
728.491	25306.57
728.833	25321.26
729.175	25289.17
729.516	25185.44
729.858	25078.32
730.199	25149.96
730.541	25119.23
730.882	25037.65
731.224	25099.79
731.565	24952
731.906	24857.31
732.248	24967.82
732.589	24872.91
732.93	24655.74
733.271	24827.71
733.612	24867.71
733.953	24872
734.294	24654.61
734.635	24577.77
734.976	24738.9
735.317	24526.02
735.658	24563.08
735.999	24580.94
736.339	24459.36
736.68	24484.21
737.021	24452.58
737.361	24253.94
737.702	24400.15
738.042	24387.72
738.383	24255.52
738.723	24357.21
739.063	24192.7
739.404	24201.74
739.744	24255.97
740.084	24086.94
740.424	24107.28
740.764	23994.74
741.104	24080.84
741.444	23928.98
741.784	23984.34
742.124	23957.45
742.464	23886.49
742.804	23970.56
743.143	23841.29
743.483	23858.47
743.823	23695.31
744.162	23562.88
744.502	23729.43
744.841	23531.7
745.181	23692.82
745.52	23636.1
745.86	23564.24
746.199	23520.17
746.538	23582.77
746.877	23552.71
747.216	23436.56
747.556	23428.88
747.895	23443.79
748.234	23336.22
748.573	23220.29
748.911	23267.75
749.25	23326.73
749.589	23145.04
749.928	23243.12
750.267	23214.42
750.605	23139.62
750.944	23056.46
751.283	23052.39
751.621	23073.18
751.96	22929.68
752.298	22966.06
752.636	22837.03
752.975	22673.42
753.313	22700.76
753.651	22720.19
753.989	22652.85
754.327	22577.15
754.666	22566.07
755.004	22493.08
755.342	22552.06
755.679	22446.3
756.017	22481.78
756.355	22371.05
756.693	22319.3
757.031	22294.67
757.368	22223.26
757.706	22195.24
758.044	22141.23
758.381	22095.58
758.719	22037.05
759.056	21991.17
759.394	22018.07
759.731	21865.53
760.068	21772.2
760.405	21719.54
760.743	21685.64
761.08	21698.98
