Data from hue_170_FLMS001491_00093.txt Node
Date: Tue Feb 07 16:49:31 GMT 2017
User: dcchb
Spectrometer: FLMS00149
Trigger mode: 0
Integration Time (sec): 2.000000E-2
Scans to average: 10
Electric dark correction enabled: true
Nonlinearity correction enabled: false
Boxcar width: 0
XAxis mode: Wavelengths
Number of Pixels in Spectrum: 2048
>>>>>Begin Spectral Data<<<<<
341.393	-16.12
341.776	-16.12
342.16	-16.12
342.543	-55.66
342.927	-62.89
343.31	-79.62
343.693	-69.45
344.077	-56.79
344.46	-60.86
344.843	-74.64
345.226	-43.69
345.61	-25.61
345.993	-3.23
346.376	-4.36
346.759	-1.88
347.142	20.04
347.525	43.09
347.908	51.45
348.291	81.74
348.674	105.69
349.057	118.12
349.44	119.7
349.823	138.46
350.206	147.95
350.588	205.8
350.971	212.81
351.354	217.1
351.737	243.31
352.119	249.87
352.502	257.55
352.884	263.88
353.267	285.12
353.65	286.25
354.032	313.37
354.414	307.94
354.797	311.56
355.179	309.98
355.562	331.22
355.944	325.12
356.326	333.25
356.709	327.15
357.091	320.37
357.473	338
357.855	330.54
358.238	334.38
358.62	329.64
359.002	340.71
359.384	363.31
359.766	346.81
360.148	335.51
360.53	324.67
360.912	327.6
361.294	326.7
361.676	330.54
362.057	317.66
362.439	347.49
362.821	317.66
363.203	343.65
363.584	326.7
363.966	306.81
364.348	310.66
364.729	324.44
365.111	290.77
365.493	310.88
365.874	319.47
366.256	315.4
366.637	312.92
367.019	303.2
367.4	327.6
367.781	314.72
368.163	328.28
368.544	316.76
368.925	300.94
369.306	307.27
369.688	317.66
370.069	316.98
370.45	288.51
370.831	340.03
371.212	306.36
371.593	316.76
371.974	295.29
372.355	306.14
372.736	298.45
373.117	310.2
373.498	309.53
373.879	323.99
374.26	324.21
374.641	312.69
375.021	305.01
375.402	318.79
375.783	312.01
376.163	315.18
376.544	306.81
376.925	329.19
377.305	324.44
377.686	322.18
378.066	319.69
378.447	309.07
378.827	309.98
379.208	310.88
379.588	330.77
379.968	307.27
380.349	326.47
380.729	319.02
381.109	330.77
381.489	329.19
381.87	326.25
382.25	348.85
382.63	352.69
383.01	340.03
383.39	336.42
383.77	349.98
384.15	328.06
384.53	321.28
384.91	328.06
385.29	340.94
385.67	344.33
386.049	325.12
386.429	341.84
386.809	345.91
387.189	332.35
387.568	341.62
387.948	338.68
388.328	323.76
388.707	351.56
389.087	359.02
389.466	349.98
389.846	362.63
390.225	361.28
390.605	355.4
390.984	331.9
391.363	369.19
391.743	374.61
392.122	369.86
392.501	372.35
392.881	375.51
393.26	366.47
393.639	370.09
394.018	375.74
394.397	354.72
394.776	387.49
395.155	363.31
395.534	382.52
395.913	345.68
396.292	391.56
396.671	373.93
397.05	363.99
397.429	376.19
397.808	381.61
398.186	375.51
398.565	385.68
398.944	378.45
399.323	406.47
399.701	397.66
400.08	381.39
400.458	386.59
400.837	429.97
401.215	404.21
401.594	402.63
401.972	376.19
402.351	404.44
402.729	388.85
403.107	415.74
403.486	414.83
403.864	409.41
404.242	409.86
404.62	410.31
404.999	430.88
405.377	430.65
405.755	397.43
406.133	422.29
406.511	439.69
406.889	429.52
407.267	436.75
407.645	436.98
408.023	444.66
408.401	445.57
408.779	448.51
409.156	447.38
409.534	466.81
409.912	471.78
410.29	476.08
410.667	467.71
411.045	454.61
411.422	460.48
411.8	456.64
412.178	496.64
412.555	502.29
412.933	499.58
413.31	493.48
413.687	498.67
414.065	498.45
414.442	546.13
414.819	539.8
415.197	518.11
415.574	528.05
415.951	527.15
416.328	547.26
416.705	532.34
417.082	553.59
417.46	547.03
417.837	574.6
418.214	568.5
418.591	573.02
418.967	554.27
419.344	553.36
419.721	583.87
420.098	564.89
420.475	601.72
420.852	631.78
421.228	610.76
421.605	616.64
421.982	625.22
422.358	629.07
422.735	643.08
423.111	642.85
423.488	630.42
423.864	663.64
424.241	667.26
424.617	658.44
424.994	639.91
425.37	665.67
425.746	681.04
426.123	676.52
426.499	671.78
426.875	705
427.251	746.8
427.627	721.72
428.003	729.63
428.379	739.34
428.756	749.06
429.132	742.28
429.507	769.63
429.883	763.98
430.259	773.24
430.635	776.86
431.011	774.6
431.387	787.48
431.763	802.39
432.138	814.37
432.514	832.68
432.89	812.34
433.265	852.34
433.641	858.21
434.016	843.07
434.392	861.15
434.767	886.69
435.143	885.1
435.518	912.45
435.894	902.5
436.269	930.98
436.644	921.94
437.02	943.63
437.395	955.16
437.77	947.93
438.145	976.85
438.52	986.57
438.895	985.89
439.271	1005.1
439.646	1013.24
440.021	1029.96
440.395	1053.24
440.77	1047.36
441.145	1042.84
441.52	1060.01
441.895	1066.57
442.27	1088.49
442.645	1088.71
443.019	1085.32
443.394	1104.31
443.769	1106.79
444.143	1111.09
444.518	1119
444.892	1105.66
445.267	1131.88
445.641	1142.5
446.016	1129.84
446.39	1173.68
446.764	1187.24
447.139	1182.95
447.513	1188.15
447.887	1210.97
448.262	1223.4
448.636	1209.39
449.01	1238.77
449.384	1256.39
449.758	1240.35
450.132	1247.35
450.506	1280.12
450.88	1287.13
451.254	1307.01
451.628	1276.96
452.002	1318.09
452.376	1333.45
452.75	1316.96
453.123	1342.27
453.497	1374.58
453.871	1398.54
454.244	1415.94
454.618	1413.68
454.992	1426.11
455.365	1472.89
455.739	1513.79
456.112	1500.45
456.486	1514.47
456.859	1507.91
457.232	1530.28
457.606	1558.98
457.979	1547.91
458.352	1599.21
458.725	1608.02
459.099	1635.14
459.472	1662.03
459.845	1661.13
460.218	1709.71
460.591	1711.97
460.964	1719.21
461.337	1761.69
461.71	1808.92
462.083	1830.39
462.456	1788.13
462.829	1830.39
463.201	1846.43
463.574	1892.08
463.947	1912.65
464.32	1938.41
464.692	1977.96
465.065	1988.8
465.438	2024.51
465.81	2051.85
466.183	2083.94
466.555	2154
466.928	2133.21
467.3	2186.76
467.672	2215.24
468.045	2272.86
468.417	2290.26
468.789	2331.17
469.161	2344.27
469.534	2407.32
469.906	2441
470.278	2450.71
470.65	2470.82
471.022	2531.84
471.394	2621.78
471.766	2669.46
472.138	2706.52
472.51	2744.72
472.882	2789.69
473.253	2836.01
473.625	2886.63
473.997	2991.04
474.369	2982.45
474.74	3073.29
475.112	3139.06
475.484	3213.4
475.855	3298.37
476.227	3313.06
476.598	3431.03
476.97	3465.6
477.341	3578.82
477.713	3627.18
478.084	3658.82
478.455	3771.58
478.827	3880.05
479.198	3996.89
479.569	4024.68
479.94	4139.03
480.311	4200.04
480.682	4342.19
481.053	4442.52
481.424	4558.91
481.795	4636.87
482.166	4749.64
482.537	4813.14
482.908	4932
483.279	5065.11
483.65	5152.11
484.021	5328.83
484.391	5435.94
484.762	5495.38
485.133	5583.29
485.503	5667.35
485.874	5889.72
486.244	5919.32
486.615	6065.31
486.985	6199.54
487.356	6368.8
487.726	6451.96
488.097	6592.98
488.467	6678.62
488.837	6838.62
489.207	6968.79
489.578	7067.54
489.948	7211.27
490.318	7326.29
490.688	7395.44
491.058	7558.37
491.428	7695.77
491.798	7845.37
492.168	8010.79
492.538	8070.23
492.908	8216.66
493.278	8300.95
493.648	8405.36
494.017	8530.78
494.387	8668.18
494.757	8771.22
495.126	8885.57
495.496	8932.12
495.866	9021.16
496.235	9140.03
496.605	9224.55
496.974	9298.22
497.344	9466.8
497.713	9573.01
498.082	9590.19
498.452	9696.62
498.821	9748.83
499.19	9881.48
499.559	9958.09
499.928	10005.09
500.298	10121.02
500.667	10199.89
501.036	10203.95
501.405	10298.19
501.774	10374.35
502.143	10429.71
502.512	10420.45
502.88	10676.71
503.249	10642.14
503.618	10655.24
503.987	10767.78
504.356	10814.79
504.724	10837.38
505.093	10898.85
505.462	10943.14
505.83	11046.19
506.199	11076.47
506.567	11243.02
506.936	11217.04
507.304	11329.35
507.672	11353.76
508.041	11416.8
508.409	11495.9
508.777	11544.26
509.145	11620.64
509.514	11605.27
509.882	11671.71
510.25	11601.88
510.618	11733.86
510.986	11774.76
511.354	11827.64
511.722	11877.13
512.09	11977.92
512.458	11974.08
512.826	12007.52
513.193	11992.61
513.561	12020.63
513.929	12107.41
514.297	12111.02
514.664	12279.38
515.032	12240.74
515.4	12295.2
515.767	12280.96
516.135	12333.84
516.502	12162.77
516.869	12490.9
517.237	12460.84
517.604	12430.11
517.972	12503.33
518.339	12548.3
518.706	12495.87
519.073	12488.41
519.44	12541.52
519.808	12632.14
520.175	12514.85
520.542	12659.71
520.909	12666.26
521.276	12650.44
521.643	12746.94
522.009	12865.35
522.376	12851.79
522.743	12913.94
523.11	12911.91
523.477	12974.96
523.843	12879.59
524.21	13033.48
524.577	13075.52
524.943	13043.2
525.31	13016.76
525.676	13116.87
526.043	13101.96
526.409	13101.51
526.776	13240.71
527.142	13170.43
527.508	13272.57
527.874	13233.48
528.241	13207.27
528.607	13242.07
528.973	13256.08
529.339	13201.62
529.705	13235.06
530.071	13297.66
530.437	13379.92
530.803	13285.91
531.169	13302.86
531.535	13183.76
531.901	13202.52
532.267	13219.24
532.632	13222.63
532.998	13252.69
533.364	13182.18
533.73	13162.97
534.095	13272.57
534.461	13233.93
534.826	13152.8
535.192	13159.36
535.557	13174.72
535.923	13067.83
536.288	13101.51
536.653	13054.05
537.019	13019.47
537.384	12965.92
537.749	12971.79
538.114	12944.9
538.479	12884.56
538.845	12911.23
539.21	12817.67
539.575	12799.37
539.94	12753.49
540.305	12765.02
540.67	12742.87
541.034	12671.01
541.399	12624.46
541.764	12623.55
542.129	12610.9
542.494	12573.61
542.858	12500.39
543.223	12482.77
543.587	12466.27
543.952	12404.35
544.316	12379.94
544.681	12360.96
545.045	12325.26
545.41	12370
545.774	12254.75
546.138	12232.15
546.503	12219.04
546.867	12125.94
547.231	12094.53
547.595	12069.22
547.959	12083.91
548.324	12000.07
548.688	12007.98
549.052	12007.3
549.416	11933.85
549.779	11803.23
550.143	11806.85
550.507	11836.45
550.871	11865.83
551.235	11768.21
551.599	11800.75
551.962	11742.9
552.326	11675.1
552.689	11680.75
553.053	11612.51
553.417	11550.13
553.78	11695.67
554.143	11585.39
554.507	11594.88
554.87	11482.79
555.234	11596.91
555.597	11513.3
555.96	11482.79
556.323	11551.49
556.686	11417.93
557.05	11410.7
557.413	11389.91
557.776	11359.4
558.139	11409.35
558.502	11398.5
558.865	11356.92
559.228	11403.47
559.59	11379.29
559.953	11276.7
560.316	11437.59
560.679	11393.08
561.041	11376.35
561.404	11366.41
561.767	11314.66
562.129	11364.83
562.492	11387.88
562.854	11309.24
563.217	11272.4
563.579	11303.59
563.941	11269.46
564.304	11347.88
564.666	11396.92
565.028	11358.27
565.39	11362.34
565.753	11351.95
566.115	11348.11
566.477	11383.36
566.839	11403.92
567.201	11447.54
567.563	11377.26
567.925	11454.09
568.287	11419.74
568.648	11381.78
569.01	11403.02
569.372	11434.66
569.734	11409.35
570.095	11466.29
570.457	11468.55
570.819	11443.02
571.18	11413.87
571.542	11492.06
571.903	11457.93
572.265	11451.15
572.626	11495.67
572.987	11525.05
573.349	11408.67
573.71	11503.36
574.071	11530.02
574.432	11496.58
574.794	11611.15
575.155	11612.96
575.516	11557.14
575.877	11579.06
576.238	11590.59
576.599	11586.74
576.96	11466.97
577.32	11636.91
577.681	11532.06
578.042	11610.25
578.403	11577.7
578.763	11521.89
579.124	11585.84
579.485	11572.28
579.845	11560.53
580.206	11463.58
580.566	11513.52
580.927	11574.31
581.287	11580.42
581.648	11525.73
582.008	11533.86
582.368	11541.77
582.728	11538.61
583.089	11510.59
583.449	11521.66
583.809	11466.07
584.169	11511.04
584.529	11488.44
584.889	11519.4
585.249	11375.9
585.609	11474.66
585.969	11496.35
586.329	11410.02
586.688	11453.19
587.048	11340.42
587.408	11388.33
587.768	11385.84
588.127	11340.2
588.487	11404.15
588.846	11414.32
589.206	11270.59
589.565	11345.39
589.925	11336.58
590.284	11294.55
590.643	11346.52
591.003	11321.67
591.362	11381.78
591.721	11318.05
592.08	11251.84
592.44	11313.98
592.799	11273.08
593.158	11292.51
593.517	11249.8
593.876	11209.35
594.235	11236.7
594.593	11261.1
594.952	11332.74
595.311	11180.88
595.67	11237.37
596.029	11250.71
596.387	11271.27
596.746	11273.08
597.104	11223.82
597.463	11227.88
597.822	11239.63
598.18	11192.63
598.538	11168.9
598.897	11194.89
599.255	11128
599.613	11251.38
599.972	11194.21
600.33	11154.66
600.688	11194.21
601.046	11154.21
601.404	11206.19
601.762	11178.17
602.12	11149.47
602.478	11219.75
602.836	11165.06
603.194	11132.74
603.552	11201.44
603.91	11125.06
604.268	11175.91
604.625	11124.38
604.983	11153.99
605.341	11020.43
605.698	11135.68
606.056	11141.56
606.413	11112.86
606.771	11203.02
607.128	11166.42
607.485	11171.16
607.843	11179.3
608.2	11169.58
608.557	11243.93
608.914	11156.25
609.272	11240.54
609.629	11239.41
609.986	11308.11
610.343	11151.05
610.7	11246.87
611.057	11266.75
611.414	11227.2
611.771	11223.14
612.127	11223.59
612.484	11240.76
612.841	11307.43
613.198	11154.21
613.554	11227.43
613.911	11338.84
614.267	11333.42
614.624	11290.25
614.98	11300.65
615.337	11375.68
615.693	11342.91
616.05	11325.06
616.406	11358.5
616.762	11348.11
617.118	11318.73
617.475	11338.16
617.831	11295.23
618.187	11395.11
618.543	11346.98
618.899	11380.87
619.255	11374.55
619.611	11337.03
619.967	11421.55
620.323	11438.05
620.678	11468.55
621.034	11359.63
621.39	11399.86
621.746	11353.3
622.101	11477.59
622.457	11475.56
622.812	11344.72
623.168	11431.49
623.523	11459.97
623.879	11486.86
624.234	11466.52
624.589	11353.3
624.945	11449.35
625.3	11462.9
625.655	11416.8
626.01	11420.42
626.365	11352.4
626.72	11406.64
627.075	11409.35
627.43	11390.59
627.785	11372.06
628.14	11400.76
628.495	11388.33
628.85	11400.53
629.205	11360.99
629.559	11433.98
629.914	11325.51
630.269	11299.97
630.623	11321.44
630.978	11283.93
631.332	11295.45
631.687	11323.47
632.041	11294.55
632.396	11378.39
632.75	11255
633.104	11316.02
633.459	11207.77
633.813	11273.98
634.167	11220.43
634.521	11272.85
634.875	11233.53
635.229	11204.15
635.583	11136.81
635.937	11166.87
636.291	11194.89
636.645	11168.22
636.999	11104.04
637.352	11095
637.706	11108.11
638.06	11035.8
638.413	11079.64
638.767	11088.23
639.121	11113.08
639.474	10986.31
639.828	10945.63
640.181	11044.16
640.534	10968.23
640.888	10916.25
641.241	10937.95
641.594	10954.44
641.947	10937.49
642.301	10928.23
642.654	10953.31
643.007	11027.21
643.36	10934.11
643.713	10908.12
644.066	10934.78
644.419	10843.49
644.771	10795.35
645.124	10734.34
645.477	10665.19
645.83	10624.96
646.182	10597.39
646.535	10599.2
646.888	10605.53
647.24	10553.78
647.593	10625.19
647.945	10589.48
648.298	10498.86
648.65	10514.68
649.002	10486.21
649.355	10536.15
649.707	10486.66
650.059	10599.42
650.411	10751.29
650.763	10691.63
651.115	10803.49
651.467	10863.15
651.819	10787.44
652.171	10819.08
652.523	10762.58
652.875	10705.18
653.227	10681.23
653.578	10808.01
653.93	10792.64
654.282	10671.97
654.633	10722.59
654.985	10725.98
655.337	10760.32
655.688	10770.72
656.039	10741.34
656.391	10762.13
656.742	10728.23
657.094	10743.6
657.445	10872.64
657.796	10847.1
658.147	10783.15
658.498	10785.18
658.849	10791.06
659.2	10754
659.551	10825.18
659.902	10882.81
660.253	10867.89
660.604	10760.55
660.955	10763.26
661.306	10810.94
661.656	10902.24
662.007	10834.45
662.358	10808.91
662.708	10895.46
663.059	10815.01
663.409	10807.78
663.76	10903.82
664.11	10930.49
664.461	10784.5
664.811	10869.47
665.161	10910.38
665.511	10863.6
665.862	10905.86
666.212	10906.31
666.562	10914.67
666.912	10861.11
667.262	10978.62
667.612	10931.39
667.962	10927.78
668.312	10898.85
668.662	10880.55
669.011	10854.11
669.361	10884.16
669.711	10898.17
670.06	10857.5
670.41	10826.09
670.76	10839.19
671.109	10850.72
671.459	10855.69
671.808	10789.25
672.157	10911.28
672.507	10742.92
672.856	10785.18
673.205	10827.44
673.554	10831.73
673.904	10750.61
674.253	10835.58
674.602	10780.89
674.951	10672.87
675.3	10632.64
675.649	10756.26
675.998	10771.62
676.346	10759.87
676.695	10752.42
677.044	10669.93
677.393	10772.3
677.741	10743.6
678.09	10690.72
678.438	10643.27
678.787	10657.95
679.135	10664.06
679.484	10533.89
679.832	10607.33
680.181	10561.91
680.529	10566.66
680.877	10546.09
681.225	10590.84
681.573	10550.16
681.922	10472.2
682.27	10455.25
682.618	10447.79
682.966	10389.49
683.314	10431.29
683.661	10369.83
684.009	10383.39
684.357	10355.36
684.705	10289.6
685.053	10252.32
685.4	10290.73
685.748	10290.05
686.095	10291.64
686.443	10222.49
686.79	10135.48
687.138	10203.28
687.485	10217.29
687.832	10119.66
688.18	10114.47
688.527	10111.3
688.874	10092.09
689.221	10079.66
689.568	9978.88
689.915	9990.85
690.262	9993.79
690.609	9911.76
690.956	9863.85
691.303	9876.28
691.65	9822.04
691.997	9774.81
692.344	9739.79
692.69	9779.33
693.037	9730.07
693.383	9611.2
693.73	9619.79
694.077	9586.34
694.423	9558.77
694.769	9514.71
695.116	9523.29
695.462	9447.59
695.808	9470.41
696.155	9415.28
696.501	9416.4
696.847	9348.61
697.193	9203.98
697.539	9353.58
697.885	9212.12
698.231	9215.96
698.577	9224.32
698.923	9178.67
699.269	9181.61
699.614	9027.71
699.96	9079.24
700.306	9041.5
700.651	8961.28
700.997	8968.28
701.342	8941.39
701.688	8880.37
702.033	8875.4
702.379	8827.72
702.724	8769.87
703.069	8768.29
703.415	8743.88
703.76	8734.84
704.105	8714.05
704.45	8639.25
704.795	8660.94
705.14	8596.54
705.485	8551.79
705.83	8579.14
706.175	8512.93
706.52	8463.66
706.865	8430.22
707.209	8445.58
707.554	8441.06
707.899	8470.89
708.243	8358.35
708.588	8347.73
708.932	8312.48
709.277	8322.65
709.621	8298.92
709.966	8254.63
710.31	8217.11
710.654	8168.08
710.998	8227.96
711.342	8178.7
711.687	8125.59
712.031	8059.83
712.375	8087.4
712.719	8128.76
713.063	8024.58
713.407	8036.55
713.75	8107.06
714.094	8073.62
714.438	7950
714.782	8008.53
715.125	8030.23
715.469	7956.1
715.812	7953.39
716.156	7816.22
716.499	7906.16
716.843	7894.19
717.186	7849.89
717.53	7929.44
717.873	7893.96
718.216	7888.54
718.559	7838.14
718.902	7764.47
719.246	7800.18
719.589	7771.25
719.932	7811.02
720.275	7800.18
720.617	7762.21
720.96	7742.55
721.303	7685.83
721.646	7729.44
721.989	7724.02
722.331	7673.63
722.674	7712.04
723.016	7682.89
723.359	7582.33
723.701	7677.47
724.044	7669.78
724.386	7562.44
724.729	7583.91
725.071	7619.62
725.413	7618.26
725.755	7608.32
726.097	7593.63
726.439	7521.09
726.782	7577.58
727.124	7601.31
727.465	7641.99
727.807	7620.75
728.149	7593.18
728.491	7550.01
728.833	7642.89
729.175	7537.81
729.516	7522.67
729.858	7610.35
730.199	7555.44
730.541	7588.2
730.882	7561.54
731.224	7518.38
731.565	7480.18
731.906	7547.08
732.248	7515.44
732.589	7527.19
732.93	7516.57
733.271	7546.62
733.612	7560.41
733.953	7525.83
734.294	7499.62
734.635	7553.86
734.976	7545.49
735.317	7545.95
735.658	7529
735.999	7473.18
736.339	7541.2
736.68	7572.61
737.021	7489
737.361	7576
737.702	7543.91
738.042	7608.99
738.383	7547.08
738.723	7583.68
739.063	7597.7
739.404	7593.63
739.744	7645.38
740.084	7684.93
740.424	7653.06
740.764	7625.72
741.104	7674.3
741.444	7592.95
741.784	7726.05
742.124	7747.52
742.464	7791.81
742.804	7756.11
743.143	7752.27
743.483	7808.76
743.823	7751.14
744.162	7905.26
744.502	7914.52
744.841	7891.02
745.181	7953.62
745.52	7929.21
745.86	8052.82
746.199	8084.46
746.538	8093.5
746.877	8182.54
747.216	8198.13
747.556	8229.54
747.895	8307.96
748.234	8317
748.573	8378.92
748.911	8394.96
749.25	8453.27
749.589	8518.8
749.928	8571.68
750.267	8647.84
750.605	8741.39
750.944	8775.29
751.283	8909.3
751.621	8884.22
751.96	9030.88
752.298	9098.9
752.636	9215.28
752.975	9290.53
753.313	9367.59
753.651	9512.45
753.989	9565.33
754.327	9659.11
754.666	9713.57
755.004	9861.14
755.342	10031.76
755.679	10204.63
756.017	10235.59
756.355	10395.14
756.693	10572.76
757.031	10700.21
757.368	10774.11
757.706	10863.82
758.044	11072.18
758.381	11272.4
758.719	11455.45
759.056	11484.6
