Data from hue_290_FLMS001491_00009.txt Node
Date: Tue Feb 07 15:52:08 GMT 2017
User: dcchb
Spectrometer: FLMS00149
Trigger mode: 0
Integration Time (sec): 2.000000E-2
Scans to average: 10
Electric dark correction enabled: true
Nonlinearity correction enabled: false
Boxcar width: 0
XAxis mode: Wavelengths
Number of Pixels in Spectrum: 2048
>>>>>Begin Spectral Data<<<<<
341.393	-44.55
341.776	-44.55
342.16	-44.55
342.543	-66.24
342.927	-79.12
343.31	-77.31
343.693	-71.44
344.077	-65.79
344.46	-66.92
344.843	-49.07
345.226	-48.16
345.61	-49.74
345.993	-13.59
346.376	-9.29
346.759	24.38
347.142	36.81
347.525	44.72
347.908	72.74
348.291	68.67
348.674	93.75
349.057	110.25
349.44	97.82
349.823	129.69
350.206	144.15
350.588	181.66
350.971	218.72
351.354	219.18
351.737	225.28
352.119	222.56
352.502	240.19
352.884	249.91
353.267	279.51
353.65	273.41
354.032	283.35
354.414	308.89
354.797	297.37
355.179	327.19
355.562	318.38
355.944	329.23
356.326	333.07
356.709	330.13
357.091	322.45
357.473	328.55
357.855	345.95
358.238	344.6
358.62	347.53
359.002	340.98
359.384	333.07
359.766	334.88
360.148	324.71
360.53	324.71
360.912	321.55
361.294	336.01
361.676	330.36
362.057	336.01
362.439	333.52
362.821	288.33
363.203	318.61
363.584	328.1
363.966	304.6
364.348	302.11
364.729	341.21
365.111	312.73
365.493	300.98
365.874	312.28
366.256	309.12
366.637	322.68
367.019	306.86
367.4	334.88
367.781	320.64
368.163	320.87
368.544	296.01
368.925	304.82
369.306	315.67
369.688	312.73
370.069	302.11
370.45	293.75
370.831	306.63
371.212	291.94
371.593	291.26
371.974	286.97
372.355	314.54
372.736	289.91
373.117	305.5
373.498	308.66
373.879	311.15
374.26	304.14
374.641	297.37
375.021	286.97
375.402	301.43
375.783	305.05
376.163	322.9
376.544	323.13
376.925	314.54
377.305	303.24
377.686	338.72
378.066	319.96
378.447	335.33
378.827	321.55
379.208	313.86
379.588	318.38
379.968	333.3
380.349	327.42
380.729	337.14
381.109	331.26
381.489	357.93
381.87	326.29
382.25	335.33
382.63	350.25
383.01	332.17
383.39	339.62
383.77	326.29
384.15	323.58
384.53	326.52
384.91	337.14
385.29	351.6
385.67	352.73
386.049	345.95
386.429	333.97
386.809	338.95
387.189	357.02
387.568	360.41
387.948	368.55
388.328	360.19
388.707	343.01
389.087	366.74
389.466	360.87
389.846	370.81
390.225	352.5
390.605	376.01
390.984	376.91
391.363	361.54
391.743	382.11
392.122	366.52
392.501	343.01
392.881	391.83
393.26	390.47
393.639	386.4
394.018	384.59
394.397	381.2
394.776	378.27
395.155	390.24
395.534	374.88
395.913	383.01
396.292	387.08
396.671	401.77
397.05	403.35
397.429	391.83
397.808	394.31
398.186	400.19
398.565	388.89
398.944	369.91
399.323	416.91
399.701	424.82
400.08	414.2
400.458	411.71
400.837	425.27
401.215	411.94
401.594	430.24
401.972	420.3
402.351	434.31
402.729	425.05
403.107	430.24
403.486	420.53
403.864	440.64
404.242	442.67
404.62	457.36
404.999	420.07
405.377	447.42
405.755	455.33
406.133	457.59
406.511	442.45
406.889	475.67
407.267	490.35
407.645	493.07
408.023	492.39
408.401	489.45
408.779	505.5
409.156	493.97
409.534	509.79
409.912	502.11
410.29	533.29
410.667	527.64
411.045	522.67
411.422	525.61
411.8	561.54
412.178	566.96
412.555	562.89
412.933	559.28
413.31	580.97
413.687	580.97
414.065	585.04
414.442	594.76
414.819	613.74
415.197	588.88
415.574	637.92
415.951	627.75
416.328	610.13
416.705	642.21
417.082	627.98
417.46	653.29
417.837	660.29
418.214	670.46
418.591	681.54
418.967	682.21
419.344	691.7
419.721	707.75
420.098	686.51
420.475	717.24
420.852	713.85
421.228	743
421.605	716.34
421.982	771.02
422.358	757.47
422.735	734.64
423.111	778.03
423.488	778.03
423.864	791.59
424.241	810.35
424.617	804.02
424.994	797.92
425.37	830.46
425.746	846.28
426.123	849.21
426.499	833.85
426.875	878.37
427.251	872.04
427.627	876.78
428.003	885.82
428.379	889.67
428.756	899.16
429.132	909.1
429.507	925.15
429.883	923.79
430.259	960.62
430.635	963.11
431.011	947.07
431.387	987.74
431.763	1002.66
432.138	1009.21
432.514	1006.72
432.89	1028.42
433.265	1025.93
433.641	1049.21
434.016	1091.69
434.392	1075.88
434.767	1117.91
435.143	1132.6
435.518	1134.18
435.894	1118.59
436.269	1145.03
436.644	1192.71
437.02	1187.96
437.395	1203.78
437.77	1174.86
438.145	1189.32
438.52	1218.02
438.895	1236.1
439.271	1242.2
439.646	1266.83
440.021	1269.77
440.395	1266.61
440.77	1256.89
441.145	1276.32
441.52	1304.8
441.895	1276.77
442.27	1317.45
442.645	1325.36
443.019	1333.27
443.394	1333.5
443.769	1346.38
444.143	1368.3
444.518	1360.16
444.892	1376.88
445.267	1380.5
445.641	1386.6
446.016	1408.07
446.39	1405.58
446.764	1411.69
447.139	1396.77
447.513	1428.18
447.887	1416.43
448.262	1416.66
448.636	1422.31
449.01	1462.53
449.384	1444.23
449.758	1478.58
450.132	1496.43
450.506	1486.03
450.88	1484
451.254	1476.09
451.628	1524.23
452.002	1509.76
452.376	1493.49
452.75	1524.45
453.123	1539.14
453.497	1577.33
453.871	1559.93
454.244	1594.05
454.618	1577.56
454.992	1605.58
455.365	1600.83
455.739	1643.32
456.112	1661.62
456.486	1628.86
456.859	1656.43
457.232	1675.41
457.606	1702.53
457.979	1719.02
458.352	1716.99
458.725	1757.89
459.099	1727.38
459.472	1787.04
459.845	1798.12
460.218	1797.44
460.591	1818.91
460.964	1813.48
461.337	1858
461.71	1886.25
462.083	1886.25
462.456	1878.11
462.829	1886.25
463.201	1881.05
463.574	1885.57
463.947	1952.69
464.32	1980.48
464.692	1988.62
465.065	2003.53
465.438	2009.64
465.81	2024.78
466.183	2020.48
466.555	2062.74
466.928	2073.82
467.3	2088.73
467.672	2121.5
468.045	2156.3
468.417	2147.26
468.789	2157.43
469.161	2159.91
469.534	2217.31
469.906	2235.85
470.278	2234.04
470.65	2290.31
471.022	2310.87
471.394	2338.22
471.766	2354.94
472.138	2366.92
472.51	2359.23
472.882	2418.89
473.253	2435.84
473.625	2477.42
473.997	2513.8
474.369	2500.92
474.74	2501.83
475.112	2580.92
475.484	2568.49
475.855	2613.69
476.227	2639.22
476.598	2715.61
476.97	2715.15
477.341	2768.71
477.713	2785.89
478.084	2807.81
478.455	2853.68
478.827	2893.23
479.198	2978.42
479.569	2961.02
479.94	3002.38
480.311	3061.59
480.682	3079.89
481.053	3105.2
481.424	3152.21
481.795	3185.2
482.166	3206.67
482.537	3208.47
482.908	3282.6
483.279	3321.69
483.65	3380.45
484.021	3419.32
484.391	3392.42
484.762	3427.45
485.133	3435.59
485.503	3487.56
485.874	3578.41
486.244	3580.89
486.615	3629.25
486.985	3673.77
487.356	3731.63
487.726	3714.9
488.097	3765.07
488.467	3843.03
488.837	3832.19
489.207	3888.46
489.578	3928.68
489.948	3935.24
490.318	3989.25
490.688	3962.13
491.058	4055.68
491.428	4074.21
491.798	4110.37
492.168	4202.57
492.538	4188.56
492.908	4255.68
493.278	4271.5
493.648	4273.98
494.017	4299.97
494.387	4395.56
494.757	4367.54
495.126	4357.37
495.496	4403.7
495.866	4413.64
496.235	4417.48
496.605	4464.26
496.974	4490.93
497.344	4515.11
497.713	4538.84
498.082	4549.91
498.452	4613.64
498.821	4624.93
499.19	4631.04
499.559	4685.05
499.928	4671.94
500.298	4698.61
500.667	4741.09
501.036	4750.36
501.405	4783.8
501.774	4808.43
502.143	4824.7
502.512	4841.2
502.88	4873.97
503.249	4853.63
503.618	4847.3
503.987	4893.85
504.356	4911.48
504.724	4896.57
505.093	4911.03
505.462	4950.35
505.83	4995.55
506.199	5020.63
506.567	5061.99
506.936	5041.42
507.304	5086.62
507.672	5145.15
508.041	5088.65
508.409	5134.07
508.777	5144.7
509.145	5162.1
509.514	5209.55
509.882	5212.49
510.25	5224.47
510.618	5211.13
510.986	5241.87
511.354	5212.94
511.722	5377.68
512.09	5345.82
512.458	5353.5
512.826	5398.7
513.193	5386.04
513.561	5387.4
513.929	5410.9
514.297	5485.7
514.664	5449.77
515.032	5488.87
515.4	5465.59
515.767	5493.61
516.135	5547.62
516.502	5466.95
516.869	5599.37
517.237	5586.04
517.604	5587.17
517.972	5628.3
518.339	5687.05
518.706	5635.3
519.073	5622.87
519.44	5682.76
519.808	5686.38
520.175	5685.25
520.542	5767.05
520.909	5769.99
521.276	5685.7
521.643	5784.23
522.009	5835.75
522.376	5829.2
522.743	5874.62
523.11	5872.13
523.477	5963.43
523.843	5929.31
524.21	6007.95
524.577	5972.7
524.943	6053.15
525.31	6040.49
525.676	6099.25
526.043	6126.82
526.409	6138.34
526.776	6168.17
527.142	6210.88
527.508	6227.83
527.874	6263.31
528.241	6325.68
528.607	6291.56
528.973	6382.18
529.339	6346.92
529.705	6413.81
530.071	6439.8
530.437	6458.33
530.803	6484.77
531.169	6489.07
531.535	6471.21
531.901	6535.39
532.267	6519.8
532.632	6577.65
532.998	6587.37
533.364	6591.89
533.73	6581.04
534.095	6727.48
534.461	6679.34
534.826	6714.6
535.192	6699
535.557	6715.28
535.923	6784.65
536.288	6768.16
536.653	6852.67
537.019	6840.92
537.384	6815.61
537.749	6893.12
538.114	6885.89
538.479	6860.13
538.845	6871.66
539.21	6877.08
539.575	6951.88
539.94	6995.95
540.305	6987.81
540.67	6964.08
541.034	7004.53
541.399	7047.24
541.764	7063.06
542.129	7056.96
542.494	7125.43
542.858	7103.74
543.223	7113.01
543.587	7161.59
543.952	7160.91
544.316	7137.86
544.681	7209.27
545.045	7249.27
545.41	7305.09
545.774	7266.9
546.138	7325.2
546.503	7331.53
546.867	7325.2
547.231	7375.37
547.595	7361.59
547.959	7375.6
548.324	7369.72
548.688	7471.41
549.052	7427.12
549.416	7440.91
549.779	7498.98
550.143	7538.76
550.507	7517.97
550.871	7536.04
551.235	7514.8
551.599	7561.35
551.962	7578.3
552.326	7650.39
552.689	7595.93
553.053	7639.32
553.417	7668.92
553.78	7796.15
554.143	7675.7
554.507	7721.12
554.87	7800.9
555.234	7797.73
555.597	7800.22
555.96	7819.2
556.323	7859.88
556.686	7818.98
557.05	7861.46
557.413	7829.14
557.776	7916.15
558.139	7926.09
558.502	7939.88
558.865	7985.3
559.228	7969.48
559.59	7998.86
559.953	7977.39
560.316	8020.55
560.679	8054.22
561.041	8117.27
561.404	8128.57
561.767	8163.37
562.129	8147.33
562.492	8257.16
562.854	8242.24
563.217	8226.65
563.579	8200.43
563.941	8334.44
564.304	8338.06
564.666	8382.8
565.028	8385.97
565.39	8386.64
565.753	8366.31
566.115	8466.64
566.477	8484.72
566.839	8510.48
567.201	8569.69
567.563	8571.72
567.925	8653.53
568.287	8650.14
568.648	8675.68
569.01	8772.4
569.372	8787.54
569.734	8743.47
570.095	8797.25
570.457	8814.88
570.819	8881.77
571.18	8918.38
571.542	8917.93
571.903	8935.33
572.265	8957.25
572.626	8975.33
572.987	9016.68
573.349	9080.64
573.71	9102.78
574.071	9183.23
574.432	9244.47
574.794	9265.26
575.155	9276.11
575.516	9321.08
575.877	9387.07
576.238	9368.31
576.599	9471.81
576.96	9501.64
577.32	9455.09
577.681	9594.75
578.042	9623.67
578.403	9652.83
578.763	9703.22
579.124	9777.79
579.485	9940.05
579.845	9951.57
580.206	9979.82
580.566	10091.46
580.927	10074.74
581.287	10192.7
581.648	10252.36
582.008	10331.68
582.368	10431.56
582.728	10544.55
583.089	10597.89
583.449	10643.53
583.809	10753.36
584.169	10891.44
584.529	10936.41
584.889	11109.51
585.249	11128.27
585.609	11237.64
585.969	11327.13
586.329	11473.34
586.688	11573
587.048	11624.52
587.408	11742.71
587.768	11893.22
588.127	12031.75
588.487	12087.34
588.846	12207.79
589.206	12368.91
589.565	12541.11
589.925	12603.71
590.284	12756.02
590.643	12970.7
591.003	13022.91
591.362	13241.21
591.721	13319.4
592.08	13448.88
592.44	13653.85
592.799	13707.63
593.158	13839.16
593.517	13927.06
593.876	14151.69
594.235	14233.95
594.593	14393.72
594.952	14528.4
595.311	14628.74
595.67	14726.14
596.029	14960.03
596.387	15090.42
596.746	15200.93
597.104	15341.49
597.463	15434.14
597.822	15557.53
598.18	15663.97
598.538	15798.2
598.897	16006.1
599.255	15984.86
599.613	16338.3
599.972	16299.43
600.33	16517.96
600.688	16492.65
601.046	16716.14
601.404	16821
601.762	16956.14
602.12	17096.25
602.478	17193.42
602.836	17252.63
603.194	17286.07
603.552	17447.42
603.91	17408.78
604.268	17702.33
604.625	17670.24
604.983	17873.85
605.341	17821.2
605.698	18046.95
606.056	18136.22
606.413	18132.15
606.771	18405.59
607.128	18467.28
607.485	18452.82
607.843	18642.65
608.2	18683.55
608.557	18791.57
608.914	18811.23
609.272	18970.55
609.629	19067.27
609.986	19240.14
610.343	19222.97
610.7	19315.62
611.057	19338.22
611.414	19354.04
611.771	19532.79
612.127	19655.95
612.484	19661.83
612.841	19803.74
613.198	19774.37
613.554	19854.59
613.911	20045.32
614.267	20017.07
614.624	20096.84
614.98	20221.59
615.337	20253.22
615.693	20189.5
616.05	20264.52
616.406	20485.99
616.762	20481.69
617.118	20425.2
617.475	20569.37
617.831	20678.75
618.187	20705.64
618.543	20644.17
618.899	20828.35
619.255	20755.58
619.611	20763.04
619.967	20898.41
620.323	20889.82
620.678	20896.37
621.034	20989.25
621.39	21031.96
621.746	20951.96
622.101	21300.65
622.457	21056.14
622.812	21194.44
623.168	21200.09
623.523	21284.84
623.879	21335.46
624.234	21149.7
624.589	21288.23
624.945	21370.03
625.3	21429.69
625.655	21438.96
626.01	21398.96
626.365	21489.8
626.72	21456.13
627.075	21446.87
627.43	21367.09
627.785	21407.32
628.14	21495.9
628.495	21552.4
628.85	21490.48
629.205	21484.83
629.559	21582.23
629.914	21462.01
630.269	21572.06
630.623	21393.08
630.978	21445.51
631.332	21641.44
631.687	21580.87
632.041	21536.81
632.396	21572.06
632.75	21492.51
633.104	21475.34
633.459	21482.12
633.813	21391.05
634.167	21386.08
634.521	21451.61
634.875	21491.84
635.229	21375.45
635.583	21377.49
635.937	21341.56
636.291	21349.47
636.645	21340.43
636.999	21257.49
637.352	21342.69
637.706	21140.21
638.06	21207.1
638.413	21305.85
638.767	21236.25
639.121	21139.53
639.474	21142.24
639.828	21182.69
640.181	21279.19
640.534	21137.27
640.888	21142.92
641.241	21115.8
641.594	21160.77
641.947	21156.25
642.301	21088.91
642.654	21244.16
643.007	21108.8
643.36	21141.56
643.713	21118.74
644.066	21226.76
644.419	21098.63
644.771	20991.96
645.124	20757.84
645.477	20726.21
645.83	20602.59
646.182	20514.91
646.535	20515.82
646.888	20540.22
647.24	20387.23
647.593	20602.59
647.945	20479.43
648.298	20374.58
648.65	20371.41
649.002	20326.89
649.355	20503.84
649.707	20452.99
650.059	20529.83
650.411	20819.09
650.763	20762.36
651.115	21035.58
651.467	20998.06
651.819	20996.03
652.171	20938.18
652.523	20842.59
652.875	20942.02
653.227	20808.92
653.578	20986.76
653.93	20979.08
654.282	20829.93
654.633	20797.62
654.985	20881.91
655.337	20936.82
655.688	20905.86
656.039	21006.43
656.391	20864.28
656.742	20842.59
657.094	20838.29
657.445	20923.04
657.796	20857.28
658.147	20923.49
658.498	20837.16
658.849	20939.53
659.2	20807.56
659.551	20900.21
659.902	20931.62
660.253	20944.05
660.604	20909.93
660.955	20897.05
661.306	20962.13
661.656	20970.27
662.007	20962.36
662.358	20993.54
662.708	21015.01
663.059	20978.18
663.409	20841.23
663.76	20970.04
664.11	21133.2
664.461	20987.89
664.811	21136.14
665.161	21066.54
665.511	20972.75
665.862	20959.65
666.212	21127.1
666.562	21152.86
666.912	20996.71
667.262	20969.59
667.612	21011.17
667.962	20989.7
668.312	20953.77
668.662	21023.83
669.011	20951.74
669.361	20912.19
669.711	20952.42
670.06	20942.47
670.41	20813.89
670.76	20866.77
671.109	20900.67
671.459	20918.52
671.808	20938.18
672.157	20848.01
672.507	20738.64
672.856	20825.86
673.205	20848.92
673.554	20965.97
673.904	20883.94
674.253	20909.93
674.602	20751.52
674.951	20529.38
675.3	20440.34
675.649	20759.88
675.998	20657.51
676.346	20649.82
676.695	20761.46
677.044	20551.75
677.393	20676.49
677.741	20741.8
678.09	20604.85
678.438	20505.87
678.787	20569.6
679.135	20562.82
679.484	20441.02
679.832	20511.3
680.181	20384.97
680.529	20451.19
680.877	20399.89
681.225	20483.95
681.573	20451.19
681.922	20281.47
682.27	20366.22
682.618	20228.82
682.966	20328.48
683.314	20311.98
683.661	20224.75
684.009	20074.25
684.357	20057.52
684.705	20008.94
685.053	20039.22
685.4	20007.81
685.748	19874.03
686.095	19829.28
686.443	19892.33
686.79	19777.53
687.138	19835.16
687.485	19831.31
687.832	19786.34
688.18	19760.13
688.527	19671.54
688.874	19559.23
689.221	19506.35
689.568	19468.84
689.915	19373.7
690.262	19434.94
690.609	19313.81
690.956	19211.22
691.303	19233.82
691.65	19130.54
691.997	19244.66
692.344	19052.35
692.69	19011.68
693.037	18932.81
693.383	18828.18
693.73	18904.11
694.077	18730.55
694.423	18806.93
694.769	18670.67
695.116	18642.65
695.462	18613.95
695.808	18548.18
696.155	18578.24
696.501	18462.54
696.847	18411.47
697.193	18237.91
697.539	18315.65
697.885	18076.78
698.231	18146.84
698.577	18109.55
698.923	17978.26
699.269	17897.58
699.614	17896.45
699.96	17823.01
700.306	17776.68
700.651	17684.93
700.997	17689
701.342	17659.62
701.688	17534.2
702.033	17446.29
702.379	17424.82
702.724	17442.45
703.069	17458.5
703.415	17256.92
703.76	17276.58
704.105	17189.58
704.45	17206.98
704.795	17004.72
705.14	17077.04
705.485	16924.05
705.83	16876.59
706.175	16880.88
706.52	16882.24
706.865	16783.94
707.209	16799.3
707.554	16660.55
707.899	16720.21
708.243	16563.15
708.588	16577.39
708.932	16367.45
709.277	16414.68
709.621	16448.35
709.966	16283.16
710.31	16402.25
710.654	16202.03
710.998	16311.18
711.342	16172.2
711.687	16203.39
712.031	16144.86
712.375	16120
712.719	16086.33
713.063	16070.96
713.407	16074.8
713.75	16030.28
714.094	15941.47
714.438	15907.8
714.782	15835.71
715.125	15838.88
715.469	15896.05
715.812	15790.07
716.156	15654.25
716.499	15717.3
716.843	15708.71
717.186	15572.22
717.53	15612.44
717.873	15541.94
718.216	15595.49
718.559	15516.4
718.902	15416.06
719.246	15479.34
719.589	15371.32
719.932	15343.07
720.275	15399.79
720.617	15409.96
720.96	15349.62
721.303	15370.42
721.646	15332.68
721.989	15335.84
722.331	15269.4
722.674	15281.38
723.016	15279.12
723.359	15162.96
723.701	15271.21
724.044	15230.98
724.386	15115.96
724.729	15169.52
725.071	15101.95
725.413	15144.43
725.755	15093.59
726.097	15110.76
726.439	15005
726.782	15050.42
727.124	15117.31
727.465	15015.4
727.807	15049.07
728.149	14957.09
728.491	14979.69
728.833	14959.13
729.175	14936.08
729.516	14896.08
729.858	14902.4
730.199	14965.23
730.541	14851.78
730.882	14779.02
731.224	14943.53
731.565	14835.06
731.906	14927.94
732.248	14914.83
732.589	14854.04
732.93	14772.46
733.271	14836.64
733.612	14812.46
733.953	14873.93
734.294	14848.62
734.635	14762.3
734.976	14851.56
735.317	14758
735.658	14729.75
735.999	14719.13
736.339	14767.95
736.68	14854.5
737.021	14844.78
737.361	14688.63
737.702	14841.39
738.042	14837.55
738.383	14778.34
738.723	14786.02
739.063	14763.88
739.404	14848.62
739.744	14844.1
740.084	14780.15
740.424	14889.52
740.764	14832.12
741.104	14864.67
741.444	14768.17
741.784	14779.02
742.124	14866.93
742.464	14903.31
742.804	14919.58
743.143	14813.14
743.483	14823.08
743.823	14872.35
744.162	14892.69
744.502	14947.83
744.841	14855.85
745.181	15051.33
745.52	15001.61
745.86	15137.88
746.199	15021.72
746.538	15152.57
746.877	15247.71
747.216	15220.59
747.556	15214.94
747.895	15341.26
748.234	15255.84
748.573	15331.09
748.911	15424.88
749.25	15439.34
749.589	15567.47
749.928	15584.19
750.267	15709.39
750.605	15713.46
750.944	15810.4
751.283	15775.6
751.621	15941.7
751.96	15931.76
752.298	16124.97
752.636	16104.41
752.975	16165.87
753.313	16264.85
753.651	16356.83
753.989	16430.27
754.327	16600.21
754.666	16609.7
755.004	16776.93
755.342	16943.71
755.679	16989.81
756.017	17090.14
756.355	17162.01
756.693	17227.99
757.031	17428.21
757.368	17472.28
757.706	17581.2
758.044	17710.69
758.381	17788.2
758.719	17856
759.056	18017.58
759.394	18078.37
