Data from hue_32_FLMS001491_00006.txt Node
Date: Tue Feb 07 17:22:50 GMT 2017
User: dcchb
Spectrometer: FLMS00149
Trigger mode: 0
Integration Time (sec): 2.000000E-2
Scans to average: 10
Electric dark correction enabled: true
Nonlinearity correction enabled: false
Boxcar width: 0
XAxis mode: Wavelengths
Number of Pixels in Spectrum: 2048
>>>>>Begin Spectral Data<<<<<
341.393	-3.53
341.776	-3.53
342.16	-3.53
342.543	-38.11
342.927	-64.77
343.31	-48.5
343.693	-76.3
344.077	-60.93
344.46	-71.1
344.843	-66.81
345.226	-51.67
345.61	-35.17
345.993	-22.51
346.376	2.8
346.759	30.82
347.142	-0.37
347.525	49.57
347.908	52.06
348.291	77.37
348.674	112.62
349.057	108.1
349.44	138.39
349.823	149.23
350.206	164.83
350.588	199.63
350.971	206.41
351.354	241.89
351.737	242.56
352.119	276.01
352.502	291.38
352.884	286.18
353.267	292.96
353.65	309
354.032	321.21
354.414	318.72
354.797	325.27
355.179	334.09
355.562	319.62
355.944	324.37
356.326	351.26
356.709	342.67
357.091	330.7
357.473	343.13
357.855	356.69
358.238	344.48
358.62	348.78
359.002	340.64
359.384	337.03
359.766	332.05
360.148	371.15
360.53	356.23
360.912	335.67
361.294	345.61
361.676	340.64
362.057	342.22
362.439	332.05
362.821	358.49
363.203	336.35
363.584	320.75
363.966	330.92
364.348	335.9
364.729	324.14
365.111	329.12
365.493	327.31
365.874	306.07
366.256	344.93
366.637	315.78
367.019	319.4
367.4	310.36
367.781	325.73
368.163	298.83
368.544	318.95
368.925	319.85
369.306	326.4
369.688	325.73
370.069	335.22
370.45	314.43
370.831	316.01
371.212	321.66
371.593	321.43
371.974	318.72
372.355	313.75
372.736	334.09
373.117	327.99
373.498	320.98
373.879	329.12
374.26	309.68
374.641	304.71
375.021	322.56
375.402	322.56
375.783	325.73
376.163	325.5
376.544	352.39
376.925	340.87
377.305	318.27
377.686	326.86
378.066	324.6
378.447	328.21
378.827	328.44
379.208	327.53
379.588	340.41
379.968	341.09
380.349	363.01
380.729	330.25
381.109	349.45
381.489	361.43
381.87	342.67
382.25	354.43
382.63	357.82
383.01	361.66
383.39	347.87
383.77	356.46
384.15	331.6
384.53	354.65
384.91	355.78
385.29	358.27
385.67	363.47
386.049	364.59
386.429	386.52
386.809	367.08
387.189	344.71
387.568	370.02
387.948	368.44
388.328	361.21
388.707	360.53
389.087	386.74
389.466	380.41
389.846	349.23
390.225	361.43
390.605	378.38
390.984	374.31
391.363	378.83
391.743	374.99
392.122	387.87
392.501	397.14
392.881	390.58
393.26	372.28
393.639	382.45
394.018	385.39
394.397	394.42
394.776	377.7
395.155	371.6
395.534	368.44
395.913	379.06
396.292	405.05
396.671	402.11
397.05	401.88
397.429	400.3
397.808	399.4
398.186	393.29
398.565	406.4
398.944	400.3
399.323	389
399.701	395.78
400.08	407.98
400.458	400.53
400.837	401.66
401.215	393.97
401.594	417.93
401.972	419.73
402.351	420.19
402.729	425.84
403.107	427.42
403.486	419.73
403.864	446.4
404.242	435.33
404.62	413.18
404.999	408.44
405.377	434.65
405.755	437.81
406.133	443.46
406.511	440.75
406.889	448.66
407.267	460.19
407.645	442.33
408.023	441.43
408.401	453.86
408.779	450.92
409.156	447.98
409.534	471.48
409.912	453.18
410.29	474.2
410.667	459.73
411.045	461.32
411.422	467.87
411.8	467.42
412.178	482.11
412.555	475.33
412.933	482.11
413.31	489.56
413.687	472.61
414.065	508.77
414.442	475.33
414.819	500.18
415.197	505.83
415.574	492.28
415.951	515.1
416.328	518.04
416.705	516.68
417.082	514.42
417.46	502.44
417.837	515.33
418.214	524.36
418.591	545.16
418.967	546.51
419.344	524.36
419.721	539.28
420.098	545.16
420.475	559.17
420.852	529.56
421.228	544.48
421.605	530.47
421.982	547.87
422.358	538.38
422.735	553.06
423.111	564.59
423.488	530.92
423.864	557.13
424.241	570.01
424.617	587.64
424.994	571.82
425.37	567.98
425.746	579.28
426.123	568.21
426.499	577.7
426.875	601.42
427.251	603.46
427.627	593.06
428.003	587.19
428.379	603.91
428.756	625.61
429.132	610.01
429.507	617.7
429.883	631.71
430.259	633.06
430.635	620.86
431.011	638.71
431.387	671.71
431.763	676.9
432.138	659.95
432.514	656.34
432.89	632.61
433.265	686.85
433.641	690.01
434.016	706.28
434.392	693.85
434.767	716.22
435.143	711.03
435.518	715.55
435.894	706.96
436.269	728.43
436.644	723.23
437.02	730.01
437.395	721.65
437.77	756
438.145	768.2
438.52	756.22
438.895	755.32
439.271	766.84
439.646	761.87
440.021	761.19
440.395	785.15
440.77	758.03
441.145	771.14
441.52	797.58
441.895	798.48
442.27	786.5
442.645	802.55
443.019	808.65
443.394	817.46
443.769	837.12
444.143	835.54
444.518	830.57
444.892	831.7
445.267	836.22
445.641	822.21
446.016	852.72
446.39	839.61
446.764	840.06
447.139	818.37
447.513	844.36
447.887	859.5
448.262	863.34
448.636	872.6
449.01	891.13
449.384	879.61
449.758	885.26
450.132	880.29
450.506	913.06
450.88	907.18
451.254	913.73
451.628	912.38
452.002	931.81
452.376	961.19
452.75	929.33
453.123	950.12
453.497	945.82
453.871	944.47
454.244	968.87
454.618	971.58
454.992	982.88
455.365	998.48
455.739	1028.98
456.112	1020.62
456.486	1017.69
456.859	1020.85
457.232	1055.42
457.606	1033.28
457.979	1043.67
458.352	1084.8
458.725	1092.94
459.099	1132.94
459.472	1111.47
459.845	1129.77
460.218	1101.3
460.591	1161.64
460.964	1177.68
461.337	1193.5
461.71	1173.39
462.083	1170
462.456	1215.65
462.829	1229.88
463.201	1231.69
463.574	1232.37
463.947	1257.45
464.32	1267.17
464.692	1262.65
465.065	1315.3
465.438	1302.65
465.81	1352.14
466.183	1377.45
466.555	1369.99
466.928	1371.8
467.3	1403.66
467.672	1428.3
468.045	1440.27
468.417	1473.94
468.789	1487.05
469.161	1463.55
469.534	1511.01
469.906	1536.32
470.278	1555.75
470.65	1562.98
471.022	1593.26
471.394	1631.91
471.766	1629.42
472.138	1671.91
472.51	1710.55
472.882	1740.15
473.253	1783.09
473.625	1811.79
473.997	1864.44
474.369	1865.57
474.74	1882.52
475.112	1918
475.484	1972.91
475.855	2011.33
476.227	2015.62
476.598	2111.44
476.97	2104.44
477.341	2177.88
477.713	2217.88
478.084	2249.97
478.455	2288.39
478.827	2307.82
479.198	2392.79
479.569	2448.16
479.94	2534.71
480.311	2571.77
480.682	2611.99
481.053	2659
481.424	2756.17
481.795	2821.25
482.166	2881.82
482.537	2892.89
482.908	2990.06
483.279	3049.72
483.65	3141.02
484.021	3185.54
484.391	3272.77
484.762	3323.61
485.133	3360.9
485.503	3454.91
485.874	3552.76
486.244	3638.86
486.615	3691.97
486.985	3744.17
487.356	3915.91
487.726	3926.99
488.097	4016.25
488.467	4036.59
488.837	4184.61
489.207	4268
489.578	4385.96
489.948	4407.2
490.318	4526.07
490.688	4599.96
491.058	4690.81
491.428	4823.69
491.798	4894.87
492.168	4976.45
492.538	5062.32
492.908	5078.37
493.278	5218.48
493.648	5272.26
494.017	5348.64
494.387	5400.62
494.757	5497.57
495.126	5611.46
495.496	5676.77
495.866	5697.56
496.235	5837.22
496.605	5855.3
496.974	5984.11
497.344	6059.59
497.713	6118.79
498.082	6199.92
498.452	6337.55
498.821	6348.17
499.19	6310.2
499.559	6485.11
499.928	6584.09
500.298	6618.22
500.667	6735.27
501.036	6686.46
501.405	6857.98
501.774	6865.21
502.143	6968.04
502.512	6999.22
502.88	7065.89
503.249	7136.85
503.618	7124.87
503.987	7254.36
504.356	7324.41
504.724	7368.93
505.093	7382.04
505.462	7460.68
505.83	7482.83
506.199	7636.72
506.567	7732.31
506.936	7699.09
507.304	7844.85
507.672	7873.55
508.041	7915.81
508.409	8036.71
508.777	8043.49
509.145	8144.28
509.514	8164.16
509.882	8255.46
510.25	8251.62
510.618	8252.3
510.986	8405.29
511.354	8466.98
511.722	8508.79
512.09	8601.44
512.458	8569.8
512.826	8669.69
513.193	8682.57
513.561	8687.09
513.929	8839.17
514.297	8941.09
514.664	8900.64
515.032	9022.9
515.4	8985.39
515.767	9080.3
516.135	9099.73
516.502	9132.27
516.869	9286.62
517.237	9282.78
517.604	9300.63
517.972	9430.8
518.339	9437.8
518.706	9446.16
519.073	9468.54
519.44	9519.16
519.808	9555.31
520.175	9630.57
520.542	9797.12
520.909	9816.32
521.276	9817.45
521.643	9915.53
522.009	9970.44
522.376	10045.92
522.743	10105.81
523.11	10161.85
523.477	10182.87
523.843	10310.55
524.21	10431
524.577	10428.74
524.943	10490.88
525.31	10483.88
525.676	10597.55
526.043	10694.04
526.409	10713.48
526.776	10805.68
527.142	10838.44
527.508	10882.96
527.874	11026.46
528.241	11063.07
528.607	11083.18
528.973	11210.41
529.339	11209.51
529.705	11289.28
530.071	11381.03
530.437	11425.55
530.803	11451.99
531.169	11571.08
531.535	11523.4
531.901	11575.83
532.267	11697.18
532.632	11804.52
532.998	11797.74
533.364	11804.52
533.73	11884.74
534.095	11940.79
534.461	11978.07
534.826	12085.42
535.192	12169.93
535.557	12236.15
535.923	12191.63
536.288	12246.54
536.653	12291.74
537.019	12264.17
537.384	12344.62
537.749	12451.28
538.114	12456.93
538.479	12519.53
538.845	12579.19
539.21	12554.1
539.575	12690.15
539.94	12712.52
540.305	12831.84
540.67	12782.57
541.034	12934.89
541.399	12907.54
541.764	12983.47
542.129	12916.58
542.494	13036.13
542.858	13125.62
543.223	13205.61
543.587	13213.3
543.952	13171.72
544.316	13292.62
544.681	13293.29
545.045	13366.29
545.41	13470.92
545.774	13518.83
546.138	13505.49
546.503	13602.44
546.867	13594.76
547.231	13775.99
547.595	13737.35
547.959	13796.78
548.324	13812.38
548.688	13864.8
549.052	13900.28
549.416	13960.62
549.779	14013.5
550.143	14093.05
550.507	14176.21
550.871	14142.31
551.235	14192.93
551.599	14249.65
551.962	14294.85
552.326	14238.58
552.689	14511.79
553.053	14397.67
553.417	14422.98
553.78	14598.12
554.143	14482.42
554.507	14654.61
554.87	14740.49
555.234	14833.82
555.597	14730.32
555.96	14819.13
556.323	14835.17
556.686	14901.39
557.05	14999.01
557.413	14963.76
557.776	15084.89
558.139	15182.28
558.502	15242.62
558.865	15237.2
559.228	15381.38
559.59	15352.22
559.953	15338.66
560.316	15588.38
560.679	15535.95
561.041	15584.08
561.404	15690.07
561.767	15782.27
562.129	15733.68
562.492	15955.6
562.854	15879.44
563.217	15897.75
563.579	15939.33
563.941	15994.24
564.304	16150.62
564.666	16156.27
565.028	16149.26
565.39	16222.26
565.753	16266.78
566.115	16374.12
566.477	16367.56
566.839	16470.61
567.201	16559.88
567.563	16499.31
567.925	16701.34
568.287	16742.7
568.648	16739.76
569.01	16903.6
569.372	17028.79
569.734	16964.61
570.095	17130.03
570.457	17125.28
570.819	17172.06
571.18	17264.72
571.542	17394.43
571.903	17433.3
572.265	17466.07
572.626	17538.61
572.987	17551.26
573.349	17617.02
573.71	17817.24
574.071	17811.37
574.432	17889.11
574.794	18172.26
575.155	18165.03
575.516	18141.75
575.877	18279.15
576.238	18396.21
576.599	18569.99
576.96	18650.22
577.32	18683.44
577.681	18871.68
578.042	19006.14
578.403	19010.43
578.763	19262.86
579.124	19329.75
579.485	19494.04
579.845	19736.06
580.206	19806.34
580.566	20008.6
580.927	20083.17
581.287	20282.04
581.648	20373.11
582.008	20642.03
582.368	20799.09
582.728	20991.4
583.089	21101.22
583.449	21261.45
583.809	21385.96
584.169	21682.45
584.529	21864.59
584.889	22251.7
585.249	22299.39
585.609	22417.35
585.969	22766.27
586.329	22975.07
586.688	23247.16
587.048	23450.77
587.408	23561.05
587.768	23753.58
588.127	24075.61
588.487	24197.19
588.846	24715.82
589.206	24808.7
589.565	25127.33
589.925	25314
590.284	25619.3
590.643	25736.81
591.003	26209.57
591.362	26486.17
591.721	26618.59
592.08	26866.27
592.44	27234.85
592.799	27469.42
593.158	27552.35
593.517	27966.81
593.876	28291.09
594.235	28265.56
594.593	28657.41
594.952	29064.41
595.311	29095.59
595.67	29567.89
596.029	29943.48
596.387	30121.55
596.746	30416.46
597.104	30449
597.463	30723.8
597.822	31043.56
598.18	31305.7
598.538	31440.84
598.897	31848.51
599.255	31794.95
599.613	32447.59
599.972	32503.64
600.33	32870.86
600.688	32863.63
601.046	33220.45
601.404	33532.99
601.762	33669.26
602.12	34100.88
602.478	34116.25
602.836	34501.32
603.194	34578.38
603.552	34771.83
603.91	34647.31
604.268	35188.31
604.625	35210.68
604.983	35614.29
605.341	35575.42
605.698	36010.66
606.056	36194.16
606.413	36365.46
606.771	36730.87
607.128	36644.32
607.485	36895.16
607.843	37024.87
608.2	37370.63
608.557	37495.37
608.914	37656.04
609.272	37855.36
609.629	38044.51
609.986	38334.44
610.343	38266.42
610.7	38648.11
611.057	38676.81
611.414	38788.44
611.771	38935.11
612.127	39280.63
612.484	39180.07
612.841	39526.5
613.198	39488.09
613.554	39649.66
613.911	40021.63
614.267	39985.47
614.624	40111.35
614.98	40365.13
615.337	40453.71
615.693	40506.82
616.05	40648.96
616.406	40877.65
616.762	40757.21
617.118	40942.06
617.475	41102.73
617.831	41156.06
618.187	41439.67
618.543	41397.64
618.899	41652.1
619.255	41734.58
619.611	41673.11
619.967	42007.12
620.323	42138.86
620.678	42043.5
621.034	42164.85
621.39	42263.83
621.746	42192.2
622.101	42676.7
622.457	42568.23
622.812	42582.92
623.168	42824.72
623.523	42767.77
623.879	42824.27
624.234	42548.57
624.589	42879.41
624.945	42888.22
625.3	43070.59
625.655	42985.4
626.01	43105.39
626.365	43178.38
626.72	43212.73
627.075	43312.17
627.43	43250.7
627.785	43232.62
628.14	43501.54
628.495	43332.96
628.85	43473.29
629.205	43330.24
629.559	43527.98
629.914	43389.45
630.269	43449.56
630.623	43551.26
630.978	43449.11
631.332	43639.84
631.687	43722.78
632.041	43609.79
632.396	43621.54
632.75	43415.67
633.104	43663.12
633.459	43418.38
633.813	43506.51
634.167	43517.36
634.521	43551.93
634.875	43585.15
635.229	43481.88
635.583	43376.57
635.937	43439.39
636.291	43390.13
636.645	43348.32
636.999	43541.99
637.352	43381.32
637.706	43254.31
638.06	43535.21
638.413	43207.31
638.767	43240.08
639.121	43316.91
639.474	43147.65
639.828	43318.49
640.181	43356.91
640.534	43411.6
640.888	43259.96
641.241	43032.4
641.594	43231.49
641.947	43228.55
642.301	43089.35
642.654	43134.32
643.007	43114.21
643.36	43118.95
643.713	43196.92
644.066	43261.32
644.419	42913.08
644.771	42734.33
645.124	42357.62
645.477	42321.68
645.83	42055.02
646.182	42122.37
646.535	41972.09
646.888	41925.76
647.24	41662.72
647.593	42019.09
647.945	41875.82
648.298	41728.71
648.65	41658.88
649.002	41656.39
649.355	41732.55
649.707	41817.52
650.059	41918.08
650.411	42319.88
650.763	42415.69
651.115	42763.03
651.467	42671.73
651.819	42640.09
652.171	42468.35
652.523	42496.37
652.875	42443.94
653.227	42355.81
653.578	42685.52
653.93	42491.85
654.282	42341.34
654.633	42280.55
654.985	42417.05
655.337	42521.9
655.688	42349.93
656.039	42469.48
656.391	42111.07
656.742	42275.81
657.094	42194.91
657.445	42329.82
657.796	42314.45
658.147	42146.55
658.498	42338.63
658.849	42413.21
659.2	42081.46
659.551	42143.84
659.902	42360.1
660.253	42262.93
660.604	42242.14
660.955	42082.59
661.306	42228.35
661.656	42112.42
662.007	42163.5
662.358	42203.72
662.708	42273.55
663.059	42122.14
663.409	41890.28
663.76	42181.57
664.11	42168.47
664.461	42069.94
664.811	42113.1
665.161	42086.66
665.511	42028.58
665.862	42075.36
666.212	42198.52
666.562	42151.07
666.912	41925.31
667.262	42094.35
667.612	42011.86
667.962	42104.51
668.312	41942.26
668.662	42096.15
669.011	41942.26
669.361	41910.85
669.711	41998.53
670.06	41917.4
670.41	41973.9
670.76	41882.6
671.109	41963.05
671.459	41953.56
671.808	41801.25
672.157	41865.88
672.507	41721.25
672.856	41680.34
673.205	41822.04
673.554	41883.5
673.904	41566.22
674.253	41947
674.602	41679.89
674.951	41191.54
675.3	40984.77
675.649	41653.9
675.998	41619.1
676.346	41683.28
676.695	41706.11
677.044	41351.99
677.393	41557.41
677.741	41574.13
678.09	41459.56
678.438	41385.44
678.787	41435.38
679.135	41448.94
679.484	41193.13
679.832	41327.36
680.181	41158.78
680.529	41173.92
680.877	41227.02
681.225	41108.61
681.573	41381.37
681.922	41030.19
682.27	40935.73
682.618	40888.95
682.966	40867.26
683.314	40936.64
683.661	40883.53
684.009	40740.03
684.357	40470.21
684.705	40540.94
685.053	40595.85
685.4	40638.11
685.748	40344.79
686.095	40439.47
686.443	40274.73
686.79	40220.72
687.138	40378.01
687.485	40231.34
687.832	40029.31
688.18	40053.49
688.527	39997.68
688.874	39904.12
689.221	39797
689.568	39677.91
689.915	39407.18
690.262	39554.07
690.609	39460.52
690.956	39345.04
691.303	39207.64
691.65	39225.04
691.997	39237.92
692.344	38960.42
692.69	38858.72
693.037	38929.46
693.383	38611.5
693.73	38733.08
694.077	38627.32
694.423	38533.99
694.769	38440.2
695.116	38231.85
695.462	38316.14
695.808	38128.35
696.155	38267.55
696.501	37938.97
696.847	37982.14
697.193	37779.66
697.539	37905.3
697.885	37519.32
698.231	37515.03
698.577	37489.04
698.923	37513.45
699.269	37181.03
699.614	37107.81
699.96	37031.88
700.306	36983.75
700.651	36904.2
700.997	36724.09
701.342	36716.86
701.688	36671.89
702.033	36523.19
702.379	36470.54
702.724	36449.75
703.069	36503.08
703.415	35986.48
703.76	36025.35
704.105	36031
704.45	36016.09
704.795	35907.62
705.14	35720.95
705.485	35671.92
705.83	35617
706.175	35486.61
706.52	35403.9
706.865	35337.01
707.209	35371.58
707.554	35216.11
707.899	35340.4
708.243	35058.82
708.588	35122.33
708.932	34805.27
709.277	34961.43
709.621	34942.22
709.966	34693.86
710.31	34650.7
710.654	34312.63
710.998	34452.06
711.342	34574.54
711.687	34336.13
712.031	34233.08
712.375	34142.24
712.719	34200.77
713.063	34078.96
713.407	34181.33
713.75	34012.07
714.094	34002.81
714.438	33895.46
714.782	33691.63
715.125	33736.82
715.469	33734.11
715.812	33603.72
716.156	33528.02
716.499	33451.41
716.843	33370.73
717.186	33160.57
717.53	33443.05
717.873	33453.44
718.216	33275.59
718.559	33159.89
718.902	32937.3
719.246	32939.78
719.589	32862.72
719.932	32880.8
720.275	32837.87
720.617	32730.98
720.96	32733.01
721.303	32589.28
721.646	32587.02
721.989	32406.24
722.331	32538.89
722.674	32424.32
723.016	32386.58
723.359	32355.17
723.701	32279.91
724.044	32179.35
724.386	32090.77
724.729	32182.74
725.071	32004.89
725.413	32020.94
725.755	32149.97
726.097	31963.31
726.439	31842.41
726.782	31827.5
727.124	31843.99
727.465	31693.71
727.807	31659.59
728.149	31496.88
728.491	31563.55
728.833	31665.24
729.175	31477.45
729.516	31357.9
729.858	31300.73
730.199	31433.38
730.541	31302.54
730.882	31251.92
731.224	31311.58
731.565	31086.95
731.906	31128.76
732.248	31216.89
732.589	31021.19
732.93	30866.39
733.271	30889.89
733.612	30900.52
733.953	30928.54
734.294	30842.44
734.635	30662.78
734.976	30789.78
735.317	30627.3
735.658	30659.17
735.999	30471.15
736.339	30493.52
736.68	30629.79
737.021	30475.22
737.361	30319.06
737.702	30567.19
738.042	30324.49
738.383	30293.07
738.723	30306.86
739.063	30245.17
739.404	30289.68
739.744	30166.3
740.084	29979.18
740.424	30170.36
740.764	30031.61
741.104	30168.33
741.444	29997.71
741.784	29813.09
742.124	29970.37
742.464	29781
742.804	29781.9
743.143	29747.55
743.483	29872.75
743.823	29581.68
744.162	29577.61
744.502	29601.11
744.841	29448.35
745.181	29519.99
745.52	29540.32
745.86	29480.67
746.199	29465.52
746.538	29458.07
746.877	29547.1
747.216	29474.56
747.556	29253.33
747.895	29282.48
748.234	29185.76
748.573	29199.54
748.911	29204.29
749.25	29157.06
749.589	29021.24
749.928	28990.73
750.267	29006.33
750.605	28900.57
750.944	28874.35
751.283	28734.24
751.621	28785.77
751.96	28622.61
752.298	28620.35
752.636	28589.39
752.975	28548.26
753.313	28393.69
753.651	28448.83
753.989	28227.14
754.327	28272.34
754.666	28242.05
755.004	28184.2
755.342	28205.67
755.679	28055.84
756.017	28062.17
756.355	27998.9
756.693	27838.67
757.031	27904.21
757.368	27771.33
757.706	27768.62
