Data from hue_34_FLMS001491_00077.txt Node
Date: Tue Feb 07 17:26:07 GMT 2017
User: dcchb
Spectrometer: FLMS00149
Trigger mode: 0
Integration Time (sec): 2.000000E-2
Scans to average: 10
Electric dark correction enabled: true
Nonlinearity correction enabled: false
Boxcar width: 0
XAxis mode: Wavelengths
Number of Pixels in Spectrum: 2048
>>>>>Begin Spectral Data<<<<<
341.393	-9.31
341.776	-9.31
342.16	-9.31
342.543	-68.29
342.927	-55.41
343.31	-62.87
343.693	-66.26
344.077	-78.01
344.46	-50.21
344.843	-41.17
345.226	-41.17
345.61	-54.28
345.993	-27.61
346.376	-12.47
346.759	16.68
347.142	31.82
347.525	59.39
347.908	50.58
348.291	70.92
348.674	100.97
349.057	103.68
349.44	125.38
349.823	132.61
350.206	168.99
350.588	202.89
350.971	221.87
351.354	215.55
351.737	235.43
352.119	250.35
352.502	258.71
352.884	276.79
353.267	284.7
353.65	309.1
354.032	295.77
354.414	307.97
354.797	315.43
355.179	323.34
355.562	332.6
355.944	355.88
356.326	344.13
356.709	339.84
357.091	339.61
357.473	367.86
357.855	337.58
358.238	338.71
358.62	330.8
359.002	347.52
359.384	357.91
359.766	349.55
360.148	349.55
360.53	348.2
360.912	350.23
361.294	324.92
361.676	349.1
362.057	354.3
362.439	332.83
362.821	328.54
363.203	326.95
363.584	341.42
363.966	331.7
364.348	330.34
364.729	326.5
365.111	313.4
365.493	323.79
365.874	328.08
366.256	302.1
366.637	321.53
367.019	336.9
367.4	312.94
367.781	337.12
368.163	330.8
368.544	321.31
368.925	315.88
369.306	321.76
369.688	329.89
370.069	319.72
370.45	317.01
370.831	325.37
371.212	342.1
371.593	351.13
371.974	312.04
372.355	308.42
372.736	315.43
373.117	320.63
373.498	346.16
373.879	317.69
374.26	334.86
374.641	326.5
375.021	321.98
375.402	313.62
375.783	318.37
376.163	326.73
376.544	331.7
376.925	339.84
377.305	347.75
377.686	326.95
378.066	356.33
378.447	331.25
378.827	335.32
379.208	329.21
379.588	339.38
379.968	345.26
380.349	328.54
380.729	336.67
381.109	342.32
381.489	341.87
381.87	354.3
382.25	347.29
382.63	340.74
383.01	378.25
383.39	351.13
383.77	353.62
384.15	364.92
384.53	333.51
384.91	365.37
385.29	350.23
385.67	371.47
386.049	376.9
386.429	366.95
386.809	346.16
387.189	373.28
387.568	370.8
387.948	363.56
388.328	361.76
388.707	370.12
389.087	359.5
389.466	367.86
389.846	354.3
390.225	361.3
390.605	372.15
390.984	385.94
391.363	360.4
391.743	366.05
392.122	362.89
392.501	371.93
392.881	368.08
393.26	381.19
393.639	370.12
394.018	383
394.397	370.12
394.776	384.35
395.155	383.45
395.534	387.52
395.913	378.25
396.292	391.36
396.671	372.83
397.05	411.7
397.429	380.29
397.808	413.05
398.186	407.4
398.565	402.88
398.944	418.03
399.323	390.68
399.701	395.2
400.08	393.17
400.458	417.8
400.837	394.52
401.215	419.38
401.594	410.79
401.972	409.21
402.351	415.54
402.729	433.84
403.107	411.25
403.486	431.81
403.864	422.09
404.242	424.35
404.62	440.62
404.999	413.96
405.377	440.85
405.755	424.35
406.133	417.8
406.511	450.12
406.889	442.66
407.267	451.7
407.645	439.04
408.023	445.37
408.401	451.25
408.779	451.25
409.156	447.86
409.534	447.63
409.912	456.44
410.29	455.54
410.667	459.61
411.045	483.33
411.422	484.01
411.8	455.76
412.178	490.57
412.555	475.65
412.933	474.97
413.31	473.84
413.687	486.72
414.065	494.63
414.442	480.4
414.819	480.4
415.197	492.6
415.574	498.7
415.951	519.27
416.328	497.35
416.705	506.38
417.082	529.89
417.46	532.37
417.837	524.01
418.214	512.94
418.591	508.64
418.967	519.72
419.344	515.65
419.721	537.12
420.098	545.48
420.475	538.47
420.852	565.37
421.228	534.18
421.605	562.88
421.982	562.65
422.358	555.88
422.735	550.9
423.111	583.67
423.488	556.78
423.864	562.2
424.241	589.55
424.617	566.72
424.994	590.9
425.37	603.33
425.746	565.82
426.123	584.58
426.499	597
426.875	591.13
427.251	598.81
427.627	613.95
428.003	620.28
428.379	604.01
428.756	616.44
429.132	624.57
429.507	638.81
429.883	627.51
430.259	638.36
430.635	613.05
431.011	639.04
431.387	633.61
431.763	661.86
432.138	663.22
432.514	675.87
432.89	664.57
433.265	704.57
433.641	672.48
434.016	695.31
434.392	694.4
434.767	694.85
435.143	696.21
435.518	708.64
435.894	709.54
436.269	738.92
436.644	721.75
437.02	733.95
437.395	702.31
437.77	736.89
438.145	767.85
438.52	731.24
438.895	764.01
439.271	779.6
439.646	767.4
440.021	778.92
440.395	791.35
440.77	784.57
441.145	790.67
441.52	795.42
441.895	785.47
442.27	804.23
442.645	798.58
443.019	801.29
443.394	814.17
443.769	831.12
444.143	818.92
444.518	837
444.892	844.91
445.267	822.76
445.641	852.14
446.016	850.56
446.39	844
446.764	853.49
447.139	864.79
447.513	846.72
447.887	854.85
448.262	861.18
448.636	878.8
449.01	894.17
449.384	905.92
449.758	887.39
450.132	906.83
450.506	948.41
450.88	890.56
451.254	892.36
451.628	914.51
452.002	932.14
452.376	919.93
452.75	946.37
453.123	944.11
453.497	948.18
453.871	929.2
454.244	972.59
454.618	981.85
454.992	1000.84
455.365	990.67
455.739	1020.27
456.112	1034.28
456.486	1039.7
456.859	1020.72
457.232	1079.03
457.606	1043.77
457.979	1061.85
458.352	1098.01
458.725	1107.5
459.099	1114.73
459.472	1100.27
459.845	1103.88
460.218	1112.47
460.591	1133.26
460.964	1184.11
461.337	1157.89
461.71	1195.86
462.083	1201.51
462.456	1209.19
462.829	1232.92
463.201	1243.77
463.574	1237.21
463.947	1304.1
464.32	1302.3
464.692	1320.15
465.065	1319.02
465.438	1327.15
465.81	1343.88
466.183	1372.8
466.555	1402.63
466.928	1398.56
467.3	1402.63
467.672	1411.22
468.045	1407.6
468.417	1450.99
468.789	1464.55
469.161	1504.55
469.534	1545.23
469.906	1577.77
470.278	1562.4
470.65	1577.77
471.022	1623.64
471.394	1619.35
471.766	1673.81
472.138	1686.24
472.51	1746.8
472.882	1782.51
473.253	1776.86
473.625	1839.68
473.997	1882.85
474.369	1861.83
474.74	1896.18
475.112	1968.04
475.484	1990.64
475.855	2044.88
476.227	2083.29
476.598	2128.04
476.97	2176.4
477.341	2240.35
477.713	2283.29
478.084	2287.36
478.455	2379.33
478.827	2443.96
479.198	2509.27
479.569	2540.68
479.94	2633.56
480.311	2643.05
480.682	2765.76
481.053	2830.62
481.424	2884.4
481.795	2933.21
482.166	3009.82
482.537	3067.67
482.908	3143.15
483.279	3249.59
483.65	3299.08
484.021	3396.7
484.391	3460.43
484.762	3498.85
485.133	3591.95
485.503	3691.16
485.874	3783.81
486.244	3811.38
486.615	3972.28
486.985	4031.49
487.356	4151.94
487.726	4202.56
488.097	4322.56
488.467	4363.46
488.837	4516.22
489.207	4595.32
489.578	4756.22
489.948	4755.99
490.318	4908.76
490.688	5004.57
491.058	5118.02
491.428	5140.61
491.798	5261.97
492.168	5403.43
492.538	5435.75
492.908	5544.9
493.278	5567.04
493.648	5702.41
494.017	5833.02
494.387	5902.18
494.757	5974.72
495.126	6066.92
495.496	6082.06
495.866	6176.07
496.235	6299.68
496.605	6407.7
496.974	6460.58
497.344	6535.83
497.713	6631.42
498.082	6743.74
498.452	6832.77
498.821	6836.84
499.19	6888.59
499.559	7023.28
499.928	7094.01
500.298	7136.49
500.667	7277.28
501.036	7256.49
501.405	7463.49
501.774	7466.2
502.143	7540.1
502.512	7625.07
502.88	7676.59
503.249	7779.19
503.618	7816.93
503.987	7810.83
504.356	7890.6
504.724	7986.19
505.093	7993.42
505.462	8056.69
505.83	8179.4
506.199	8271.38
506.567	8356.57
506.936	8379.85
507.304	8424.59
507.672	8529.45
508.041	8592.5
508.409	8610.8
508.777	8758.82
509.145	8769.9
509.514	8838.6
509.882	8884.92
510.25	8939.84
510.618	8984.58
510.986	9035.65
511.354	9138.47
511.722	9224.12
512.09	9283.56
512.458	9272.93
512.826	9379.15
513.193	9406.04
513.561	9460.95
513.929	9533.72
514.297	9565.58
514.664	9740.27
515.032	9691.45
515.4	9748.18
515.767	9827.95
516.135	9869.53
516.502	9731.91
516.869	10005.57
517.237	9986.59
517.604	9989.53
517.972	10114.72
518.339	10175.28
518.706	10158.11
519.073	10194.49
519.44	10329.63
519.808	10394.94
520.175	10436.75
520.542	10589.96
520.909	10559
521.276	10593.35
521.643	10627.25
522.009	10779.11
522.376	10784.08
522.743	10876.73
523.11	10909.73
523.477	11100.91
523.843	11113.11
524.21	11182.71
524.577	11319.66
524.943	11349.04
525.31	11319.66
525.676	11459.32
526.043	11515.14
526.409	11591.97
526.776	11673.55
527.142	11671.52
527.508	11799.87
527.874	11775.69
528.241	11942.47
528.607	11998.51
528.973	12104.72
529.339	12023.6
529.705	12209.35
530.071	12229.47
530.437	12280.09
530.803	12468.1
531.169	12499.29
531.535	12448.67
531.901	12474.43
532.267	12532.28
532.632	12633.52
532.998	12739.74
533.364	12776.8
533.73	12828.32
534.095	12988.54
534.461	13039.61
534.826	13005.94
535.192	13076.9
535.557	13194.86
535.923	13236.45
536.288	13259.27
536.653	13304.92
537.019	13240.97
537.384	13430.11
537.749	13406.61
538.114	13497.68
538.479	13441.41
538.845	13544.91
539.21	13607.96
539.575	13675.76
539.94	13708.3
540.305	13809.54
540.67	13888.63
541.034	13828.97
541.399	13928.86
541.764	13967.27
542.129	14089.98
542.494	14072.81
542.858	14153.48
543.223	14163.2
543.587	14261.73
543.952	14251.11
544.316	14343.08
544.681	14376.53
545.045	14473.02
545.41	14574.72
545.774	14631.66
546.138	14676.86
546.503	14691.32
546.867	14685.45
547.231	14830.08
547.595	14831.21
547.959	14891.77
548.324	14818.33
548.688	14903.29
549.052	14953.91
549.416	15061.03
549.779	15087.24
550.143	15110.07
550.507	15221.25
550.871	15198.88
551.235	15294.24
551.599	15377.41
551.962	15463.28
552.326	15437.52
552.689	15584.41
553.053	15394.58
553.417	15581.92
553.78	15737.4
554.143	15708.25
554.507	15781.01
554.87	15855.13
555.234	16016.49
555.597	15906.43
555.96	15987.79
556.323	16054
556.686	16104.84
557.05	16122.02
557.413	16270.94
557.776	16291.73
558.139	16374.67
558.502	16426.19
558.865	16402.46
559.228	16588
559.59	16599.3
559.953	16606.75
560.316	16798.84
560.679	16774.43
561.041	16878.84
561.404	16824.37
561.767	17034.99
562.129	16943.92
562.492	17142.11
562.854	17044.93
563.217	17187.08
563.579	17270.92
563.941	17295.32
564.304	17432.49
564.666	17512.49
565.028	17564.47
565.39	17574.41
565.753	17637.91
566.115	17740.28
566.477	17814.63
566.839	17861.86
567.201	17965.36
567.563	18021.4
567.925	18119.93
568.287	18119.71
568.648	18117.45
569.01	18198.12
569.372	18451.9
569.734	18309.08
570.095	18517.21
570.457	18558.79
570.819	18599.47
571.18	18547.49
571.542	18709.3
571.903	18864.77
572.265	18895.96
572.626	18909.74
572.987	18980.7
573.349	19206.91
573.71	19264.99
574.071	19314.03
574.432	19504.08
574.794	19615.26
575.155	19634.02
575.516	19538.88
575.877	19798.53
576.238	19854.35
576.599	19990.39
576.96	20108.13
577.32	20179.09
577.681	20276.71
578.042	20415.47
578.403	20570.26
578.763	20610.49
579.124	20823.14
579.485	21054.09
579.845	21156.69
580.206	21330.24
580.566	21459.28
580.927	21619.73
581.287	21834.19
581.648	22023.56
582.008	22193.27
582.368	22265.59
582.728	22499.48
583.089	22533.83
583.449	22830.77
583.809	23083.19
584.169	23270.76
584.529	23372.68
584.889	23773.57
585.249	23835.72
585.609	23911.65
585.969	24343.5
586.329	24466.66
586.688	24717.5
587.048	24967.21
587.408	25127.43
587.768	25368.33
588.127	25585.5
588.487	25886.73
588.846	26190.46
589.206	26352.03
589.565	26533.5
589.925	26878.12
590.284	27116.98
590.643	27367.15
591.003	27640.36
591.362	28007.81
591.721	28123.96
592.08	28390.62
592.44	28607.34
592.799	29007.56
593.158	29240.54
593.517	29388.56
593.876	29700.19
594.235	29925.72
594.593	30175.66
594.952	30393.96
595.311	30604.12
595.67	30925.02
596.029	31381.96
596.387	31530.65
596.746	31975.84
597.104	31993.47
597.463	32139.9
597.822	32539.67
598.18	32578.54
598.538	32803.61
598.897	33318.4
599.255	33259.42
599.613	33963.81
599.972	33706.42
600.33	34179.85
600.688	34316.57
601.046	34560.86
601.404	34985.7
601.762	35019.6
602.12	35394.06
602.478	35541.17
602.836	35787.72
603.194	35731.67
603.552	36016.86
603.91	36238.33
604.268	36564.65
604.625	36550.63
604.983	36865.65
605.341	36876.5
605.698	37160.11
606.056	37404.62
606.413	37616.14
606.771	37798.06
607.128	38078.5
607.485	37980.65
607.843	38269.23
608.2	38428.33
608.557	38826.06
608.914	38707.19
609.272	39068.99
609.629	39212.94
609.986	39638.24
610.343	39362.31
610.7	39793.26
611.057	39868.06
611.414	40012.46
611.771	40238.67
612.127	40531.55
612.484	40497.65
612.841	40715.5
613.198	40757.98
613.554	40863.52
613.911	41011.31
614.267	41192.09
614.624	41405.42
614.98	41412.88
615.337	41595.25
615.693	41693.78
616.05	41706.66
616.406	42065.74
616.762	42101.22
617.118	42125.4
617.475	42203.37
617.831	42339.86
618.187	42460.99
618.543	42470.48
618.899	42823.69
619.255	42849.9
619.611	42792.5
619.967	43140.29
620.323	43232.72
620.678	43217.58
621.034	43157.47
621.39	43235.88
621.746	43260.29
622.101	43788.18
622.457	43572.82
622.812	43561.75
623.168	43892.81
623.523	43772.59
623.879	44046.03
624.234	43772.14
624.589	43937.33
624.945	44209.87
625.3	44146.14
625.655	44146.37
626.01	44194.05
626.365	44283.76
626.72	44300.26
627.075	44227.5
627.43	44297.1
627.785	44233.82
628.14	44344.33
628.495	44473.36
628.85	44544.55
629.205	44411.22
629.559	44616.19
629.914	44538.45
630.269	44638.33
630.623	44451.9
630.978	44382.97
631.332	44684.66
631.687	44645.56
632.041	44587.03
632.396	44634.26
632.75	44473.36
633.104	44741.83
633.459	44587.71
633.813	44605.11
634.167	44568.28
634.521	44618.45
634.875	44750.19
635.229	44638.33
635.583	44488.05
635.937	44540.26
636.291	44473.14
636.645	44385.68
636.999	44553.14
637.352	44702.74
637.706	44390.65
638.06	44508.62
638.413	44516.75
638.767	44468.17
639.121	44537.09
639.474	44162.86
639.828	44374.84
640.181	44392.46
640.534	44391.33
640.888	44425.46
641.241	44143.2
641.594	44267.27
641.947	44372.35
642.301	44203.32
642.654	44450.99
643.007	44223.65
643.36	44340.49
643.713	44156.99
644.066	44445.34
644.419	44185.46
644.771	43887.62
645.124	43414.18
645.477	43425.48
645.83	43199.27
646.182	43107.07
646.535	42949.79
646.888	43112.72
647.24	42810.36
647.593	42953.4
647.945	42996.57
648.298	42847.64
648.65	42817.59
649.002	42590.02
649.355	42730.59
649.707	42750.02
650.059	43059.84
650.411	43443.79
650.763	43573.28
651.115	43881.74
651.467	43710.9
651.819	43742.08
652.171	43677.68
652.523	43677.23
652.875	43577.12
653.227	43349.78
653.578	43687.17
653.93	43646.27
654.282	43531.47
654.633	43314.07
654.985	43567.17
655.337	43455.76
655.688	43560.62
656.039	43645.82
656.391	43362.89
656.742	43233.17
657.094	43477.91
657.445	43570.34
657.796	43484.46
658.147	43256.9
658.498	43390.91
658.849	43363.79
659.2	43405.14
659.551	43219.61
659.902	43275.66
660.253	43177.58
660.604	43242.44
660.955	43059.62
661.306	43374.86
661.656	43349.1
662.007	43172.83
662.358	43172.61
662.708	43166.96
663.059	43262.1
663.409	43044.25
663.76	43273.62
664.11	43224.58
664.461	43323.56
664.811	43225.04
665.161	43248.31
665.511	43121.31
665.862	43016.91
666.212	43204.92
666.562	43133.51
666.912	43061.2
667.262	43007.41
667.612	43080.18
667.962	43179.39
668.312	43032.5
668.662	43283.57
669.011	43096.68
669.361	42968.09
669.711	43011.26
670.06	43014.42
670.41	42807.19
670.76	42929
671.109	43067.53
671.459	43011.03
671.808	42860.98
672.157	43048.54
672.507	42603.13
672.856	42769
673.205	42873.41
673.554	43035.66
673.904	42767.42
674.253	43021.88
674.602	42775.1
674.951	42277.49
675.3	42015.35
675.649	42730.59
675.998	42567.43
676.346	42643.13
676.695	42744.37
677.044	42563.36
677.393	42686.74
677.741	42785.95
678.09	42512.96
678.438	42534.66
678.787	42459.41
679.135	42561.78
679.484	42254.67
679.832	42538.73
680.181	42319.75
680.529	42290.82
680.877	42322.91
681.225	42211.05
681.573	42444.94
681.922	42144.84
682.27	42010.6
682.618	41945.75
682.966	42048.8
683.314	42012.41
683.661	41969.48
684.009	41785.3
684.357	41752.08
684.705	41702.14
685.053	41791.85
685.4	41593.67
685.748	41416.27
686.095	41550.96
686.443	41382.82
686.79	41217.63
687.138	41344.86
687.485	41227.35
687.832	40999.11
688.18	41152.55
688.527	41152.77
688.874	40939.9
689.221	40782.84
689.568	40842.95
689.915	40689.06
690.262	40597.76
690.609	40661.94
690.956	40399.12
691.303	40542.62
691.65	40192.12
691.997	40240.48
692.344	39931.11
692.69	40010.66
693.037	40005.23
693.383	39718.24
693.73	39836.88
694.077	39659.93
694.423	39569.09
694.769	39487.96
695.116	39594.17
695.462	39325.48
695.808	39257.68
696.155	39338.36
696.501	39027.41
696.847	39024.24
697.193	38616.34
697.539	38903.12
697.885	38816.11
698.231	38626.74
698.577	38457.25
698.923	38492.28
699.269	38343.36
699.614	38208.9
699.96	38140.65
700.306	38193.76
700.651	37960.54
700.997	37827.89
701.342	37828.12
701.688	37774.11
702.033	37590.16
702.379	37545.86
702.724	37419.09
703.069	37493.89
703.415	37149.72
703.76	37133.67
704.105	37122.15
704.45	37048.93
704.795	36960.79
705.14	36831.76
705.485	36601.93
705.83	36518.09
706.175	36599.67
706.52	36560.8
706.865	36377.53
707.209	36241.72
707.554	36273.58
707.899	36248.27
708.243	36091.21
708.588	36105
708.932	35728.96
709.277	35850.31
709.621	35794.04
709.966	35615.74
710.31	35700.26
710.654	35336.66
710.998	35408.29
711.342	35469.31
711.687	35167.85
712.031	35267.96
712.375	35207.17
712.719	35214.4
713.063	34957.46
713.407	35165.59
713.75	34968.53
714.094	35020.28
714.438	34784.35
714.782	34811.47
715.125	34648.09
715.469	34745.94
715.812	34544.81
716.156	34383.01
716.499	34375.78
716.843	34500.07
717.186	34196.8
717.53	34341.65
717.873	34346.4
718.216	34274.99
718.559	34061.66
718.902	33818.5
719.246	34006.75
719.589	33774.89
719.932	33719.97
720.275	33732.63
720.617	33784.15
720.96	33603.37
721.303	33645.4
721.646	33525.63
721.989	33402.02
722.331	33531.28
722.674	33403.37
723.016	33452.41
723.359	33212.42
723.701	33355.46
724.044	33218.75
724.386	32950.73
724.729	33213.32
725.071	33054.91
725.413	32966.55
725.755	32891.52
726.097	32941.01
726.439	32810.62
726.782	32798.19
727.124	32834.35
727.465	32614.02
727.807	32720.45
728.149	32502.15
728.491	32368.15
728.833	32483.4
729.175	32394.81
729.516	32330.41
729.858	32376.96
730.199	32215.61
730.541	32248.15
730.882	32161.37
731.224	32296.28
731.565	31960.47
731.906	32146.68
732.248	32042.5
732.589	31836.41
732.93	31669.86
733.271	31772
733.612	31953.24
733.953	31852.91
734.294	31823.75
734.635	31645
734.976	31860.59
735.317	31572.23
735.658	31507.6
735.999	31467.83
736.339	31313.48
736.68	31420.15
737.021	31373.14
737.361	31213.15
737.702	31469.41
738.042	31313.26
738.383	31259.93
738.723	31271.45
739.063	31096.99
739.404	31143.09
739.744	31040.5
740.084	30923.89
740.424	30993.27
740.764	30992.59
741.104	31023.32
741.444	30868.07
741.784	30794.18
742.124	30723.9
742.464	30747.85
742.804	30695.2
743.143	30641.64
743.483	30653.84
743.823	30386.96
744.162	30629.66
744.502	30611.58
744.841	30327.52
745.181	30494.75
745.52	30227.86
745.86	30386.05
746.199	30259.27
746.538	30336.34
746.877	30355.77
747.216	30191.03
747.556	30129.11
747.895	30015.44
748.234	29948.77
748.573	30005.27
748.911	29905.84
749.25	29948.77
749.589	29764.15
749.928	29863.81
750.267	29759.85
750.605	29619.29
750.944	29607.09
751.283	29516.7
751.621	29530.48
751.96	29432.86
752.298	29362.35
752.636	29305.85
752.975	29146.08
753.313	29139.08
753.651	29277.61
753.989	29002.81
754.327	29089.59
754.666	28973.89
755.004	29054.56
755.342	28884.85
755.679	28873.1
756.017	28616.83
756.355	28838.52
756.693	28712.65
757.031	28725.08
757.368	28412.54
757.706	28357.4
