Data from hue_80_FLMS001491_30.txt Node
Date: Mon Feb 06 15:22:45 GMT 2017
User: dcchb
Spectrometer: FLMS00149
Trigger mode: 0
Integration Time (sec): 2.000000E-2
Scans to average: 10
Electric dark correction enabled: true
Nonlinearity correction enabled: false
Boxcar width: 0
XAxis mode: Wavelengths
Number of Pixels in Spectrum: 2048
>>>>>Begin Spectral Data<<<<<
341.393	5.41
341.776	5.41
342.16	5.41
342.543	-47.02
342.927	-61.93
343.31	-71.88
343.693	-69.39
344.077	-61.93
344.46	-58.32
344.843	-29.84
345.226	-27.36
345.61	-24.19
345.993	-26.68
346.376	-19
346.759	13.77
347.142	3.6
347.525	42.7
347.908	45.63
348.291	70.04
348.674	113.66
349.057	99.19
349.44	123.6
349.823	135.58
350.206	153.88
350.588	181
350.971	201.11
351.354	223.26
351.737	229.13
352.119	249.7
352.502	265.29
352.884	267.55
353.267	292.63
353.65	285.85
354.032	331.95
354.414	316.36
354.797	307.55
355.179	311.84
355.562	343.93
355.944	339.19
356.326	313.42
356.709	335.34
357.091	338.06
357.473	329.24
357.855	304.84
358.238	342.35
358.62	340.32
359.002	338.96
359.384	315.46
359.766	331.5
360.148	327.89
360.53	336.02
360.912	314.1
361.294	329.02
361.676	319.07
362.057	329.69
362.439	328.34
362.821	319.3
363.203	336.25
363.584	310.71
363.966	314.1
364.348	348
364.729	320.66
365.111	317.72
365.493	291.73
365.874	316.36
366.256	301.22
366.637	326.53
367.019	307.55
367.4	300.32
367.781	298.96
368.163	322.92
368.544	304.84
368.925	312.97
369.306	310.26
369.688	294.44
370.069	305.74
370.45	290.37
370.831	308.45
371.212	308.45
371.593	303.93
371.974	302.35
372.355	314.78
372.736	324.5
373.117	320.88
373.498	297.83
373.879	319.3
374.26	308.45
374.641	308
375.021	308.23
375.402	326.98
375.783	324.95
376.163	322.69
376.544	288.34
376.925	323.14
377.305	324.95
377.686	316.81
378.066	338.06
378.447	315.91
378.827	329.47
379.208	320.88
379.588	321.79
379.968	327.66
380.349	333.76
380.729	334.44
381.109	342.8
381.489	323.14
381.87	311.16
382.25	331.05
382.63	311.16
383.01	316.59
383.39	331.95
383.77	337.6
384.15	342.8
384.53	339.86
384.91	329.24
385.29	348.45
385.67	342.58
386.049	363.37
386.429	357.04
386.809	350.71
387.189	345.29
387.568	338.51
387.948	361.11
388.328	343.93
388.707	336.47
389.087	337.6
389.466	352.29
389.846	331.95
390.225	359.98
390.605	348.9
390.984	358.17
391.363	364.27
391.743	352.52
392.122	358.62
392.501	362.91
392.881	351.39
393.26	369.02
393.639	364.95
394.018	366.98
394.397	379.41
394.776	352.97
395.155	355.23
395.534	363.82
395.913	362.91
396.292	385.06
396.671	371.5
397.05	354.55
397.429	370.6
397.808	374.44
398.186	362.01
398.565	373.08
398.944	363.14
399.323	388.68
399.701	370.37
400.08	375.57
400.458	367.43
400.837	395.46
401.215	399.75
401.594	402.69
401.972	377.15
402.351	375.34
402.729	406.3
403.107	399.3
403.486	376.93
403.864	373.08
404.242	402.24
404.62	388.68
404.999	401.33
405.377	389.81
405.755	409.47
406.133	404.27
406.511	421.44
406.889	387.55
407.267	417.15
407.645	428.9
408.023	418.51
408.401	412.86
408.779	438.39
409.156	417.38
409.534	394.78
409.912	423.03
410.29	424.61
410.667	412.63
411.045	440.2
411.422	436.13
411.8	439.07
412.178	425.51
412.555	439.07
412.933	452.4
413.31	461.67
413.687	466.64
414.065	443.36
414.442	442.23
414.819	429.81
415.197	471.16
415.574	453.53
415.951	444.49
416.328	469.35
416.705	453.08
417.082	461.89
417.46	496.47
417.837	484.94
418.214	495.34
418.591	468.22
418.967	487.88
419.344	490.82
419.721	496.02
420.098	499.63
420.475	510.48
420.852	469.35
421.228	517.71
421.605	529.24
421.982	500.76
422.358	514.32
422.735	499.41
423.111	508.67
423.488	527.2
423.864	522.01
424.241	516.81
424.617	526.07
424.994	518.84
425.37	521.78
425.746	560.88
426.123	562.46
426.499	541.44
426.875	547.09
427.251	546.64
427.627	555.9
428.003	548.45
428.379	552.74
428.756	568.33
429.132	558.62
429.507	542.8
429.883	592.74
430.259	588.22
430.635	585.06
431.011	591.16
431.387	587.32
431.763	595.45
432.138	619.18
432.514	619.63
432.89	606.75
433.265	617.82
433.641	625.51
434.016	642.23
434.392	627.09
434.767	666.86
435.143	633.42
435.518	632.74
435.894	634.09
436.269	642.68
436.644	668.67
437.02	664.15
437.395	651.95
437.77	661.66
438.145	693.3
438.52	670.93
438.895	663.7
439.271	696.24
439.646	715
440.021	686.97
440.395	710.48
440.77	691.27
441.145	721.77
441.52	726.29
441.895	733.53
442.27	736.01
442.645	737.37
443.019	754.54
443.394	736.92
443.769	725.16
444.143	755.9
444.518	749.12
444.892	744.15
445.267	745.05
445.641	759.97
446.016	752.73
446.39	763.13
446.764	770.59
447.139	752.28
447.513	779.4
447.887	784.82
448.262	795.22
448.636	793.41
449.01	793.41
449.384	798.16
449.758	812.62
450.132	797.93
450.506	825.05
450.88	822.34
451.254	839.51
451.628	853.75
452.002	837.03
452.376	847.87
452.75	854.2
453.123	863.24
453.497	878.61
453.871	898.49
454.244	889.45
454.618	875.44
454.992	903.69
455.365	906.63
455.739	946.4
456.112	914.99
456.486	941.88
456.859	968.55
457.232	961.32
457.606	971.03
457.979	964.25
458.352	978.04
458.725	982.33
459.099	1018.49
459.472	1039.51
459.845	1033.86
460.218	1018.04
460.591	1074.53
460.964	1062.56
461.337	1074.76
461.71	1074.31
462.083	1098.71
462.456	1103.69
462.829	1119.05
463.201	1158.6
463.574	1136.68
463.947	1176
464.32	1179.16
464.692	1174.19
465.065	1190.01
465.438	1192.5
465.81	1227.75
466.183	1215.55
466.555	1280.86
466.928	1277.69
467.3	1274.53
467.672	1321.08
468.045	1364.02
468.417	1368.54
468.789	1375.54
469.161	1408.99
469.534	1412.15
469.906	1475.43
470.278	1465.71
470.65	1481.08
471.022	1526.27
471.394	1563.56
471.766	1545.71
472.138	1609.89
472.51	1640.85
472.882	1679.04
473.253	1705.25
473.625	1728.08
473.997	1808.98
474.369	1790.45
474.74	1860.05
475.112	1880.84
475.484	1912.48
475.855	1976.88
476.227	2008.07
476.598	2078.12
476.97	2087.84
477.341	2187.27
477.713	2222.53
478.084	2251.23
478.455	2324.22
478.827	2380.71
479.198	2463.42
479.569	2494.61
479.94	2578.9
480.311	2606.47
480.682	2736.64
481.053	2821.15
481.424	2889.4
481.795	2935.5
482.166	3048.72
482.537	3079
482.908	3237.87
483.279	3278.54
483.65	3373.46
484.021	3487.13
484.391	3594.69
484.762	3630.85
485.133	3765.08
485.503	3846.89
485.874	3987.45
486.244	4082.82
486.615	4196.49
486.985	4259.31
487.356	4388.8
487.726	4489.36
488.097	4687.09
488.467	4746.3
488.837	4893.19
489.207	5038.5
489.578	5171.83
489.948	5217.02
490.318	5378.6
490.688	5488.43
491.058	5652.72
491.428	5746.95
491.798	5885.71
492.168	6037.12
492.538	6213.83
492.908	6275.3
493.278	6422.87
493.648	6533.6
494.017	6647.04
494.387	6794.38
494.757	6970.42
495.126	7068.05
495.496	7145.56
495.866	7255.84
496.235	7404.31
496.605	7532.44
496.974	7713.91
497.344	7829.61
497.713	7934.01
498.082	8038.87
498.452	8284.29
498.821	8339.43
499.19	8408.8
499.559	8570.16
499.928	8688.57
500.298	8753.88
500.667	8869.36
501.036	8994.1
501.405	9080.2
501.774	9147.54
502.143	9373.07
502.512	9468.21
502.88	9577.36
503.249	9603.58
503.618	9805.38
503.987	9845.83
504.356	9984.36
504.724	10074.3
505.093	10168.53
505.462	10218.47
505.83	10278.81
506.199	10457.56
506.567	10566.49
506.936	10559.26
507.304	10738.46
507.672	10802.64
508.041	10893.94
508.409	10965.8
508.777	11163.53
509.145	11171.67
509.514	11260.25
509.882	11383.87
510.25	11442.62
510.618	11490.08
510.986	11581.6
511.354	11714.03
511.722	11760.58
512.09	11894.81
512.458	11906.79
512.826	12118.99
513.193	12100.91
513.561	12148.37
513.929	12289.61
514.297	12398.98
514.664	12481.01
515.032	12454.57
515.4	12540.45
515.767	12646.21
516.135	12747.45
516.502	12696.6
516.869	12888.01
517.237	12939.98
517.604	12950.38
517.972	13054.33
518.339	13151.96
518.706	13132.52
519.073	13235.12
519.44	13288.45
519.808	13357.15
520.175	13430.14
520.542	13496.81
520.909	13602.79
521.276	13615
521.643	13720.53
522.009	13804.59
522.376	13890.47
522.743	13909.22
523.11	13993.74
523.477	14134.76
523.843	14099.73
524.21	14207.52
524.577	14399.38
524.943	14304.69
525.31	14364.35
525.676	14482.09
526.043	14494.97
526.409	14620.62
526.776	14772.93
527.142	14711.01
527.508	14777.45
527.874	14844.79
528.241	14859.03
528.607	14824.91
528.973	15016.77
529.339	14966.37
529.705	15073.49
530.071	15094.96
530.437	15245.91
530.803	15217.44
531.169	15169.08
531.535	15122.07
531.901	15251.34
532.267	15248.4
532.632	15292.92
532.998	15383.76
533.364	15371.33
533.73	15333.37
534.095	15441.39
534.461	15443.65
534.826	15536.98
535.192	15475.29
535.557	15628.05
535.923	15557.09
536.288	15531.55
536.653	15580.59
537.019	15499.01
537.384	15585.79
537.749	15626.24
538.114	15594.15
538.479	15536.98
538.845	15607.03
539.21	15525.45
539.575	15629.86
539.94	15539.46
540.305	15579.01
540.67	15583.3
541.034	15754.15
541.399	15584.21
541.764	15625.11
542.129	15661.72
542.494	15606.36
542.858	15603.87
543.223	15533.14
543.587	15669.18
543.952	15619.24
544.316	15590.31
544.681	15552.12
545.045	15721.38
545.41	15634.83
545.774	15652.46
546.138	15570.88
546.503	15611.78
546.867	15535.17
547.231	15628.05
547.595	15661.72
547.959	15640.03
548.324	15543.76
548.688	15651.55
549.052	15540.37
549.416	15646.81
549.779	15587.6
550.143	15597.54
550.507	15628.5
550.871	15591.44
551.235	15556.86
551.599	15699.46
551.962	15636.64
552.326	15681.16
552.689	15664.66
553.053	15507.37
553.417	15553.7
553.78	15733.81
554.143	15609.52
554.507	15619.01
554.87	15640.03
555.234	15728.16
555.597	15604.77
555.96	15587.37
556.323	15680.7
556.686	15676.64
557.05	15717.76
557.413	15710.76
557.776	15714.6
558.139	15694.26
558.502	15765.22
558.865	15753.47
559.228	15750.08
559.59	15831.43
559.953	15758.67
560.316	15893.81
560.679	15788.05
561.041	15906.91
561.404	16021.26
561.767	16020.81
562.129	15925.89
562.492	16054.48
562.854	16025.55
563.217	15981.26
563.579	15976.29
563.941	16095.16
564.304	16267.58
564.666	16309.16
565.028	16130.41
565.39	16282.72
565.753	16298.31
566.115	16316.39
566.477	16451.3
566.839	16418.09
567.201	16448.14
567.563	16458.54
567.925	16522.72
568.287	16408.59
568.648	16482.72
569.01	16508.93
569.372	16632.32
569.734	16572.21
570.095	16727.68
570.457	16775.82
570.819	16752.77
571.18	16684.07
571.542	16771.97
571.903	16822.14
572.265	16863.05
572.626	16978.75
572.987	16905.3
573.349	16796.15
573.71	16952.31
574.071	17061.91
574.432	16988.01
574.794	17096.03
575.155	17132.42
575.516	17014.23
575.877	17050.61
576.238	17150.5
576.599	17148.69
576.96	17170.83
577.32	17073.89
577.681	17153.43
578.042	17117.73
578.403	17205.64
578.763	17241.34
579.124	17263.49
579.485	17334.45
579.845	17307.33
580.206	17290.83
580.566	17254.45
580.927	17245.63
581.287	17289.02
581.648	17242.24
582.008	17295.58
582.368	17299.64
582.728	17354.56
583.089	17280.89
583.449	17269.59
583.809	17343.48
584.169	17296.25
584.529	17171.29
584.889	17290.38
585.249	17230.95
585.609	17248.57
585.969	17251.74
586.329	17190.27
586.688	17281.11
587.048	17237.27
587.408	17110.5
587.768	17233.43
588.127	17175.81
588.487	17220.32
588.846	17302.36
589.206	17134.45
589.565	17130.38
589.925	17196.14
590.284	17210.61
590.643	17282.47
591.003	17202.47
591.362	17189.82
591.721	17124.73
592.08	17044.96
592.44	17259.42
592.799	17160.89
593.158	17168.57
593.517	17110.95
593.876	17216.03
594.235	17008.35
594.593	17161.12
594.952	17195.01
595.311	17135.58
595.67	17171.74
596.029	17170.61
596.387	17232.08
596.746	17244.5
597.104	17099.42
597.463	17175.13
597.822	17188.23
598.18	17098.97
598.538	17131.06
598.897	17208.57
599.255	16997.96
599.613	17289.47
599.972	17184.39
600.33	17197.27
600.688	17052.64
601.046	17241.79
601.404	17324.95
601.762	17187.33
602.12	17286.99
602.478	17313.88
602.836	17202.02
603.194	17121.12
603.552	17270.27
603.91	17082.93
604.268	17266.65
604.625	17108.24
604.983	17290.15
605.341	17146.65
605.698	17305.07
606.056	17224.84
606.413	17268.46
606.771	17371.28
607.128	17361.56
607.485	17276.59
607.843	17268.46
608.2	17357.27
608.557	17406.53
608.914	17373.09
609.272	17357.95
609.629	17575.12
609.986	17464.84
610.343	17372.86
610.7	17572.63
611.057	17508.23
611.414	17418.51
611.771	17490.37
612.127	17544.84
612.484	17513.88
612.841	17621.44
613.198	17539.64
613.554	17498.51
613.911	17587.55
614.267	17685.62
614.624	17622.35
614.98	17776.47
615.337	17681.78
615.693	17699.63
616.05	17729.46
616.406	17825.28
616.762	17755.23
617.118	17736.69
617.475	17731.5
617.831	17744.6
618.187	17754.55
618.543	17860.53
618.899	17920.87
619.255	17830.03
619.611	17862.57
619.967	17825.05
620.323	17853.08
620.678	17872.51
621.034	17786.86
621.39	17824.6
621.746	17783.02
622.101	18041.55
622.457	17895.11
622.812	17971.49
623.168	17905.28
623.523	18019.85
623.879	17918.16
624.234	17898.05
624.589	17923.13
624.945	18005.84
625.3	18094.2
625.655	17962.23
626.01	18007.87
626.365	17976.24
626.72	17989.57
627.075	17985.95
627.43	17933.75
627.785	17822.79
628.14	17955.22
628.495	17943.47
628.85	18003.35
629.205	17812.4
629.559	18054.65
629.914	17939.18
630.269	17936.69
630.623	17814.66
630.978	17710.03
631.332	17866.18
631.687	17922.68
632.041	17812.85
632.396	17913.64
632.75	17752.29
633.104	17773.08
633.459	17705.51
633.813	17676.58
634.167	17660.09
634.521	17705.06
634.875	17701.89
635.229	17678.17
635.583	17584.16
635.937	17615.79
636.291	17536.93
636.645	17525.17
636.999	17477.94
637.352	17641.56
637.706	17456.7
638.06	17579.64
638.413	17475.68
638.767	17460.32
639.121	17518.17
639.474	17375.35
639.828	17424.39
640.181	17394.33
640.534	17350.94
640.888	17356.37
641.241	17279.31
641.594	17403.14
641.947	17411.05
642.301	17326.99
642.654	17331.51
643.007	17406.08
643.36	17350.26
643.713	17291.06
644.066	17337.16
644.419	17245.41
644.771	17106.88
645.124	17012.19
645.477	16955.25
645.83	16799.54
646.182	16840.22
646.535	16614.24
646.888	16732.2
647.24	16726.78
647.593	16728.81
647.945	16753.44
648.298	16634.12
648.65	16616.27
649.002	16670.96
649.355	16605.88
649.707	16640
650.059	16691.3
650.411	16953.44
650.763	16889.94
651.115	17155.47
651.467	16985.08
651.819	17122.02
652.171	17093.77
652.523	16995.47
652.875	16997.05
653.227	16927
653.578	17095.13
653.93	17026.66
654.282	16916.38
654.633	17037.73
654.985	17012.42
655.337	16963.83
655.688	17057.16
656.039	17096.49
656.391	16874.57
656.742	17006.32
657.094	16939.88
657.445	17048.8
657.796	16924.74
658.147	17031.85
658.498	16898.07
658.849	17027.33
659.2	16917.06
659.551	16939.43
659.902	16985.53
660.253	16997.51
660.604	17094.9
660.955	17012.87
661.306	17059.65
661.656	17018.07
662.007	17006.77
662.358	17062.59
662.708	17005.87
663.059	17025.07
663.409	16961.8
663.76	17030.5
664.11	16991.86
664.461	17019.88
664.811	17004.96
665.161	17034.79
665.511	17032.98
665.862	17067.33
666.212	17131.51
666.562	17085.64
666.912	17071.63
667.262	17010.84
667.612	17129.25
667.962	17065.75
668.312	17085.19
668.662	17086.77
669.011	17105.75
669.361	17004.28
669.711	16996.83
670.06	17088.12
670.41	16997.51
670.76	16931.29
671.109	17016.49
671.459	17022.59
671.808	16925.87
672.157	16993.21
672.507	16928.58
672.856	16873.67
673.205	16818.98
673.554	16908.02
673.904	16803.16
674.253	16941.24
674.602	16875.25
674.951	16660.79
675.3	16517.29
675.649	16856.04
675.998	16821.46
676.346	16736.72
676.695	16833.22
677.044	16771.07
677.393	16625.99
677.741	16814.46
678.09	16740.34
678.438	16707.8
678.787	16686.78
679.135	16732.88
679.484	16601.13
679.832	16730.62
680.181	16664.86
680.529	16585.54
680.877	16498.31
681.225	16525.88
681.573	16548.25
681.922	16505.99
682.27	16472.1
682.618	16373.79
682.966	16343.96
683.314	16355.94
683.661	16336.96
684.009	16311.65
684.357	16222.61
684.705	16238.43
685.053	16253.12
685.4	16225.32
685.748	16150.97
686.095	16147.81
686.443	16065.78
686.79	16056.29
687.138	16097.64
687.485	16049.73
687.832	15894.48
688.18	15983.52
688.527	15850.42
688.874	15958.66
689.221	15792.79
689.568	15761.83
689.915	15666.01
690.262	15704.43
690.609	15663.53
690.956	15601.38
691.303	15637.77
691.65	15424.89
691.997	15586.02
692.344	15367.72
692.69	15346.7
693.037	15341.05
693.383	15259.02
693.73	15322.52
694.077	15059.93
694.423	15174.5
694.769	15047.73
695.116	15105.35
695.462	15025.13
695.808	14961.17
696.155	14954.62
696.501	14846.15
696.847	14950.55
697.193	14717.34
697.539	14796.66
697.885	14670.56
698.231	14534.97
698.577	14569.09
698.923	14483.9
699.269	14428.08
699.614	14352.6
699.96	14297.24
700.306	14403.22
700.651	14256.33
700.997	14260.63
701.342	14222.66
701.688	14150.12
702.033	14171.82
702.379	14081.88
702.724	13979.05
703.069	14079.84
703.415	13890.92
703.76	13910.81
704.105	13950.81
704.45	13824.03
704.795	13737.03
705.14	13706.07
705.485	13620.19
705.83	13656.35
706.175	13612.96
706.52	13547.2
706.865	13511.27
707.209	13535.45
707.554	13389.46
707.899	13477.15
708.243	13473.53
708.588	13349.24
708.932	13222.01
709.277	13206.42
709.621	13335
709.966	13140.66
710.31	13225.63
710.654	13061.11
710.998	13050.26
711.342	13044.61
711.687	13087.78
712.031	12975.46
712.375	12877.61
712.719	12913.77
713.063	12845.75
713.407	12892.53
713.75	12811.85
714.094	12815.69
714.438	12730.5
714.782	12824.73
715.125	12658.18
715.469	12689.14
715.812	12705.19
716.156	12574.57
716.499	12645.76
716.843	12631.52
717.186	12558.07
717.53	12612.54
717.873	12648.01
718.216	12557.4
718.559	12614.8
718.902	12450.05
719.246	12481.92
719.589	12473.56
719.932	12365.08
720.275	12434.01
720.617	12386.55
720.96	12320.11
721.303	12316.72
721.646	12348.81
721.989	12275.6
722.331	12322.15
722.674	12338.87
723.016	12331.19
723.359	12307.68
723.701	12293.45
724.044	12183.17
724.386	12151.08
724.729	12265.65
725.071	12193.79
725.413	12200.57
725.755	12146.33
726.097	12098.65
726.439	12095.94
726.782	12056.62
727.124	12164.41
727.465	12097.75
727.807	12065.21
728.149	12049.61
728.491	11994.92
728.833	12133.68
729.175	12030.18
729.516	11994.92
729.858	11929.16
730.199	11911.09
730.541	12008.71
730.882	11970.74
731.224	12003.51
731.565	11948.37
731.906	11991.76
732.248	11988.6
732.589	11924.42
732.93	11922.16
733.271	11976.17
733.612	11878.77
733.953	12001.7
734.294	11917.64
734.635	11955.15
734.976	11973.46
735.317	11861.37
735.658	11908.37
735.999	11836.74
736.339	11853.01
736.68	11874.93
737.021	11908.37
737.361	11886.9
737.702	11936.17
738.042	11967.81
738.383	11864.98
738.723	11907.7
739.063	11902.27
739.404	11968.71
739.744	11908.37
740.084	11914.7
740.424	12009.16
740.764	12004.87
741.104	12062.95
741.444	11950.41
741.784	12015.72
742.124	11952.21
742.464	12027.47
742.804	12011.65
743.143	12009.39
743.483	12017.07
743.823	11980.01
744.162	12046.22
744.502	12198.76
744.841	12093.68
745.181	12188.37
745.52	12150.85
745.86	12158.99
746.199	12139.78
746.538	12263.62
746.877	12329.38
747.216	12319.89
747.556	12417.51
747.895	12431.52
748.234	12483.5
748.573	12436.27
748.911	12576.83
749.25	12587.23
749.589	12645.53
749.928	12687.34
750.267	12818.18
750.605	12733.44
750.944	12900.44
751.283	12881
751.621	13035.8
751.96	13016.14
752.298	13166.87
752.636	13202.58
752.975	13199.64
753.313	13227.43
753.651	13462.91
753.989	13576.8
754.327	13552.62
754.666	13696.57
755.004	13767.99
755.342	13830.58
755.679	13961.2
756.017	13946.06
756.355	14155.32
756.693	14205.04
