Data from hue_90_FLMS001491_45.txt Node
Date: Mon Feb 06 15:25:11 GMT 2017
User: dcchb
Spectrometer: FLMS00149
Trigger mode: 0
Integration Time (sec): 2.000000E-2
Scans to average: 10
Electric dark correction enabled: true
Nonlinearity correction enabled: false
Boxcar width: 0
XAxis mode: Wavelengths
Number of Pixels in Spectrum: 2048
>>>>>Begin Spectral Data<<<<<
341.393	-2.6
341.776	-2.6
342.16	-2.6
342.543	-73.11
342.927	-47.8
343.31	-64.74
343.693	-65.2
344.077	-64.52
344.46	-68.36
344.843	-43.5
345.226	-41.47
345.61	-24.07
345.993	-23.39
346.376	-8.47
346.759	-17.51
347.142	18.87
347.525	57.51
347.908	48.47
348.291	74.24
348.674	97.74
349.057	124.4
349.44	123.27
349.823	142.48
350.206	155.14
350.588	183.61
350.971	204.63
351.354	218.86
351.737	222.03
352.119	246.43
352.502	258.86
352.884	270.61
353.267	293.66
353.65	288.24
354.032	301.35
354.414	306.09
354.797	304.06
355.179	332.76
355.562	335.02
355.944	330.27
356.326	326.21
356.709	342.7
357.091	330.27
357.473	354.68
357.855	333.66
358.238	342.02
358.62	340.22
359.002	324.17
359.384	351.29
359.766	328.92
360.148	342.02
360.53	339.54
360.912	324.62
361.294	349.93
361.676	332.31
362.057	321.23
362.439	329.37
362.821	308.35
363.203	328.47
363.584	338.18
363.966	325.75
364.348	317.17
364.729	345.87
365.111	309.03
365.493	299.09
365.874	327.11
366.256	314
366.637	298.18
367.019	293.66
367.4	318.97
367.781	325.53
368.163	312.65
368.544	324.62
368.925	312.2
369.306	321.46
369.688	302.48
370.069	314.46
370.45	306.09
370.831	321.46
371.212	334.79
371.593	300.9
371.974	317.39
372.355	325.53
372.736	302.7
373.117	323.95
373.498	319.88
373.879	336.15
374.26	319.2
374.641	316.26
375.021	317.17
375.402	308.58
375.783	325.75
376.163	340.89
376.544	318.07
376.925	331.86
377.305	309.71
377.686	348.13
378.066	326.66
378.447	334.79
378.827	332.53
379.208	318.07
379.588	330.73
379.968	354.45
380.349	335.25
380.729	341.8
381.109	338.86
381.489	339.09
381.87	337.28
382.25	340.22
382.63	348.58
383.01	334.79
383.39	328.01
383.77	331.4
384.15	362.82
384.53	359.43
384.91	340.22
385.29	349.48
385.67	337.96
386.049	346.77
386.429	355.81
386.809	335.47
387.189	339.54
387.568	351.97
387.948	344.74
388.328	369.37
388.707	354.68
389.087	356.26
389.466	368.46
389.846	372.08
390.225	356.49
390.605	343.38
390.984	349.71
391.363	373.89
391.743	356.49
392.122	378.18
392.501	386.32
392.881	377.96
393.26	376.15
393.639	380.22
394.018	365.75
394.397	385.64
394.776	387.22
395.155	387.9
395.534	402.59
395.913	386.54
396.292	382.93
396.671	394
397.05	389.03
397.429	372.53
397.808	398.07
398.186	384.28
398.565	429.03
398.944	412.76
399.323	404.62
399.701	404.17
400.08	396.71
400.458	398.97
400.837	385.19
401.215	424.06
401.594	415.02
401.972	413.21
402.351	408.46
402.729	396.26
403.107	403.72
403.486	410.27
403.864	414.11
404.242	421.34
404.62	422.93
404.999	450.5
405.377	420.44
405.755	427.45
406.133	420.21
406.511	441.23
406.889	418.86
407.267	432.19
407.645	440.1
408.023	447.33
408.401	457.5
408.779	465.64
409.156	465.86
409.534	464.73
409.912	440.33
410.29	457.73
410.667	461.57
411.045	466.54
411.422	475.35
411.8	462.7
412.178	464.28
412.555	450.04
412.933	482.13
413.31	487.78
413.687	483.49
414.065	487.56
414.442	493.43
414.819	495.24
415.197	483.94
415.574	506.77
415.951	515.35
416.328	528.69
416.705	509.7
417.082	500.89
417.46	503.38
417.837	504.28
418.214	515.13
418.591	513.32
418.967	530.04
419.344	536.82
419.721	521
420.098	518.07
420.475	532.75
420.852	569.82
421.228	541.79
421.605	539.08
421.982	558.97
422.358	567.1
422.735	559.19
423.111	543.15
423.488	560.78
423.864	551.06
424.241	560.55
424.617	577.5
424.994	577.72
425.37	599.19
425.746	593.32
426.123	596.03
426.499	590.83
426.875	572.98
427.251	594.67
427.627	612.3
428.003	577.5
428.379	612.98
428.756	625.86
429.132	614.11
429.507	629.25
429.883	642.13
430.259	643.94
430.635	636.25
431.011	649.14
431.387	645.29
431.763	666.08
432.138	668.8
432.514	668.57
432.89	671.06
433.265	681.45
433.641	697.5
434.016	676.03
434.392	725.07
434.767	716.48
435.143	710.38
435.518	708.57
435.894	718.29
436.269	709.47
436.644	727.78
437.02	755.57
437.395	728
437.77	736.14
438.145	763.26
438.52	754.22
438.895	775.23
439.271	780.66
439.646	746.53
440.021	771.84
440.395	782.47
440.77	767.55
441.145	804.84
441.52	831.96
441.895	803.93
442.27	777.72
442.645	816.81
443.019	816.14
443.394	820.66
443.769	825.85
444.143	822.01
444.518	822.46
444.892	825.85
445.267	835.35
445.641	855.01
446.016	815.91
446.39	847.77
446.764	843.71
447.139	872.41
447.513	857.49
447.887	862.24
448.262	870.6
448.636	869.02
449.01	888.23
449.384	925.06
449.758	890.03
450.132	904.04
450.506	897.94
450.88	919.41
451.254	916.47
451.628	950.37
452.002	937.26
452.376	935.46
452.75	964.83
453.123	945.4
453.497	990.37
453.871	977.94
454.244	1005.06
454.618	1010.71
454.992	1007.32
455.365	1014.55
455.739	1043.7
456.112	1070.59
456.486	1057.03
456.859	1068.11
457.232	1081.21
457.606	1067.2
457.979	1091.61
458.352	1101.78
458.725	1113.98
459.099	1109.01
459.472	1159.86
459.845	1160.08
460.218	1171.16
460.591	1176.81
460.964	1206.18
461.337	1202.57
461.71	1237.59
462.083	1236.92
462.456	1262.68
462.829	1266.29
463.201	1304.26
463.574	1286.18
463.947	1319.17
464.32	1316.46
464.692	1360.3
465.065	1356.69
465.438	1393.52
465.81	1425.16
466.183	1440.75
466.555	1466.29
466.928	1450.47
467.3	1487.53
467.672	1510.58
468.045	1519.85
468.417	1535.44
468.789	1558.94
469.161	1599.84
469.534	1602.78
469.906	1655.66
470.278	1692.95
470.65	1702.89
471.022	1750.12
471.394	1775.66
471.766	1800.97
472.138	1838.48
472.51	1894.07
472.882	1927.52
473.253	1942.43
473.625	1993.28
473.997	2019.49
474.369	2071.7
474.74	2105.59
475.112	2158.47
475.484	2211.58
475.855	2273.73
476.227	2295.65
476.598	2386.26
476.97	2402.54
477.341	2469.43
477.713	2537.67
478.084	2586.03
478.455	2692.7
478.827	2724.56
479.198	2844.11
479.569	2867.16
479.94	2976.98
480.311	3010.66
480.682	3103.53
481.053	3187.6
481.424	3290.65
481.795	3405.22
482.166	3471.21
482.537	3577.65
482.908	3681.37
483.279	3758.21
483.65	3863.51
484.021	3995.26
484.391	4040.23
484.762	4145.99
485.133	4228.93
485.503	4328.59
485.874	4487
486.244	4564.74
486.615	4719.31
486.985	4853.77
487.356	4988.68
487.726	5117.04
488.097	5245.17
488.467	5282.69
488.837	5501.21
489.207	5592.96
489.578	5792.05
489.948	5870.24
490.318	6040.63
490.688	6141.65
491.058	6232.49
491.428	6398.36
491.798	6550.9
492.168	6758.35
492.538	6788.86
492.908	6944.79
493.278	7083.54
493.648	7171.68
494.017	7290.32
494.387	7427.94
494.757	7614.83
495.126	7766.69
495.496	7842.39
495.866	7945.89
496.235	8082.84
496.605	8228.15
496.974	8270.4
497.344	8436.95
497.713	8598.08
498.082	8649.83
498.452	8807.57
498.821	8897.96
499.19	9000.55
499.559	9184.96
499.928	9180.44
500.298	9342.24
500.667	9480.32
501.036	9482.8
501.405	9614.78
501.774	9676.92
502.143	9799.63
502.512	9951.26
502.88	10022.45
503.249	10106.74
503.618	10212.95
503.987	10321.65
504.356	10369.11
504.724	10450.01
505.093	10534.3
505.462	10588.76
505.83	10686.84
506.199	10767.74
506.567	10940.16
506.936	10890.22
507.304	10982.2
507.672	11034.17
508.041	11166.15
508.409	11213.15
508.777	11326.82
509.145	11416.99
509.514	11400.72
509.882	11563.42
510.25	11600.94
510.618	11631.9
510.986	11651.33
511.354	11755.28
511.722	11818.79
512.09	11895.17
512.458	11874.15
512.826	12044.99
513.193	12032.79
513.561	12048.84
513.929	12199.79
514.297	12270.98
514.664	12316.17
515.032	12281.6
515.4	12382.61
515.767	12396.85
516.135	12486.56
516.502	12402.72
516.869	12570.18
517.237	12541.48
517.604	12451.99
517.972	12662.38
518.339	12694.24
518.706	12739.67
519.073	12691.76
519.44	12795.26
519.808	12887.91
520.175	12835.93
520.542	12957.74
520.909	12979.66
521.276	12889.72
521.643	12997.29
522.009	12993.22
522.376	13101.46
522.743	13126.1
523.11	13148.02
523.477	13308.46
523.843	13272.98
524.21	13399.08
524.577	13426.65
524.943	13342.59
525.31	13453.32
525.676	13578.74
526.043	13548.46
526.409	13492.87
526.776	13623.71
527.142	13638.85
527.508	13674.33
527.874	13731.96
528.241	13714.33
528.607	13707.78
528.973	13760.88
529.339	13627.1
529.705	13707.78
530.071	13796.59
530.437	13853.76
530.803	13814.67
531.169	13771.05
531.535	13764.04
531.901	13670.49
532.267	13733.09
532.632	13835.23
532.998	13792.52
533.364	13748.68
533.73	13798.62
534.095	13761.56
534.461	13806.3
534.826	13801.78
535.192	13728.34
535.557	13766.53
535.923	13628.23
536.288	13711.16
536.653	13738.73
537.019	13660.54
537.384	13675.01
537.749	13669.13
538.114	13636.14
538.479	13581.22
538.845	13580.77
539.21	13503.49
539.575	13526.99
539.94	13548.46
540.305	13513.66
540.67	13462.36
541.034	13437.73
541.399	13486.31
541.764	13335.13
542.129	13444.73
542.494	13345.3
542.858	13339.2
543.223	13368.35
543.587	13289.93
543.952	13220.78
544.316	13200.44
544.681	13072.31
545.045	13183.95
545.41	13156.15
545.774	13161.12
546.138	13087.9
546.503	13073.67
546.867	13010.39
547.231	12976.49
547.595	12991.18
547.959	12908.7
548.324	12869.83
548.688	12880.45
549.052	12877.74
549.416	12772.66
549.779	12795.26
550.143	12815.6
550.507	12849.72
550.871	12793.22
551.235	12740.79
551.599	12667.35
551.962	12722.26
552.326	12708.48
552.689	12734.24
553.053	12571.53
553.417	12528.82
553.78	12690.85
554.143	12573.79
554.507	12595.04
554.87	12504.19
555.234	12575.15
555.597	12433.23
555.96	12481.82
556.323	12391.43
556.686	12428.03
557.05	12473.91
557.413	12446.11
557.776	12396.17
558.139	12476.62
558.502	12481.59
558.865	12408.37
559.228	12485.21
559.59	12481.59
559.953	12452.89
560.316	12423.29
560.679	12465.1
561.041	12534.02
561.404	12517.75
561.767	12494.93
562.129	12381.03
562.492	12571.99
562.854	12520.69
563.217	12484.08
563.579	12505.77
563.941	12435.94
564.304	12447.7
564.666	12547.13
565.028	12508.71
565.39	12567.69
565.753	12608.14
566.115	12639.1
566.477	12584.19
566.839	12626.45
567.201	12657.63
567.563	12615.15
567.925	12647.01
568.287	12680.23
568.648	12576.05
569.01	12644.75
569.372	12724.98
569.734	12695.6
570.095	12706.22
570.457	12716.84
570.819	12729.04
571.18	12777.86
571.542	12805.2
571.903	12753.68
572.265	12756.84
572.626	12841.36
572.987	12851.53
573.349	12865.76
573.71	12831.64
574.071	12863.05
574.432	12864.86
574.794	12889.27
575.155	12884.52
575.516	12891.53
575.877	12986.89
576.238	12875.03
576.599	12896.05
576.96	12895.37
577.32	12897.18
577.681	12907.34
578.042	12913.45
578.403	12956.38
578.763	12827.57
579.124	12911.86
579.485	12912.32
579.845	12910.96
580.206	13021.24
580.566	12912.99
580.927	12855.37
581.287	12915.71
581.648	12894.69
582.008	12947.57
582.368	12847.46
582.728	12968.36
583.089	12834.58
583.449	12901.69
583.809	12856.05
584.169	12868.25
584.529	12886.78
584.889	12872.54
585.249	12773.34
585.609	12789.61
585.969	12827.12
586.329	12892.66
586.688	12880.23
587.048	12793
587.408	12802.94
587.768	12765.88
588.127	12752.09
588.487	12785.77
588.846	12805.43
589.206	12765.43
589.565	12744.64
589.925	12837.52
590.284	12674.81
590.643	12743.05
591.003	12724.98
591.362	12847.46
591.721	12705.32
592.08	12756.39
592.44	12736.73
592.799	12709.84
593.158	12673
593.517	12618.31
593.876	12735.6
594.235	12704.19
594.593	12656.96
594.952	12665.54
595.311	12693.11
595.67	12682.04
596.029	12694.92
596.387	12726.33
596.746	12736.5
597.104	12544.87
597.463	12644.53
597.822	12612.44
598.18	12598.65
598.538	12582.83
598.897	12649.05
599.255	12516.17
599.613	12677.75
599.972	12595.94
600.33	12663.96
600.688	12554.59
601.046	12694.02
601.404	12662.15
601.762	12600.69
602.12	12684.3
602.478	12672.77
602.836	12634.58
603.194	12539.44
603.552	12591.42
603.91	12520.24
604.268	12581.48
604.625	12562.95
604.983	12637.29
605.341	12588.03
605.698	12628.93
606.056	12687.01
606.413	12563.85
606.771	12653.11
607.128	12618.09
607.485	12619.67
607.843	12615.83
608.2	12661.7
608.557	12783.96
608.914	12620.57
609.272	12666.67
609.629	12734.02
609.986	12787.57
610.343	12758.2
610.7	12728.14
611.057	12692.21
611.414	12714.58
611.771	12677.97
612.127	12776.95
612.484	12815.37
612.841	12723.62
613.198	12781.25
613.554	12738.54
613.911	12875.93
614.267	12851.3
614.624	12745.54
614.98	12813.79
615.337	12932.2
615.693	12850.85
616.05	12862.6
616.406	12920
616.762	12825.54
617.118	12861.47
617.475	12882.94
617.831	12905.54
618.187	12872.99
618.543	12927
618.899	12986.66
619.255	12925.87
619.611	12910.73
619.967	13039.77
620.323	13017.4
620.678	12926.55
621.034	12920
621.39	12983.5
621.746	12993.44
622.101	13105.53
622.457	12995.48
622.812	12956.16
623.168	12983.05
623.523	12955.03
623.879	13038.64
624.234	12916.16
624.589	12983.5
624.945	12985.08
625.3	12969.49
625.655	13040
626.01	13036.61
626.365	13013.56
626.72	13045.19
627.075	12939.66
627.43	13004.74
627.785	12867.12
628.14	12960.22
628.495	12959.09
628.85	12960
629.205	12907.57
629.559	12973.11
629.914	12959.32
630.269	12877.51
630.623	12905.08
630.978	12887.23
631.332	12805.2
631.687	12892.43
632.041	12875.03
632.396	12822.6
632.75	12749.61
633.104	12853.33
633.459	12798.65
633.813	12775.14
634.167	12835.48
634.521	12779.89
634.875	12739.21
635.229	12746.44
635.583	12675.26
635.937	12689.95
636.291	12709.61
636.645	12642.94
636.999	12628.03
637.352	12662.6
637.706	12676.39
638.06	12650.63
638.413	12616.28
638.767	12531.31
639.121	12661.25
639.474	12513.91
639.828	12530.63
640.181	12590.97
640.534	12506.68
640.888	12441.59
641.241	12407.7
641.594	12450.41
641.947	12501.48
642.301	12424.19
642.654	12420.58
643.007	12408.15
643.36	12439.56
643.713	12342.16
644.066	12379
644.419	12336.96
644.771	12207.93
645.124	12196.63
645.477	12116.63
645.83	12096.74
646.182	11981.27
646.535	12026.24
646.888	12060.81
647.24	11909.4
647.593	12054.03
647.945	12065.33
648.298	11998.22
648.65	12037.99
649.002	11942.85
649.355	12061.72
649.707	11979.91
650.059	11985.79
650.411	12082.73
650.763	12151.21
651.115	12280.24
651.467	12220.36
651.819	12283.63
652.171	12221.49
652.523	12176.29
652.875	12218.1
653.227	12156.18
653.578	12277.98
653.93	12272.33
654.282	12183.52
654.633	12194.59
654.985	12198.44
655.337	12210.41
655.688	12212
656.039	12318.43
656.391	12202.73
656.742	12208.83
657.094	12217.64
657.445	12300.35
657.796	12181.26
658.147	12267.81
658.498	12273.46
658.849	12266.91
659.2	12222.16
659.551	12197.98
659.902	12366.57
660.253	12231.2
660.604	12303.29
660.955	12196.85
661.306	12293.8
661.656	12266.68
662.007	12333.8
662.358	12263.29
662.708	12308.04
663.059	12269.62
663.409	12220.36
663.76	12344.65
664.11	12266.68
664.461	12286.12
664.811	12244.08
665.161	12289.73
665.511	12179.91
665.862	12284.76
666.212	12290.86
666.562	12372.22
666.912	12257.64
667.262	12352.56
667.612	12238.44
667.962	12336.29
668.312	12357.98
668.662	12343.29
669.011	12352.33
669.361	12379.67
669.711	12259
670.06	12264.65
670.41	12289.96
670.76	12286.12
671.109	12282.5
671.459	12350.75
671.808	12290.86
672.157	12255.61
672.507	12249.28
672.856	12281.15
673.205	12310.52
673.554	12218.32
673.904	12247.47
674.253	12324.76
674.602	12247.7
674.951	12059.46
675.3	11969.29
675.649	12184.43
675.998	12074.6
676.346	12268.04
676.695	12159.79
677.044	12056.97
677.393	12109.17
677.741	12169.06
678.09	12100.13
678.438	12031.66
678.787	12087.93
679.135	12171.54
679.484	11981.72
679.832	12066.24
680.181	11969.97
680.529	11949.63
680.877	11976.75
681.225	11869.18
681.573	11964.09
681.922	11866.92
682.27	11827.82
682.618	11833.7
682.966	11833.02
683.314	11783.53
683.661	11787.37
684.009	11769.07
684.357	11755.74
684.705	11719.35
685.053	11692.01
685.4	11641.84
685.748	11630.54
686.095	11615.17
686.443	11586.7
686.79	11593.25
687.138	11580.83
687.485	11538.57
687.832	11516.42
688.18	11566.59
688.527	11453.6
688.874	11474.84
689.221	11308.97
689.568	11326.14
689.915	11356.2
690.262	11277.56
690.609	11178.35
690.956	11183.32
691.303	11201.17
691.65	11104.45
691.997	11131.12
692.344	11037.11
692.69	11015.42
693.037	11074.85
693.383	10913.72
693.73	10951.92
694.077	10884.12
694.423	10927.28
694.769	10816.78
695.116	10835.99
695.462	10793.28
695.808	10722.09
696.155	10730
696.501	10738.59
696.847	10664.01
697.193	10585.37
697.539	10642.09
697.885	10546.73
698.231	10414.08
698.577	10457.69
698.923	10343.57
699.269	10372.27
699.614	10298.15
699.96	10284.81
700.306	10297.92
700.651	10233.97
700.997	10273.06
701.342	10186.51
701.688	10103.12
702.033	10085.95
702.379	10080.53
702.724	10024.26
703.069	10037.82
703.415	9990.81
703.76	9913.07
704.105	9894.32
704.45	9907.2
704.795	9838.72
705.14	9868.78
705.485	9800.53
705.83	9717.6
706.175	9683.25
706.52	9718.73
706.865	9643.7
707.209	9655.23
707.554	9595.57
707.899	9548.79
708.243	9529.13
708.588	9523.25
708.932	9474.67
709.277	9382.01
709.621	9446.42
709.966	9382.01
710.31	9451.16
710.654	9386.53
710.998	9302.92
711.342	9317.61
711.687	9255.01
712.031	9261.11
712.375	9225.63
712.719	9175.46
713.063	9217.72
713.407	9234.45
713.75	9119.42
714.094	9191.96
714.438	9136.6
714.782	9187.44
715.125	9088.69
715.469	9107.9
715.812	9019.31
716.156	9007.56
716.499	9054.11
716.843	9062.47
717.186	8951.97
717.53	9070.38
717.873	8987.67
718.216	8963.95
718.559	8908.13
718.902	8833.33
719.246	8953.32
719.589	8875.81
719.932	8919.2
720.275	8837.17
720.617	8809.6
720.96	8856.83
721.303	8829.03
721.646	8841.24
721.989	8785.87
722.331	8831.07
722.674	8825.64
723.016	8738.41
723.359	8777.51
723.701	8746.1
724.044	8721.47
724.386	8694.12
724.729	8667.68
725.071	8718.75
725.413	8709.49
725.755	8641.69
726.097	8656.83
726.439	8664.29
726.782	8667.91
727.124	8664.74
727.465	8672.2
727.807	8731.86
728.149	8605.99
728.491	8609.83
728.833	8647.8
729.175	8563.73
729.516	8619.32
729.858	8596.5
730.199	8641.24
730.541	8572.77
730.882	8587.01
731.224	8617.97
731.565	8584.75
731.906	8586.1
732.248	8600.11
732.589	8570.06
732.93	8564.18
733.271	8541.36
733.612	8664.97
733.953	8638.76
734.294	8551.07
734.635	8562.6
734.976	8566.22
735.317	8520.11
735.658	8576.38
735.999	8532.09
736.339	8547.46
736.68	8652.99
737.021	8516.27
737.361	8492.09
737.702	8501.58
738.042	8571.41
738.383	8575.93
738.723	8610.06
739.063	8640.79
739.404	8625.65
739.744	8596.05
740.084	8572.09
740.424	8615.93
740.764	8652.77
741.104	8664.97
741.444	8598.08
741.784	8690.51
742.124	8681.01
742.464	8738.87
742.804	8658.42
743.143	8733.89
743.483	8766.44
743.823	8780
744.162	8773.22
744.502	8843.04
744.841	8831.97
745.181	8903.61
745.52	8954.23
745.86	8953.1
746.199	8974.57
746.538	8995.13
746.877	9070.83
747.216	9119.2
747.556	9086.65
747.895	9174.11
748.234	9169.59
748.573	9288
748.911	9314.67
749.25	9379.3
749.589	9431.73
749.928	9509.47
750.267	9563.93
750.605	9654.32
750.944	9694.1
751.283	9812.96
751.621	9876.24
751.96	9936.57
752.298	9954.88
752.636	10139.51
752.975	10219.28
753.313	10243.69
753.651	10358.48
753.989	10457.24
754.327	10582.43
754.666	10562.32
755.004	10826.95
755.342	10895.65
755.679	11033.04
756.017	11099.03
756.355	11307.61
756.693	11414.28
757.031	11546.25
757.368	11625.34
757.706	11786.02
758.044	11881.38
758.381	12068.95
758.719	12124.77
759.056	12403.18
759.394	12524.08
759.731	12547.35
