Data from hue_34_FLMS001491_00098.txt Node
Date: Tue Feb 07 17:26:29 GMT 2017
User: dcchb
Spectrometer: FLMS00149
Trigger mode: 0
Integration Time (sec): 2.000000E-2
Scans to average: 10
Electric dark correction enabled: true
Nonlinearity correction enabled: false
Boxcar width: 0
XAxis mode: Wavelengths
Number of Pixels in Spectrum: 2048
>>>>>Begin Spectral Data<<<<<
341.393	-5.55
341.776	-5.55
342.16	-5.55
342.543	-82.38
342.927	-50.07
343.31	-61.59
343.693	-62.05
344.077	-54.81
344.46	-65.66
344.843	-63.85
345.226	-51.43
345.61	-41.93
345.993	-9.17
346.376	5.75
346.759	8.46
347.142	20.66
347.525	39.87
347.908	45.3
348.291	93.43
348.674	83.03
349.057	113.99
349.44	123.26
349.823	155.8
350.206	151.73
350.588	169.13
350.971	208.45
351.354	235.8
351.737	247.78
352.119	260.43
352.502	255.23
352.884	297.04
353.267	283.48
353.65	299.07
354.032	307.66
354.414	308.79
354.797	323.48
355.179	312.18
355.562	314.21
355.944	324.84
356.326	349.69
356.709	355.34
357.091	337.04
357.473	338.62
357.855	346.3
358.238	343.59
358.62	342.46
359.002	335.68
359.384	336.59
359.766	341.78
360.148	347.21
360.53	340.88
360.912	335.46
361.294	331.84
361.676	328.68
362.057	349.02
362.439	323.93
362.821	348.56
363.203	333.2
363.584	339.52
363.966	339.52
364.348	316.47
364.729	339.98
365.111	321.45
365.493	298.4
365.874	327.55
366.256	313.31
366.637	325.74
367.019	337.04
367.4	315.8
367.781	319.41
368.163	330.71
368.544	325.29
368.925	314.89
369.306	327.77
369.688	325.51
370.069	323.25
370.45	313.76
370.831	333.42
371.212	311.96
371.593	335.46
371.974	297.72
372.355	316.93
372.736	346.3
373.117	330.94
373.498	290.26
373.879	311.96
374.26	332.52
374.641	334.55
375.021	295.01
375.402	352.63
375.783	323.48
376.163	302.01
376.544	349.47
376.925	318.28
377.305	331.39
377.686	323.48
378.066	342.46
378.447	309.02
378.827	329.58
379.208	363.71
379.588	319.19
379.968	333.65
380.349	338.62
380.729	354.89
381.109	333.65
381.489	332.52
381.87	343.59
382.25	348.56
382.63	335.68
383.01	343.59
383.39	359.19
383.77	351.95
384.15	363.25
384.53	337.49
384.91	348.56
385.29	350.6
385.67	358.51
386.049	346.08
386.429	333.42
386.809	360.54
387.189	349.69
387.568	354.89
387.948	356.93
388.328	352.63
388.707	367.77
389.087	364.84
389.466	346.3
389.846	361.45
390.225	367.55
390.605	379.3
390.984	360.32
391.363	343.59
391.743	353.31
392.122	363.93
392.501	392.18
392.881	400.09
393.26	361.45
393.639	364.38
394.018	369.58
394.397	383.14
394.776	377.94
395.155	392.63
395.534	383.37
395.913	370.48
396.292	362.58
396.671	383.59
397.05	393.08
397.429	393.99
397.808	379.3
398.186	373.87
398.565	381.11
398.944	389.24
399.323	379.98
399.701	393.31
400.08	403.93
400.458	399.64
400.837	391.73
401.215	396.25
401.594	390.82
401.972	396.25
402.351	394.44
402.729	396.92
403.107	394.66
403.486	420.43
403.864	398.51
404.242	408.45
404.62	415.68
404.999	420.65
405.377	421.78
405.755	426.53
406.133	431.05
406.511	440.09
406.889	429.24
407.267	410.94
407.645	428.34
408.023	428.11
408.401	436.47
408.779	433.76
409.156	438.28
409.534	416.36
409.912	444.15
410.29	457.94
410.667	459.75
411.045	462.69
411.422	439.18
411.8	441.9
412.178	470.82
412.555	464.49
412.933	469.47
413.31	447.54
413.687	467.66
414.065	453.42
414.442	451.61
414.819	476.7
415.197	480.99
415.574	490.71
415.951	476.47
416.328	474.89
416.705	492.06
417.082	494.1
417.46	462.69
417.837	483.93
418.214	480.99
418.591	480.76
418.967	516.24
419.344	478.28
419.721	519.63
420.098	519.63
420.475	529.8
420.852	520.31
421.228	522.57
421.605	516.47
421.982	530.25
422.358	538.16
422.735	519.86
423.111	523.47
423.488	547.88
423.864	529.58
424.241	527.77
424.617	552.17
424.994	543.81
425.37	557.37
425.746	542.46
426.123	560.99
426.499	565.06
426.875	578.16
427.251	558.95
427.627	572.74
428.003	570.03
428.379	569.8
428.756	579.97
429.132	600.54
429.507	583.36
429.883	606.41
430.259	607.54
430.635	611.38
431.011	612.74
431.387	626.07
431.763	619.07
432.138	618.16
432.514	624.49
432.89	638.95
433.265	639.86
433.641	643.92
434.016	643.02
434.392	658.61
434.767	652.29
435.143	660.42
435.518	657.48
435.894	651.38
436.269	674.43
436.644	682.57
437.02	698.84
437.395	671.49
437.77	683.92
438.145	666.07
438.52	707.65
438.895	702
439.271	714.66
439.646	716.01
440.021	724.15
440.395	719.63
440.77	744.71
441.145	734.09
441.52	758.95
441.895	748.1
442.27	759.4
442.645	732.96
443.019	783.13
443.394	746.52
443.769	741.55
444.143	772.06
444.518	785.61
444.892	778.16
445.267	746.29
445.641	772.73
446.016	775.22
446.39	769.12
446.764	795.56
447.139	767.08
447.513	805.28
447.887	794.43
448.262	800.53
448.636	791.49
449.01	830.13
449.384	813.18
449.758	823.13
450.132	817.93
450.506	834.43
450.88	857.7
451.254	837.36
451.628	836.91
452.002	848.89
452.376	877.14
452.75	891.6
453.123	885.95
453.497	895.89
453.871	871.71
454.244	928.66
454.618	925.05
454.992	915.56
455.365	918.04
455.739	916.23
456.112	956.68
456.486	959.62
456.859	944.48
457.232	986.74
457.606	973.18
457.979	995.33
458.352	1003.46
458.725	1011.15
459.099	999.62
459.472	1025.61
459.845	1023.12
460.218	1050.24
460.591	1063.57
460.964	1058.15
461.337	1077.13
461.71	1075.1
462.083	1122.33
462.456	1101.76
462.829	1094.99
463.201	1125.04
463.574	1126.62
463.947	1145.15
464.32	1167.07
464.692	1196.9
465.065	1178.6
465.438	1207.98
465.81	1242.1
466.183	1254.08
466.555	1257.01
466.928	1259.73
467.3	1294.3
467.672	1299.05
468.045	1348.09
468.417	1323.45
468.789	1369.55
469.161	1366.16
469.534	1404.58
469.906	1410.46
470.278	1399.38
470.65	1465.15
471.022	1465.37
471.394	1513.28
471.766	1509.21
472.138	1522.77
472.51	1584.24
472.882	1641.41
473.253	1646.16
473.625	1697.91
473.997	1719.38
474.369	1718.02
474.74	1772.93
475.112	1778.13
475.484	1822.88
475.855	1860.84
476.227	1891.35
476.598	1929.31
476.97	2000.05
477.341	2017.67
477.713	2068.52
478.084	2088.41
478.455	2176.09
478.827	2217.44
479.198	2266.48
479.569	2300.15
479.94	2372.24
480.311	2418.11
480.682	2500.82
481.053	2560.71
481.424	2622.85
481.795	2640.71
482.166	2723.42
482.537	2778.78
482.908	2824.88
483.279	2879.12
483.65	3021.94
484.021	3050.64
484.391	3141.03
484.762	3184.42
485.133	3232.56
485.503	3325.44
485.874	3411.99
486.244	3482.72
486.615	3596.61
486.985	3644.07
487.356	3671.87
487.726	3799.55
488.097	3932.88
488.467	3940.11
488.837	4108.92
489.207	4132.42
489.578	4291.51
489.948	4336.93
490.318	4438.85
490.688	4507.1
491.058	4548
491.428	4676.36
491.798	4750.26
492.168	4920.87
492.538	4958.39
492.908	5040.19
493.278	5141.43
493.648	5185.05
494.017	5316.8
494.387	5357.47
494.757	5426.4
495.126	5557.69
495.496	5623.68
495.866	5652.83
496.235	5731.02
496.605	5874.07
496.974	5914.75
497.344	6021.41
497.713	6042.65
498.082	6110.45
498.452	6203.78
498.821	6266.6
499.19	6333.94
499.559	6428.63
499.928	6473.6
500.298	6533.71
500.667	6626.37
501.036	6619.81
501.405	6780.49
501.774	6814.61
502.143	6883.53
502.512	6945.9
502.88	6969.86
503.249	7039.46
503.618	7138.89
503.987	7244.2
504.356	7208.72
504.724	7296.18
505.093	7342.96
505.462	7399.45
505.83	7453.01
506.199	7543.4
506.567	7626.79
506.936	7581.59
507.304	7784.07
507.672	7822.94
508.041	7812.32
508.409	7940.23
508.777	7947.23
509.145	8093.22
509.514	8037.85
509.882	8093.67
510.25	8171.41
510.618	8235.36
510.986	8227.91
511.354	8308.13
511.722	8377.73
512.09	8498.41
512.458	8493.66
512.826	8538.63
513.193	8524.39
513.561	8613.66
513.929	8683.71
514.297	8730.94
514.664	8834.22
515.032	8853.88
515.4	8926.64
515.767	8961.22
516.135	9029.69
516.502	8996.25
516.869	9155.11
517.237	9167.99
517.604	9124.83
517.972	9255.45
518.339	9289.35
518.706	9306.07
519.073	9344.49
519.44	9451.38
519.808	9488.66
520.175	9495.67
520.542	9557.14
520.909	9677.58
521.276	9690.47
521.643	9695.89
522.009	9819.05
522.376	9897.24
522.743	9931.59
523.11	9985.15
523.477	10144.01
523.843	10087.52
524.21	10302.65
524.577	10234.41
524.943	10288.64
525.31	10348.3
525.676	10462.42
526.043	10501.07
526.409	10569.09
526.776	10603.21
527.142	10684.56
527.508	10735.86
527.874	10819.7
528.241	10862.41
528.607	10895.18
528.973	10963.88
529.339	11022.18
529.705	11089.98
530.071	11169.52
530.437	11206.81
530.803	11290.42
531.169	11319.35
531.535	11285.68
531.901	11435.28
532.267	11392.12
532.632	11466.01
532.998	11503.53
533.364	11673.46
533.73	11701.71
534.095	11821.71
534.461	11819.22
534.826	11863.97
535.192	11830.75
535.557	11984.87
535.923	12001.14
536.288	12053.34
536.653	12086.79
537.019	12116.39
537.384	12115.26
537.749	12124.07
538.114	12255.14
538.479	12285.65
538.845	12300.11
539.21	12385.99
539.575	12428.47
539.94	12497.62
540.305	12507.79
540.67	12551.63
541.034	12613.55
541.399	12680.67
541.764	12712.31
542.129	12707.56
542.494	12738.07
542.858	12867.56
543.223	12903.26
543.587	12937.84
543.952	12928.35
544.316	13072.98
544.681	13083.37
545.045	13177.61
545.41	13191.62
545.774	13277.26
546.138	13299.64
546.503	13293.76
546.867	13287.21
547.231	13507.77
547.595	13489.91
547.959	13512.06
548.324	13511.83
548.688	13626.63
549.052	13665.05
549.416	13703.92
549.779	13759.96
550.143	13809
550.507	13904.82
550.871	13942.11
551.235	13935.55
551.599	14000.18
551.962	14022.1
552.326	14065.04
552.689	14206.73
553.053	14070.01
553.417	14125.15
553.78	14358.14
554.143	14234.75
554.507	14285.37
554.87	14427.74
555.234	14534.18
555.597	14425.48
555.96	14507.06
556.323	14604.91
556.686	14524.69
557.05	14748.41
557.413	14712.93
557.776	14797.9
558.139	14884.91
558.502	14864.57
558.865	14952.93
559.228	15046.93
559.59	15082.19
559.953	15007.61
560.316	15233.37
560.679	15286.48
561.041	15301.84
561.404	15351.11
561.767	15482.18
562.129	15355.85
562.492	15551.1
562.854	15491.22
563.217	15459.81
563.579	15562.63
563.941	15775.28
564.304	15690.31
564.666	15836.29
565.028	15804.43
565.39	15913.35
565.753	16009.85
566.115	16075.16
566.477	16070.86
566.839	16210.75
567.201	16227.24
567.563	16208.26
567.925	16424.53
568.287	16441.47
568.648	16485.99
569.01	16500.91
569.372	16655.25
569.734	16628.36
570.095	16659.32
570.457	16834.68
570.819	16816.38
571.18	16861.58
571.542	16963.95
571.903	17095.92
572.265	17123.72
572.626	17159.65
572.987	17367.55
573.349	17462.46
573.71	17400.32
574.071	17553.99
574.432	17633.76
574.794	17760.76
575.155	17761.67
575.516	17874.43
575.877	18010.02
576.238	18119.85
576.599	18237.59
576.96	18321.88
577.32	18394.19
577.681	18496.79
578.042	18629.44
578.403	18678.48
578.763	18820.39
579.124	19044.34
579.485	19213.15
579.845	19407.72
580.206	19388.97
580.566	19593.71
580.927	19858.11
581.287	19960.48
581.648	20037.31
582.008	20326.12
582.368	20435.72
582.728	20759.1
583.089	20804.3
583.449	21056.95
583.809	21156.38
584.169	21375.13
584.529	21514.34
584.889	21868
585.249	21945.74
585.609	22031.84
585.969	22400.64
586.329	22536
586.688	22783.23
587.048	23000.17
587.408	23109.55
587.768	23456.88
588.127	23654.39
588.487	23882.86
588.846	24318.33
589.206	24340.02
589.565	24687.59
589.925	24916.73
590.284	25228.14
590.643	25464.29
591.003	25688.91
591.362	26034.44
591.721	26224.95
592.08	26459.52
592.44	26800.3
592.799	27040.07
593.158	27285.03
593.517	27479.15
593.876	27774.06
594.235	28001.17
594.593	28282.52
594.952	28571.33
595.311	28652.9
595.67	28919.34
596.029	29435.48
596.387	29617.4
596.746	29724.52
597.104	30025.52
597.463	30145.97
597.822	30638.39
598.18	30706.64
598.538	30898.04
598.897	31262.33
599.255	31221.88
599.613	31974.85
599.972	31921.97
600.33	32117.9
600.688	32266.6
601.046	32702.29
601.404	32952
601.762	33071.77
602.12	33528.03
602.478	33433.57
602.836	33780.45
603.194	33767.8
603.552	34099.09
603.91	34066.55
604.268	34476.93
604.625	34544.05
604.983	34974.77
605.341	34982
605.698	35182.9
606.056	35421.09
606.413	35558.49
606.771	35821.3
607.128	35823.34
607.485	35910.79
607.843	36200.95
608.2	36529.08
608.557	36594.16
608.914	36665.12
609.272	37060.59
609.629	37085.9
609.986	37423.75
610.343	37368.38
610.7	37780.35
611.057	37659.9
611.414	37841.59
611.771	38075.48
612.127	38290.62
612.484	38371.75
612.841	38619.42
613.198	38616.71
613.554	38656.94
613.911	39006.3
614.267	39046.08
614.624	39183.93
614.98	39348.67
615.337	39632.28
615.693	39598.15
616.05	39679.28
616.406	39970.57
616.762	39914.08
617.118	40064.58
617.475	40104.81
617.831	40242.88
618.187	40357.46
618.543	40476.55
618.899	40759.93
619.255	40705.47
619.611	40711.34
619.967	41014.84
620.323	41182.74
620.678	40993.15
621.034	40986.37
621.39	41123.54
621.746	41089.64
622.101	41730.98
622.457	41310.65
622.812	41366.47
623.168	41507.26
623.523	41575.73
623.879	41830.19
624.234	41619.12
624.589	41712
624.945	41813.91
625.3	41952.89
625.655	42071.08
626.01	42000.35
626.365	42191.76
626.72	42196.05
627.075	42210.97
627.43	42293.45
627.785	42125.54
628.14	42240.34
628.495	42340.91
628.85	42263.39
629.205	42175.26
629.559	42437.63
629.914	42110.4
630.269	42198.76
630.623	42252.77
630.978	42168.93
631.332	42423.16
631.687	42658.86
632.041	42374.35
632.396	42420.9
632.75	42320.79
633.104	42405.09
633.459	42325.54
633.813	42329.16
634.167	42255.48
634.521	42343.17
634.875	42467.23
635.229	42419.32
635.583	42131.42
635.937	42327.57
636.291	42329.83
636.645	42517.4
636.999	42356.95
637.352	42394.01
637.706	42202.61
638.06	42341.58
638.413	42247.12
638.767	42181.81
639.121	42161.48
639.474	41993.34
639.828	42120.35
640.181	42139.56
640.534	42154.02
640.888	41991.76
641.241	41880.13
641.594	41897.08
641.947	42100.69
642.301	41986.34
642.654	42071.99
643.007	42008.71
643.36	41889.39
643.713	41884.2
644.066	42106.11
644.419	41741.37
644.771	41591.77
645.124	41188.17
645.477	41130.99
645.83	40963.54
646.182	40899.36
646.535	40747.95
646.888	40741.85
647.24	40528.98
647.593	40652.14
647.945	40632.48
648.298	40623.44
648.65	40608.97
649.002	40385.03
649.355	40582.76
649.707	40559.94
650.059	40777.78
650.411	40948.63
650.763	41190.2
651.115	41509.74
651.467	41498.89
651.819	41322.63
652.171	41298.67
652.523	41283.53
652.875	41374.83
653.227	41094.84
653.578	41397.88
653.93	41283.53
654.282	41186.13
654.633	40966.93
654.985	41255.29
655.337	41284.44
655.688	41237.43
656.039	41318.33
656.391	40982.3
656.742	41096.19
657.094	41117.66
657.445	41213.7
657.796	41124.89
658.147	41069.08
658.498	41065.91
658.849	41233.59
659.2	41065.46
659.551	41041.28
659.902	41133.03
660.253	40992.24
660.604	41142.29
660.955	40917.89
661.306	41060.71
661.656	40936.88
662.007	40923.77
662.358	40941.62
662.708	41084.44
663.059	40926.71
663.409	40629.31
663.76	40875.18
664.11	40992.69
664.461	40859.36
664.811	40907.5
665.161	40783.66
665.511	40824.11
665.862	40925.35
666.212	40937.33
666.562	40882.87
666.912	40836.99
667.262	40818.23
667.612	40568.3
667.962	40877.22
668.312	40734.62
668.662	40907.95
669.011	40791.57
669.361	40729.65
669.711	40806.26
670.06	40716.99
670.41	40659.14
670.76	40624.79
671.109	40826.14
671.459	40620.5
671.808	40675.19
672.157	40795.41
672.507	40456.21
672.856	40495.53
673.205	40582.53
673.554	40573.72
673.904	40507.96
674.253	40617.34
674.602	40544.34
674.951	40035.43
675.3	39805.15
675.649	40435.65
675.998	40398.13
676.346	40516.32
676.695	40521.29
677.044	40224.13
677.393	40421.18
677.741	40371.92
678.09	40294.63
678.438	40205.82
678.787	40321.98
679.135	40359.04
679.484	40095.99
679.832	40188.42
680.181	39885.83
680.529	40131.7
680.877	40049.22
681.225	39953.4
681.573	40075.2
681.922	39832.72
682.27	39730.13
682.618	39883.57
682.966	39663.69
683.314	39694.65
683.661	39622.33
684.009	39416.24
684.357	39334.88
684.705	39450.36
685.053	39433.86
685.4	39311.38
685.748	39170.59
686.095	39280.2
686.443	39057.83
686.79	39010.82
687.138	38989.36
687.485	39149.13
687.832	38872.3
688.18	39020.54
688.527	38633.21
688.874	38717.05
689.221	38619.65
689.568	38411.74
689.915	38418.52
690.262	38412.2
690.609	38159.1
690.956	38179.21
691.303	38145.08
691.65	37936.5
691.997	37979.67
692.344	37810.86
692.69	37641.14
693.037	37809.73
693.383	37415.61
693.73	37548.94
694.077	37407.48
694.423	37308.27
694.769	37261.72
695.116	37218.1
695.462	37176.3
695.808	37114.6
696.155	37224.2
696.501	36765.46
696.847	36946.02
697.193	36609.76
697.539	36797.1
697.885	36570.89
698.231	36452.02
698.577	36449.08
698.923	36369.31
699.269	36312.14
699.614	36183.33
699.96	35974.52
700.306	36054.52
700.651	35752.83
700.997	35696.56
701.342	35606.85
701.688	35638.94
702.033	35421.31
702.379	35526.17
702.724	35298.61
703.069	35464.48
703.415	35058.39
703.76	34967.09
704.105	35056.8
704.45	34900.42
704.795	34775.46
705.14	34629.7
705.485	34722.8
705.83	34463.83
706.175	34587.66
706.52	34288.91
706.865	34270.16
707.209	34159.2
707.554	34150.39
707.899	34268.12
708.243	34060.45
708.588	33968.92
708.932	33636.95
709.277	33866.78
709.621	33731.19
709.966	33558.31
710.31	33552.21
710.654	33448.03
710.998	33417.53
711.342	33490.52
711.687	33280.58
712.031	33164.65
712.375	33119.68
712.719	33120.58
713.063	33032.9
713.407	32974.83
713.75	32903.64
714.094	32928.95
714.438	32691.44
714.782	32848.95
715.125	32693.7
715.469	32813.93
715.812	32629.52
716.156	32392.69
716.499	32411.68
716.843	32460.04
717.186	32223.88
717.53	32397.44
717.873	32353.15
718.216	32205.58
718.559	32168.07
718.902	31908.19
719.246	31938.02
719.589	31918.13
719.932	31760.39
720.275	31700.96
720.617	31719.72
720.96	31733.73
721.303	31681.98
721.646	31770.56
721.989	31389.56
722.331	31644.92
722.674	31427.75
723.016	31397.24
723.359	31479.72
723.701	31426.62
724.044	31250.8
724.386	31244.48
724.729	31268.66
725.071	31093.29
725.413	31077.47
725.755	31017.81
726.097	30989.34
726.439	30711.83
726.782	30807.88
727.124	30875.22
727.465	30856.69
727.807	30747.54
728.149	30605.85
728.491	30606.3
728.833	30717.94
729.175	30574.44
729.516	30582.57
729.858	30503.7
730.199	30479.07
730.541	30455.8
730.882	30338.96
731.224	30242.24
731.565	30194.11
731.906	30265.74
732.248	30224.61
732.589	30014.9
732.93	29997.73
733.271	29855.13
733.612	29952.31
733.953	29911.63
734.294	29930.39
734.635	29853.1
734.976	29925.41
735.317	29703.95
735.658	29818.98
735.999	29722.26
736.339	29648.81
736.68	29665.53
737.021	29545.76
737.361	29469.61
737.702	29603.39
738.042	29468.02
738.383	29501.92
738.723	29474.13
739.063	29396.39
739.404	29495.82
739.744	29253.12
740.084	29314.81
740.424	29135.15
740.764	29209.05
741.104	29108.26
741.444	29068.04
741.784	28992.1
742.124	28955.5
742.464	28971.31
742.804	28792.56
743.143	28776.97
743.483	28800.92
743.823	28610.42
744.162	28652.23
744.502	28773.35
744.841	28472.8
745.181	28637.31
745.52	28527.26
745.86	28727.25
746.199	28600.48
746.538	28349.86
746.877	28404.55
747.216	28418.79
747.556	28319.13
747.895	28260.6
748.234	28225.57
748.573	28242.52
748.911	28100.38
749.25	28129.08
749.589	27901.74
749.928	28020.15
750.267	28000.04
750.605	28011.57
750.944	27955.52
751.283	27831.68
751.621	27872.36
751.96	27673.04
752.298	27733.38
752.636	27739.93
752.975	27567.51
753.313	27454.74
753.651	27704
753.989	27429.66
754.327	27342.2
754.666	27268.99
755.004	27330.91
755.342	27217.24
755.679	27256.56
756.017	27034.64
756.355	27216.78
756.693	26963.68
757.031	27060.63
757.368	26758.04
757.706	26816.79
