Data from hue_300_FLMS001491_00006.txt Node
Date: Tue Feb 07 15:49:38 GMT 2017
User: dcchb
Spectrometer: FLMS00149
Trigger mode: 0
Integration Time (sec): 2.000000E-2
Scans to average: 10
Electric dark correction enabled: true
Nonlinearity correction enabled: false
Boxcar width: 0
XAxis mode: Wavelengths
Number of Pixels in Spectrum: 2048
>>>>>Begin Spectral Data<<<<<
341.393	-14.49
341.776	-14.49
342.16	-14.49
342.543	-82.29
342.927	-63.98
343.31	-61.04
343.693	-76.18
344.077	-46.35
344.46	-49.52
344.843	-50.65
345.226	-39.35
345.61	-52.68
345.993	-7.94
346.376	0.65
346.759	10.37
347.142	45.39
347.525	34.77
347.908	41.78
348.291	62.57
348.674	88.56
349.057	99.63
349.44	109.8
349.823	119.06
350.206	156.8
350.588	187.99
350.971	209.68
351.354	231.83
351.737	232.06
352.119	239.74
352.502	259.4
352.884	281.32
353.267	282.22
353.65	285.84
354.032	306.4
354.414	303.47
354.797	288.1
355.179	296.24
355.562	320.42
355.944	309.34
356.326	312.96
356.709	330.36
357.091	328.55
357.473	317.25
357.855	314.31
358.238	328.78
358.62	324.26
359.002	351.6
359.384	325.61
359.766	319.06
360.148	336.91
360.53	319.74
360.912	336.23
361.294	342.56
361.676	319.06
362.057	336.46
362.439	327.87
362.821	311.83
363.203	326.74
363.584	304.82
363.966	317.48
364.348	324.03
364.729	316.35
365.111	311.38
365.493	317.93
365.874	317.03
366.256	320.64
366.637	324.71
367.019	317.93
367.4	322.45
367.781	308.66
368.163	306.18
368.544	314.31
368.925	309.12
369.306	307.31
369.688	292.17
370.069	319.29
370.45	299.4
370.831	306.63
371.212	309.57
371.593	300.3
371.974	326.29
372.355	315.22
372.736	302.34
373.117	289
373.498	309.34
373.879	331.94
374.26	303.01
374.641	305.73
375.021	314.09
375.402	316.8
375.783	320.42
376.163	338.27
376.544	330.81
376.925	310.47
377.305	333.97
377.686	326.97
378.066	316.35
378.447	341.43
378.827	326.97
379.208	312.28
379.588	321.55
379.968	329.91
380.349	332.39
380.729	311.6
381.109	340.98
381.489	324.71
381.87	323.58
382.25	340.98
382.63	371.04
383.01	341.66
383.39	340.98
383.77	352.73
384.15	332.84
384.53	355.44
384.91	333.97
385.29	352.96
385.67	339.62
386.049	338.72
386.429	348.44
386.809	337.36
387.189	361.54
387.568	365.16
387.948	363.8
388.328	351.83
388.707	336.01
389.087	353.41
389.466	362.22
389.846	364.71
390.225	361.77
390.605	355.22
390.984	350.47
391.363	350.7
391.743	354.31
392.122	361.77
392.501	364.03
392.881	362
393.26	381.66
393.639	348.21
394.018	382.33
394.397	380.75
394.776	366.52
395.155	385.95
395.534	395.22
395.913	386.85
396.292	370.36
396.671	375.78
397.05	387.08
397.429	400.87
397.808	412.16
398.186	382.56
398.565	393.86
398.944	399.28
399.323	401.09
399.701	394.31
400.08	406.74
400.458	420.75
400.837	400.64
401.215	410.36
401.594	424.82
401.972	418.94
402.351	401.32
402.729	409.9
403.107	425.5
403.486	429.34
403.864	435.21
404.242	434.76
404.62	437.7
404.999	433.41
405.377	444.93
405.755	427.76
406.133	425.05
406.511	442.9
406.889	468.43
407.267	453.07
407.645	453.75
408.023	464.14
408.401	469.34
408.779	467.08
409.156	476.34
409.534	476.34
409.912	485.83
410.29	496.91
410.667	502.11
411.045	511.6
411.422	535.78
411.8	502.56
412.178	541.43
412.555	536.68
412.933	552.5
413.31	573.06
413.687	566.51
414.065	580.75
414.442	575.55
414.819	560.63
415.197	593.4
415.574	631.37
415.951	611.93
416.328	604.93
416.705	615.55
417.082	648.77
417.46	643.12
417.837	669.11
418.214	654.19
418.591	676.34
418.967	667.52
419.344	670.69
419.721	678.82
420.098	683.8
420.475	730.8
420.852	715.89
421.228	722.89
421.605	725.83
421.982	750.23
422.358	765.83
422.735	773.96
423.111	788.65
423.488	793.17
423.864	764.02
424.241	805.6
424.617	786.62
424.994	800.4
425.37	813.28
425.746	831.81
426.123	837.24
426.499	850.12
426.875	852.6
427.251	866.62
427.627	887.86
428.003	879.72
428.379	884.92
428.756	915.2
429.132	902.55
429.507	935.77
429.883	928.76
430.259	958.59
430.635	938.7
431.011	962.43
431.387	983
431.763	1010.34
432.138	1000.62
432.514	1012.15
432.89	1002.66
433.265	1031.58
433.641	1033.62
434.016	1032.71
434.392	1074.97
434.767	1109.77
435.143	1091.47
435.518	1105.48
435.894	1119.72
436.269	1129.89
436.644	1130.11
437.02	1163.56
437.395	1172.6
437.77	1182.09
438.145	1195.87
438.52	1213.5
438.895	1201.52
439.271	1207.85
439.646	1217.11
440.021	1241.75
440.395	1236.78
440.77	1197.45
441.145	1238.36
441.52	1281.97
441.895	1274.74
442.27	1260.73
442.645	1262.31
443.019	1288.75
443.394	1302.99
443.769	1312.71
444.143	1302.54
444.518	1295.3
444.892	1309.09
445.267	1312.93
445.641	1321.74
446.016	1310.67
446.39	1303.67
446.764	1295.53
447.139	1340.5
447.513	1335.76
447.887	1336.89
448.262	1341.86
448.636	1348.18
449.01	1355.64
449.384	1366.94
449.758	1387.05
450.132	1385.25
450.506	1395.42
450.88	1392.7
451.254	1394.29
451.628	1407.62
452.002	1427.05
452.376	1439.26
452.75	1425.47
453.123	1436.32
453.497	1476.54
453.871	1467.73
454.244	1472.7
454.618	1484.9
454.992	1477.45
455.365	1500.5
455.739	1503.21
456.112	1507.05
456.486	1511.8
456.859	1559.03
457.232	1556.32
457.606	1571.23
457.979	1569.2
458.352	1601.51
458.725	1619.36
459.099	1607.84
459.472	1634.28
459.845	1659.59
460.218	1647.84
460.591	1629.08
460.964	1644.45
461.337	1699.14
461.71	1699.14
462.083	1713.6
462.456	1701.85
462.829	1700.49
463.201	1745.69
463.574	1723.99
463.947	1764.67
464.32	1760.6
464.692	1796.99
465.065	1780.49
465.438	1839.92
465.81	1848.74
466.183	1834.27
466.555	1875.18
466.928	1890.32
467.3	1868.62
467.672	1913.82
468.045	1914.05
468.417	1901.16
468.789	1917.89
469.161	1964.89
469.534	1971.67
469.906	1979.13
470.278	2017.55
470.65	2009.41
471.022	2065
471.394	2037.43
471.766	2065.45
472.138	2055.51
472.51	2118.79
472.882	2136.19
473.253	2166.24
473.625	2174.6
473.997	2222.51
474.369	2196.52
474.74	2215.05
475.112	2254.83
475.484	2253.92
475.855	2318.33
476.227	2301.15
476.598	2364.66
476.97	2380.47
477.341	2416.41
477.713	2436.97
478.084	2443.98
478.455	2457.99
478.827	2476.06
479.198	2548.15
479.569	2546.8
479.94	2580.24
480.311	2615.5
480.682	2662.95
481.053	2682.16
481.424	2715.38
481.795	2727.36
482.166	2759.67
482.537	2761.93
482.908	2824.53
483.279	2815.04
483.65	2897.52
484.021	2931.19
484.391	2932.55
484.762	2917.86
485.133	2942.49
485.503	2980.23
485.874	3010.97
486.244	3031.08
486.615	3054.35
486.985	3088.93
487.356	3127.35
487.726	3157.18
488.097	3183.84
488.467	3174.58
488.837	3242.37
489.207	3308.59
489.578	3296.61
489.948	3332.09
490.318	3304.97
490.688	3351.3
491.058	3416.38
491.428	3430.16
491.798	3457.96
492.168	3492.76
492.538	3532.99
492.908	3569.6
493.278	3562.36
493.648	3532.31
494.017	3589.03
494.387	3645.53
494.757	3600.33
495.126	3676.94
495.496	3705.19
495.866	3662.02
496.235	3680.33
496.605	3705.86
496.974	3761.45
497.344	3804.62
497.713	3784.73
498.082	3806.2
498.452	3848.01
498.821	3821.34
499.19	3859.53
499.559	3873.32
499.928	3895.91
500.298	3898.63
500.667	3955.8
501.036	3917.61
501.405	3958.74
501.774	3947.66
502.143	3979.08
502.512	3948.79
502.88	3984.27
503.249	4017.72
503.618	4032.86
503.987	4071.05
504.356	4027.21
504.724	4100.43
505.093	4064.05
505.462	4080.32
505.83	4106.76
506.199	4156.7
506.567	4189.69
506.936	4093.42
507.304	4154.89
507.672	4153.53
508.041	4219.07
508.409	4220.2
508.777	4248.22
509.145	4224.95
509.514	4247.54
509.882	4263.81
510.25	4253.87
510.618	4308.11
510.986	4278.73
511.354	4295.68
511.722	4327.99
512.09	4387.65
512.458	4365.96
512.826	4377.03
513.193	4384.72
513.561	4416.35
513.929	4394.43
514.297	4455
514.664	4498.38
515.032	4435.79
515.4	4440.98
515.767	4426.07
516.135	4472.17
516.502	4491.38
516.869	4542
517.237	4502.9
517.604	4482.34
517.972	4586.29
518.339	4582.45
518.706	4567.08
519.073	4567.54
519.44	4592.62
519.808	4630.36
520.175	4643.92
520.542	4634.2
520.909	4660.41
521.276	4647.76
521.643	4673.97
522.009	4741.32
522.376	4725.95
522.743	4755.78
523.11	4762.56
523.477	4800.3
523.843	4837.36
524.21	4831.26
524.577	4853.86
524.943	4907.64
525.31	4875.32
525.676	4942.67
526.043	4938.15
526.409	4951.71
526.776	4995.77
527.142	5052.27
527.508	5006.62
527.874	5061.53
528.241	5123
528.607	5114.41
528.973	5138.14
529.339	5123.68
529.705	5165.03
530.071	5166.39
530.437	5203.45
530.803	5237.8
531.169	5235.99
531.535	5247.97
531.901	5290.91
532.267	5312.83
532.632	5295.88
532.998	5368.19
533.364	5332.03
533.73	5360.51
534.095	5428.3
534.461	5401.86
534.826	5445.03
535.192	5514.63
535.557	5501.07
535.923	5547.62
536.288	5563.89
536.653	5561.18
537.019	5605.93
537.384	5556.21
537.749	5584.01
538.114	5604.57
538.479	5638.02
538.845	5694.74
539.21	5680.73
539.575	5710.78
539.94	5737
540.305	5744.45
540.67	5747.62
541.034	5773.38
541.399	5791.68
541.764	5836.65
542.129	5831.23
542.494	5865.35
542.858	5871.91
543.223	5910.78
543.587	5973.83
543.952	5912.58
544.316	6022.41
544.681	6004.33
545.045	6051.34
545.41	6073.03
545.774	6100.83
546.138	6102.41
546.503	6123.2
546.867	6127.27
547.231	6207.49
547.595	6096.08
547.959	6195.29
548.324	6231.67
548.688	6250.43
549.052	6281.61
549.416	6283.42
549.779	6326.13
550.143	6322.52
550.507	6387.15
550.871	6449.97
551.235	6367.26
551.599	6394.83
551.962	6437.32
552.326	6470.31
552.689	6470.08
553.053	6514.6
553.417	6517.77
553.78	6520.7
554.143	6505.56
554.507	6518.22
554.87	6570.87
555.234	6618.33
555.597	6570.65
555.96	6648.16
556.323	6608.39
556.686	6721.38
557.05	6642.96
557.413	6729.96
557.776	6766.12
558.139	6772
558.502	6776.06
558.865	6755.05
559.228	6778.1
559.59	6786.69
559.953	6780.81
560.316	6937.64
560.679	6871.43
561.041	6895.16
561.404	6964.76
561.767	6980.58
562.129	6956.17
562.492	7036.17
562.854	6986.91
563.217	6976.74
563.579	7094.47
563.941	7056.06
564.304	7126.11
564.666	7159.78
565.028	7222.61
565.39	7156.85
565.753	7217.41
566.115	7203.62
566.477	7254.02
566.839	7285.88
567.201	7369.95
567.563	7277.29
567.925	7398.2
568.287	7385.09
568.648	7440
569.01	7459.66
569.372	7461.47
569.734	7487.91
570.095	7592.09
570.457	7584.41
570.819	7593.9
571.18	7575.59
571.542	7720.45
571.903	7740.33
572.265	7753.21
572.626	7805.19
572.987	7831.86
573.349	7839.77
573.71	7841.35
574.071	7910.72
574.432	8058.52
574.794	8136.03
575.155	8119.98
575.516	8111.17
575.877	8204.28
576.238	8236.82
576.599	8359.98
576.96	8367.21
577.32	8502.35
577.681	8584.6
578.042	8590.03
578.403	8715.67
578.763	8811.27
579.124	8875.44
579.485	8981.43
579.845	9149.56
580.206	9227.3
580.566	9293.51
580.927	9412.38
581.287	9561.53
581.648	9633.16
582.008	9787.06
582.368	9901.18
582.728	10076.99
583.089	10232.47
583.449	10329.87
583.809	10548.39
584.169	10694.15
584.529	10902.96
584.889	11190.86
585.249	11258.21
585.609	11456.39
585.969	11741.13
586.329	11946.78
586.688	12096.15
587.048	12318.97
587.408	12528.91
587.768	12791.73
588.127	12990.59
588.487	13202.11
588.846	13630.57
589.206	13740.4
589.565	13971.81
589.925	14262.2
590.284	14467.16
590.643	14812.69
591.003	15081.84
591.362	15435.27
591.721	15614.02
592.08	16031.87
592.44	16303.27
592.799	16583.72
593.158	16846.99
593.517	17096.25
593.876	17382.79
594.235	17625.95
594.593	17979.84
594.952	18267.29
595.311	18472.25
595.67	18906.59
596.029	19241.5
596.387	19601.94
596.746	19834.48
597.104	20101.14
597.463	20280.57
597.822	20727.34
598.18	20911.96
598.538	21171.17
598.897	21768.21
599.255	21687.09
599.613	22330.23
599.972	22429.21
600.33	22785.59
600.688	23001.63
601.046	23432.35
601.404	23736.97
601.762	23975.84
602.12	24412.21
602.478	24621.25
602.836	24793.9
603.194	25075.7
603.552	25349.14
603.91	25548.9
604.268	25847.2
604.625	26041.32
604.983	26387.53
605.341	26550.01
605.698	26930.56
606.056	27154.51
606.413	27364.45
606.771	27686.48
607.128	27918.33
607.485	28117.42
607.843	28224.99
608.2	28688.71
608.557	28942.26
608.914	29066.55
609.272	29419.76
609.629	29531.17
609.986	29823.37
610.343	29916.7
610.7	30292.51
611.057	30427.65
611.414	30531.82
611.771	30790.35
612.127	31171.13
612.484	31296.55
612.841	31510.33
613.198	31642.53
613.554	31759.36
613.911	32143.76
614.267	32168.17
614.624	32287.71
614.98	32573.58
615.337	32770.18
615.693	32886.11
616.05	33107.12
616.406	33413.33
616.762	33256.95
617.118	33527
617.475	33653.78
617.831	33927.44
618.187	33842.02
618.543	34108.23
618.899	34486.75
619.255	34413.53
619.611	34477.48
619.967	34666.18
620.323	34880.41
620.678	34850.58
621.034	34825.72
621.39	34978.94
621.746	35130.57
622.101	35552.48
622.457	35430
622.812	35563.78
623.168	35791.57
623.523	35726.49
623.879	36007.39
624.234	35785.7
624.589	36056.65
624.945	36055.97
625.3	36232.24
625.655	36345.46
626.01	36403.53
626.365	36509.97
626.72	36434.04
627.075	36528.05
627.43	36629.97
627.785	36580.25
628.14	36714.49
628.495	36916.29
628.85	36758.78
629.205	36735.73
629.559	36926.23
629.914	36907.02
630.269	36855.05
630.623	36830.87
630.978	36943.18
631.332	37017.76
631.687	37140.92
632.041	37112.22
632.396	37244.42
632.75	37032.9
633.104	37319.22
633.459	36973.46
633.813	37118.09
634.167	37278.77
634.521	37208.94
634.875	37305.88
635.229	37300.46
635.583	37150.41
635.937	37221.37
636.291	37211.42
636.645	37302.95
636.999	37127.58
637.352	37497.29
637.706	37210.29
638.06	37383.4
638.413	37310.18
638.767	37209.39
639.121	37170.97
639.474	37001.48
639.828	37174.59
640.181	37017.53
640.534	37210.29
640.888	37060.24
641.241	36945.22
641.594	37086.23
641.947	37194.7
642.301	37017.3
642.654	37130.97
643.007	37210.29
643.36	36990.86
643.713	37060.24
644.066	37151.99
644.419	37004.42
644.771	36825.44
645.124	36539.8
645.477	36465
645.83	36324.89
646.182	36105.69
646.535	36164.9
646.888	36165.8
647.24	35873.83
647.593	36261.17
647.945	36097.78
648.298	35964.22
648.65	35976.43
649.002	35850.78
649.355	35983.43
649.707	35926.48
650.059	36183.65
650.411	36469.52
650.763	36530.31
651.115	36918.1
651.467	36781.6
651.819	36815.27
652.171	36718.1
652.523	36693.92
652.875	36669.06
653.227	36639.23
653.578	36900.47
653.93	36744.09
654.282	36535.96
654.633	36599.24
654.985	36687.37
655.337	36634.94
655.688	36792.45
656.039	36847.82
656.391	36613.25
656.742	36590.87
657.094	36710.19
657.445	36766.24
657.796	36652.79
658.147	36519.01
658.498	36530.54
658.849	36720.81
659.2	36522.18
659.551	36489.18
659.902	36668.61
660.253	36510.2
660.604	36589.97
660.955	36570.08
661.306	36634.94
661.656	36709.97
662.007	36604.88
662.358	36596.75
662.708	36729.18
663.059	36505.23
663.409	36372.12
663.76	36577.99
664.11	36595.17
664.461	36575.28
664.811	36559.69
665.161	36511.33
665.511	36408.51
665.862	36409.86
666.212	36472.01
666.562	36595.85
666.912	36349.3
667.262	36455.28
667.612	36520.82
667.962	36462.52
668.312	36414.83
668.662	36653.02
669.011	36498
669.361	36438.56
669.711	36471.33
670.06	36441.73
670.41	36357.21
670.76	36276.76
671.109	36380.48
671.459	36328.28
671.808	36310.43
672.157	36425.45
672.507	36153.82
672.856	36105.01
673.205	36222.3
673.554	36330.54
673.904	36216.42
674.253	36336.87
674.602	36411.22
674.951	35865.24
675.3	35669.54
675.649	36181.39
675.998	36114.05
676.346	36181.85
676.695	36089.19
677.044	35787.28
677.393	36038.8
677.741	36232.47
678.09	35979.59
678.438	35845.58
678.787	35840.16
679.135	36010.78
679.484	35771.91
679.832	35844.68
680.181	35625.25
680.529	35798.13
680.877	35753.83
681.225	35692.59
681.573	35806.26
681.922	35585.7
682.27	35359.27
682.618	35554.29
682.966	35438.81
683.314	35464.58
683.661	35419.38
684.009	35242.66
684.357	35207.63
684.705	35034.53
685.053	35212.38
685.4	35139.39
685.748	34839.51
686.095	34863.91
686.443	34869.11
686.79	34692.39
687.138	34853.74
687.485	34834.76
687.832	34605.62
688.18	34711.83
688.527	34575.79
688.874	34594.77
689.221	34429.8
689.568	34364.72
689.915	34234.33
690.262	34185.06
690.609	34130.6
690.956	34048.34
691.303	33967.21
691.65	33854.45
691.997	33803.6
692.344	33678.86
692.69	33808.8
693.037	33639.77
693.383	33430.28
693.73	33432.31
694.077	33338.3
694.423	33361.58
694.769	33215.6
695.116	33077.52
695.462	33017.41
695.808	32919.78
696.155	33040.46
696.501	32750.75
696.847	32673.46
697.193	32549.62
697.539	32675.5
697.885	32523.64
698.231	32395.96
698.577	32428.72
698.923	32341.72
699.269	32245
699.614	31999.81
699.96	32030.32
700.306	31927.72
700.651	31898.12
700.997	31674.17
701.342	31621.29
701.688	31680.95
702.033	31576.09
702.379	31627.84
702.724	31388.98
703.069	31522.98
703.415	31097.69
703.76	31269.21
704.105	31259.26
704.45	31175.65
704.795	30879.61
705.14	30955.32
705.485	30836
705.83	30691.14
706.175	30921.19
706.52	30665.61
706.865	30454.31
707.209	30414.09
707.554	30378.83
707.899	30457.48
708.243	30253.19
708.588	30176.35
708.932	30030.82
709.277	30060.88
709.621	30094.1
709.966	29891.39
710.31	30007.77
710.654	29648.23
710.998	29739.3
711.342	29772.75
711.687	29624.73
712.031	29515.35
712.375	29368.69
712.719	29509.48
713.063	29462.93
713.407	29424.28
713.75	29316.94
714.094	29197.4
714.438	29128.7
714.782	29161.69
715.125	28958.98
715.469	29031.07
715.812	28957.85
716.156	28798.31
716.499	28744.53
716.843	28771.42
717.186	28584.08
717.53	28810.29
717.873	28698.2
718.216	28647.58
718.559	28416.63
718.902	28221.15
719.246	28482.39
719.589	28208.72
719.932	28175.95
720.275	28257.76
720.617	28225.67
720.96	28296.63
721.303	28170.98
721.646	28158.1
721.989	27956.3
722.331	28056.41
722.674	27913.14
723.016	27926.92
723.359	27864.55
723.701	28005.34
724.044	27723.54
724.386	27513.15
724.729	27769.19
725.071	27637.44
725.413	27575.74
725.755	27607.16
726.097	27535.07
726.439	27333.26
726.782	27338.24
727.124	27489.42
727.465	27389.08
727.807	27350.67
728.149	27217.11
728.491	27259.37
728.833	27106.15
729.175	27108.19
729.516	27121.07
729.858	27097.79
730.199	27028.87
730.541	27001.3
730.882	27012.82
731.224	26973.73
731.565	26884.24
731.906	26929.21
732.248	26917.46
732.589	26755.65
732.93	26743.9
733.271	26680.63
733.612	26665.71
733.953	26655.32
734.294	26573.28
734.635	26625.26
734.976	26597.92
735.317	26460.97
735.658	26466.85
735.999	26397.92
736.339	26356.79
736.68	26495.09
737.021	26297.13
737.361	26220.98
737.702	26490.8
738.042	26209.9
738.383	26218.94
738.723	26343.69
739.063	26139.4
739.404	26167.87
739.744	26213.75
740.084	26018.5
740.424	26018.72
740.764	26032.28
741.104	26215.33
741.444	25875
741.784	25798.39
742.124	25902.34
742.464	25769.24
742.804	25778.95
743.143	25781.67
743.483	25782.57
743.823	25611.28
744.162	25551.62
744.502	25667.55
744.841	25638.39
745.181	25589.13
745.52	25522.92
745.86	25505.06
746.199	25549.36
746.538	25478.62
746.877	25540.54
747.216	25563.82
747.556	25532.18
747.895	25371.96
748.234	25368.12
748.573	25307.1
748.911	25299.19
749.25	25277.73
749.589	25259.65
749.928	25179.87
750.267	25272.98
750.605	25183.49
750.944	25136.26
751.283	25026.21
751.621	25175.81
751.96	25009.26
752.298	25012.65
752.636	24936.27
752.975	24868.47
753.313	24828.25
753.651	25056.04
753.989	24829.6
754.327	24852.88
754.666	24710.73
755.004	24779.66
755.342	24797.51
755.679	24735.14
756.017	24529.04
756.355	24571.53
756.693	24466.22
757.031	24670.51
757.368	24469.84
757.706	24355.26
758.044	24284.3
758.381	24345.77
758.719	24345.55
759.056	24318.88
759.394	24250.63
759.731	24090.19
760.068	24076.17
