Data from hue_34_FLMS001491_00014.txt Node
Date: Tue Feb 07 17:25:15 GMT 2017
User: dcchb
Spectrometer: FLMS00149
Trigger mode: 0
Integration Time (sec): 2.000000E-2
Scans to average: 10
Electric dark correction enabled: true
Nonlinearity correction enabled: false
Boxcar width: 0
XAxis mode: Wavelengths
Number of Pixels in Spectrum: 2048
>>>>>Begin Spectral Data<<<<<
341.393	7.58
341.776	7.58
342.16	7.58
342.543	-50.27
342.927	-62.47
343.31	-66.99
343.693	-62.7
344.077	-58.4
344.46	-41.91
344.843	-52.3
345.226	-49.14
345.61	-27.44
345.993	-9.14
346.376	2.16
346.759	10.75
347.142	20.01
347.525	12.33
347.908	48.71
348.291	74.48
348.674	97.98
349.057	101.59
349.44	126.45
349.823	150.41
350.206	176.85
350.588	195.83
350.971	225.43
351.354	215.26
351.737	246.67
352.119	243.74
352.502	253.91
352.884	286.67
353.267	283.74
353.65	297.52
354.032	316.28
354.414	311.08
354.797	335.03
355.179	328.25
355.562	344.52
355.944	326.45
356.326	333.45
356.709	333.68
357.091	338.65
357.473	359.67
357.855	353.34
358.238	342.94
358.62	347.24
359.002	347.69
359.384	363.73
359.766	351.98
360.148	369.83
360.53	347.69
360.912	334.58
361.294	340.46
361.676	348.14
362.057	337.29
362.439	326.9
362.821	335.94
363.203	341.59
363.584	335.49
363.966	313.11
364.348	333
364.729	316.95
365.111	315.37
365.493	326.22
365.874	318.54
366.256	320.57
366.637	323.28
367.019	324.64
367.4	307.01
367.781	317.18
368.163	320.12
368.544	331.64
368.925	316.5
369.306	320.12
369.688	318.08
370.069	309.05
370.45	304.07
370.831	310.85
371.212	327.12
371.593	312.44
371.974	337.97
372.355	307.01
372.736	332.55
373.117	302.72
373.498	329.84
373.879	313.11
374.26	334.13
374.641	316.5
375.021	344.52
375.402	327.35
375.783	337.97
376.163	325.09
376.544	336.62
376.925	340.46
377.305	331.42
377.686	344.3
378.066	330.29
378.447	316.5
378.827	339.1
379.208	330.74
379.588	338.42
379.968	343.17
380.349	347.91
380.729	358.54
381.109	343.17
381.489	333.45
381.87	344.07
382.25	344.3
382.63	355.82
383.01	360.34
383.39	358.54
383.77	347.01
384.15	344.52
384.53	356.05
384.91	345.88
385.29	383.39
385.67	343.85
386.049	367.8
386.429	349.04
386.809	352.43
387.189	340.46
387.568	374.58
387.948	364.86
388.328	365.54
388.707	361.02
389.087	376.16
389.466	360.57
389.846	377.29
390.225	382.26
390.605	386.56
390.984	367.12
391.363	369.16
391.743	367.12
392.122	360.34
392.501	364.19
392.881	366.22
393.26	353.56
393.639	377.29
394.018	388.14
394.397	387.46
394.776	375.03
395.155	391.3
395.534	381.59
395.913	398.31
396.292	406.44
396.671	404.18
397.05	403.96
397.429	390.85
397.808	400.79
398.186	395.82
398.565	401.02
398.944	426.33
399.323	397.4
399.701	381.36
400.08	388.59
400.458	390.85
400.837	391.3
401.215	393.11
401.594	411.64
401.972	417.52
402.351	405.09
402.729	415.26
403.107	415.71
403.486	411.19
403.864	410.74
404.242	438.08
404.62	425.43
404.999	422.94
405.377	422.71
405.755	466.1
406.133	402.38
406.511	436.95
406.889	422.71
407.267	453.9
407.645	434.47
408.023	434.92
408.401	456.16
408.779	455.71
409.156	436.5
409.534	463.17
409.912	460
410.29	460.91
410.667	444.41
411.045	453.67
411.422	439.21
411.8	456.16
412.178	481.7
412.555	471.08
412.933	476.05
413.31	449.15
413.687	468.59
414.065	470.4
414.442	485.09
414.819	492.32
415.197	500.23
415.574	502.03
415.951	509.94
416.328	504.75
416.705	500.68
417.082	522.37
417.46	515.37
417.837	505.88
418.214	504.07
418.591	502.49
418.967	538.87
419.344	544.07
419.721	525.09
420.098	528.7
420.475	528.7
420.852	526.67
421.228	526.89
421.605	538.19
421.982	541.13
422.358	550.62
422.735	549.72
423.111	563.73
423.488	553.11
423.864	552.43
424.241	553.56
424.617	553.11
424.994	577.51
425.37	578.64
425.746	573.67
426.123	563.73
426.499	556.04
426.875	565.08
427.251	582.03
427.627	586.78
428.003	589.26
428.379	605.76
428.756	621.81
429.132	604.86
429.507	615.93
429.883	612.77
430.259	621.35
430.635	643.73
431.011	621.58
431.387	641.69
431.763	659.09
432.138	645.76
432.514	635.59
432.89	632.65
433.265	659.54
433.641	669.94
434.016	684.4
434.392	701.13
434.767	676.49
435.143	672.88
435.518	694.8
435.894	690.5
436.269	716.94
436.644	725.53
437.02	726.89
437.395	713.78
437.77	739.54
438.145	736.6
438.52	736.83
438.895	730.5
439.271	734.57
439.646	741.12
440.021	756.49
440.395	735.02
440.77	735.48
441.145	743.16
441.52	784.29
441.895	757.85
442.27	749.03
442.645	768.24
443.019	793.78
443.394	774.8
443.769	776.38
444.143	792.2
444.518	823.16
444.892	812.99
445.267	801.91
445.641	800.78
446.016	810.28
446.39	801.46
446.764	805.3
447.139	835.59
447.513	833.1
447.887	813.67
448.262	834.46
448.636	832.87
449.01	857.96
449.384	887.79
449.758	861.8
450.132	872.42
450.506	877.17
450.88	874.23
451.254	892.31
451.628	899.31
452.002	889.82
452.376	914
452.75	911.97
453.123	912.87
453.497	912.19
453.871	949.25
454.244	926.88
454.618	939.54
454.992	944.51
455.365	935.47
455.739	996.49
456.112	1004.39
456.486	991.29
456.859	980.89
457.232	1024.05
457.606	1015.92
457.979	1034.9
458.352	1034
458.725	1065.86
459.099	1069.48
459.472	1093.21
459.845	1085.97
460.218	1088.46
460.591	1112.64
460.964	1118.52
461.337	1128.01
461.71	1146.99
462.083	1158.97
462.456	1170.49
462.829	1176.14
463.201	1211.85
463.574	1203.49
463.947	1198.51
464.32	1236.7
464.692	1248
465.065	1237.16
465.438	1282.35
465.81	1292.3
466.183	1314.44
466.555	1349.02
466.928	1353.76
467.3	1328
467.672	1348.57
468.045	1402.12
468.417	1389.24
468.789	1410.94
469.161	1448.45
469.534	1443.25
469.906	1471.05
470.278	1523.7
470.65	1535.68
471.022	1556.7
471.394	1572.74
471.766	1618.39
472.138	1647.99
472.51	1651.38
472.882	1700.42
473.253	1672.4
473.625	1715.56
473.997	1785.16
474.369	1834.88
474.74	1814.32
475.112	1871.94
475.484	1929.34
475.855	1934.31
476.227	1979.06
476.598	2052.5
476.97	2041.88
477.341	2117.13
477.713	2157.36
478.084	2198.26
478.455	2291.59
478.827	2283.46
479.198	2355.32
479.569	2383.79
479.94	2465.82
480.311	2528.65
480.682	2570.68
481.053	2660.4
481.424	2733.84
481.795	2784.46
482.166	2834.4
482.537	2915.76
482.908	2960.5
483.279	3031.69
483.65	3097.22
484.021	3229.87
484.391	3268.97
484.762	3286.82
485.133	3352.13
485.503	3486.14
485.874	3557.32
486.244	3615.63
486.615	3717.32
486.985	3811.33
487.356	3881.61
487.726	3985.33
488.097	4072.79
488.467	4127.93
488.837	4231.43
489.207	4334.02
489.578	4400.24
489.948	4471.65
490.318	4564.3
490.688	4677.07
491.058	4765.2
491.428	4840.68
491.798	4945.99
492.168	5080.45
492.538	5119.77
492.908	5244.73
493.278	5312.08
493.648	5357.27
494.017	5459.42
494.387	5543.26
494.757	5636.59
495.126	5691.95
495.496	5755
495.866	5842.01
496.235	5954.77
496.605	6014.66
496.974	6088.55
497.344	6163.35
497.713	6243.58
498.082	6320.41
498.452	6484.93
498.821	6494.42
499.19	6494.87
499.559	6601.54
499.928	6607.19
500.298	6703.23
500.667	6806.73
501.036	6884.69
501.405	6940.51
501.774	7004.24
502.143	7087.17
502.512	7072.94
502.88	7194.29
503.249	7245.13
503.618	7288.52
503.987	7322.42
504.356	7393.38
504.724	7497.33
505.093	7526.71
505.462	7524.45
505.83	7689.42
506.199	7702.3
506.567	7823.2
506.936	7779.13
507.304	7955.85
507.672	8002.4
508.041	8071.78
508.409	8109.97
508.777	8181.38
509.145	8255.05
509.514	8270.42
509.882	8301.6
510.25	8357.2
510.618	8425.89
510.986	8488.04
511.354	8555.38
511.722	8631.99
512.09	8637.19
512.458	8684.42
512.826	8744.53
513.193	8767.13
513.561	8848.03
513.929	8960.57
514.297	8978.87
514.664	9021.58
515.032	9004.64
515.4	9136.84
515.767	9164.63
516.135	9245.08
516.502	9187
516.869	9314.01
517.237	9411.41
517.604	9305.42
517.972	9513.78
518.339	9555.36
518.706	9451.86
519.073	9554.23
519.44	9659.99
519.808	9666.54
520.175	9735.69
520.542	9875.57
520.909	9889.36
521.276	9822.69
521.643	10013.65
522.009	10042.12
522.376	10064.5
522.743	10156.47
523.11	10206.86
523.477	10266.07
523.843	10344.71
524.21	10473.75
524.577	10504.48
524.943	10525.05
525.31	10551.49
525.676	10635.55
526.043	10777.92
526.409	10765.49
526.776	10880.97
527.142	10966.62
527.508	10926.85
527.874	11032.83
528.241	11068.31
528.607	11138.14
528.973	11333.84
529.339	11269.44
529.705	11319.15
530.071	11425.14
530.437	11505.14
530.803	11503.33
531.169	11604.34
531.535	11577.9
531.901	11684.34
532.267	11693.83
532.632	11761.17
532.998	11786.26
533.364	11850.44
533.73	11979.7
534.095	12003.43
534.461	12066.25
534.826	12077.32
535.192	12041.39
535.557	12242.74
535.923	12268.05
536.288	12284.32
536.653	12369.52
537.019	12408.61
537.384	12422.63
537.749	12504.66
538.114	12604.32
538.479	12555.73
538.845	12667.82
539.21	12637.53
539.575	12689.28
539.94	12825.55
540.305	12814.03
540.67	12880.24
541.034	12959.79
541.399	12908.26
541.764	12957.53
542.129	12992.78
542.494	13045.66
542.858	13166.56
543.223	13185.09
543.587	13311.87
543.952	13263.73
544.316	13281.59
544.681	13338.08
545.045	13362.71
545.41	13577.85
545.774	13553.9
546.138	13554.8
546.503	13614.23
546.867	13639.77
547.231	13719.09
547.595	13789.14
547.959	13824.62
548.324	13859.2
548.688	13901.68
549.052	13987.33
549.416	13961.79
549.779	14033.43
550.143	14037.95
550.507	14145.52
550.871	14179.19
551.235	14195.46
551.599	14267.55
551.962	14369.24
552.326	14358.17
552.689	14445.62
553.053	14414.44
553.417	14505.51
553.78	14750.93
554.143	14628.67
554.507	14686.29
554.87	14776.01
555.234	14888.32
555.597	14818.49
555.96	14828.89
556.323	14911.15
556.686	14893.07
557.05	15047.19
557.413	15066.17
557.776	15170.35
558.139	15180.07
558.502	15199.28
558.865	15217.35
559.228	15432.49
559.59	15370.8
559.953	15415.77
560.316	15497.35
560.679	15568.31
561.041	15658.25
561.404	15723.33
561.767	15768.75
562.129	15802.88
562.492	15887.84
562.854	15895.75
563.217	15864.57
563.579	15991.12
563.941	16103.88
564.304	16130.78
564.666	16199.7
565.028	16285.12
565.39	16320.83
565.753	16346.36
566.115	16436.08
566.477	16490.09
566.839	16503.87
567.201	16592.69
567.563	16772.57
567.925	16876.29
568.287	16798.33
568.648	16866.8
569.01	16996.29
569.372	16999.68
569.734	16942.05
570.095	17136.17
570.457	17286.68
570.819	17296.17
571.18	17330.29
571.542	17337.52
571.903	17438.76
572.265	17561.02
572.626	17671.98
572.987	17680.79
573.349	17786.78
573.71	17928.7
574.071	18004.85
574.432	17951.29
574.794	18173.21
575.155	18256.82
575.516	18272.87
575.877	18432.86
576.238	18510.6
576.599	18584.05
576.96	18664.04
577.32	18757.15
577.681	18876.92
578.042	18917.14
578.403	19108.1
578.763	19257.47
579.124	19411.14
579.485	19510.57
579.845	19722.55
580.206	19860.85
580.566	19896.78
580.927	19971.13
581.287	20297.9
581.648	20337.9
582.008	20611.79
582.368	20737.43
582.728	20942.18
583.089	21148.05
583.449	21289.96
583.809	21555.27
584.169	21647.92
584.529	21868.48
584.889	22146.44
585.249	22283.83
585.609	22444.06
585.969	22721.11
586.329	22832.52
586.688	23255.33
587.048	23362.9
587.408	23502.33
587.768	23786.85
588.127	23901.19
588.487	24162.66
588.846	24581.4
589.206	24599.03
589.565	25000.37
589.925	25159.24
590.284	25333.25
590.643	25657.08
591.003	25863.4
591.362	26207.35
591.721	26441.01
592.08	26655.02
592.44	26893.21
592.799	27158.51
593.158	27393.53
593.517	27675.33
593.876	27868.32
594.235	28024.02
594.593	28342.21
594.952	28628.3
595.311	28772.48
595.67	29098.8
596.029	29436.87
596.387	29694.04
596.746	29993.69
597.104	30029.85
597.463	30294.92
597.822	30633.9
598.18	30707.57
598.538	31051.74
598.897	31364.05
599.255	31383.48
599.613	32012.39
599.972	32055.78
600.33	32359.95
600.688	32345.04
601.046	32770.11
601.404	32994.97
601.762	33118.8
602.12	33482.86
602.478	33677.43
602.836	33909.74
603.194	33811.44
603.552	34047.82
603.91	34111.09
604.268	34393.57
604.625	34574.36
604.983	34839.66
605.341	34826.33
605.698	35220.9
606.056	35368.24
606.413	35549.02
606.771	35739.75
607.128	35942.68
607.485	35958.96
607.843	36223.81
608.2	36563.23
608.557	36719.84
608.914	36669.9
609.272	37105.82
609.629	37204.35
609.986	37338.13
610.343	37370.67
610.7	37710.55
611.057	37904.89
611.414	37919.13
611.771	38047.94
612.127	38285.9
612.484	38380.81
612.841	38572.9
613.198	38624.65
613.554	38611.54
613.911	39111.42
614.267	39191.19
614.624	39013.56
614.98	39250.39
615.337	39452.88
615.693	39522.03
616.05	39616.94
616.406	40012.63
616.762	39938.74
617.118	39872.53
617.475	40018.28
617.831	40189.8
618.187	40312.06
618.543	40449.46
618.899	40729.23
619.255	40630.92
619.611	40732.16
619.967	40766.74
620.323	41109.55
620.678	41066.62
621.034	41011.03
621.39	41149.33
621.746	41175.99
622.101	41616.66
622.457	41360.85
622.812	41387.06
623.168	41626.83
623.523	41549.09
623.879	41808.52
624.234	41476.55
624.589	41830.21
624.945	41896.43
625.3	41917.22
625.655	41965.13
626.01	41993.6
626.365	42015.52
626.72	41989.08
627.075	42128.28
627.43	42113.82
627.785	42060.26
628.14	42364.44
628.495	42322.4
628.85	42249.41
629.205	42093.26
629.559	42449.41
629.914	42307.49
630.269	42348.17
630.623	42354.04
630.978	42176.19
631.332	42372.8
631.687	42643.07
632.041	42259.35
632.396	42584.54
632.75	42287.38
633.104	42498.67
633.459	42228.62
633.813	42352.69
634.167	42356.08
634.521	42359.47
634.875	42428.16
635.229	42324.44
635.583	42343.42
635.937	42252.12
636.291	42280.15
636.645	42148.62
636.999	42250.99
637.352	42224.78
637.706	42156.31
638.06	42347.71
638.413	42262.74
638.767	42069.53
639.121	42321.73
639.474	42005.8
639.828	42066.14
640.181	42101.62
640.534	42212.12
640.888	42052.81
641.241	42044.67
641.594	41972.36
641.947	42112.01
642.301	41968.29
642.654	42006.93
643.007	42114.05
643.36	42034.73
643.713	41909.99
644.066	42053.03
644.419	41856.43
644.771	41675.42
645.124	41318.36
645.477	41237.23
645.83	40976.45
646.182	40811.94
646.535	40672.73
646.888	40891.26
647.24	40619.62
647.593	40793.63
647.945	40836.79
648.298	40630.92
648.65	40537.82
649.002	40417.82
649.355	40526.52
649.707	40643.8
650.059	40824.14
650.411	41306.16
650.763	41185.03
651.115	41544.12
651.467	41555.19
651.819	41444.24
652.171	41361.75
652.523	41245.82
652.875	41311.13
653.227	41169.44
653.578	41421.86
653.93	41354.07
654.282	41066.84
654.633	41081.08
654.985	41199.95
655.337	41210.79
655.688	41099.16
656.039	41443.78
656.391	41065.04
656.742	41112.94
657.094	41117.01
657.445	41174.64
657.796	41184.35
658.147	41109.78
658.498	40903.46
658.849	41168.08
659.2	41039.73
659.551	40928.32
659.902	41201.76
660.253	41048.09
660.604	41111.81
660.955	40769.68
661.306	41150.23
661.656	40856.68
662.007	40826.85
662.358	40953.4
662.708	41025.26
663.059	40747.53
663.409	40750.02
663.76	41043.12
664.11	41032.27
664.461	40917.47
664.811	41054.64
665.161	40880.86
665.511	40863.46
665.862	40929.45
666.212	41053.74
666.562	40928.09
666.912	40886.51
667.262	40828.66
667.612	40844.25
667.962	40889.45
668.312	40896.45
668.662	41172.6
669.011	40991.37
669.361	40883.12
669.711	40812.61
670.06	40821.2
670.41	40781.2
670.76	40764.25
671.109	40782.56
671.459	40817.58
671.808	40725.61
672.157	40786.4
672.507	40541.43
672.856	40564.26
673.205	40574.43
673.554	40670.47
673.904	40626.86
674.253	40889.22
674.602	40641.54
674.951	40090.6
675.3	39905.52
675.649	40515.67
675.998	40412.85
676.346	40494.43
676.695	40672.96
677.044	40307.32
677.393	40481.77
677.741	40499.4
678.09	40408.56
678.438	40193.65
678.787	40389.12
679.135	40339.86
679.484	40239.52
679.832	40251.72
680.181	39913.43
680.529	40116.36
680.877	40017.38
681.225	39936.7
681.573	40070.49
681.922	39848.12
682.27	39778.29
682.618	39873.43
682.966	39694
683.314	39786.2
683.661	39700.1
684.009	39432.54
684.357	39520.22
684.705	39550.73
685.053	39395.93
685.4	39316.38
685.748	39047.01
686.095	39181.02
686.443	39053.79
686.79	39063.28
687.138	39211.75
687.485	39048.37
687.832	38874.59
688.18	38977.18
688.527	38775.6
688.874	38702.84
689.221	38669.39
689.568	38525.22
689.915	38499
690.262	38600.47
690.609	38439.12
690.956	38173.59
691.303	38155.06
691.65	38039.35
691.997	38158.67
692.344	37847.72
692.69	37904.44
693.037	37799.13
693.383	37500.16
693.73	37663.77
694.077	37469.65
694.423	37461.51
694.769	37382.42
695.116	37226.49
695.462	37200.5
695.808	37102.65
696.155	37224.46
696.501	36907.86
696.847	36875.77
697.193	36532.27
697.539	36729.78
697.885	36409.57
698.231	36396.46
698.577	36394.88
698.923	36358.49
699.269	36119.4
699.614	35988.11
699.96	36055.45
700.306	35998.73
700.651	35874.44
700.997	35791.95
701.342	35676.93
701.688	35584.5
702.033	35378.63
702.379	35474.9
702.724	35334.11
703.069	35418.86
703.415	35063.39
703.76	35119.66
704.105	35058.19
704.45	34921.02
704.795	34827.69
705.14	34744.75
705.485	34588.14
705.83	34562.38
706.175	34601.48
706.52	34378.21
706.865	34383.18
707.209	34404.42
707.554	34109.06
707.899	34511.99
708.243	34017.31
708.588	33991.32
708.932	33791.1
709.277	33806.24
709.621	33892.57
709.966	33563.76
710.31	33723.31
710.654	33397.89
710.998	33430.66
711.342	33432.92
711.687	33370.32
712.031	33242.42
712.375	33178.69
712.719	33237.22
713.063	33099.37
713.407	33203.55
713.75	33006.94
714.094	33018.47
714.438	32758.59
714.782	32889.43
715.125	32668.65
715.469	32742.09
715.812	32618.48
716.156	32325.6
716.499	32326.28
716.843	32390.46
717.186	32229.34
717.53	32552.27
717.873	32341.42
718.216	32396.56
718.559	32137.14
718.902	31860.53
719.246	32061.88
719.589	31877.71
719.932	31762
720.275	31889.01
720.617	31841.55
720.96	31702.57
721.303	31681.55
721.646	31675
721.989	31553.65
722.331	31676.81
722.674	31594.55
723.016	31567.66
723.359	31456.93
723.701	31533.99
724.044	31321.56
724.386	31062.81
724.729	31346.42
725.071	31148.91
725.413	31268.46
725.755	31175.13
726.097	31037.05
726.439	30875.47
726.782	30948.47
727.124	30955.02
727.465	30822.14
727.807	30832.31
728.149	30777.4
728.491	30633.9
728.833	30762.93
729.175	30600.45
729.516	30625.31
729.858	30358.65
730.199	30567.23
730.541	30370.18
730.882	30360.91
731.224	30486.78
731.565	30151.2
731.906	30257.18
732.248	30244.98
732.589	30130.63
732.93	29977.42
733.271	29958.89
733.612	29962.28
733.953	29974.03
734.294	29883.18
734.635	29884.99
734.976	29892.9
735.317	29635.73
735.658	29663.75
735.999	29720.02
736.339	29710.08
736.68	29610.65
737.021	29670.99
737.361	29414.04
737.702	29620.59
738.042	29423.08
738.383	29416.98
738.723	29470.31
739.063	29362.52
739.404	29388.73
739.744	29267.38
740.084	29259.02
740.424	29263.76
740.764	29198.68
741.104	29297.44
741.444	29100.83
741.784	28973.83
742.124	29071.68
742.464	28956.2
742.804	29000.49
743.143	28874.4
743.483	28909.65
743.823	28754.17
744.162	28696.32
744.502	28850.44
744.841	28687.51
745.181	28744.46
745.52	28638.02
745.86	28670.56
746.199	28510.56
746.538	28494.52
746.877	28658.81
747.216	28535.2
747.556	28486.38
747.895	28454.52
748.234	28334.52
748.573	28241.87
748.911	28232.15
749.25	28200.52
749.589	28073.51
749.928	28182.21
750.267	28157.35
750.605	28101.54
750.944	27892.5
751.283	27932.73
751.621	28000.07
751.96	27811.6
752.298	27899.96
752.636	27781.54
752.975	27652.96
753.313	27447.09
753.651	27688.44
753.989	27436.69
754.327	27441.44
754.666	27331.84
755.004	27333.42
755.342	27353.31
755.679	27336.58
756.017	27215.91
756.355	27228.11
756.693	27018.63
757.031	27123.93
757.368	26908.35
757.706	26882.58
