Data from hue_190_FLMS001491_00082.txt Node
Date: Tue Feb 07 16:45:53 GMT 2017
User: dcchb
Spectrometer: FLMS00149
Trigger mode: 0
Integration Time (sec): 2.000000E-2
Scans to average: 10
Electric dark correction enabled: true
Nonlinearity correction enabled: false
Boxcar width: 0
XAxis mode: Wavelengths
Number of Pixels in Spectrum: 2048
>>>>>Begin Spectral Data<<<<<
341.393	-21.54
341.776	-21.54
342.16	-21.54
342.543	-62.67
342.927	-56.11
343.31	-67.64
343.693	-53.85
344.077	-70.8
344.46	-51.82
344.843	-69.9
345.226	-33.74
345.61	-21.54
345.993	-21.31
346.376	-12.5
346.759	-2.56
347.142	23.88
347.525	35.18
347.908	47.39
348.291	85.35
348.674	94.62
349.057	119.25
349.44	112.69
349.823	129.42
350.206	157.67
350.588	160.6
350.971	212.13
351.354	225.23
351.737	200.6
352.119	238.57
352.502	249.41
352.884	271.33
353.267	285.12
353.65	285.8
354.032	291.22
354.414	312.69
354.797	314.72
355.179	308.4
355.562	302.97
355.944	324.89
356.326	321.73
356.709	332.35
357.091	327.6
357.473	330.09
357.855	338
358.238	328.28
358.62	348.62
359.002	330.99
359.384	337.77
359.766	331.22
360.148	327.15
360.53	331.67
360.912	323.08
361.294	323.99
361.676	337.77
362.057	321.73
362.439	319.24
362.821	316.98
363.203	329.19
363.584	328.28
363.966	312.24
364.348	314.05
364.729	322.63
365.111	307.49
365.493	308.85
365.874	330.32
366.256	315.4
366.637	316.76
367.019	313.37
367.4	314.5
367.781	321.95
368.163	321.28
368.544	288.28
368.925	300.94
369.306	305.23
369.688	294.38
370.069	312.69
370.45	331.45
370.831	305.01
371.212	308.4
371.593	295.06
371.974	307.49
372.355	290.54
372.736	314.05
373.117	322.63
373.498	309.07
373.879	324.44
374.26	319.69
374.641	316.31
375.021	318.57
375.402	298.23
375.783	316.98
376.163	305.01
376.544	328.96
376.925	303.42
377.305	337.55
377.686	315.85
378.066	309.53
378.447	343.2
378.827	323.76
379.208	334.38
379.588	327.15
379.968	333.48
380.349	323.99
380.729	351.56
381.109	321.95
381.489	335.29
381.87	342.75
382.25	303.42
382.63	317.21
383.01	346.36
383.39	344.55
383.77	347.04
384.15	338
384.53	337.32
384.91	345.91
385.29	330.99
385.67	317.89
386.049	339.13
386.429	347.04
386.809	353.82
387.189	343.88
387.568	345.01
387.948	366.02
388.328	343.42
388.707	347.26
389.087	353.14
389.466	353.82
389.846	360.82
390.225	351.56
390.605	355.85
390.984	352.69
391.363	391.11
391.743	368.51
392.122	368.96
392.501	365.12
392.881	371.67
393.26	351.56
393.639	395.85
394.018	374.38
394.397	379.35
394.776	387.26
395.155	381.39
395.534	386.81
395.913	388.17
396.292	396.53
396.671	396.53
397.05	378.9
397.429	402.18
397.808	368.06
398.186	407.83
398.565	398.56
398.944	386.36
399.323	406.47
399.701	391.78
400.08	399.24
400.458	399.24
400.837	426.58
401.215	407.38
401.594	411.67
401.972	413.25
402.351	415.06
402.729	418
403.107	412.8
403.486	416.19
403.864	416.64
404.242	419.13
404.62	439.69
404.999	424.33
405.377	441.5
405.755	436.53
406.133	451.22
406.511	437.66
406.889	455.74
407.267	481.27
407.645	468.39
408.023	473.82
408.401	483.08
408.779	495.06
409.156	482.85
409.534	490.54
409.912	492.57
410.29	509.29
410.667	523.53
411.045	530.76
411.422	533.02
411.8	540.93
412.178	545.68
412.555	560.14
412.933	551.1
413.31	564.21
413.687	576.64
414.065	550.2
414.442	589.29
414.819	629.07
415.197	592
415.574	615.51
415.951	624.77
416.328	616.64
416.705	614.83
417.082	632.91
417.46	656.86
417.837	672
418.214	651.21
418.591	668.84
418.967	676.3
419.344	690.98
419.721	705
420.098	712.23
420.475	722.4
420.852	713.36
421.228	712.23
421.605	731.89
421.982	771.89
422.358	774.82
422.735	790.42
423.111	782.06
423.488	779.57
423.864	821.38
424.241	828.83
424.617	864.09
424.994	848.72
425.37	862.96
425.746	881.49
426.123	875.84
426.499	901.6
426.875	918.78
427.251	918.78
427.627	936.18
428.003	962.84
428.379	948.61
428.756	1000.58
429.132	1006.91
429.507	1004.42
429.883	1004.87
430.259	1051.2
430.635	1038.09
431.011	1065.21
431.387	1096.4
431.763	1082.84
432.138	1084.65
432.514	1137.53
432.89	1146.79
433.265	1140.69
433.641	1201.25
434.016	1161.93
434.392	1215.49
434.767	1237.86
435.143	1237.41
435.518	1259.78
435.894	1289.84
436.269	1308.37
436.644	1325.77
437.02	1341.82
437.395	1377.52
437.77	1413.23
438.145	1419.55
438.52	1455.48
438.895	1485.54
439.271	1491.42
439.646	1526.89
440.021	1529.15
440.395	1516.5
440.77	1513.79
441.145	1579.55
441.52	1593.79
441.895	1626.78
442.27	1648.7
442.645	1641.47
443.019	1667.46
443.394	1693.22
443.769	1714.01
444.143	1754.23
444.518	1743.39
444.892	1765.98
445.267	1763.27
445.641	1806.21
446.016	1815.02
446.39	1823.38
446.764	1831.75
447.139	1826.55
447.513	1883.04
447.887	1869.94
448.262	1872.87
448.636	1882.82
449.01	1920.56
449.384	1932.08
449.758	1943.16
450.132	1969.37
450.506	2002.81
450.88	2018.41
451.254	2024.51
451.628	2052.76
452.002	2046.43
452.376	2057.95
452.75	2124.39
453.123	2123.04
453.497	2178.63
453.871	2198.97
454.244	2207.33
454.618	2227.44
454.992	2276.48
455.365	2297.72
455.739	2347.66
456.112	2363.26
456.486	2364.16
456.859	2397.15
457.232	2429.92
457.606	2452.07
457.979	2502.01
458.352	2562.8
458.725	2575.23
459.099	2618.17
459.472	2636.02
459.845	2667.43
460.218	2676.24
460.591	2734.55
460.964	2737.94
461.337	2789.91
461.71	2836.69
462.083	2900.42
462.456	2862.23
462.829	2911.72
463.201	2949.91
463.574	2976.35
463.947	3017.48
464.32	3040.53
464.692	3133.63
465.065	3119.4
465.438	3170.02
465.81	3235.55
466.183	3264.7
466.555	3311.25
466.928	3351.25
467.3	3366.39
467.672	3451.82
468.045	3507.86
468.417	3533.85
468.789	3504.7
469.161	3627.18
469.534	3679.38
469.906	3732.03
470.278	3743.56
470.65	3837.79
471.022	3915.98
471.394	3925.7
471.766	3989.88
472.138	4042.99
472.51	4135.41
472.882	4235.52
473.253	4280.95
473.625	4358.68
473.997	4408.4
474.369	4417.89
474.74	4495.18
475.112	4576.31
475.484	4633.71
475.855	4771.56
476.227	4815.17
476.598	4919.57
476.97	4980.82
477.341	5055.84
477.713	5179.68
478.084	5180.58
478.455	5330.41
478.827	5423.97
479.198	5532.67
479.569	5610.4
479.94	5673.9
480.311	5787.12
480.682	5818.76
481.053	6121.35
481.424	6143.04
481.795	6210.16
482.166	6284.51
482.537	6347.56
482.908	6531.96
483.279	6577.38
483.65	6687.66
484.021	6823.7
484.391	6938.05
484.762	6985.96
485.133	7061.66
485.503	7123.81
485.874	7300.53
486.244	7391.6
486.615	7527.87
486.985	7627.75
487.356	7744.58
487.726	7830.23
488.097	7975.99
488.467	7978.25
488.837	8173.05
489.207	8223.22
489.578	8334.17
489.948	8451.91
490.318	8618.69
490.688	8584.11
491.058	8780.04
491.428	8867.27
491.798	8898.23
492.168	9098.9
492.538	9114.04
492.908	9200.37
493.278	9333.02
493.648	9294.37
494.017	9446.69
494.387	9478.32
494.757	9571.43
495.126	9667.25
495.496	9685.78
495.866	9719.67
496.235	9789.95
496.605	9935.26
496.974	9984.3
497.344	10067.69
497.713	10145.65
498.082	10191.07
498.452	10288.25
498.821	10267.91
499.19	10308.58
499.559	10397.62
499.928	10437.85
500.298	10435.81
500.667	10475.36
501.036	10528.47
501.405	10577.5
501.774	10592.42
502.143	10680.1
502.512	10674
502.88	10846.88
503.249	10715.81
503.618	10865.86
503.987	10898.4
504.356	10969.58
504.724	10948.12
505.093	11037.38
505.462	10898.17
505.83	11034.22
506.199	11141.33
506.567	11174.1
506.936	11184.72
507.304	11233.76
507.672	11262.68
508.041	11333.64
508.409	11401.21
508.777	11360.76
509.145	11391.72
509.514	11402.57
509.882	11504.03
510.25	11472.17
510.618	11401.21
510.986	11519.85
511.354	11587.2
511.722	11529.12
512.09	11668.1
512.458	11658.38
512.826	11681.66
513.193	11671.49
513.561	11698.38
513.929	11728.89
514.297	11833.97
514.664	11816.12
515.032	11785.16
515.4	11869
515.767	11883.68
516.135	11918.26
516.502	11760.07
516.869	11952.38
517.237	11883.91
517.604	11891.37
517.972	11967.75
518.339	11928.88
518.706	11912.61
519.073	11966.39
519.44	11979.28
519.808	12053.17
520.175	12031.03
520.542	12099.05
520.909	12148.31
521.276	12076.45
521.643	12137.01
522.009	12135.2
522.376	12103.11
522.743	12117.58
523.11	12201.19
523.477	12221.98
523.843	12269.89
524.21	12242.32
524.577	12276.44
524.943	12279.15
525.31	12303.56
525.676	12315.54
526.043	12407.96
526.409	12310.11
526.776	12431.92
527.142	12291.36
527.508	12278.48
527.874	12342.88
528.241	12357.34
528.607	12398.93
528.973	12395.08
529.339	12226.5
529.705	12341.98
530.071	12381.3
530.437	12288.65
530.803	12353.73
531.169	12229.89
531.535	12280.06
531.901	12215.43
532.267	12278.7
532.632	12163.68
532.998	12128.88
533.364	12229.66
533.73	12161.87
534.095	12102.89
534.461	12020.4
534.826	12057.01
535.192	11933.4
535.557	11984.47
535.923	11934.76
536.288	11974.53
536.653	11957.58
537.019	11776.79
537.384	11870.35
537.749	11753.52
538.114	11725.27
538.479	11677.81
538.845	11673.97
539.21	11594.43
539.575	11603.92
539.94	11527.54
540.305	11576.35
540.67	11433.75
541.034	11378.61
541.399	11357.82
541.764	11284.38
542.129	11327.09
542.494	11204.83
542.858	11192.63
543.223	11183.14
543.587	11107.89
543.952	11070.37
544.316	11072.41
544.681	10942.01
545.045	10901.79
545.41	10898.63
545.774	10860.21
546.138	10768.69
546.503	10780.89
546.867	10667.45
547.231	10649.59
547.595	10698.86
547.959	10593.78
548.324	10570.27
548.688	10545.19
549.052	10452.99
549.416	10432.2
549.779	10413.21
550.143	10385.42
550.507	10363.5
550.871	10314.91
551.235	10168.7
551.599	10189.04
551.962	10144.3
552.326	10137.74
552.689	10111.98
553.053	10006.67
553.417	10036.73
553.78	9998.08
554.143	9990.18
554.507	9907.47
554.87	9911.99
555.234	9896.62
555.597	9821.59
555.96	9822.27
556.323	9737.07
556.686	9811.87
557.05	9765.1
557.413	9709.5
557.776	9765.77
558.139	9656.17
558.502	9676.74
558.865	9630.41
559.228	9630.41
559.59	9640.58
559.953	9588.83
560.316	9662.05
560.679	9598.77
561.041	9661.6
561.404	9605.1
561.767	9599.45
562.129	9536.4
562.492	9591.32
562.854	9596.97
563.217	9486.46
563.579	9533.92
563.941	9539.11
564.304	9560.13
564.666	9575.27
565.028	9527.81
565.39	9451.66
565.753	9535.27
566.115	9509.96
566.477	9562.62
566.839	9521.49
567.201	9548.83
567.563	9593.58
567.925	9565.1
568.287	9525.78
568.648	9563.97
569.01	9582.28
569.372	9577.3
569.734	9469.51
570.095	9589.06
570.457	9584.76
570.819	9549.96
571.18	9530.98
571.542	9593.12
571.903	9509.51
572.265	9516.29
572.626	9607.36
572.987	9522.62
573.349	9606.23
573.71	9541.37
574.071	9595.16
574.432	9598.32
574.794	9659.79
575.155	9618.43
575.516	9570.75
575.877	9639
576.238	9586.8
576.599	9614.59
576.96	9631.09
577.32	9572.79
577.681	9589.06
578.042	9596.74
578.403	9645.78
578.763	9555.61
579.124	9510.19
579.485	9634.03
579.845	9604.65
580.206	9568.04
580.566	9564.88
580.927	9591.32
581.287	9579.56
581.648	9559.68
582.008	9644.42
582.368	9582.95
582.728	9590.41
583.089	9498.44
583.449	9576.4
583.809	9478.78
584.169	9516.29
584.529	9537.53
584.889	9513.8
585.249	9474.26
585.609	9493.01
585.969	9487.82
586.329	9392.22
586.688	9504.99
587.048	9452.79
587.408	9372.56
587.768	9408.04
588.127	9391.09
588.487	9363.07
588.846	9428.83
589.206	9395.39
589.565	9402.62
589.925	9407.14
590.284	9315.39
590.643	9352.23
591.003	9424.09
591.362	9462.73
591.721	9336.86
592.08	9409.85
592.44	9441.26
592.799	9303.64
593.158	9311.1
593.517	9340.7
593.876	9397.2
594.235	9256.18
594.593	9301.83
594.952	9302.28
595.311	9284.21
595.67	9320.81
596.029	9285.56
596.387	9312.45
596.746	9335.05
597.104	9317.2
597.463	9265.22
597.822	9247.82
598.18	9231.55
598.538	9209.63
598.897	9339.8
599.255	9178.22
599.613	9347.71
599.972	9234.49
600.33	9283.75
600.688	9274.26
601.046	9191.55
601.404	9220.93
601.762	9249.18
602.12	9275.62
602.478	9307.03
602.836	9236.97
603.194	9197.2
603.552	9154.72
603.91	9180.48
604.268	9178.9
604.625	9181.61
604.983	9230.2
605.341	9243.08
605.698	9222.06
606.056	9282.4
606.413	9274.94
606.771	9330.31
607.128	9294.83
607.485	9239.01
607.843	9207.6
608.2	9238.56
608.557	9305
608.914	9256.41
609.272	9236.07
609.629	9248.05
609.986	9277.2
610.343	9296.86
610.7	9346.8
611.057	9300.02
611.414	9307.03
611.771	9244.21
612.127	9314.03
612.484	9345.67
612.841	9326.92
613.198	9307.93
613.554	9395.84
613.911	9377.31
614.267	9311.77
614.624	9370.98
614.98	9373.24
615.337	9375.95
615.693	9375.95
616.05	9369.17
616.406	9386.58
616.762	9396.97
617.118	9405.33
617.475	9376.18
617.831	9412.79
618.187	9418.89
618.543	9438.78
618.899	9471.77
619.255	9456.86
619.611	9389.74
619.967	9458.44
620.323	9480.36
620.678	9481.04
621.034	9399.91
621.39	9475.16
621.746	9403.98
622.101	9487.59
622.457	9461.6
622.812	9433.13
623.168	9459.79
623.523	9474.26
623.879	9518.1
624.234	9386.35
624.589	9449.17
624.945	9442.17
625.3	9479.68
625.655	9479.68
626.01	9557.42
626.365	9418.44
626.72	9438.33
627.075	9445.33
627.43	9375.05
627.785	9398.1
628.14	9402.39
628.495	9393.81
628.85	9394.48
629.205	9331.21
629.559	9407.59
629.914	9405.11
630.269	9361.72
630.623	9349.29
630.978	9379.12
631.332	9367.59
631.687	9399.23
632.041	9381.83
632.396	9365.56
632.75	9303.41
633.104	9312.23
633.459	9234.04
633.813	9285.33
634.167	9256.18
634.521	9218.22
634.875	9280.82
635.229	9243.3
635.583	9101.38
635.937	9158.78
636.291	9185.68
636.645	9166.47
636.999	9104.77
637.352	9184.77
637.706	9096.64
638.06	9105.68
638.413	9174.6
638.767	9145.45
639.121	9132.57
639.474	9088.05
639.828	9118.56
640.181	9096.64
640.534	9099.58
640.888	9093.25
641.241	8996.98
641.594	9026.36
641.947	9122.63
642.301	9060.26
642.654	9066.13
643.007	9095.28
643.36	9017.09
643.713	8995.63
644.066	9041.05
644.419	8943.2
644.771	8934.38
645.124	8822.07
645.477	8822.3
645.83	8804.9
646.182	8727.84
646.535	8670.66
646.888	8734.61
647.24	8661.4
647.593	8698.46
647.945	8645.58
648.298	8687.16
648.65	8615.07
649.002	8617.1
649.355	8701.85
649.707	8723.09
650.059	8783.65
650.411	8816.19
650.763	8829.08
651.115	8897.77
651.467	8901.62
651.819	8812.13
652.171	8838.57
652.523	8772.58
652.875	8768.51
653.227	8810.55
653.578	8778
653.93	8842.18
654.282	8763.09
654.633	8772.13
654.985	8816.65
655.337	8835.4
655.688	8773.71
656.039	8891.67
656.391	8794.73
656.742	8824.33
657.094	8852.13
657.445	8864.56
657.796	8843.09
658.147	8839.7
658.498	8839.02
658.849	8828.17
659.2	8787.27
659.551	8824.56
659.902	8881.28
660.253	8900.49
660.604	8886.48
660.955	8803.09
661.306	8873.59
661.656	8849.64
662.007	8859.58
662.358	8897.55
662.708	8873.82
663.059	8846.48
663.409	8902.29
663.76	8956.3
664.11	8943.2
664.461	8888.51
664.811	8926.25
665.161	8929.86
665.511	8890.54
665.862	8880.6
666.212	8861.62
666.562	8945.46
666.912	8938.23
667.262	8890.32
667.612	8888.28
667.962	8902.75
668.312	8942.29
668.662	8935.06
669.011	8908.17
669.361	8865.68
669.711	8887.15
670.06	8901.62
670.41	8853.93
670.76	8872.24
671.109	8848.96
671.459	8868.85
671.808	8810.77
672.157	8835.4
672.507	8792.47
672.856	8813.26
673.205	8889.19
673.554	8811.22
673.904	8796.76
674.253	8832.69
674.602	8776.65
674.951	8698.91
675.3	8599.48
675.649	8753.15
675.998	8683.32
676.346	8754.95
676.695	8728.51
677.044	8775.74
677.393	8813.48
677.741	8726.48
678.09	8623.66
678.438	8701.85
678.787	8661.85
679.135	8670.66
679.484	8662.07
679.832	8724.9
680.181	8633.15
680.529	8589.08
680.877	8623.66
681.225	8577.78
681.573	8579.14
681.922	8539.59
682.27	8485.13
682.618	8560.16
682.966	8490.78
683.314	8516.54
683.661	8497.33
684.009	8451.01
684.357	8432.25
684.705	8344.57
685.053	8444
685.4	8421.4
685.748	8372.59
686.095	8384.57
686.443	8325.36
686.79	8263.89
687.138	8338.47
687.485	8317.45
687.832	8254.4
688.18	8277.23
688.527	8204.23
688.874	8224.8
689.221	8169.43
689.568	8206.04
689.915	8150.45
690.262	8064.12
690.609	8051.47
690.956	8042.66
691.303	8075.42
691.65	8063.67
691.997	8009.21
692.344	8015.76
692.69	7885.82
693.037	7949.32
693.383	7856.22
693.73	7856.9
694.077	7780.06
694.423	7799.5
694.769	7768.99
695.116	7768.76
695.462	7776.67
695.808	7750.23
696.155	7706.85
696.501	7671.59
696.847	7630.01
697.193	7570.13
697.539	7679.73
697.885	7511.37
698.231	7495.55
698.577	7480.41
698.923	7486.06
699.269	7422.79
699.614	7382.11
699.96	7333.75
700.306	7361.54
700.651	7366.52
700.997	7261.89
701.342	7300.75
701.688	7275.22
702.033	7235.9
702.379	7212.85
702.724	7186.41
703.069	7191.6
703.415	7130.59
703.76	7168.33
704.105	7117.48
704.45	7105.96
704.795	7055.11
705.14	7063.02
705.485	7009.01
705.83	6939.63
706.175	6961.78
706.52	6939.63
706.865	6896.7
707.209	6937.6
707.554	6896.7
707.899	6934.89
708.243	6827.32
708.588	6851.5
708.932	6801.11
709.277	6755.68
709.621	6810.6
709.966	6738.28
710.31	6741.9
710.654	6684.27
710.998	6678.85
711.342	6711.84
711.687	6667.1
712.031	6617.16
712.375	6651.96
712.719	6599.53
713.063	6608.12
713.407	6599.53
713.75	6589.36
714.094	6602.69
714.438	6508.91
714.782	6532.64
715.125	6560.43
715.469	6546.65
715.812	6498.06
716.156	6482.7
716.499	6520.66
716.843	6494.67
717.186	6441.34
717.53	6455.13
717.873	6525.86
718.216	6435.47
718.559	6430.49
718.902	6370.84
719.246	6425.75
719.589	6331.51
719.932	6407.9
720.275	6351.85
720.617	6366.09
720.96	6369.25
721.303	6368.58
721.646	6370.16
721.989	6260.56
722.331	6372.19
722.674	6305.75
723.016	6326.09
723.359	6279.54
723.701	6306.43
724.044	6279.99
724.386	6248.8
724.729	6351.4
725.071	6285.64
725.413	6304.17
725.755	6264.85
726.097	6240.22
726.439	6262.59
726.782	6202.25
727.124	6277.96
727.465	6235.47
727.807	6254.23
728.149	6216.26
728.491	6247.9
728.833	6221.91
729.175	6231.4
729.516	6167.45
729.858	6194.79
730.199	6204.96
730.541	6199.31
730.882	6214.68
731.224	6235.25
731.565	6193.44
731.906	6181.24
732.248	6236.15
732.589	6208.13
732.93	6205.87
733.271	6204.06
733.612	6204.96
733.953	6257.17
734.294	6180.56
734.635	6153.89
734.976	6159.54
735.317	6175.81
735.658	6216.26
735.999	6251.06
736.339	6217.62
736.68	6234.79
737.021	6253.55
737.361	6194.34
737.702	6245.19
738.042	6225.3
738.383	6243.61
738.723	6249.48
739.063	6245.41
739.404	6245.87
739.744	6213.78
740.084	6265.98
740.424	6309.37
740.764	6312.31
741.104	6280.22
741.444	6267.79
741.784	6313.21
742.124	6333.1
742.464	6386.88
742.804	6309.82
743.143	6334
743.483	6370.38
743.823	6406.09
744.162	6448.35
744.502	6457.16
744.841	6484.28
745.181	6541
745.52	6530.38
745.86	6542.81
746.199	6576.93
746.538	6608.57
746.877	6682.47
747.216	6744.84
747.556	6737.83
747.895	6781.22
748.234	6822.57
748.573	6877.49
748.911	6904.38
749.25	7002.01
749.589	7031.38
749.928	7054.66
750.267	7160.87
750.605	7241.55
750.944	7269.34
751.283	7272.28
751.621	7430.02
751.96	7485.16
752.298	7505.04
752.636	7636.11
752.975	7749.56
753.313	7813.06
753.651	7958.59
753.989	7981.41
754.327	8167.17
754.666	8180.05
755.004	8316.32
755.342	8534.85
755.679	8564.9
756.017	8762.41
756.355	8892.8
756.693	8970.77
757.031	9185.22
757.368	9211.44
757.706	9407.14
758.044	9518.1
758.381	9640.13
758.719	9849.16
759.056	10031.08
759.394	10118.53
759.731	10261.13
760.068	10422.03
760.405	10657.5
760.743	10739.08
761.08	10915.8
761.417	11002.8
761.754	11260.65
762.091	11504.94
762.428	11608.89
762.765	11711.71
763.102	11986.96
763.438	12115.09
763.775	12209.55
764.112	12509.2
764.449	12724.11
764.785	12865.81
765.122	12960.04
765.458	13034.16
765.795	13174.27
766.131	13423.53
766.467	13551.44
