Data from hue_50_FLMS001491_18.txt Node
Date: Mon Feb 06 15:09:40 GMT 2017
User: dcchb
Spectrometer: FLMS00149
Trigger mode: 0
Integration Time (sec): 2.000000E-2
Scans to average: 10
Electric dark correction enabled: true
Nonlinearity correction enabled: false
Boxcar width: 0
XAxis mode: Wavelengths
Number of Pixels in Spectrum: 2048
>>>>>Begin Spectral Data<<<<<
341.393	-16.48
341.776	-16.48
342.16	-16.48
342.543	-70.27
342.927	-71.85
343.31	-71.17
343.693	-76.14
344.077	-80.21
344.46	-56.71
344.843	-71.85
345.226	-56.26
345.61	-16.26
345.993	-25.52
346.376	9.28
346.759	27.36
347.142	41.82
347.525	32.33
347.908	64.19
348.291	72.1
348.674	88.15
349.057	118.88
349.44	120.24
349.823	136.06
350.206	166.34
350.588	194.59
350.971	194.13
351.354	214.7
351.737	249.95
352.119	251.98
352.502	269.84
352.884	281.81
353.267	290.63
353.65	283.62
354.032	321.81
354.414	301.93
354.797	309.38
355.179	328.59
355.562	322.49
355.944	322.04
356.326	345.77
356.709	342.38
357.091	335.37
357.473	343.28
357.855	349.84
358.238	316.62
358.62	378.08
359.002	337.63
359.384	346.22
359.766	336.95
360.148	335.82
360.53	354.58
360.912	335.6
361.294	330.4
361.676	340.8
362.057	336.73
362.439	326.33
362.821	341.47
363.203	325.2
363.584	342.38
363.966	323.62
364.348	317.07
364.729	323.4
365.111	315.71
365.493	326.79
365.874	322.27
366.256	321.81
366.637	308.25
367.019	320.23
367.4	333.79
367.781	321.36
368.163	298.99
368.544	340.57
368.925	323.62
369.306	318.88
369.688	307.58
370.069	286.56
370.45	323.17
370.831	298.99
371.212	324.53
371.593	302.38
371.974	322.27
372.355	326.79
372.736	313.45
373.117	302.61
373.498	313.23
373.879	310.97
374.26	321.36
374.641	331.3
375.021	330.63
375.402	310.06
375.783	324.53
376.163	337.86
376.544	318.42
376.925	307.58
377.305	298.54
377.686	316.62
378.066	329.72
378.447	332.43
378.827	336.28
379.208	341.47
379.588	348.25
379.968	319.33
380.349	335.82
380.729	342.83
381.109	341.25
381.489	346.22
381.87	335.15
382.25	349.38
382.63	335.37
383.01	354.13
383.39	321.36
383.77	321.14
384.15	360.91
384.53	330.63
384.91	322.27
385.29	353.45
385.67	330.63
386.049	333.79
386.429	352.32
386.809	345.54
387.189	333.56
387.568	361.81
387.948	349.16
388.328	334.47
388.707	369.72
389.087	356.39
389.466	358.87
389.846	360
390.225	360
390.605	362.26
390.984	345.99
391.363	345.54
391.743	338.31
392.122	360.23
392.501	361.36
392.881	361.59
393.26	366.11
393.639	357.97
394.018	356.39
394.397	381.92
394.776	367.91
395.155	373.56
395.534	354.36
395.913	357.74
396.292	372.66
396.671	357.29
397.05	372.43
397.429	369.04
397.808	370.4
398.186	376.05
398.565	381.7
398.944	375.15
399.323	349.16
399.701	341.47
400.08	391.19
400.458	385.99
400.837	382.15
401.215	346.67
401.594	383.96
401.972	392.77
402.351	366.11
402.729	402.04
403.107	371.76
403.486	398.42
403.864	408.82
404.242	391.87
404.62	387.57
404.999	385.54
405.377	387.35
405.755	399.78
406.133	411.98
406.511	411.08
406.889	406.11
407.267	419.89
407.645	429.83
408.023	406.56
408.401	422.6
408.779	408.14
409.156	419.66
409.534	399.55
409.912	428.48
410.29	436.16
410.667	416.5
411.045	437.74
411.422	421.7
411.8	441.13
412.178	443.62
412.555	435.26
412.933	453.56
413.31	435.26
413.687	455.37
414.065	453.11
414.442	448.82
414.819	453.79
415.197	461.24
415.574	459.21
415.951	456.05
416.328	452.21
416.705	435.93
417.082	468.02
417.46	476.61
417.837	473
418.214	477.52
418.591	470.06
418.967	475.48
419.344	495.37
419.721	482.94
420.098	472.32
420.475	461.7
420.852	476.61
421.228	495.37
421.605	493.56
421.982	478.19
422.358	500.11
422.735	496.95
423.111	482.26
423.488	495.59
423.864	494.69
424.241	515.48
424.617	505.54
424.994	498.98
425.37	517.06
425.746	520.9
426.123	530.85
426.499	538.08
426.875	527.46
427.251	513.9
427.627	513.9
428.003	551.41
428.379	529.49
428.756	551.41
429.132	555.71
429.507	553.9
429.883	542.37
430.259	546.44
430.635	570.39
431.011	566.78
431.387	576.5
431.763	562.49
432.138	572.43
432.514	584.41
432.89	599.55
433.265	611.98
433.641	602.48
434.016	585.54
434.392	578.53
434.767	585.76
435.143	597.51
435.518	613.78
435.894	623.27
436.269	611.75
436.644	605.2
437.02	630.28
437.395	631.86
437.77	641.13
438.145	642.48
438.52	627.34
438.895	663.05
439.271	651.07
439.646	660.34
440.021	638.19
440.395	649.49
440.77	650.84
441.145	656.95
441.52	673.89
441.895	684.97
442.27	683.16
442.645	680.45
443.019	699.88
443.394	695.59
443.769	723.84
444.143	702.59
444.518	711.41
444.892	683.16
445.267	725.87
445.641	687.91
446.016	708.7
446.39	722.93
446.764	708.02
447.139	723.16
447.513	714.35
447.887	713.89
448.262	731.07
448.636	755.25
449.01	724.74
449.384	728.13
449.758	760.45
450.132	756.15
450.506	748.24
450.88	764.74
451.254	738.75
451.628	773.78
452.002	765.42
452.376	786.66
452.75	800.22
453.123	793.44
453.497	815.36
453.871	826.43
454.244	835.25
454.618	825.3
454.992	827.11
455.365	838.18
455.739	838.64
456.112	845.87
456.486	836.15
456.859	846.09
457.232	870.27
457.606	865.08
457.979	869.6
458.352	880.89
458.725	922.02
459.099	927.45
459.472	930.16
459.845	928.8
460.218	927.9
460.591	947.56
460.964	958.63
461.337	986.43
461.71	983.49
462.083	1001.8
462.456	1019.2
462.829	999.54
463.201	1012.42
463.574	1021.46
463.947	1060.33
464.32	1054
464.692	1068.01
465.065	1058.52
465.438	1097.16
465.81	1090.38
466.183	1129.7
466.555	1141.68
466.928	1153.66
467.3	1149.59
467.672	1171.73
468.045	1217.84
468.417	1218.29
468.789	1219.42
469.161	1252.64
469.534	1284.05
469.906	1307.1
470.278	1317.49
470.65	1351.39
471.022	1379.86
471.394	1410.15
471.766	1396.36
472.138	1450.37
472.51	1474.55
472.882	1508.9
473.253	1540.09
473.625	1549.35
473.997	1624.83
474.369	1605.4
474.74	1671.83
475.112	1685.62
475.484	1736.24
475.855	1748.67
476.227	1798.16
476.598	1866.86
476.97	1895.11
477.341	1931.49
477.713	1993.63
478.084	2009.23
478.455	2073.18
478.827	2179.62
479.198	2231.59
479.569	2273.63
479.94	2324.92
480.311	2407.86
480.682	2479.95
481.053	2579.16
481.424	2651.24
481.795	2684.69
482.166	2748.42
482.537	2837.91
482.908	2909.99
483.279	3000.61
483.65	3074.28
484.021	3171.68
484.391	3248.52
484.762	3408.96
485.133	3408.51
485.503	3510.66
485.874	3659.58
486.244	3738.22
486.615	3867.03
486.985	3959.23
487.356	4073.81
487.726	4186.12
488.097	4290.52
488.467	4364.87
488.837	4489.39
489.207	4622.72
489.578	4767.8
489.948	4899.55
490.318	4993.33
490.688	5102.03
491.058	5264.06
491.428	5379.53
491.798	5491.62
492.168	5658.4
492.538	5748.56
492.908	5878.28
493.278	6033.53
493.648	6068.33
494.017	6236.69
494.387	6414.31
494.757	6511.03
495.126	6573.63
495.496	6740.63
495.866	6872.38
496.235	6946.5
496.605	7110.11
496.974	7196.89
497.344	7379.48
497.713	7491.79
498.082	7581.28
498.452	7790.77
498.821	7842.97
499.19	7998.9
499.559	8092.46
499.928	8206.58
500.298	8368.61
500.667	8495.61
501.036	8506.46
501.405	8682.95
501.774	8750.52
502.143	8896.73
502.512	9021.7
502.88	9162.71
503.249	9228.7
503.618	9310.73
503.987	9409.03
504.356	9502.82
504.724	9646.31
505.093	9753.2
505.462	9795.69
505.83	9981.67
506.199	10071.16
506.567	10270.25
506.936	10329.91
507.304	10433.41
507.672	10477.48
508.041	10594.09
508.409	10752.95
508.777	10830.69
509.145	10999.5
509.514	11042.89
509.882	11140.29
510.25	11205.6
510.618	11320.85
510.986	11419.15
511.354	11538.69
511.722	11703.21
512.09	11823.66
512.458	11845.13
512.826	11934.62
513.193	11997.89
513.561	12112.92
513.929	12259.35
514.297	12448.5
514.664	12409.86
515.032	12571.89
515.4	12624.31
515.767	12758.1
516.135	12834.48
516.502	12797.64
516.869	13018.88
517.237	13126.67
517.604	13158.54
517.972	13353.56
518.339	13383.84
518.706	13562.37
519.073	13581.35
519.44	13665.42
519.808	13828.58
520.175	13790.61
520.542	14048.68
520.909	14085.29
521.276	14132.98
521.643	14271.73
522.009	14398.28
522.376	14552.17
522.743	14544.04
523.11	14737.71
523.477	14829.68
523.843	14995.78
524.21	15075.55
524.577	15176.11
524.943	15269.9
525.31	15399.38
525.676	15476.67
526.043	15687.74
526.409	15684.8
526.776	15859.48
527.142	15925.25
527.508	16064
527.874	16147.16
528.241	16200.04
528.607	16311.68
528.973	16517.32
529.339	16500.37
529.705	16716.41
530.071	16873.69
530.437	16859.23
530.803	17047.7
531.169	17098.55
531.535	17094.48
531.901	17131.77
532.267	17225.32
532.632	17406.56
532.998	17422.38
533.364	17488.82
533.73	17579.89
534.095	17749.15
534.461	17760.9
534.826	17898.07
535.192	17906.44
535.557	18078.86
535.923	18071.4
536.288	18159.31
536.653	18317.05
537.019	18299.87
537.384	18325.86
537.749	18510.71
538.114	18536.02
538.479	18456.25
538.845	18639.3
539.21	18657.6
539.575	18746.64
539.94	18863.47
540.305	18970.81
540.67	18889.01
541.034	18994.99
541.399	19092.17
541.764	19182.33
542.129	19238.15
542.494	19215.55
542.858	19334.87
543.223	19416.23
543.587	19528.99
543.952	19521.76
544.316	19583.68
544.681	19541.87
545.045	19793.84
545.41	19924.01
545.774	19918.13
546.138	19872.94
546.503	20083.1
546.867	20035.65
547.231	20193.61
547.595	20167.62
547.959	20301.63
548.324	20338.24
548.688	20375.75
549.052	20443.54
549.416	20511.57
549.779	20467.05
550.143	20524.45
550.507	20658.68
550.871	20729.86
551.235	20744.55
551.599	20908.39
551.962	20960.37
552.326	21071.55
552.689	21271.32
553.053	21060.48
553.417	21173.92
553.78	21535.27
554.143	21415.27
554.507	21479.45
554.87	21592.44
555.234	21797.86
555.597	21632.67
555.96	21772.55
556.323	21855.03
556.686	21934.8
557.05	22034.91
557.413	22094.8
557.776	22161.47
558.139	22390.16
558.502	22388.13
558.865	22469.03
559.228	22601.68
559.59	22607.78
559.953	22721.9
560.316	22889.36
560.679	22923.48
561.041	22994.66
561.404	23266.75
561.767	23339.74
562.129	23198.73
562.492	23500.19
562.854	23518.04
563.217	23660.86
563.579	23613.63
563.941	23684.82
564.304	23850.23
564.666	23948.31
565.028	23996.22
565.39	24064.01
565.753	24282.77
566.115	24444.8
566.477	24411.8
566.839	24511.46
567.201	24708.74
567.563	24745.35
567.925	24851.34
568.287	24933.6
568.648	25015.4
569.01	25053.82
569.372	25248.84
569.734	25241.61
570.095	25357.99
570.457	25507.14
570.819	25560.47
571.18	25629.17
571.542	25740.13
571.903	25871.2
572.265	25898.32
572.626	26090.18
572.987	26125.2
573.349	26139.67
573.71	26278.87
574.071	26325.2
574.432	26435.03
574.794	26618.75
575.155	26619.2
575.516	26542.82
575.877	26708.24
576.238	26946.2
576.599	26958.85
576.96	27010.6
577.32	27045.63
577.681	27131.05
578.042	27330.14
578.403	27239.07
578.763	27341.22
579.124	27490.14
579.485	27658.04
579.845	27812.16
580.206	27835.21
580.566	27891.71
580.927	27910.92
581.287	28232.72
581.648	28138.03
582.008	28338.25
582.368	28358.14
582.728	28521.98
583.089	28527.17
583.449	28631.58
583.809	28841.52
584.169	28938.46
584.529	28860.27
584.889	29211.68
585.249	29091
585.609	29199.47
585.969	29321.96
586.329	29369.86
586.688	29475.17
587.048	29625.68
587.408	29672.68
587.768	29712.45
588.127	29755.16
588.487	29939.34
588.846	30119.9
589.206	29940.02
589.565	30097.98
589.925	30396.05
590.284	30298.43
590.643	30495.94
591.003	30549.04
591.362	30754.69
591.721	30758.3
592.08	30858.19
592.44	30993.32
592.799	31063.38
593.158	31034.68
593.517	31078.97
593.876	31378.85
594.235	31332.75
594.593	31389.7
594.952	31614.32
595.311	31615.68
595.67	31724.6
596.029	31959.4
596.387	32045.5
596.746	32243.69
597.104	32116.01
597.463	32067.19
597.822	32491.59
598.18	32209.11
598.538	32378.37
598.897	32465.6
599.255	32351.71
599.613	32990.79
599.972	32843.22
600.33	32994.17
600.688	32859.04
601.046	32987.17
601.404	33248.86
601.762	33169.09
602.12	33339.25
602.478	33482.52
602.836	33556.42
603.194	33540.15
603.552	33499.92
603.91	33336.09
604.268	33741.73
604.625	33648.39
604.983	33708.05
605.341	33817.2
605.698	33937.2
606.056	34128.16
606.413	34188.04
606.771	34204.31
607.128	34417.64
607.485	34216.74
607.843	34385.1
608.2	34590.29
608.557	34676.16
608.914	34525.66
609.272	34814.01
609.629	34902.83
609.986	35087.23
610.343	34918.64
610.7	35202.48
611.057	35258.3
611.414	35261.91
611.771	35267.34
612.127	35320.44
612.484	35406.09
612.841	35481.79
613.198	35396.37
613.554	35599.3
613.911	35702.58
614.267	35828.22
614.624	35729.92
614.98	35924.04
615.337	36036.13
615.693	36011.04
616.05	35898.96
616.406	36243.58
616.762	36130.36
617.118	36278.16
617.475	36221.89
617.831	36325.84
618.187	36464.14
618.543	36502.33
618.899	36725.38
619.255	36574.87
619.611	36657.58
619.967	36791.36
620.323	36911.36
620.678	36803.11
621.034	36638.37
621.39	36799.05
621.746	36827.07
622.101	37224.8
622.457	37008.98
622.812	37135.53
623.168	37248.98
623.523	37015.76
623.879	37232.03
624.234	37018.02
624.589	37147.29
624.945	37182.09
625.3	37280.62
625.655	37353.61
626.01	37449.88
626.365	37470.67
626.72	37347.51
627.075	37309.99
627.43	37346.83
627.785	37367.39
628.14	37436.77
628.495	37343.89
628.85	37403.78
629.205	37354.51
629.559	37672.92
629.914	37369.88
630.269	37359.48
630.623	37444.91
630.978	37345.47
631.332	37521.97
631.687	37558.35
632.041	37386.83
632.396	37505.24
632.75	37248.75
633.104	37455.53
633.459	37304.8
633.813	37252.82
634.167	37306.6
634.521	37335.08
634.875	37257.79
635.229	37301.41
635.583	37114.29
635.937	37218.02
636.291	37053.96
636.645	37087.4
636.999	36955.2
637.352	37135.08
637.706	37032.49
638.06	36944.35
638.413	37016.89
638.767	37035.2
639.121	36983.45
639.474	36964.69
639.828	36877.69
640.181	36946.61
640.534	36876.56
640.888	36732.83
641.241	36769.67
641.594	36855.77
641.947	36884.02
642.301	36772.15
642.654	36758.14
643.007	36831.59
643.36	36845.15
643.713	36724.7
644.066	36865.94
644.419	36645.38
644.771	36490.35
645.124	36066.41
645.477	36129.23
645.83	35821.22
646.182	35759.07
646.535	35614.22
646.888	35667.32
647.24	35477.95
647.593	35668.23
647.945	35565.63
648.298	35441.12
648.65	35391.63
649.002	35333.32
649.355	35466.43
649.707	35476.14
650.059	35516.82
650.411	35976.7
650.763	36005.62
651.115	36388.66
651.467	36198.61
651.819	36175.11
652.171	36093.3
652.523	36188.44
652.875	36055.34
653.227	35915.23
653.578	36286.52
653.93	36094.66
654.282	35966.53
654.633	35971.05
654.985	36038.16
655.337	35963.81
655.688	36005.17
656.039	36040.2
656.391	35828.45
656.742	35788.23
657.094	35796.36
657.445	36072.06
657.796	35865.06
658.147	35827.09
658.498	35764.95
658.849	35897.15
659.2	35882.69
659.551	35692.86
659.902	35797.94
660.253	35671.84
660.604	35870.48
660.955	35615.12
661.306	35737.61
661.656	35611.51
662.007	35721.11
662.358	35786.42
662.708	35757.94
663.059	35757.04
663.409	35448.57
663.76	35803.82
664.11	35787.55
664.461	35642.24
664.811	35755.91
665.161	35669.36
665.511	35684.27
665.862	35677.95
666.212	35787.55
666.562	35686.53
666.912	35564.05
667.262	35623.94
667.612	35633.43
667.962	35622.13
668.312	35564.95
668.662	35719.75
669.011	35657.83
669.361	35472.75
669.711	35477.05
670.06	35585.29
670.41	35389.14
670.76	35345.98
671.109	35571.96
671.459	35559.76
671.808	35465.75
672.157	35522.24
672.507	35086.32
672.856	35277.28
673.205	35337.16
673.554	35386.2
673.904	35307.11
674.253	35547.33
674.602	35385.52
674.951	34870.28
675.3	34735.82
675.649	35256.04
675.998	35134.46
676.346	35310.95
676.695	35256.26
677.044	34943.95
677.393	35119.77
677.741	35281.8
678.09	35119.77
678.438	34967.46
678.787	35094.23
679.135	35129.03
679.484	34751.87
679.832	34945.76
680.181	34823.05
680.529	34874.8
680.877	34717.75
681.225	34713.68
681.573	34936.27
681.922	34585.55
682.27	34626
682.618	34791.42
682.966	34550.07
683.314	34657.18
683.661	34588.03
684.009	34325.44
684.357	34290.64
684.705	34302.84
685.053	34292.22
685.4	34129.29
685.748	34135.84
686.095	34053.13
686.443	34072.11
686.79	33918.22
687.138	33888.16
687.485	33794.38
687.832	33861.04
688.18	33743.99
688.527	33568.85
688.874	33706.02
689.221	33531.56
689.568	33374.5
689.915	33291.57
690.262	33398.91
690.609	33191.46
690.956	33199.82
691.303	33124.79
691.65	33031.69
691.997	33056.09
692.344	32887.06
692.69	32782.88
693.037	32924.12
693.383	32615.2
693.73	32735.2
694.077	32428.09
694.423	32552.38
694.769	32350.12
695.116	32286.17
695.462	32211.14
695.808	32202.33
696.155	32218.6
696.501	32028.32
696.847	32008.89
697.193	31882.79
697.539	31916.69
697.885	31636.7
698.231	31645.06
698.577	31478.73
698.923	31395.8
699.269	31483.93
699.614	31221.11
699.96	31261.34
700.306	31304.5
700.651	31064.73
700.997	31011.18
701.342	30964.62
701.688	30905.87
702.033	30728.02
702.379	30737.51
702.724	30706.78
703.069	30686.89
703.415	30382.27
703.76	30261.37
704.105	30382.04
704.45	30261.14
704.795	30126.45
705.14	30105.66
705.485	30009.62
705.83	29849.85
706.175	30009.39
706.52	29914.48
706.865	29760.14
707.209	29786.12
707.554	29571.67
707.899	29666.8
708.243	29513.59
708.588	29534.6
708.932	29350.43
709.277	29351.56
709.621	29324.89
709.966	29086.25
710.31	29165.35
710.654	28961.29
710.998	28944.56
711.342	28971
711.687	28885.58
712.031	28720.39
712.375	28602.2
712.719	28712.03
713.063	28566.04
713.407	28700.05
713.75	28450.11
714.094	28490.56
714.438	28282.66
714.782	28375.99
715.125	28340.96
715.469	28262.77
715.812	28230.01
716.156	28001.31
716.499	28093.06
716.843	28022.33
717.186	27896.46
717.53	27938.26
717.873	28019.39
718.216	27897.59
718.559	27744.37
718.902	27644.26
719.246	27702.34
719.589	27627.99
719.932	27489.23
720.275	27560.65
720.617	27506.64
720.96	27435.22
721.303	27331.27
721.646	27476.58
721.989	27208.79
722.331	27373.98
722.674	27266.42
723.016	27195.01
723.359	27199.52
723.701	27251.73
724.044	27035.69
724.386	26963.82
724.729	27004.73
725.071	27002.24
725.413	26965.63
725.755	26837.73
726.097	26808.57
726.439	26666.21
726.782	26630.95
727.124	26735.13
727.465	26552.76
727.807	26560.22
728.149	26523.61
728.491	26449.04
728.833	26467.57
729.175	26393.9
729.516	26325.88
729.858	26310.28
730.199	26315.48
730.541	26195.48
730.882	26172.66
731.224	26251.53
731.565	26119.1
731.906	26059.89
732.248	26112.32
732.589	26023.96
732.93	25957.52
733.271	25958.2
733.612	25961.37
733.953	25886.34
734.294	25843.85
734.635	25723.18
734.976	25846.79
735.317	25616.06
735.658	25657.42
735.999	25677.08
736.339	25440.93
736.68	25735.16
737.021	25579
737.361	25316.18
737.702	25560.92
738.042	25520.25
738.383	25343.98
738.723	25477.76
739.063	25268.28
739.404	25430.31
739.744	25355.05
740.084	25255.4
740.424	25183.98
740.764	25205
741.104	25184.89
741.444	25014.95
741.784	25077.09
742.124	25035.51
742.464	25000.49
742.804	24969.98
743.143	24895.18
743.483	24919.13
743.823	24784
744.162	24824.9
744.502	24891.79
744.841	24668.07
745.181	24780.38
745.52	24630.1
745.86	24720.27
746.199	24659.93
746.538	24687.73
746.877	24567.28
747.216	24636.65
747.556	24476.66
747.895	24473.72
748.234	24324.12
748.573	24375.64
748.911	24318.24
749.25	24298.36
749.589	24192.37
749.928	24086.84
750.267	24203.45
750.605	24106.5
750.944	24123
751.283	24018.37
751.621	23909.89
751.96	23877.8
752.298	23971.81
752.636	23862.44
752.975	23737.47
753.313	23648.66
753.651	23795.55
753.989	23699.28
754.327	23558.72
754.666	23471.49
755.004	23517.36
755.342	23412.05
755.679	23497.25
756.017	23476.01
756.355	23333.86
756.693	23348.78
757.031	23268.1
757.368	23138.61
