Data from hue_22_FLMS001491_00070.txt Node
Date: Tue Feb 07 17:10:30 GMT 2017
User: dcchb
Spectrometer: FLMS00149
Trigger mode: 0
Integration Time (sec): 2.000000E-2
Scans to average: 10
Electric dark correction enabled: true
Nonlinearity correction enabled: false
Boxcar width: 0
XAxis mode: Wavelengths
Number of Pixels in Spectrum: 2048
>>>>>Begin Spectral Data<<<<<
341.393	-11.86
341.776	-11.86
342.16	-11.86
342.543	-71.52
342.927	-88.02
343.31	-63.39
343.693	-60.68
344.077	-60.45
344.46	-76.27
344.843	-45.76
345.226	-46.21
345.61	-40.56
345.993	-22.26
346.376	5.99
346.759	9.38
347.142	24.29
347.525	36.27
347.908	57.74
348.291	62.94
348.674	110.39
349.057	108.58
349.44	107
349.823	134.12
350.206	132.31
350.588	185.64
350.971	202.37
351.354	227
351.737	248.69
352.119	259.32
352.502	257.96
352.884	280.78
353.267	271.07
353.65	279.88
354.032	295.92
354.414	311.29
354.797	311.52
355.179	302.03
355.562	313.1
355.944	330.27
356.326	346.09
356.709	340.44
357.091	327.56
357.473	348.58
357.855	339.09
358.238	351.74
358.62	355.81
359.002	341.57
359.384	342.93
359.766	343.15
360.148	353.55
360.53	351.06
360.912	347.22
361.294	340.67
361.676	332.08
362.057	331.86
362.439	336.83
362.821	315.81
363.203	340.67
363.584	332.31
363.966	316.26
364.348	326.88
364.729	315.13
365.111	327.79
365.493	314.46
365.874	307.45
366.256	328.92
366.637	323.27
367.019	303.16
367.4	333.21
367.781	339.09
368.163	318.07
368.544	328.69
368.925	332.08
369.306	316.26
369.688	337.28
370.069	306.32
370.45	293.66
370.831	312.42
371.212	318.97
371.593	307
371.974	308.58
372.355	314
372.736	320.56
373.117	321.23
373.498	325.53
373.879	341.35
374.26	318.97
374.641	341.8
375.021	334.57
375.402	334.12
375.783	323.27
376.163	340.22
376.544	364.17
376.925	314
377.305	321.91
377.686	334.79
378.066	332.99
378.447	328.01
378.827	346.54
379.208	342.48
379.588	340.22
379.968	322.36
380.349	345.41
380.729	329.37
381.109	319.43
381.489	345.64
381.87	350.84
382.25	332.53
382.63	343.38
383.01	332.53
383.39	349.26
383.77	345.87
384.15	379.54
384.53	356.71
384.91	367.56
385.29	347.22
385.67	353.1
386.049	363.72
386.429	366.43
386.809	346.32
387.189	363.27
387.568	363.27
387.948	356.04
388.328	346.77
388.707	386.09
389.087	368.24
389.466	372.08
389.846	388.35
390.225	386.09
390.605	366.88
390.984	379.09
391.363	396.03
391.743	366.43
392.122	368.46
392.501	388.58
392.881	396.94
393.26	388.13
393.639	379.76
394.018	397.16
394.397	391.06
394.776	389.26
395.155	387.67
395.534	394.9
395.913	379.99
396.292	412.31
396.671	372.53
397.05	397.84
397.429	411.18
397.808	417.5
398.186	388.58
398.565	407.33
398.944	405.07
399.323	403.27
399.701	415.7
400.08	414.34
400.458	414.11
400.837	426.77
401.215	410.5
401.594	408.69
401.972	416.83
402.351	412.31
402.729	421.34
403.107	428.8
403.486	425.19
403.864	430.84
404.242	440.33
404.62	443.04
404.999	411.4
405.377	462.93
405.755	432.19
406.133	439.88
406.511	449.37
406.889	458.41
407.267	438.52
407.645	461.12
408.023	455.69
408.401	479.65
408.779	447.33
409.156	474.22
409.534	469.71
409.912	482.13
410.29	460.89
410.667	485.75
411.045	491.17
411.422	469.71
411.8	485.98
412.178	498.86
412.555	510.38
412.933	495.02
413.31	498.4
413.687	492.08
414.065	509.25
414.442	509.25
414.819	518.74
415.197	521
415.574	514.68
415.951	520.55
416.328	529.14
416.705	535.47
417.082	549.7
417.46	561.68
417.837	534.56
418.214	511.96
418.591	534.79
418.967	522.59
419.344	549.93
419.721	542.02
420.098	530.72
420.475	536.82
420.852	555.8
421.228	571.17
421.605	582.02
421.982	553.32
422.358	585.86
422.735	596.93
423.111	583.37
423.488	589.25
423.864	607.78
424.241	591.51
424.617	588.8
424.994	611.85
425.37	607.55
425.746	610.49
426.123	611.4
426.499	599.87
426.875	636.93
427.251	599.42
427.627	620.44
428.003	641.68
428.379	643.49
428.756	647.55
429.132	646.88
429.507	670.83
429.883	664.73
430.259	664.5
430.635	678.97
431.011	663.82
431.387	689.81
431.763	690.72
432.138	700.43
432.514	718.51
432.89	694.56
433.265	703.6
433.641	728.23
434.016	736.59
434.392	756.48
434.767	748.34
435.143	751.73
435.518	787.44
435.894	768
436.269	782.92
436.644	791.96
437.02	791.28
437.395	792.41
437.77	817.27
438.145	798.51
438.52	803.03
438.895	804.39
439.271	806.19
439.646	820.2
440.021	835.57
440.395	848.23
440.77	833.99
441.145	841.22
441.52	858.17
441.895	851.62
442.27	893.87
442.645	840.54
443.019	839.86
443.394	837.61
443.769	862.01
444.143	888.23
444.518	873.99
444.892	883.48
445.267	909.47
445.641	929.58
446.016	874.89
446.39	923.7
446.764	927.09
447.139	929.35
447.513	952.18
447.887	907.89
448.262	929.58
448.636	953.99
449.01	965.96
449.384	952.86
449.758	961.67
450.132	961.67
450.506	953.31
450.88	987.88
451.254	982.91
451.628	987.66
452.002	997.15
452.376	1003.25
452.75	1007.09
453.123	1015.68
453.497	1038.5
453.871	1038.05
454.244	1066.98
454.618	1052.29
454.992	1080.76
455.365	1067.66
455.739	1057.49
456.112	1127.77
456.486	1122.8
456.859	1109.01
457.232	1136.81
457.606	1149.46
457.979	1175
458.352	1172.96
458.725	1201.66
459.099	1210.7
459.472	1229.69
459.845	1220.65
460.218	1215
460.591	1225.62
460.964	1258.16
461.337	1240.08
461.71	1287.99
462.083	1313.98
462.456	1318.95
462.829	1329.8
463.201	1372.73
463.574	1337.03
463.947	1352.85
464.32	1399.17
464.692	1405.95
465.065	1407.31
465.438	1428.55
465.81	1468.32
466.183	1469.23
466.555	1473.29
466.928	1486.18
467.3	1508.55
467.672	1544.93
468.045	1571.82
468.417	1599.17
468.789	1555.1
469.161	1567.76
469.534	1611.82
469.906	1671.26
470.278	1704.47
470.65	1724.81
471.022	1712.16
471.394	1772.04
471.766	1768.43
472.138	1798.26
472.51	1840.52
472.882	1854.53
473.253	1878.03
473.625	1892.72
473.997	1945.6
474.369	1961.42
474.74	1993.96
475.112	2010
475.484	2077.12
475.855	2085.93
476.227	2118.93
476.598	2155.54
476.97	2210.68
477.341	2261.07
477.713	2294.97
478.084	2295.42
478.455	2368.86
478.827	2374.06
479.198	2459.71
479.569	2508.07
479.94	2523.89
480.311	2537.45
480.682	2623.77
481.053	2702.41
481.424	2721.4
481.795	2801.4
482.166	2814.05
482.537	2887.72
482.908	2917.78
483.279	2946.48
483.65	3030.32
484.021	3092.01
484.391	3147.37
484.762	3191.89
485.133	3176.75
485.503	3286.81
485.874	3355.05
486.244	3388.5
486.615	3437.31
486.985	3464.65
487.356	3556.18
487.726	3596.63
488.097	3670.07
488.467	3707.36
488.837	3755.27
489.207	3857.41
489.578	3899.45
489.948	3932.89
490.318	4006.56
490.688	4045.88
491.058	4022.61
491.428	4166.11
491.798	4202.04
492.168	4282.49
492.538	4333.11
492.908	4353.44
493.278	4420.79
493.648	4414.01
494.017	4521.35
494.387	4558.19
494.757	4570.61
495.126	4611.07
495.496	4668.69
495.866	4697.39
496.235	4749.82
496.605	4778.29
496.974	4889.25
497.344	4872.75
497.713	4907.33
498.082	4948.01
498.452	5057.83
498.821	5046.53
499.19	5080.21
499.559	5177.15
499.928	5185.06
500.298	5207.43
500.667	5248.34
501.036	5258.05
501.405	5307.32
501.774	5286.53
502.143	5320.2
502.512	5386.86
502.88	5420.08
503.249	5430.93
503.618	5501.89
503.987	5552.51
504.356	5555.45
504.724	5627.54
505.093	5559.74
505.462	5611.04
505.83	5653.3
506.199	5688.78
506.567	5791.15
506.936	5753.86
507.304	5854.87
507.672	5888.09
508.041	5925.83
508.409	5969.67
508.777	5985.04
509.145	6001.31
509.514	6020.52
509.882	6008.09
510.25	6074.98
510.618	6138.93
510.986	6077.69
511.354	6152.49
511.722	6188.88
512.09	6245.6
512.458	6223.23
512.826	6246.5
513.193	6325.6
513.561	6376.22
513.929	6340.51
514.297	6478.59
514.664	6454.18
515.032	6422.99
515.4	6539.6
515.767	6498.93
516.135	6547.74
516.502	6532.6
516.869	6620.05
517.237	6620.28
517.604	6630.45
517.972	6632.48
518.339	6721.07
518.706	6737.79
519.073	6712.03
519.44	6793.61
519.808	6876.32
520.175	6847.39
520.542	6859.14
520.909	6913.83
521.276	6914.51
521.643	7017.33
522.009	7052.36
522.376	7104.11
522.743	7106.82
523.11	7158.34
523.477	7252.13
523.843	7209.19
524.21	7291.45
524.577	7368.05
524.943	7289.64
525.31	7421.84
525.676	7512.23
526.043	7495.06
526.409	7524.21
526.776	7588.61
527.142	7587.48
527.508	7611.21
527.874	7741.38
528.241	7791.09
528.607	7759.23
528.973	7872.67
529.339	7869.74
529.705	7938.21
530.071	7989.51
530.437	8012.56
530.803	8070.64
531.169	8120.58
531.535	8113.35
531.901	8141.37
532.267	8173.46
532.632	8243.96
532.998	8202.61
533.364	8282.83
533.73	8299.33
534.095	8420.68
534.461	8422.94
534.826	8447.57
535.192	8497.97
535.557	8603.73
535.923	8535.71
536.288	8543.17
536.653	8686.44
537.019	8609.15
537.384	8697.06
537.749	8712.43
538.114	8714.91
538.479	8745.87
538.845	8818.64
539.21	8817.73
539.575	8835.81
539.94	8912.87
540.305	8947
540.67	8903.61
541.034	8954
541.399	9010.72
541.764	9083.26
542.129	9146.09
542.494	9139.08
542.858	9165.3
543.223	9182.92
543.587	9285.07
543.952	9262.92
544.316	9347.44
544.681	9293.2
545.045	9390.6
545.41	9390.15
545.774	9461.11
546.138	9517.83
546.503	9541.78
546.867	9518.73
547.231	9658.16
547.595	9618.17
547.959	9668.56
548.324	9647.54
548.688	9704.94
549.052	9723.93
549.416	9781.32
549.779	9744.94
550.143	9762.34
550.507	9886.18
550.871	9918.5
551.235	9913.52
551.599	9916.46
551.962	9986.52
552.326	10000.08
552.689	10085.05
553.053	10017.93
553.417	10123.69
553.78	10271.03
554.143	10188.32
554.507	10254.31
554.87	10312.61
555.234	10403.46
555.597	10291.14
555.96	10329.78
556.323	10392.16
556.686	10495.43
557.05	10555.77
557.413	10522.1
557.776	10545.82
558.139	10590.79
558.502	10584.47
558.865	10600.29
559.228	10688.19
559.59	10735.88
559.953	10748.76
560.316	10755.54
560.679	10827.62
561.041	10962.54
561.404	10988.75
561.767	10970.22
562.129	11003.89
562.492	11064
562.854	11163.89
563.217	11106.94
563.579	11132.93
563.941	11240.27
564.304	11281.4
564.666	11308.06
565.028	11351
565.39	11365.24
565.753	11367.05
566.115	11391
566.477	11503.31
566.839	11522.97
567.201	11590.77
567.563	11712.12
567.925	11700.14
568.287	11760.48
568.648	11709.41
569.01	11845.45
569.372	11829.63
569.734	11824.43
570.095	11965.45
570.457	12018.78
570.819	12054.03
571.18	11962.96
571.542	12124.54
571.903	12144.65
572.265	12199.34
572.626	12239.34
572.987	12351.65
573.349	12458.99
573.71	12384.87
574.071	12510.97
574.432	12546.68
574.794	12698.76
575.155	12799.55
575.516	12668.93
575.877	12815.82
576.238	12957.96
576.599	12975.82
576.96	13069.6
577.32	13096.49
577.681	13185.3
578.042	13330.84
578.403	13360.21
578.763	13443.15
579.124	13546.88
579.485	13700.77
579.845	13790.03
580.206	13844.04
580.566	14026.18
580.927	14173.07
581.287	14326.06
581.648	14387.76
582.008	14606.73
582.368	14775.54
582.728	14866.61
583.089	15080.85
583.449	15242.2
583.809	15356.32
584.169	15569.42
584.529	15723.77
584.889	16014.61
585.249	16085.57
585.609	16290.76
585.969	16595.16
586.329	16763.06
586.688	16994.47
587.048	17204.86
587.408	17371.41
587.768	17626.32
588.127	17954.9
588.487	18113.31
588.846	18533.86
589.206	18651.83
589.565	18896.57
589.925	19259.27
590.284	19479.83
590.643	19756.43
591.003	20170.66
591.362	20387.37
591.721	20602.96
592.08	20918.21
592.44	21312.55
592.799	21554.35
593.158	21816.71
593.517	22144.16
593.876	22566.3
594.235	22822.34
594.593	23255.32
594.952	23462.77
595.311	23743.9
595.67	24043.55
596.029	24622.29
596.387	24903.41
596.746	25179.34
597.104	25440.57
597.463	25761.02
597.822	26165.07
598.18	26424.05
598.538	26742.91
598.897	27248.66
599.255	27247.53
599.613	28073.73
599.972	28080.05
600.33	28552.81
600.688	28660.83
601.046	29218.1
601.404	29517.75
601.762	29712.55
602.12	30204.74
602.478	30362.7
602.836	30835.01
603.194	30951.84
603.552	31358.16
603.91	31466.4
604.268	31917.92
604.625	32040.63
604.983	32439.94
605.341	32699.37
605.698	33207.15
606.056	33468.39
606.413	33615.05
606.771	34009.61
607.128	34289.15
607.485	34439.89
607.843	34662.25
608.2	35169.13
608.557	35363.93
608.914	35550.59
609.272	35991.71
609.629	36211.82
609.986	36424.24
610.343	36623.78
610.7	37194.16
611.057	37117.1
611.414	37287.27
611.771	37518
612.127	37961.15
612.484	38061.71
612.841	38473
613.198	38510.06
613.554	38704.86
613.911	39039.09
614.267	39202.92
614.624	39315.24
614.98	39600.2
615.337	39988.89
615.693	39973.53
616.05	40115.89
616.406	40378.26
616.762	40484.47
617.118	40675.88
617.475	40947.51
617.831	41047.85
618.187	41308.41
618.543	41476.08
618.899	41804.89
619.255	41698.68
619.611	41947.94
619.967	42246.23
620.323	42327.14
620.678	42414.14
621.034	42457.75
621.39	42480.58
621.746	42602.83
622.101	43130.05
622.457	42968.47
622.812	43179.09
623.168	43251.18
623.523	43370.72
623.879	43672.86
624.234	43388.8
624.589	43677.61
624.945	43670.15
625.3	43810.03
625.655	43842.58
626.01	43923.48
626.365	44098.39
626.72	44184.04
627.075	44285.05
627.43	44242.34
627.785	44278.27
628.14	44357.82
628.495	44497.93
628.85	44432.17
629.205	44434.2
629.559	44681.88
629.914	44531.37
630.269	44634.42
630.623	44545.61
630.978	44715.1
631.332	44887.75
631.687	45108.98
632.041	44910.12
632.396	44987.63
632.75	44814.08
633.104	44964.58
633.459	44870.12
633.813	44888.42
634.167	44962.32
634.521	45055.65
634.875	45072.6
635.229	45108.08
635.583	44839.16
635.937	44916.67
636.291	44969.78
636.645	44981.53
636.999	45021.98
637.352	45139.49
637.706	44854.07
638.06	45073.5
638.413	44980.17
638.767	44844.13
639.121	44956.22
639.474	44636.23
639.828	44901.53
640.181	44995.77
640.534	45014.97
640.888	44875.77
641.241	44738.6
641.594	44937.24
641.947	44927.52
642.301	44838.26
642.654	44877.58
643.007	44923.68
643.36	44810.01
643.713	44788.77
644.066	44928.88
644.419	44746.28
644.771	44676.68
645.124	44228.55
645.477	44224.71
645.83	43925.06
646.182	43775.69
646.535	43677.83
646.888	43838.06
647.24	43598.74
647.593	43932.29
647.945	43757.15
648.298	43632.64
648.65	43647.55
649.002	43344.28
649.355	43669.25
649.707	43606.2
650.059	43817.72
650.411	44281.66
650.763	44284.6
651.115	44683.23
651.467	44546.74
651.819	44546.74
652.171	44423.13
652.523	44408.66
652.875	44475.78
653.227	44313.75
653.578	44548.77
653.93	44403.24
654.282	44283.02
654.633	44128.67
654.985	44219.52
655.337	44299.29
655.688	44437.59
656.039	44462.45
656.391	44228.78
656.742	44209.57
657.094	44267.2
657.445	44297.71
657.796	44304.94
658.147	44242.34
658.498	43990.59
658.849	44299.74
659.2	44240.31
659.551	44123.92
659.902	44329.79
660.253	44205.5
660.604	44318.72
660.955	44026.75
661.306	44240.53
661.656	44103.81
662.007	44151.04
662.358	44124.15
662.708	44206.86
663.059	44221.1
663.409	43873.76
663.76	44119.63
664.11	44155.56
664.461	44199.18
664.811	44103.13
665.161	44010.71
665.511	44023.14
665.862	44036.24
666.212	43972.74
666.562	44049.58
666.912	43843.48
667.262	44045.73
667.612	44075.34
667.962	44050.71
668.312	44044.83
668.662	44203.24
669.011	44097.94
669.361	43917.6
669.711	43878.06
670.06	43964.15
670.41	43890.71
670.76	43748.34
671.109	43919.64
671.459	43775.46
671.808	43793.99
672.157	44151.04
672.507	43630.15
672.856	43773.88
673.205	43876.47
673.554	43761.9
673.904	43591.96
674.253	43966.87
674.602	43751.28
674.951	43259.54
675.3	42957.4
675.649	43816.36
675.998	43572.98
676.346	43671.96
676.695	43701.11
677.044	43455.69
677.393	43546.99
677.741	43669.7
678.09	43517.16
678.438	43408.46
678.787	43561.45
679.135	43464.96
679.484	43285.08
679.832	43364.62
680.181	43208.92
680.529	43343.61
680.877	43313.32
681.225	43227
681.573	43461.57
681.922	43077.62
682.27	43034.91
682.618	42979.77
682.966	42815.26
683.314	42923.5
683.661	42748.37
684.009	42608.94
684.357	42594.02
684.705	42512.44
685.053	42546.34
685.4	42564.42
685.748	42460.69
686.095	42270.19
686.443	42226.8
686.79	42055.5
687.138	42092.34
687.485	42219.57
687.832	41995.84
688.18	42115.62
688.527	41961.04
688.874	41883.53
689.221	41977.09
689.568	41795.62
689.915	41574.84
690.262	41628.62
690.609	41558.34
690.956	41427.27
691.303	41211.91
691.65	41170.1
691.997	41138.69
692.344	40909.09
692.69	40999.26
693.037	40877.68
693.383	40462.78
693.73	40713.84
694.077	40623
694.423	40500.74
694.769	40449.22
695.116	40435.43
695.462	40312.95
695.808	40210.58
696.155	40196.8
696.501	39874.32
696.847	39902.34
697.193	39594.78
697.539	39800.42
697.885	39490.83
698.231	39489.47
698.577	39527.21
698.923	39525.63
699.269	39163.6
699.614	39082.48
699.96	38903.72
700.306	39065.07
700.651	38821.24
700.997	38743.95
701.342	38549.61
701.688	38683.39
702.033	38321.59
702.379	38414.92
702.724	38333.79
703.069	38420.35
703.415	37945.1
703.76	37973.58
704.105	37996.85
704.45	37952.34
704.795	37750.31
705.14	37621.72
705.485	37655.62
705.83	37509.41
706.175	37619.46
706.52	37357.1
706.865	37174.95
707.209	37179.47
707.554	37150.55
707.899	37134.28
708.243	36871.23
708.588	36884.57
708.932	36784.23
709.277	36741.52
709.621	36681.18
709.966	36454.52
710.31	36455.65
710.654	36354.41
710.998	36278.03
711.342	36259.27
711.687	36093.85
712.031	35989.9
712.375	35852.5
712.719	35974.08
713.063	35948.09
713.407	35894.99
713.75	35670.81
714.094	35619.06
714.438	35766.63
714.782	35540.87
715.125	35426.75
715.469	35574.09
715.812	35435.79
716.156	35112.41
716.499	35145.4
716.843	35194.89
717.186	35102.69
717.53	35214.55
717.873	35166.65
718.216	35075.12
718.559	34828.12
718.902	34594.46
719.246	34881.91
719.589	34551.07
719.932	34452.31
720.275	34619.99
720.617	34554.68
720.96	34451.86
721.303	34401.24
721.646	34457.74
721.989	34128.26
722.331	34252.32
722.674	34107.24
723.016	34064.53
723.359	33987.02
723.701	34039.9
724.044	33887.58
724.386	33652.34
724.729	33881.26
725.071	33714.25
725.413	33796.29
725.755	33727.36
726.097	33540.7
726.439	33351.78
726.782	33477.65
727.124	33688.04
727.465	33344.77
727.807	33372.34
728.149	33261.84
728.491	33224.32
728.833	33221.16
729.175	33226.36
729.516	33058.45
729.858	33119.69
730.199	33080.83
730.541	33072.46
730.882	32931.45
731.224	32978.91
731.565	32780.72
731.906	32686.26
732.248	32701.4
732.589	32623.89
732.93	32608.52
733.271	32631.57
733.612	32577.11
733.953	32484.23
734.294	32266.84
734.635	32387.74
734.976	32415.53
735.317	32258.47
735.658	32300.05
735.999	32289.43
736.339	32317.46
736.68	32308.87
737.021	32238.14
737.361	32067.52
737.702	32145.93
738.042	32071.81
738.383	31987.07
738.723	31981.19
739.063	31898.03
739.404	32133.96
739.744	32006.28
740.084	31836.79
740.424	31825.94
740.764	31767.41
741.104	31832.5
741.444	31670.01
741.784	31491.49
742.124	31581.43
742.464	31515.89
742.804	31470.47
743.143	31448.1
743.483	31446.29
743.823	31260.31
744.162	31159.97
744.502	31230.03
744.841	31080.65
745.181	31266.64
745.52	31088.79
745.86	31156.13
746.199	31033.42
746.538	31028
746.877	31045.85
747.216	31058.73
747.556	30857.61
747.895	30908.68
748.234	30709.81
748.573	30716.59
748.911	30698.29
749.25	30738.29
749.589	30538.97
749.928	30685.63
750.267	30613.09
750.605	30623.71
750.944	30449.26
751.283	30424.85
751.621	30397.05
751.96	30242.93
752.298	30266.44
752.636	30224.18
752.975	30090.62
753.313	29972.43
753.651	30042.94
753.989	30014.24
754.327	29867.58
754.666	29725.66
755.004	29732.44
755.342	29757.97
755.679	29731.53
756.017	29576.96
756.355	29591.2
756.693	29448.15
757.031	29567.92
757.368	29329.74
757.706	29322.51
758.044	29248.61
758.381	29274.6
758.719	29275.73
759.056	29250.42
