Data from hue_70_FLMS001491_69.txt Node
Date: Mon Feb 06 15:21:17 GMT 2017
User: dcchb
Spectrometer: FLMS00149
Trigger mode: 0
Integration Time (sec): 2.000000E-2
Scans to average: 10
Electric dark correction enabled: true
Nonlinearity correction enabled: false
Boxcar width: 0
XAxis mode: Wavelengths
Number of Pixels in Spectrum: 2048
>>>>>Begin Spectral Data<<<<<
341.393	-2.32
341.776	-2.32
342.16	-2.32
342.543	-66.95
342.927	-86.83
343.31	-74.4
343.693	-75.99
344.077	-61.3
344.46	-77.34
344.843	-39.38
345.226	-47.74
345.61	-33.5
345.993	-1.64
346.376	-20.39
346.759	11.47
347.142	19.38
347.525	37.46
347.908	58.7
348.291	89.43
348.674	99.38
349.057	115.87
349.44	140.96
349.823	149.09
350.206	165.81
350.588	203.33
350.971	210.11
351.354	223.67
351.737	244.68
352.119	271.57
352.502	261.86
352.884	271.8
353.267	291.46
353.65	295.98
354.032	300.5
354.414	306.6
354.797	313.83
355.179	309.77
355.562	317.45
355.944	309.54
356.326	331.91
356.709	352.02
357.091	341.63
357.473	353.15
357.855	347.05
358.238	327.17
358.62	357.67
359.002	328.52
359.384	331.23
359.766	348.41
360.148	335.53
360.53	331.23
360.912	344.12
361.294	341.63
361.676	329.43
362.057	319.26
362.439	314.74
362.821	327.84
363.203	325.13
363.584	331.91
363.966	326.26
364.348	321.07
364.729	322.19
365.111	317.9
365.493	310.44
365.874	325.36
366.256	310.44
366.637	295.08
367.019	329.88
367.4	312.25
367.781	307.73
368.163	293.5
368.544	310.67
368.925	303.21
369.306	331.46
369.688	307.96
370.069	309.99
370.45	314.06
370.831	321.52
371.212	317
371.593	327.62
371.974	312.25
372.355	317.9
372.736	309.09
373.117	320.16
373.498	320.16
373.879	348.63
374.26	325.81
374.641	316.55
375.021	319.94
375.402	323.1
375.783	335.75
376.163	316.77
376.544	323.78
376.925	335.08
377.305	335.3
377.686	314.96
378.066	327.17
378.447	330.33
378.827	328.3
379.208	306.83
379.588	332.82
379.968	325.36
380.349	324.68
380.729	311.8
381.109	330.33
381.489	329.65
381.87	338.47
382.25	332.82
382.63	331.91
383.01	350.67
383.39	337.34
383.77	328.52
384.15	340.05
384.53	350.67
384.91	344.12
385.29	368.97
385.67	350.22
386.049	349.09
386.429	341.4
386.809	344.34
387.189	364.45
387.568	356.09
387.948	345.47
388.328	339.14
388.707	376.2
389.087	360.84
389.466	351.12
389.846	375.53
390.225	364.23
390.605	350.44
390.984	362.42
391.363	335.75
391.743	379.59
392.122	346.83
392.501	356.77
392.881	375.75
393.26	375.75
393.639	371.01
394.018	341.63
394.397	385.47
394.776	371.91
395.155	380.05
395.534	375.07
395.913	376.66
396.292	393.83
396.671	363.32
397.05	356.77
397.429	383.66
397.808	368.52
398.186	387.96
398.565	374.85
398.944	384.79
399.323	386.37
399.701	380.05
400.08	369.43
400.458	385.24
400.837	393.38
401.215	387.5
401.594	394.51
401.972	397.45
402.351	387.05
402.729	403.77
403.107	389.99
403.486	403.1
403.864	407.16
404.242	412.81
404.62	405.58
404.999	390.44
405.377	404.9
405.755	411.91
406.133	396.09
406.511	396.32
406.889	421.4
407.267	410.33
407.645	420.05
408.023	421.4
408.401	422.53
408.779	441.29
409.156	422.31
409.534	427.05
409.912	434.51
410.29	445.58
410.667	436.54
411.045	438.12
411.422	429.08
411.8	450.78
412.178	461.17
412.555	455.3
412.933	451.23
413.31	470.44
413.687	451.68
414.065	472.7
414.442	452.59
414.819	461.85
415.197	480.38
415.574	462.08
415.951	492.81
416.328	453.72
416.705	478.57
417.082	482.19
417.46	500.27
417.837	477.22
418.214	494.85
418.591	485.58
418.967	480.38
419.344	525.13
419.721	475.64
420.098	494.62
420.475	498.46
420.852	502.53
421.228	515.64
421.605	545.69
421.982	520.61
422.358	530.78
422.735	523.09
423.111	520.38
423.488	533.71
423.864	516.09
424.241	542.98
424.617	547.27
424.994	547.95
425.37	555.18
425.746	541.85
426.123	562.64
426.499	547.27
426.875	544.79
427.251	564.9
427.627	564
428.003	562.19
428.379	583.66
428.756	598.8
429.132	578.23
429.507	608.52
429.883	580.49
430.259	590.21
430.635	588.63
431.011	589.76
431.387	598.12
431.763	604.45
432.138	622.98
432.514	615.07
432.89	640.38
433.265	632.92
433.641	651.68
434.016	637.21
434.392	636.08
434.767	663.65
435.143	639.7
435.518	659.36
435.894	675.18
436.269	658.68
436.644	673.6
437.02	679.7
437.395	683.09
437.77	714.05
438.145	713.37
438.52	692.13
438.895	712.24
439.271	702.98
439.646	726.48
440.021	702.3
440.395	732.35
440.77	711.11
441.145	728.29
441.52	724.44
441.895	729.42
442.27	728.96
442.645	743.43
443.019	735.07
443.394	736.42
443.769	737.78
444.143	745.46
444.518	749.75
444.892	791.56
445.267	765.57
445.641	802.18
446.016	779.81
446.39	773.93
446.764	775.06
447.139	783.2
447.513	795.4
447.887	800.83
448.262	813.03
448.636	818
449.01	814.84
449.384	809.64
449.758	835.4
450.132	829.07
450.506	817.78
450.88	808.51
451.254	832.69
451.628	849.86
452.002	849.86
452.376	829.3
452.75	852.12
453.123	878.56
453.497	893.71
453.871	879.47
454.244	894.38
454.618	881.5
454.992	923.76
455.365	931.67
455.739	918.56
456.112	945.46
456.486	954.49
456.859	960.82
457.232	957.21
457.606	995.4
457.979	977.32
458.352	1012.57
458.725	1021.39
459.099	1022.52
459.472	1026.81
459.845	1039.46
460.218	1062.29
460.591	1058.67
460.964	1079.69
461.337	1103.42
461.71	1105.23
462.083	1139.57
462.456	1145.22
462.829	1170.08
463.201	1166.92
463.574	1149.97
463.947	1166.47
464.32	1207.14
464.692	1195.17
465.065	1209.18
465.438	1220.7
465.81	1249.4
466.183	1278.33
466.555	1290.08
466.928	1287.37
467.3	1321.94
467.672	1332.56
468.045	1377.08
468.417	1386.12
468.789	1369.63
469.161	1390.19
469.534	1444.88
469.906	1443.52
470.278	1500.7
470.65	1485.33
471.022	1555.83
471.394	1587.47
471.766	1609.17
472.138	1635.15
472.51	1641.03
472.882	1691.2
473.253	1689.62
473.625	1749.05
473.997	1806.9
474.369	1827.69
474.74	1839.67
475.112	1928.93
475.484	1930.51
475.855	1994.02
476.227	2030.85
476.598	2085.76
476.97	2146.33
477.341	2195.59
477.713	2272.88
478.084	2302.93
478.455	2340.9
478.827	2380.67
479.198	2485.53
479.569	2536.37
479.94	2633.55
480.311	2729.14
480.682	2798.74
481.053	2860.66
481.424	2955.57
481.795	3011.39
482.166	3104.04
482.537	3169.8
482.908	3280.54
483.279	3340.42
483.65	3474.43
484.021	3559.4
484.391	3641.66
484.762	3735.66
485.133	3792.84
485.503	3931.37
485.874	4033.74
486.244	4117.58
486.615	4279.38
486.985	4377.91
487.356	4517.34
487.726	4580.84
488.097	4771.57
488.467	4824.22
488.837	5015.63
489.207	5128.17
489.578	5226.02
489.948	5336.07
490.318	5505.11
490.688	5600.7
491.058	5785.78
491.428	5867.36
491.798	6032.78
492.168	6209.5
492.538	6328.14
492.908	6443.62
493.278	6621.92
493.648	6705.76
494.017	6881.34
494.387	7007.89
494.757	7123.82
495.126	7328.79
495.496	7379.86
495.866	7540.54
496.235	7684.71
496.605	7888.55
496.974	7999.28
497.344	8066.17
497.713	8152.05
498.082	8347.75
498.452	8509.1
498.821	8625.25
499.19	8735.98
499.559	8901.63
499.928	9015.3
500.298	9132.13
500.667	9257.78
501.036	9326.7
501.405	9523.08
501.774	9596.75
502.143	9760.82
502.512	9816.63
502.88	10022.73
503.249	10081.94
503.618	10074.71
503.987	10311.99
504.356	10441.48
504.724	10571.64
505.093	10582.26
505.462	10721.92
505.83	10838.98
506.199	10978.64
506.567	11155.36
506.936	11177.95
507.304	11350.15
507.672	11436.7
508.041	11532.75
508.409	11655.91
508.777	11770.48
509.145	11893.42
509.514	12013.64
509.882	12135.67
510.25	12255.67
510.618	12354.65
510.986	12318.04
511.354	12576.56
511.722	12718.25
512.09	12904.91
512.458	12779.95
512.826	12953.95
513.193	13027.85
513.561	13057.91
513.929	13244.12
514.297	13397.56
514.664	13537.21
515.032	13487.95
515.4	13661.51
515.767	13801.39
516.135	13881.61
516.502	13763.42
516.869	14039.57
517.237	14042.06
517.604	14129.97
517.972	14305.1
518.339	14349.17
518.706	14431.43
519.073	14483.86
519.44	14588.94
519.808	14724.75
520.175	14731.99
520.542	14960.91
520.909	15039.32
521.276	15067.57
521.643	15251.52
522.009	15328.81
522.376	15344.62
522.743	15465.98
523.11	15623.26
523.477	15666.42
523.843	15787.78
524.21	15915.46
524.577	16086.53
524.943	16130.14
525.31	16082.68
525.676	16369.68
526.043	16456.23
526.409	16397.03
526.776	16676.12
527.142	16617.59
527.508	16792.04
527.874	16810.35
528.241	16944.13
528.607	16921.98
528.973	17070.23
529.339	17101.64
529.705	17226.61
530.071	17351.58
530.437	17348.19
530.803	17365.14
531.169	17535.08
531.535	17486.04
531.901	17584.57
532.267	17526.04
532.632	17807.61
532.998	17775.07
533.364	17806.48
533.73	17833.82
534.095	17930.09
534.461	17991.56
534.826	18038.34
535.192	18114.72
535.557	18234.49
535.923	18110.65
536.288	18152.91
536.653	18227.94
537.019	18268.39
537.384	18328.28
537.749	18371.89
538.114	18467.93
538.479	18353.13
538.845	18415.5
539.21	18441.49
539.575	18473.13
539.94	18530.76
540.305	18544.54
540.67	18505.9
541.034	18562.85
541.399	18731.88
541.764	18673.35
542.129	18743.41
542.494	18662.73
542.858	18810.52
543.223	18666.35
543.587	18790.18
543.952	18790.86
544.316	18839
544.681	18785.66
545.045	18882.61
545.41	18995.15
545.774	18971.42
546.138	18956.96
546.503	18919.67
546.867	18946.56
547.231	19064.53
547.595	19071.76
547.959	19048.93
548.324	18995.6
548.688	19110.63
549.052	19079.67
549.416	19158.54
549.779	19039.67
550.143	19245.31
550.507	19167.8
550.871	19174.35
551.235	19259.32
551.599	19292.54
551.962	19200.12
552.326	19374.35
552.689	19411.41
553.053	19307.46
553.417	19382.26
553.78	19570.5
554.143	19500.22
554.507	19572.76
554.87	19593.1
555.234	19735.47
555.597	19551.29
555.96	19658.86
556.323	19740.67
556.686	19627.45
557.05	19808.24
557.413	19775.02
557.776	19870.61
558.139	19990.6
558.502	19925.97
558.865	19982.24
559.228	20069.92
559.59	20150.37
559.953	20115.57
560.316	20293.42
560.679	20309.47
561.041	20424.94
561.404	20462.91
561.767	20519.18
562.129	20479.63
562.492	20659.06
562.854	20675.11
563.217	20651.38
563.579	20739.96
563.941	20846.63
564.304	20905.38
564.666	21001.2
565.028	20914.42
565.39	21060.18
565.753	21084.59
566.115	21176.11
566.477	21154.19
566.839	21206.62
567.201	21328.42
567.563	21349.66
567.925	21537
568.287	21571.13
568.648	21438.48
569.01	21674.63
569.372	21704.68
569.734	21702.42
570.095	21804.12
570.457	21875.98
570.819	21795.53
571.18	21955.98
571.542	21946.49
571.903	22013.15
572.265	22085.24
572.626	22100.15
572.987	22125.92
573.349	22207.04
573.71	22173.6
574.071	22242.52
574.432	22383.99
574.794	22600.93
575.155	22360.49
575.516	22424.44
575.877	22544.44
576.238	22562.51
576.599	22670.76
576.96	22558.22
577.32	22625.11
577.681	22593.7
578.042	22703.75
578.403	22764.99
578.763	22681.83
579.124	22757.31
579.485	22904.2
579.845	22892.22
580.206	22832.79
580.566	22750.53
580.927	22736.29
581.287	22939.23
581.648	22791.43
582.008	22961.15
582.368	22996.63
582.728	22972.22
583.089	22879.34
583.449	22899
583.809	22998.21
584.169	22888.83
584.529	22877.53
584.889	23160.69
585.249	23033.69
585.609	22881.83
585.969	23062.39
586.329	22900.81
586.688	22935.84
587.048	22979.9
587.408	22942.62
587.768	22995.72
588.127	22946.68
588.487	22909.62
588.846	23041.15
589.206	22864.65
589.565	22932
589.925	22972.67
590.284	22898.32
590.643	23013.12
591.003	23061.48
591.362	23015.84
591.721	22932.45
592.08	22906.46
592.44	23011.99
592.799	22974.03
593.158	23021.03
593.517	22997.98
593.876	23030.98
594.235	22953.92
594.593	22921.15
594.952	22998.89
595.311	22979
595.67	23112.78
596.029	23069.39
596.387	23081.82
596.746	23136.28
597.104	23020.13
597.463	22990.3
597.822	23153.01
598.18	23048.15
598.538	23081.6
598.897	23148.49
599.255	22891.09
599.613	23317.97
599.972	23218.77
600.33	23163.4
600.688	23172.67
601.046	23106.91
601.404	23240.46
601.762	23150.97
602.12	23384.87
602.478	23394.58
602.836	23306.45
603.194	23284.08
603.552	23276.62
603.91	23200.24
604.268	23350.97
604.625	23185.32
604.983	23387.8
605.341	23305.32
605.698	23381.02
606.056	23391.42
606.413	23497.63
606.771	23444.75
607.128	23483.39
607.485	23395.49
607.843	23325.21
608.2	23553.9
608.557	23660.56
608.914	23425.09
609.272	23562.04
609.629	23638.19
609.986	23672.09
610.343	23610.62
610.7	23863.27
611.057	23705.99
611.414	23751.64
611.771	23769.26
612.127	23879.54
612.484	23971.29
612.841	23909.37
613.198	23942.36
613.554	23947.34
613.911	24037.73
614.267	23944.4
614.624	24049.93
614.98	24143.72
615.337	24256.93
615.693	24157.73
616.05	24122.7
616.406	24246.76
616.762	24095.58
617.118	24154.79
617.475	24146.43
617.831	24267.55
618.187	24308.68
618.543	24387.1
618.899	24475.23
619.255	24399.3
619.611	24330.15
619.967	24520.43
620.323	24493.76
620.678	24430.49
621.034	24356.37
621.39	24328.8
621.746	24434.56
622.101	24712.74
622.457	24447.21
622.812	24540.99
623.168	24555.91
623.523	24613.31
623.879	24645.85
624.234	24496.25
624.589	24503.93
624.945	24554.33
625.3	24720.2
625.655	24666.19
626.01	24615.57
626.365	24575.34
626.72	24641.78
627.075	24584.38
627.43	24498.28
627.785	24505.97
628.14	24578.73
628.495	24687.2
628.85	24642.91
629.205	24503.25
629.559	24667.77
629.914	24692.4
630.269	24612.63
630.623	24474.55
630.978	24488.34
631.332	24599.75
631.687	24470.71
632.041	24483.82
632.396	24572.4
632.75	24405.4
633.104	24455.12
633.459	24319.76
633.813	24404.95
634.167	24431.17
634.521	24390.26
634.875	24378.06
635.229	24395.46
635.583	24188.46
635.937	24229.59
636.291	24345.52
636.645	24237.95
636.999	24221.23
637.352	24258.29
637.706	24089.93
638.06	24263.71
638.413	24160.89
638.767	24032.53
639.121	24132.87
639.474	24041.12
639.828	23996.15
640.181	24062.81
640.534	24108.01
640.888	24040.22
641.241	23954.57
641.594	23939.65
641.947	23999.76
642.301	24008.8
642.654	23966.09
643.007	23893.55
643.36	23931.74
643.713	23764.97
644.066	23895.59
644.419	23797.06
644.771	23689.49
645.124	23503.96
645.477	23395.71
645.83	23302.38
646.182	23135.38
646.535	23042.5
646.888	23192.78
647.24	23091.77
647.593	23160.69
647.945	23054.7
648.298	23101.71
648.65	22992.11
649.002	22864.2
649.355	22960.02
649.707	22967.25
650.059	23069.17
650.411	23429.16
650.763	23432.55
651.115	23648.81
651.467	23551.87
651.819	23637.51
652.171	23496.27
652.523	23516.61
652.875	23520.46
653.227	23388.26
653.578	23560.23
653.93	23491.08
654.282	23346
654.633	23402.49
654.985	23459.44
655.337	23388.93
655.688	23376.73
656.039	23509.38
656.391	23404.53
656.742	23347.8
657.094	23337.41
657.445	23404.53
657.796	23433.68
658.147	23381.93
658.498	23303.06
658.849	23422.83
659.2	23334.25
659.551	23254.7
659.902	23427.8
660.253	23442.04
660.604	23348.48
660.955	23391.42
661.306	23411.53
661.656	23327.24
662.007	23341.93
662.358	23400.46
662.708	23426.67
663.059	23349.39
663.409	23266.68
663.76	23443.17
664.11	23366.33
664.461	23489.95
664.811	23312.55
665.161	23355.26
665.511	23333.12
665.862	23343.74
666.212	23482.94
666.562	23384.19
666.912	23279.56
667.262	23240.46
667.612	23423.51
667.962	23456.73
668.312	23250.18
668.662	23377.18
669.011	23378.99
669.361	23273.91
669.711	23241.14
670.06	23289.5
670.41	23190.75
670.76	23242.5
671.109	23338.99
671.459	23190.07
671.808	23166.57
672.157	23322.72
672.507	23138.77
672.856	23068.49
673.205	23075.95
673.554	23271.65
673.904	23051.77
674.253	23216.96
674.602	23085.44
674.951	22740.81
675.3	22625.79
675.649	23019
675.998	22958.66
676.346	23101.03
676.695	23230.07
677.044	22887.7
677.393	22881.15
677.741	22983.75
678.09	22994.14
678.438	22901.94
678.787	22897.65
679.135	22899.91
679.484	22717.09
679.832	22835.05
680.181	22692.45
680.529	22696.75
680.877	22658.78
681.225	22611.78
681.573	22765.45
681.922	22588.28
682.27	22542.18
682.618	22613.59
682.966	22506.92
683.314	22589.18
683.661	22524.1
684.009	22284.78
684.357	22253.82
684.705	22377.21
685.053	22319.13
685.4	22284.56
685.748	22142.41
686.095	22194.16
686.443	22100.38
686.79	22025.81
687.138	22021.51
687.485	22025.35
687.832	21935.64
688.18	21956.43
688.527	21961.4
688.874	21858.13
689.221	21688.86
689.568	21784.68
689.915	21687.51
690.262	21653.61
690.609	21491.36
690.956	21593.05
691.303	21455.65
691.65	21358.7
691.997	21432.15
692.344	21193.96
692.69	21156.9
693.037	21213.4
693.383	21050.46
693.73	21166.62
694.077	20886.85
694.423	20960.3
694.769	20822.9
695.116	20768.66
695.462	20680.76
695.808	20685.5
696.155	20716.91
696.501	20512.62
696.847	20545.84
697.193	20381.33
697.539	20525.73
697.885	20195.57
698.231	20209.58
698.577	20170.71
698.923	20193.76
699.269	20050.72
699.614	19885.52
699.96	19959.64
700.306	19919.19
700.651	19756.71
700.997	19743.38
701.342	19687.34
701.688	19643.04
702.033	19613.21
702.379	19505.65
702.724	19377.74
703.069	19449.15
703.415	19258.65
703.76	19309.49
704.105	19305.65
704.45	19227.46
704.795	19112.89
705.14	19108.59
705.485	19082.83
705.83	19035.83
706.175	18980.91
706.52	18938.65
706.865	18796.51
707.209	18889.39
707.554	18764.65
707.899	18867.7
708.243	18566.69
708.588	18611.66
708.932	18532.34
709.277	18411.89
709.621	18509.29
709.966	18441.04
710.31	18449.63
710.654	18177.54
710.998	18320.14
711.342	18277.88
711.687	18187.26
712.031	18073.59
712.375	18111.11
712.719	18049.19
713.063	18016.64
713.407	18057.1
713.75	18074.27
714.094	17972.8
714.438	17824.79
714.782	17886.25
715.125	17800.61
715.469	17752.02
715.812	17771.23
716.156	17627.28
716.499	17610.33
716.843	17601.06
717.186	17554.96
717.53	17615.3
717.873	17697.33
718.216	17486.49
718.559	17528.75
718.902	17377.57
719.246	17382.31
719.589	17408.53
719.932	17350
720.275	17323.1
720.617	17279.49
720.96	17302.77
721.303	17253.5
721.646	17306.61
721.989	17114.52
722.331	17215.31
722.674	17127.18
723.016	17175.54
723.359	17164.92
723.701	17154.97
724.044	17032.94
724.386	16975.09
724.729	17092.38
725.071	16976.22
725.413	16945.94
725.755	16963.79
726.097	16881.08
726.439	16725.61
726.782	16801.08
727.124	16915.2
727.465	16830.24
727.807	16844.25
728.149	16805.15
728.491	16728.77
728.833	16761.54
729.175	16625.5
729.516	16632.5
729.858	16693.97
730.199	16677.92
730.541	16680.63
730.882	16654.19
731.224	16696.68
731.565	16639.28
731.906	16593.41
732.248	16626.17
732.589	16550.24
732.93	16470.7
733.271	16489.68
733.612	16580.52
733.953	16585.95
734.294	16365.16
734.635	16418.27
734.976	16528.1
735.317	16489.23
735.658	16498.27
735.999	16458.49
736.339	16486.74
736.68	16425.5
737.021	16320.87
737.361	16326.07
737.702	16377.82
738.042	16372.62
738.383	16369.23
738.723	16401.09
739.063	16352.73
739.404	16444.93
739.744	16337.59
740.084	16256.69
740.424	16346.86
740.764	16289.23
741.104	16382.34
741.444	16304.15
741.784	16312.06
742.124	16354.77
742.464	16400.87
742.804	16340.98
743.143	16357.48
743.483	16388.21
743.823	16242.45
744.162	16350.7
744.502	16308.44
744.841	16359.51
745.181	16437.25
745.52	16417.36
745.86	16490.58
746.199	16461.21
746.538	16591.15
746.877	16568.32
747.216	16503.24
747.556	16501.88
747.895	16579.39
748.234	16553.18
748.573	16554.08
748.911	16590.47
749.25	16661.88
749.589	16615.55
749.928	16702.33
750.267	16794.53
750.605	16798.15
750.944	16833.4
751.283	16775.55
751.621	16907.07
751.96	16886.05
752.298	16936
752.636	17158.14
752.975	17009.67
753.313	17088.31
753.651	17172.37
753.989	17208.76
754.327	17311.58
754.666	17204.46
755.004	17389.99
755.342	17353.39
755.679	17523.32
756.017	17493.95
756.355	17641.74
756.693	17560.39
757.031	17806.93
