Data from hue_22_FLMS001491_00036.txt Node
Date: Tue Feb 07 17:10:01 GMT 2017
User: dcchb
Spectrometer: FLMS00149
Trigger mode: 0
Integration Time (sec): 2.000000E-2
Scans to average: 10
Electric dark correction enabled: true
Nonlinearity correction enabled: false
Boxcar width: 0
XAxis mode: Wavelengths
Number of Pixels in Spectrum: 2048
>>>>>Begin Spectral Data<<<<<
341.393	-23.39
341.776	-23.39
342.16	-23.39
342.543	-59.09
342.927	-64.97
343.31	-68.13
343.693	-69.04
344.077	-71.3
344.46	-52.09
344.843	-66.78
345.226	-31.52
345.61	-32.2
345.993	-29.72
346.376	-8.93
346.759	20
347.142	15.48
347.525	47.34
347.908	44.41
348.291	90.96
348.674	101.58
349.057	109.94
349.44	140.22
349.823	146.1
350.206	189.94
350.588	203.5
350.971	223.84
351.354	262.03
351.737	232.42
352.119	261.8
352.502	261.8
352.884	284.63
353.267	284.4
353.65	297.51
354.032	298.41
354.414	306.55
354.797	321.91
355.179	339.77
355.562	336.83
355.944	321.69
356.326	351.74
356.709	340.89
357.091	339.09
357.473	352.19
357.855	348.13
358.238	346.09
358.62	360.33
359.002	333.66
359.384	340.44
359.766	339.31
360.148	367.11
360.53	343.15
360.912	336.6
361.294	341.57
361.676	339.54
362.057	342.25
362.439	330.27
362.821	343.15
363.203	334.57
363.584	334.34
363.966	330.05
364.348	306.32
364.729	344.28
365.111	336.38
365.493	328.01
365.874	349.03
366.256	294.79
366.637	329.82
367.019	314.68
367.4	316.49
367.781	318.07
368.163	323.49
368.544	334.57
368.925	326.43
369.306	319.2
369.688	315.36
370.069	335.47
370.45	332.08
370.831	291.63
371.212	335.47
371.593	322.36
371.974	312.42
372.355	309.71
372.736	329.37
373.117	308.81
373.498	347.22
373.879	335.47
374.26	330.27
374.641	307.45
375.021	326.43
375.402	317.39
375.783	321.91
376.163	339.54
376.544	336.6
376.925	349.93
377.305	332.08
377.686	319.43
378.066	328.47
378.447	351.29
378.827	336.15
379.208	346.54
379.588	326.43
379.968	329.82
380.349	340.44
380.729	341.35
381.109	341.57
381.489	336.38
381.87	329.14
382.25	341.12
382.63	341.12
383.01	335.02
383.39	339.99
383.77	359.2
384.15	358.52
384.53	356.26
384.91	356.04
385.29	377.5
385.67	364.62
386.049	373.89
386.429	348.8
386.809	352.42
387.189	375.7
387.568	370.72
387.948	363.04
388.328	370.72
388.707	380.44
389.087	380.67
389.466	362.59
389.846	369.82
390.225	377.96
390.605	368.92
390.984	392.65
391.363	378.86
391.743	364.17
392.122	383.83
392.501	382.48
392.881	389.26
393.26	396.49
393.639	365.75
394.018	370.05
394.397	378.63
394.776	388.58
395.155	394.23
395.534	387.9
395.913	401.68
396.292	397.16
396.671	401.46
397.05	374.57
397.429	382.48
397.808	390.61
398.186	397.62
398.565	404.62
398.944	387
399.323	404.4
399.701	401.46
400.08	415.7
400.458	396.71
400.837	408.69
401.215	417.5
401.594	417.28
401.972	416.37
402.351	421.12
402.729	431.51
403.107	402.59
403.486	395.81
403.864	424.28
404.242	423.6
404.62	417.05
404.999	444.85
405.377	431.29
405.755	440.55
406.133	412.31
406.511	441.68
406.889	441.23
407.267	419.99
407.645	434.9
408.023	432.19
408.401	446.43
408.779	438.97
409.156	440.78
409.534	448.46
409.912	464.96
410.29	470.61
410.667	473.32
411.045	480.33
411.422	494.34
411.8	464.28
412.178	449.82
412.555	490.72
412.933	473.77
413.31	495.69
413.687	472.42
414.065	485.52
414.442	497.28
414.819	486.43
415.197	508.8
415.574	514
415.951	511.29
416.328	513.55
416.705	505.64
417.082	514.9
417.46	528.46
417.837	521.46
418.214	518.74
418.591	509.93
418.967	512.19
419.344	533.43
419.721	543.15
420.098	537.05
420.475	542.25
420.852	518.97
421.228	553.77
421.605	538.18
421.982	551.74
422.358	541.12
422.735	574.34
423.111	572.75
423.488	572.08
423.864	552.41
424.241	598.97
424.617	568.01
424.994	563.04
425.37	582.7
425.746	586.31
426.123	588.12
426.499	611.4
426.875	578.63
427.251	581.57
427.627	619.98
428.003	603.71
428.379	628.8
428.756	621.79
429.132	617.27
429.507	637.84
429.883	640.1
430.259	650.27
430.635	640.1
431.011	644.62
431.387	665.63
431.763	661.56
432.138	666.08
432.514	658.63
432.89	666.76
433.265	665.18
433.641	677.61
434.016	696.82
434.392	709.02
434.767	711.28
435.143	716.48
435.518	722.58
435.894	719.64
436.269	738.4
436.644	744.27
437.02	735.46
437.395	742.69
437.77	726.87
438.145	754.67
438.52	763.03
438.895	761.22
439.271	756.25
439.646	791.96
440.021	789.47
440.395	812.52
440.77	775.01
441.145	779.53
441.52	800.09
441.895	798.28
442.27	811.17
442.645	797.83
443.019	799.87
443.394	816.14
443.769	802.35
444.143	849.58
444.518	828.34
444.892	836.25
445.267	816.81
445.641	860.43
446.016	857.27
446.39	854.1
446.764	865.63
447.139	876.02
447.513	850.49
447.887	850.71
448.262	864.5
448.636	891.16
449.01	851.39
449.384	889.58
449.758	905.17
450.132	910.15
450.506	915.34
450.88	909.47
451.254	911.5
451.628	943.82
452.002	939.3
452.376	928.45
452.75	946.98
453.123	957.38
453.497	985.17
453.871	952.4
454.244	987.88
454.618	1025.85
454.992	1000.54
455.365	976.58
455.739	1041.44
456.112	1048.22
456.486	1043.48
456.859	1025.62
457.232	1058.84
457.606	1068.33
457.979	1075.79
458.352	1090.25
458.725	1092.06
459.099	1096.81
459.472	1113.76
459.845	1154.43
460.218	1167.09
460.591	1163.25
460.964	1186.97
461.337	1227.65
461.71	1212.51
462.083	1198.73
462.456	1186.3
462.829	1249.35
463.201	1238.27
463.574	1245.73
463.947	1271.72
464.32	1295.67
464.692	1298.16
465.065	1311.72
465.438	1333.64
465.81	1345.61
466.183	1376.35
466.555	1382
466.928	1372.51
467.3	1414.09
467.672	1404.82
468.045	1459.51
468.417	1437.59
468.789	1464.26
469.161	1485.72
469.534	1502.45
469.906	1546.74
470.278	1557.13
470.65	1547.42
471.022	1570.47
471.394	1615.66
471.766	1625.61
472.138	1663.12
472.51	1674.65
472.882	1685.49
473.253	1697.02
473.625	1708.54
473.997	1792.61
474.369	1782.21
474.74	1809.33
475.112	1856.11
475.484	1896.33
475.855	1897.24
476.227	1932.94
476.598	1981.08
476.97	2038.7
477.341	2053.39
477.713	2055.88
478.084	2126.38
478.455	2118.93
478.827	2186.95
479.198	2233.05
479.569	2239.38
479.94	2301.07
480.311	2353.5
480.682	2385.81
481.053	2428.75
481.424	2480.95
481.795	2501.29
482.166	2563.66
482.537	2610.44
482.908	2671.23
483.279	2686.37
483.65	2731.57
484.021	2778.57
484.391	2883.65
484.762	2862.64
485.133	2932.47
485.503	2942.18
485.874	2992.8
486.244	3023.76
486.615	3087.49
486.985	3131.78
487.356	3180.14
487.726	3219.24
488.097	3282.51
488.467	3327.71
488.837	3401.15
489.207	3449.29
489.578	3506.01
489.948	3531.55
490.318	3612.45
490.688	3611.54
491.058	3698.09
491.428	3733.12
491.798	3801.14
492.168	3863.74
492.538	3852.89
492.908	3902.38
493.278	3996.62
493.648	3931.08
494.017	4045.2
494.387	4072.32
494.757	4140.8
495.126	4165.65
495.496	4218.31
495.866	4208.14
496.235	4295.37
496.605	4290.85
496.974	4374.91
497.344	4410.39
497.713	4416.95
498.082	4474.35
498.452	4488.13
498.821	4533.55
499.19	4589.6
499.559	4577.17
499.928	4585.08
500.298	4655.13
500.667	4681.57
501.036	4732.64
501.405	4758.86
501.774	4764.73
502.143	4776.03
502.512	4792.53
502.88	4850.15
503.249	4884.28
503.618	4939.19
503.987	4945.52
504.356	4954.56
504.724	4976.93
505.093	4957.72
505.462	5031.62
505.83	5040.88
506.199	5152.97
506.567	5155.23
506.936	5169.24
507.304	5229.81
507.672	5237.94
508.041	5251.95
508.409	5286.75
508.777	5341.89
509.145	5412.63
509.514	5302.8
509.882	5437.26
510.25	5458.5
510.618	5466.86
510.986	5434.55
511.354	5477.71
511.722	5608.78
512.09	5590.47
512.458	5536.01
512.826	5618.72
513.193	5626.18
513.561	5651.72
513.929	5690.13
514.297	5724.71
514.664	5718.15
515.032	5786.63
515.4	5815.1
515.767	5846.74
516.135	5899.17
516.502	5823.24
516.869	5874.76
517.237	5966.28
517.604	5931.93
517.972	6011.71
518.339	6025.04
518.706	5994.98
519.073	6051.93
519.44	6121.76
519.808	6131.93
520.175	6078.6
520.542	6146.39
520.909	6210.12
521.276	6206.5
521.643	6281.53
522.009	6308.65
522.376	6349.32
522.743	6336.22
523.11	6422.77
523.477	6474.52
523.843	6485.14
524.21	6502.09
524.577	6537.34
524.943	6567.17
525.31	6642.88
525.676	6688.52
526.043	6736.66
526.409	6755.64
526.776	6761.74
527.142	6819.37
527.508	6891.23
527.874	6844.23
528.241	6898.01
528.607	6977.33
528.973	7016.88
529.339	7020.95
529.705	7076.54
530.071	7154.28
530.437	7157.44
530.803	7210.32
531.169	7312.24
531.535	7180.94
531.901	7245.35
532.267	7273.37
532.632	7365.34
532.998	7349.75
533.364	7450.99
533.73	7411.22
534.095	7524.89
534.461	7489.41
534.826	7617.09
535.192	7587.71
535.557	7597.2
535.923	7645.79
536.288	7639.69
536.653	7689.63
537.019	7649.18
537.384	7720.59
537.749	7746.58
538.114	7767.14
538.479	7788.83
538.845	7828.16
539.21	7833.35
539.575	7854.37
539.94	7957.19
540.305	7980.02
540.67	8027.02
541.034	8064.08
541.399	8066.79
541.764	8127.13
542.129	8149.28
542.494	8131.42
542.858	8192.21
543.223	8211.87
543.587	8250.97
543.952	8256.85
544.316	8285.09
544.681	8378.88
545.045	8396.95
545.41	8376.84
545.774	8431.98
546.138	8494.35
546.503	8498.42
546.867	8505.88
547.231	8650.06
547.595	8509.27
547.959	8659.55
548.324	8669.04
548.688	8653.9
549.052	8711.07
549.416	8623.16
549.779	8770.28
550.143	8763.5
550.507	8809.37
550.871	8837.39
551.235	8836.26
551.599	8930.27
551.962	8905.64
552.326	8947.22
552.689	9015.92
553.053	8959.88
553.417	9036.71
553.78	9128.23
554.143	9108.8
554.507	9137.5
554.87	9162.58
555.234	9216.37
555.597	9226.99
555.96	9215.24
556.323	9234.22
556.686	9272.19
557.05	9359.87
557.413	9337.49
557.776	9405.74
558.139	9399.64
558.502	9434.44
558.865	9522.8
559.228	9526.64
559.59	9592.86
559.953	9606.64
560.316	9702.23
560.679	9697.71
561.041	9720.08
561.404	9796.92
561.767	9883.47
562.129	9817.03
562.492	9904.49
562.854	9860.64
563.217	9879.18
563.579	9892.73
563.941	9982
564.304	10054.76
564.666	10045.95
565.028	10069.9
565.39	10095.44
565.753	10157.81
566.115	10118.27
566.477	10214.76
566.839	10324.36
567.201	10383.12
567.563	10386.51
567.925	10417.69
568.287	10412.72
568.648	10414.3
569.01	10464.92
569.372	10627.4
569.734	10525.94
570.095	10632.38
570.457	10707.18
570.819	10696.55
571.18	10758.47
571.542	10855.42
571.903	10838.02
572.265	10887.74
572.626	10953.5
572.987	10954.18
573.349	11054.74
573.71	11085.7
574.071	11148.75
574.432	11254.96
574.794	11340.61
575.155	11405.91
575.516	11364.33
575.877	11426.48
576.238	11466.25
576.599	11518.23
576.96	11596.42
577.32	11660.82
577.681	11831.21
578.042	11784.44
578.403	11937.65
578.763	12014.49
579.124	12099.23
579.485	12209.51
579.845	12313.91
580.206	12380.35
580.566	12502.38
580.927	12597.75
581.287	12748.03
581.648	12778.76
582.008	13002.93
582.368	13133.33
582.728	13278.86
583.089	13362.93
583.449	13503.03
583.809	13651.73
584.169	13871.61
584.529	14002.68
584.889	14309.79
585.249	14322.67
585.609	14476.79
585.969	14718.37
586.329	14839.27
586.688	15072.94
587.048	15310.22
587.408	15530.78
587.768	15681.73
588.127	15916.98
588.487	16099.58
588.846	16406.46
589.206	16565.78
589.565	16850.97
589.925	17171.86
590.284	17460.22
590.643	17702.02
591.003	17924.84
591.362	18366.64
591.721	18490.47
592.08	18730.69
592.44	19245.93
592.799	19470.34
593.158	19644.79
593.517	19954.84
593.876	20226.47
594.235	20607.93
594.593	20939.68
594.952	21135.6
595.311	21375.82
595.67	21772.65
596.029	22187.33
596.387	22480.65
596.746	22764.49
597.104	22966.51
597.463	23196.11
597.822	23548.65
598.18	23874.29
598.538	24103.89
598.897	24625.45
599.255	24706.58
599.613	25311.31
599.972	25377.52
600.33	25811.19
600.688	26024.29
601.046	26447.1
601.404	26817.71
601.762	27134.31
602.12	27384.25
602.478	27629.22
602.836	27977.46
603.194	28113.72
603.552	28454.05
603.91	28669.19
604.268	29187.37
604.625	29359.12
604.983	29700.12
605.341	29896.28
605.698	30190.96
606.056	30539.2
606.413	30709.59
606.771	31106.41
607.128	31388.44
607.485	31496.91
607.843	31874.08
608.2	32253.28
608.557	32482.65
608.914	32626.83
609.272	33055.52
609.629	33295.96
609.986	33594.03
610.343	33640.13
610.7	34116.5
611.057	34196.73
611.414	34411.41
611.771	34646.66
612.127	34946.31
612.484	35024.5
612.841	35374.55
613.198	35511.27
613.554	35667.65
613.911	36001.2
614.267	36170.69
614.624	36341.98
614.98	36493.16
615.337	36866.04
615.693	37020.83
616.05	37149.64
616.406	37570.65
616.762	37466.47
617.118	37645.68
617.475	37823.07
617.831	38022.16
618.187	38333.79
618.543	38418.31
618.899	38671.41
619.255	38675.48
619.611	38886.32
619.967	39011.74
620.323	39253.54
620.678	39365.18
621.034	39411.05
621.39	39451.28
621.746	39515.23
622.101	40061.88
622.457	39878.39
622.812	39992.06
623.168	40309.79
623.523	40403.57
623.879	40589.55
624.234	40357.02
624.589	40625.03
624.945	40738.7
625.3	40813.73
625.655	40906.83
626.01	41057.34
626.365	41132.59
626.72	41101.63
627.075	41088.75
627.43	41263.89
627.785	41280.84
628.14	41410.55
628.495	41528.74
628.85	41639.02
629.205	41388.63
629.559	41821.84
629.914	41645.12
630.269	41828.62
630.623	41693.48
630.978	41620.94
631.332	41942.51
631.687	42081.27
632.041	41873.14
632.396	42080.36
632.75	41980.93
633.104	41925.56
633.459	41909.29
633.813	41999.01
634.167	41991.55
634.521	41980.03
634.875	42025
635.229	42000.59
635.583	41900.25
635.937	41972.34
636.291	41983.64
636.645	42142.96
636.999	42104.99
637.352	42084.66
637.706	41946.35
638.06	42049.4
638.413	42039.69
638.767	41906.58
639.121	42060.48
639.474	42039.69
639.828	41989.07
640.181	42027.48
640.534	42005.34
640.888	42057.31
641.241	41852.8
641.594	41986.81
641.947	42013.02
642.301	42044.88
642.654	41989.29
643.007	41954.26
643.36	42021.83
643.713	41935.96
644.066	42036.3
644.419	41900.48
644.771	41756.98
645.124	41267.05
645.477	41230.22
645.83	41081.52
646.182	40777.57
646.535	40812.15
646.888	40914.52
647.24	40653.51
647.593	40997.68
647.945	40978.02
648.298	40589.33
648.65	40761.53
649.002	40684.92
649.355	40691.92
649.707	40700.51
650.059	40949.09
650.411	41238.12
650.763	41229.76
651.115	41710.65
651.467	41636.08
651.819	41601.96
652.171	41453.71
652.523	41373.49
652.875	41491.9
653.227	41175.98
653.578	41563.99
653.93	41561.05
654.282	41370.78
654.633	41328.97
654.985	41427.05
655.337	41507.04
655.688	41392.24
656.039	41586.36
656.391	41275.64
656.742	41330.33
657.094	41251.01
657.445	41445.35
657.796	41273.83
658.147	41268.86
658.498	41337.33
658.849	41453.03
659.2	41375.97
659.551	41179.37
659.902	41386.82
660.253	41335.52
660.604	41410.78
660.955	41088.52
661.306	41437.44
661.656	41243.77
662.007	41269.54
662.358	41344.11
662.708	41337.56
663.059	41144.12
663.409	41035.42
663.76	41440.61
664.11	41208.07
664.461	41318.8
664.811	41244.23
665.161	41215.53
665.511	41129.88
665.862	41163.55
666.212	41252.36
666.562	41242.64
666.912	41238.35
667.262	41145.47
667.612	41197
667.962	41278.8
668.312	41039.03
668.662	41335.07
669.011	41247.62
669.361	41006.27
669.711	41051.01
670.06	41115.19
670.41	41055.98
670.76	41024.8
671.109	41039.94
671.459	40974.85
671.808	40998.58
672.157	41039.94
672.507	40889.66
672.856	40973.72
673.205	40973.05
673.554	41012.14
673.904	40925.82
674.253	41053.27
674.602	40908.19
674.951	40390.24
675.3	40381.42
675.649	40843.56
675.998	40786.16
676.346	40843.56
676.695	40894.86
677.044	40608.54
677.393	40787.52
677.741	40823.9
678.09	40648.54
678.438	40562.66
678.787	40646.05
679.135	40504.58
679.484	40495.77
679.832	40601.98
680.181	40382.55
680.529	40426.62
680.877	40293.74
681.225	40217.36
681.573	40525.15
681.922	40290.35
682.27	40085.39
682.618	40048.33
682.966	40057.14
683.314	40098.04
683.661	40056.46
684.009	39747.99
684.357	39825.73
684.705	39774.43
685.053	39873.41
685.4	39670.93
685.748	39555.01
686.095	39590.71
686.443	39407.21
686.79	39343.94
687.138	39496.02
687.485	39466.42
687.832	39289.48
688.18	39361.79
688.527	39056.71
688.874	39059.65
689.221	38984.4
689.568	38926.77
689.915	38862.37
690.262	38806.78
690.609	38662.15
690.956	38572.21
691.303	38481.36
691.65	38431.64
691.997	38448.14
692.344	38174.48
692.69	38230.75
693.037	38190.07
693.383	37954.6
693.73	38137.19
694.077	37844.32
694.423	37828.27
694.769	37753.92
695.116	37649.74
695.462	37475.96
695.808	37457.66
696.155	37655.85
696.501	37329.53
696.847	37155.29
697.193	37010.89
697.539	36993.26
697.885	36734.51
698.231	36798.47
698.577	36833.04
698.923	36682.54
699.269	36431.7
699.614	36280.51
699.96	36309.67
700.306	36470.34
700.651	36240.52
700.997	36048.2
701.342	36009.56
701.688	36011.82
702.033	35792.84
702.379	35710.81
702.724	35513.98
703.069	35746.29
703.415	35311.05
703.76	35307.43
704.105	35423.81
704.45	35348.34
704.795	35151.73
705.14	35000.77
705.485	35046.42
705.83	35064.5
706.175	35033.09
706.52	34696.15
706.865	34795.81
707.209	34683.27
707.554	34553.33
707.899	34635.81
708.243	34435.59
708.588	34345.2
708.932	34125.54
709.277	34175.94
709.621	34204.41
709.966	33946.79
710.31	34031.08
710.654	33700.47
710.998	33957.41
711.342	33708.61
711.687	33701.15
712.031	33617.99
712.375	33432.68
712.719	33518.78
713.063	33521.94
713.407	33483.07
713.75	33290.76
714.094	33352.46
714.438	33066.14
714.782	33288.28
715.125	33057.77
715.469	33078.57
715.812	32894.62
716.156	32693.72
716.499	32899.59
716.843	32750.21
717.186	32673.38
717.53	32792.7
717.873	32603.32
718.216	32576.88
718.559	32478.13
718.902	32271.13
719.246	32384.57
719.589	32232.94
719.932	32079.95
720.275	32198.81
720.617	32006.28
720.96	32084.02
721.303	32126.05
721.646	31985.71
721.989	31820.97
722.331	31886.51
722.674	31813.51
723.016	31868.43
723.359	31736.23
723.701	31705.27
724.044	31460.98
724.386	31402
724.729	31608.77
725.071	31364.49
725.413	31366.97
725.755	31431.38
726.097	31257.6
726.439	31171.72
726.782	31115.45
727.124	31282.23
727.465	31017.6
727.807	31115.68
728.149	30871.84
728.491	30875.69
728.833	30937.6
729.175	30838.4
729.516	30868
729.858	30791.62
730.199	30752.75
730.541	30699.42
730.882	30607.44
731.224	30742.13
731.565	30386.88
731.906	30549.14
732.248	30514.79
732.589	30390.05
732.93	30433.89
733.271	30309.15
733.612	30285.64
733.953	30251.97
734.294	30204.06
734.635	30139.66
734.976	30159.32
735.317	30015.37
735.658	30007.46
735.999	29964.97
736.339	29960
736.68	30013.34
737.021	29890.85
737.361	29654.47
737.702	29875.71
738.042	29815.37
738.383	29699.9
738.723	29816.5
739.063	29702.16
739.404	29728.14
739.744	29575.38
740.084	29477.3
740.424	29591.65
740.764	29438.43
741.104	29586.68
741.444	29398.44
741.784	29329.29
742.124	29465.55
742.464	29428.94
742.804	29342.84
743.143	29301.72
743.483	29221.49
743.823	29076.18
744.162	29046.13
744.502	29176.75
744.841	28942.18
745.181	29063.08
745.52	28928.62
745.86	29023.3
746.199	28981.95
746.538	28910.31
746.877	28868.73
747.216	28967.26
747.556	28775.63
747.895	28795.74
748.234	28660.15
748.573	28606.82
748.911	28629.64
749.25	28534.28
749.589	28500.61
749.928	28586.71
750.267	28537.67
750.605	28396.43
750.944	28398.91
751.283	28288.18
751.621	28225.59
751.96	28152.14
752.298	28159.15
752.636	28258.58
752.975	28059.04
753.313	28031.24
753.651	28158.69
753.989	27841.41
754.327	27782.43
754.666	27761.42
755.004	27759.38
755.342	27800.29
755.679	27752.83
756.017	27512.84
756.355	27584.7
756.693	27463.12
757.031	27533.85
757.368	27463.35
757.706	27347.42
758.044	27250.24
758.381	27237.59
758.719	27213.86
759.056	27261.77
759.394	27084.6
