Data from hue_22_FLMS001491_00055.txt Node
Date: Tue Feb 07 17:10:19 GMT 2017
User: dcchb
Spectrometer: FLMS00149
Trigger mode: 0
Integration Time (sec): 2.000000E-2
Scans to average: 10
Electric dark correction enabled: true
Nonlinearity correction enabled: false
Boxcar width: 0
XAxis mode: Wavelengths
Number of Pixels in Spectrum: 2048
>>>>>Begin Spectral Data<<<<<
341.393	-14.22
341.776	-14.22
342.16	-14.22
342.543	-73.88
342.927	-78.63
343.31	-64.39
343.693	-57.61
344.077	-59.19
344.46	-50.15
344.843	-46.54
345.226	-41.11
345.61	-26.2
345.993	-30.95
346.376	-8.57
346.759	9.28
347.142	28.94
347.525	28.71
347.908	56.06
348.291	73.23
348.674	74.14
349.057	114.36
349.44	117.53
349.823	135.15
350.206	146
350.588	197.98
350.971	221.93
351.354	220.35
351.737	233.45
352.119	245.88
352.502	271.65
352.884	280.91
353.267	274.58
353.65	307.35
354.032	312.77
354.414	293.11
354.797	323.17
355.179	315.26
355.562	332.89
355.944	329.72
356.326	315.26
356.709	339.44
357.091	327.92
357.473	334.02
357.855	327.24
358.238	338.99
358.62	348.93
359.002	333.11
359.384	329.95
359.766	342.83
360.148	329.27
360.53	350.74
360.912	330.63
361.294	326.79
361.676	336.95
362.057	336.28
362.439	312.1
362.821	332.21
363.203	320.91
363.584	313.9
363.966	324.98
364.348	324.75
364.729	302.83
365.111	348.71
365.493	303.28
365.874	323.85
366.256	310.97
366.637	317.97
367.019	311.42
367.4	310.06
367.781	301.02
368.163	309.84
368.544	289.05
368.925	312.77
369.306	324.98
369.688	297.18
370.069	331.08
370.45	311.64
370.831	332.89
371.212	315.71
371.593	310.06
371.974	323.62
372.355	301.02
372.736	327.01
373.117	314.36
373.498	312.55
373.879	292.21
374.26	318.42
374.641	322.94
375.021	308.48
375.402	324.3
375.783	319.55
376.163	334.24
376.544	328.37
376.925	327.92
377.305	332.21
377.686	341.93
378.066	338.08
378.447	347.8
378.827	333.34
379.208	334.92
379.588	338.08
379.968	334.69
380.349	335.6
380.729	342.38
381.109	334.24
381.489	344.19
381.87	337.86
382.25	339.89
382.63	323.17
383.01	334.02
383.39	327.24
383.77	342.6
384.15	340.12
384.53	366.11
384.91	356.61
385.29	354.58
385.67	372.21
386.049	352.55
386.429	345.99
386.809	340.57
387.189	344.86
387.568	358.42
387.948	350.51
388.328	381.92
388.707	375.37
389.087	373.56
389.466	365.2
389.846	384.18
390.225	372.89
390.605	375.82
390.984	374.02
391.363	362.72
391.743	361.59
392.122	378.31
392.501	345.99
392.881	387.35
393.26	387.8
393.639	389.61
394.018	373.11
394.397	377.41
394.776	379.67
395.155	390.51
395.534	390.06
395.913	401.13
396.292	398.2
396.671	396.84
397.05	396.61
397.429	376.5
397.808	388.7
398.186	386.67
398.565	410.17
398.944	391.64
399.323	409.72
399.701	421.92
400.08	390.74
400.458	414.69
400.837	390.06
401.215	411.75
401.594	395.94
401.972	420.57
402.351	413.34
402.729	411.75
403.107	407.69
403.486	414.69
403.864	415.37
404.242	421.47
404.62	414.47
404.999	418.08
405.377	416.73
405.755	422.15
406.133	441.58
406.511	418.99
406.889	424.18
407.267	430.96
407.645	396.84
408.023	442.94
408.401	437.52
408.779	458.31
409.156	450.85
409.534	461.24
409.912	453.56
410.29	473.45
410.667	465.76
411.045	458.31
411.422	449.49
411.8	480.45
412.178	456.95
412.555	455.37
412.933	460.34
413.31	479.55
413.687	477.97
414.065	508.93
414.442	495.82
414.819	491.3
415.197	492.88
415.574	481.13
415.951	493.11
416.328	497.4
416.705	497.4
417.082	514.8
417.46	514.58
417.837	482.94
418.214	494.69
418.591	517.97
418.967	528.36
419.344	547.12
419.721	515.25
420.098	542.6
420.475	530.17
420.852	539.66
421.228	540.34
421.605	534.69
421.982	564.52
422.358	541.69
422.735	552.32
423.111	527.23
423.488	540.34
423.864	553.9
424.241	553.67
424.617	564.52
424.994	567.68
425.37	554.58
425.746	553.67
426.123	564.07
426.499	581.02
426.875	541.69
427.251	582.82
427.627	587.57
428.003	578.08
428.379	609.49
428.756	614.46
429.132	611.07
429.507	611.07
429.883	610.17
430.259	634.12
430.635	635.48
431.011	613.33
431.387	636.16
431.763	615.14
432.138	647.91
432.514	632.99
432.89	655.14
433.265	665.53
433.641	688.36
434.016	682.03
434.392	687.45
434.767	695.36
435.143	680
435.518	698.98
435.894	707.57
436.269	720.67
436.644	691.97
437.02	726.1
437.395	710.05
437.77	718.41
438.145	729.26
438.52	730.39
438.895	720
439.271	722.26
439.646	699.43
440.021	749.82
440.395	767.23
440.77	767
441.145	771.29
441.52	780.11
441.895	782.14
442.27	772.65
442.645	779.43
443.019	805.64
443.394	774.01
443.769	804.74
444.143	785.53
444.518	805.42
444.892	778.07
445.267	799.99
445.641	806.55
446.016	818.75
446.39	839.77
446.764	814.91
447.139	802.93
447.513	826.89
447.887	835.47
448.262	855.58
448.636	850.84
449.01	835.47
449.384	862.59
449.758	881.57
450.132	867.11
450.506	889.03
450.88	873.44
451.254	876.83
451.628	895.36
452.002	910.72
452.376	912.76
452.75	911.85
453.123	932.87
453.497	915.7
453.871	947.56
454.244	947.79
454.618	949.59
454.992	975.13
455.365	983.49
455.739	990.95
456.112	1000.89
456.486	980.55
456.859	997.5
457.232	992.98
457.606	1038.86
457.979	1027.78
458.352	1034.11
458.725	1055.58
459.099	1050.83
459.472	1064.62
459.845	1104.17
460.218	1091.74
460.591	1100.78
460.964	1112.53
461.337	1146.2
461.71	1147.78
462.083	1145.29
462.456	1162.02
462.829	1195.46
463.201	1193.66
463.574	1164.73
463.947	1167.67
464.32	1228.91
464.692	1237.72
465.065	1271.17
465.438	1267.55
465.81	1273.2
466.183	1278.17
466.555	1331.05
466.928	1300.77
467.3	1297.16
467.672	1335.35
468.045	1374.67
468.417	1392.75
468.789	1398.4
469.161	1404.5
469.534	1423.03
469.906	1442.69
470.278	1483.14
470.65	1475.23
471.022	1533.31
471.394	1536.24
471.766	1515
472.138	1584.83
472.51	1612.63
472.882	1596.13
473.253	1626.19
473.625	1650.82
473.997	1697.37
474.369	1729.91
474.74	1738.05
475.112	1792.06
475.484	1761.32
475.855	1836.58
476.227	1872.73
476.598	1908.44
476.97	1908.89
477.341	1971.94
477.713	1984.59
478.084	1985.05
478.455	2023.46
478.827	2099.62
479.198	2136.68
479.569	2133.97
479.94	2181.65
480.311	2230.46
480.682	2315.43
481.053	2324.25
481.424	2367.18
481.795	2390.23
482.166	2453.28
482.537	2479.72
482.908	2549.1
483.279	2583.68
483.65	2633.84
484.021	2637.23
484.391	2743.22
484.762	2773.5
485.133	2747.51
485.503	2828.19
485.874	2905.02
486.244	2928.52
486.615	2967.62
486.985	3042.42
487.356	3093.04
487.726	3140.04
488.097	3187.5
488.467	3200.16
488.837	3285.13
489.207	3278.35
489.578	3380.94
489.948	3446.93
490.318	3488.06
490.688	3485.12
491.058	3552.24
491.428	3616.87
491.798	3651.9
492.168	3710.65
492.538	3730.54
492.908	3793.36
493.278	3867.94
493.648	3853.92
494.017	3940.7
494.387	3945
494.757	4024.09
495.126	4047.82
495.496	4012.11
495.866	4106.35
496.235	4150.87
496.605	4196.06
496.974	4242.61
497.344	4270.64
497.713	4310.41
498.082	4353.8
498.452	4388.15
498.821	4411.42
499.19	4398.54
499.559	4468.15
499.928	4536.39
500.298	4547.01
500.667	4609.84
501.036	4588.82
501.405	4606.45
501.774	4649.84
502.143	4671.98
502.512	4686.22
502.88	4756.27
503.249	4751.53
503.618	4732.77
503.987	4811.64
504.356	4817.97
504.724	4884.41
505.093	4855.71
505.462	4935.48
505.83	4941.81
506.199	4965.31
506.567	5004.18
506.936	5024.29
507.304	5117.62
507.672	5105.42
508.041	5120.56
508.409	5168.92
508.777	5154.91
509.145	5185.41
509.514	5225.87
509.882	5282.36
510.25	5270.84
510.618	5336.15
510.986	5358.74
511.354	5365.75
511.722	5448.91
512.09	5429.25
512.458	5445.29
512.826	5463.15
513.193	5499.3
513.561	5510.38
513.929	5540.21
514.297	5598.74
514.664	5647.78
515.032	5585.63
515.4	5671.28
515.767	5704.72
516.135	5730.03
516.502	5637.61
516.869	5746.08
517.237	5774.1
517.604	5729.58
517.972	5838.96
518.339	5855.68
518.706	5810.03
519.073	5838.96
519.44	5918.05
519.808	5935.9
520.175	5967.77
520.542	6061.78
520.909	6034.43
521.276	6077.14
521.643	6052.74
522.009	6125.73
522.376	6187.42
522.743	6185.16
523.11	6243.69
523.477	6219.74
523.843	6229.91
524.21	6363.01
524.577	6406.4
524.943	6387.42
525.31	6410.47
525.676	6515.32
526.043	6486.4
526.409	6496.79
526.776	6574.3
527.142	6624.47
527.508	6661.53
527.874	6641.42
528.241	6718.03
528.607	6713.96
528.973	6738.82
529.339	6779.04
529.705	6906.05
530.071	6901.98
530.437	6900.17
530.803	6982.43
531.169	7029.89
531.535	7021.98
531.901	7026.72
532.267	7035.31
532.632	7083.67
532.998	7167.06
533.364	7179.49
533.73	7196.66
534.095	7250.9
534.461	7298.35
534.826	7274.63
535.192	7369.09
535.557	7327.05
535.923	7365.47
536.288	7362.98
536.653	7455.19
537.019	7416.54
537.384	7472.81
537.749	7474.62
538.114	7568.63
538.479	7560.04
538.845	7659.47
539.21	7603.43
539.575	7623.99
539.94	7730.43
540.305	7750.32
540.67	7742.41
541.034	7818.34
541.399	7810.43
541.764	7886.36
542.129	7806.59
542.494	7927.04
542.858	7986.92
543.223	7972.46
543.587	7957.09
543.952	8024.66
544.316	7995.96
544.681	8081.38
545.045	8165.22
545.41	8179.23
545.774	8176.07
546.138	8222.4
546.503	8289.51
546.867	8265.56
547.231	8336.52
547.595	8321.38
547.959	8340.13
548.324	8375.39
548.688	8395.73
549.052	8456.97
549.416	8444.54
549.779	8436.63
550.143	8487.47
550.507	8567.47
550.871	8597.98
551.235	8600.47
551.599	8698.77
551.962	8669.84
552.326	8675.94
552.689	8786.22
553.053	8713.91
553.417	8702.84
553.78	8850.63
554.143	8912.55
554.507	8890.63
554.87	8956.61
555.234	8998.87
555.597	8964.52
555.96	9018.53
556.323	8961.13
556.686	9017.86
557.05	9094.69
557.413	9107.12
557.776	9115.48
558.139	9173.78
558.502	9184.41
558.865	9234.12
559.228	9301.92
559.59	9268.7
559.953	9297.85
560.316	9376.94
560.679	9411.97
561.041	9393.89
561.404	9423.27
561.767	9530.84
562.129	9528.58
562.492	9619.42
562.854	9670.95
563.217	9612.87
563.579	9760.89
563.941	9718.63
564.304	9688.57
564.666	9749.81
565.028	9828.23
565.39	9853.31
565.753	9906.65
566.115	9934.67
566.477	9958.62
566.839	9971.5
567.201	10095.34
567.563	10011.28
567.925	10133.53
568.287	10079.75
568.648	10206.3
569.01	10221.89
569.372	10306.41
569.734	10260.99
570.095	10386.63
570.457	10405.62
570.819	10421.89
571.18	10456.91
571.542	10488.78
571.903	10537.82
572.265	10595.67
572.626	10588.89
572.987	10647.64
573.349	10780.97
573.71	10868.88
574.071	10890.35
574.432	10891.48
574.794	11004.24
575.155	11015.54
575.516	11093.28
575.877	11138.48
576.238	11233.84
576.599	11324.69
576.96	11379.83
577.32	11434.06
577.681	11487.17
578.042	11614.4
578.403	11724.68
578.763	11751.57
579.124	11901.4
579.485	11941.4
579.845	12102.52
580.206	12191.78
580.566	12293.7
580.927	12436.3
581.287	12580.02
581.648	12709.96
582.008	12880.58
582.368	12987.92
582.728	13095.49
583.089	13195.6
583.449	13418.64
583.809	13567.57
584.169	13808.46
584.529	13830.61
584.889	14171.39
585.249	14311.05
585.609	14457.26
585.969	14724.15
586.329	14867.87
586.688	15176.56
587.048	15366.84
587.408	15548.76
587.768	15807.28
588.127	16025.13
588.487	16266.93
588.846	16569.75
589.206	16774.71
589.565	16967.25
589.925	17359.11
590.284	17535.15
590.643	17938.98
591.003	18047
591.362	18498.06
591.721	18640.2
592.08	19115.44
592.44	19298.72
592.799	19527.18
593.158	19924.01
593.517	20191.8
593.876	20544.56
594.235	20806.25
594.593	21112
594.952	21450.3
595.311	21644.87
595.67	22041.24
596.029	22474.68
596.387	22733.88
596.746	23149.69
597.104	23337.03
597.463	23574.76
597.822	23971.59
598.18	24285.25
598.538	24613.15
598.897	25080.94
599.255	25175.62
599.613	25705.78
599.972	25903.06
600.33	26313.67
600.688	26481.8
601.046	26778.07
601.404	27237.72
601.762	27449.24
602.12	27881.31
602.478	28216.22
602.836	28416.89
603.194	28642.2
603.552	28860.72
603.91	29127.61
604.268	29569.63
604.625	29636.07
604.983	30013.24
605.341	30257.52
605.698	30708.59
606.056	31052.3
606.413	31226.09
606.771	31609.35
607.128	31750.14
607.485	31910.36
607.843	32245.04
608.2	32636.9
608.557	32997.56
608.914	33035.98
609.272	33356.65
609.629	33589.41
609.986	33865.34
610.343	34011.32
610.7	34464.64
611.057	34640.69
611.414	34789.61
611.771	34980.56
612.127	35220.78
612.484	35527.44
612.841	35649.92
613.198	35811.95
613.554	35906.41
613.911	36452.84
614.267	36604.25
614.624	36757.01
614.98	36818.93
615.337	37200.84
615.693	37293.72
616.05	37423.21
616.406	37880.83
616.762	37762.64
617.118	37853.26
617.475	38053.93
617.831	38342.51
618.187	38566.46
618.543	38704.76
618.899	39012.55
619.255	38963.06
619.611	39031.98
619.967	39396.27
620.323	39557.62
620.678	39553.78
621.034	39549.71
621.39	39726.2
621.746	39980.21
622.101	40258.39
622.457	40143.14
622.812	40220.43
623.168	40463.58
623.523	40465.16
623.879	40770.47
624.234	40531.15
624.589	40756.68
624.945	41011.14
625.3	41146.5
625.655	41068.76
626.01	41307.85
626.365	41216.56
626.72	41261.98
627.075	41357.8
627.43	41405.93
627.785	41410
628.14	41470.79
628.495	41675.53
628.85	41563.89
629.205	41536.55
629.559	41932.7
629.914	41632.82
630.269	42002.3
630.623	41887.05
630.978	41683.44
631.332	42017.21
631.687	42143.99
632.041	42016.76
632.396	42048.63
632.75	42054.28
633.104	42206.14
633.459	42138.34
633.813	42071.45
634.167	42107.83
634.521	42171.33
634.875	42278.45
635.229	42233.03
635.583	42070.55
635.937	41965.01
636.291	42105.35
636.645	42202.52
636.999	42158.68
637.352	42266.02
637.706	42064.22
638.06	42381.05
638.413	42087.04
638.767	42062.18
639.121	42216.31
639.474	41900.61
639.828	42069.64
640.181	42213.82
640.534	42108.06
640.888	42002.98
641.241	41917.33
641.594	42041.85
641.947	42138.34
642.301	41889.99
642.654	42045.91
643.007	42073.48
643.36	41955.97
643.713	42085.91
644.066	42167.72
644.419	41925.69
644.771	41734.28
645.124	41330.23
645.477	41307.85
645.83	41077.35
646.182	40941.76
646.535	40786.51
646.888	40988.54
647.24	40810.92
647.593	41091.14
647.945	40905.83
648.298	40704.03
648.65	40699.73
649.002	40564.37
649.355	40701.99
649.707	40746.29
650.059	40861.99
650.411	41293.39
650.763	41494.29
651.115	41800.95
651.467	41568.86
651.819	41725.7
652.171	41618.81
652.523	41531.58
652.875	41512.14
653.227	41387.4
653.578	41752.81
653.93	41699.48
654.282	41424.24
654.633	41335.65
654.985	41393.95
655.337	41581.29
655.688	41552.37
656.039	41575.19
656.391	41290.23
656.742	41287.29
657.094	41482.99
657.445	41570.9
657.796	41407.06
658.147	41397.57
658.498	41320.06
658.849	41499.71
659.2	41400.73
659.551	41252.71
659.902	41418.59
660.253	41276.89
660.604	41478.02
660.955	41139.72
661.306	41348.76
661.656	41244.81
662.007	41313.05
662.358	41329.55
662.708	41334.07
663.059	41308.53
663.409	41133.17
663.76	41415.87
664.11	41406.38
664.461	41329.77
664.811	41397.34
665.161	41323.22
665.511	41088.2
665.862	41251.81
666.212	41287.52
666.562	41402.32
666.912	41177.24
667.262	41242.77
667.612	41177.01
667.962	41252.71
668.312	41124.58
668.662	41439.83
669.011	41173.17
669.361	40985.15
669.711	41075.77
670.06	41106.5
670.41	40987.19
670.76	41028.99
671.109	41128.65
671.459	41095.88
671.808	40994.42
672.157	41179.95
672.507	40908.77
672.856	41031.7
673.205	40977.24
673.554	41159.16
673.904	41011.37
674.253	41154.64
674.602	40946.28
674.951	40364.15
675.3	40272.18
675.649	40876.68
675.998	40854.76
676.346	40847.53
676.695	41078.71
677.044	40502.23
677.393	40811.37
677.741	40708.77
678.09	40660.87
678.438	40593.98
678.787	40648.44
679.135	40651.37
679.484	40451.61
679.832	40587.2
680.181	40348.78
680.529	40373.87
680.877	40303.36
681.225	40435.56
681.573	40618.61
681.922	40408.22
682.27	40219.07
682.618	40164.38
682.966	40144.27
683.314	40146.3
683.661	40015.46
684.009	39894.56
684.357	39862.02
684.705	39672.64
685.053	39884.62
685.4	39794.45
685.748	39543.83
686.095	39601.23
686.443	39323.5
686.79	39358.98
687.138	39424.97
687.485	39548.58
687.832	39271.98
688.18	39357.17
688.527	39084.18
688.874	39008.71
689.221	39012.55
689.568	38835.6
689.915	38840.12
690.262	39092.32
690.609	38847.81
690.956	38741.59
691.303	38569.62
691.65	38554.25
691.997	38432
692.344	38299.35
692.69	38078.56
693.037	38162.85
693.383	37916.31
693.73	38120.14
694.077	37845.8
694.423	37879.24
694.769	37675.86
695.116	37706.14
695.462	37627.27
695.808	37372.59
696.155	37536.88
696.501	37272.93
696.847	37276.1
697.193	36919.27
697.539	37125.37
697.885	36837.69
698.231	36799.5
698.577	36696.45
698.923	36706.62
699.269	36593.18
699.614	36389.57
699.96	36343.01
700.306	36458.04
700.651	36119.52
700.997	36203.13
701.342	36034.77
701.688	35983.47
702.033	35884.27
702.379	35811.95
702.724	35753.65
703.069	35796.36
703.415	35463.94
703.76	35491.74
704.105	35503.26
704.45	35444.73
704.795	35178.07
705.14	35073.67
705.485	35126.32
705.83	34919.77
706.175	34931.07
706.52	34821.7
706.865	34729.72
707.209	34684.75
707.554	34487.02
707.899	34648.59
708.243	34507.36
708.588	34334.25
708.932	34298.55
709.277	34145.11
709.621	34171.55
709.966	34044.32
710.31	34140.36
710.654	33778.34
710.998	33921.38
711.342	33906.69
711.687	33766.58
712.031	33671.67
712.375	33462.64
712.719	33676.19
713.063	33452.47
713.407	33635.51
713.75	33381.96
714.094	33258.35
714.438	33175.41
714.782	33302.19
715.125	33177.67
715.469	33244.11
715.812	33109.88
716.156	32947.4
716.499	32861.3
716.843	32812.94
717.186	32685.26
717.53	32848.19
717.873	32901.07
718.216	32748.53
718.559	32567.75
718.902	32222.9
719.246	32355.77
719.589	32190.13
719.932	32214.08
720.275	32177.7
720.617	32124.82
720.96	32061.77
721.303	32123.92
721.646	32003.01
721.989	31850.93
722.331	31944.26
722.674	31883.24
723.016	31879.4
723.359	31786.52
723.701	31760.31
724.044	31593.31
724.386	31521.9
724.729	31585.62
725.071	31517.83
725.413	31459.07
725.755	31509.24
726.097	31282.58
726.439	31165.97
726.782	31173.43
727.124	31296.14
727.465	31152.87
727.807	31149.93
728.149	30961.69
728.491	31100.67
728.833	30976.37
729.175	30894.34
729.516	30918.75
729.858	30821.12
730.199	30810.96
730.541	30660.9
730.882	30690.28
731.224	30692.54
731.565	30589.49
731.906	30756.95
732.248	30631.75
732.589	30441.7
732.93	30416.39
733.271	30308.37
733.612	30278.31
733.953	30327.58
734.294	30230.18
734.635	30142.05
734.976	30262.72
735.317	30194.47
735.658	30133.91
735.999	30129.17
736.339	30147.47
736.68	30137.53
737.021	30048.26
737.361	29903.18
737.702	30024.31
738.042	29855.73
738.383	29931.66
738.723	29766.46
739.063	29733.92
739.404	29745.45
739.744	29794.26
740.084	29633.59
740.424	29721.94
740.764	29434.49
741.104	29632.91
741.444	29560.59
741.784	29356.53
742.124	29426.36
742.464	29507.26
742.804	29360.15
743.143	29335.29
743.483	29238.34
743.823	29208.29
744.162	29265.23
744.502	29222.3
744.841	29080.61
745.181	29138.91
745.52	29004.9
745.86	29131.45
746.199	29034.96
746.538	28936.43
746.877	29059.59
747.216	29041.74
747.556	28866.15
747.895	28905.92
748.234	28671.35
748.573	28615.08
748.911	28702.08
749.25	28679.71
749.589	28603.56
749.928	28702.54
750.267	28627.51
750.605	28507.97
750.944	28359.95
751.283	28431.81
751.621	28385.26
751.96	28232.27
752.298	28203.79
752.636	28213.74
752.975	28191.36
753.313	28014.42
753.651	28141.65
753.989	28007.19
754.327	27859.17
754.666	27838.38
755.004	27900.98
755.342	27869.56
755.679	27776.23
756.017	27591.83
756.355	27775.1
756.693	27623.92
757.031	27631.15
757.368	27457.82
757.706	27436.35
758.044	27392.97
758.381	27284.72
758.719	27254.89
759.056	27216.7
759.394	27238.39
759.731	26993.43
