Data from hue_36_FLMS001491_00088.txt Node
Date: Tue Feb 07 17:30:25 GMT 2017
User: dcchb
Spectrometer: FLMS00149
Trigger mode: 0
Integration Time (sec): 2.000000E-2
Scans to average: 10
Electric dark correction enabled: true
Nonlinearity correction enabled: false
Boxcar width: 0
XAxis mode: Wavelengths
Number of Pixels in Spectrum: 2048
>>>>>Begin Spectral Data<<<<<
341.393	-1.6
341.776	-1.6
342.16	-1.6
342.543	-75.27
342.927	-63.52
343.31	-85.21
343.693	-59.22
344.077	-67.36
344.46	-62.84
344.843	-63.06
345.226	-30.52
345.61	-41.37
345.993	-12.9
346.376	11.74
346.759	11.51
347.142	42.24
347.525	46.31
347.908	36.6
348.291	70.94
348.674	103.49
349.057	99.64
349.44	129.47
349.823	138.97
350.206	165.41
350.588	208.57
350.971	213.99
351.354	231.39
351.737	243.37
352.119	245.4
352.502	255.8
352.884	287.44
353.267	295.12
353.65	289.24
354.032	306.42
354.414	284.95
354.797	303.71
355.179	326.98
355.562	314.33
355.944	330.82
356.326	342.58
356.709	345.74
357.091	331.28
357.473	346.64
357.855	364.27
358.238	347.1
358.62	353.87
359.002	326.53
359.384	338.73
359.766	355
360.148	337.38
360.53	343.48
360.912	342.35
361.294	332.63
361.676	336.02
362.057	346.87
362.439	345.06
362.821	334.89
363.203	307.55
363.584	323.59
363.966	339.64
364.348	335.57
364.729	341.67
365.111	338.96
365.493	326.98
365.874	308
366.256	323.37
366.637	336.02
367.019	324.72
367.4	305.51
367.781	315.01
368.163	336.7
368.544	316.59
368.925	320.43
369.306	304.38
369.688	319.98
370.069	293.76
370.45	329.69
370.831	310.03
371.212	315.01
371.593	317.94
371.974	323.14
372.355	307.32
372.736	312.97
373.117	337.83
373.498	323.14
373.879	302.12
374.26	316.81
374.641	327.21
375.021	323.37
375.402	321.56
375.783	331.73
376.163	338.51
376.544	333.54
376.925	347.1
377.305	336.02
377.686	333.08
378.066	331.73
378.447	331.05
378.827	327.89
379.208	339.19
379.588	349.13
379.968	319.3
380.349	325.18
380.729	338.73
381.109	352.29
381.489	321.79
381.87	331.05
382.25	340.99
382.63	340.32
383.01	332.41
383.39	336.47
383.77	353.87
384.15	350.94
384.53	353.42
384.91	328.11
385.29	350.03
385.67	343.03
386.049	347.32
386.429	364.5
386.809	360.88
387.189	368.79
387.568	359.3
387.948	359.98
388.328	347.77
388.707	365.4
389.087	351.39
389.466	389.81
389.846	360.2
390.225	371.73
390.605	361.78
390.984	364.5
391.363	371.73
391.743	367.21
392.122	356.36
392.501	361.78
392.881	370.15
393.26	357.72
393.639	374.89
394.018	350.94
394.397	353.87
394.776	370.37
395.155	370.15
395.534	375.12
395.913	370.6
396.292	365.85
396.671	381.44
397.05	385.51
397.429	388
397.808	379.41
398.186	396.36
398.565	377.15
398.944	392.07
399.323	386.87
399.701	397.04
400.08	380.77
400.458	391.16
400.837	381.22
401.215	399.07
401.594	391.16
401.972	388
402.351	384.61
402.729	386.87
403.107	404.72
403.486	414.44
403.864	397.49
404.242	396.36
404.62	400.88
404.999	401.56
405.377	411.5
405.755	408.79
406.133	401.33
406.511	430.93
406.889	416.47
407.267	420.99
407.645	424.16
408.023	414.66
408.401	411.5
408.779	418.96
409.156	444.95
409.534	426.19
409.912	434.55
410.29	430.03
410.667	435.91
411.045	452.86
411.422	429.13
411.8	438.17
412.178	449.69
412.555	444.27
412.933	426.87
413.31	471.16
413.687	459.63
414.065	462.8
414.442	451.95
414.819	477.49
415.197	457.15
415.574	465.51
415.951	485.62
416.328	446.3
416.705	484.72
417.082	497.15
417.46	491.5
417.837	499.41
418.214	490.37
418.591	500.99
418.967	485.4
419.344	485.85
419.721	511.84
420.098	501.44
420.475	502.35
420.852	502.12
421.228	515
421.605	523.36
421.982	519.07
422.358	510.71
422.735	525.17
423.111	524.72
423.488	515.68
423.864	533.08
424.241	512.74
424.617	534.89
424.994	546.86
425.37	532.4
425.746	533.98
426.123	547.77
426.499	525.85
426.875	548.9
427.251	547.99
427.627	544.38
428.003	562.46
428.379	561.78
428.756	566.75
429.132	557.71
429.507	568.78
429.883	567.2
430.259	574.89
430.635	602.91
431.011	598.16
431.387	595.68
431.763	601.33
432.138	588.44
432.514	606.52
432.89	630.48
433.265	635.45
433.641	628.22
434.016	624.83
434.392	617.14
434.767	650.36
435.143	636.58
435.518	635
435.894	643.36
436.269	672.74
436.644	643.13
437.02	668.44
437.395	676.58
437.77	663.02
438.145	686.3
438.52	705.73
438.895	703.24
439.271	678.39
439.646	675.9
440.021	698.27
440.395	696.46
440.77	686.3
441.145	709.57
441.52	737.37
441.895	711.15
442.27	730.36
442.645	707.31
443.019	736.46
443.394	733.75
443.769	717.26
444.143	730.36
444.518	738.72
444.892	741.44
445.267	738.5
445.641	753.86
446.016	769.91
446.39	751.15
446.764	761.1
447.139	765.39
447.513	764.71
447.887	764.94
448.262	766.75
448.636	783.02
449.01	796.12
449.384	796.58
449.758	774.65
450.132	775.33
450.506	792.06
450.88	781.43
451.254	826.4
451.628	809.91
452.002	844.03
452.376	818.95
452.75	842.22
453.123	844.26
453.497	840.42
453.871	848.33
454.244	846.74
454.618	867.08
454.992	889.23
455.365	881.54
455.739	897.36
456.112	891.71
456.486	891.49
456.859	896.69
457.232	912.73
457.606	917.25
457.979	917.02
458.352	920.87
458.725	952.05
459.099	963.35
459.472	966.97
459.845	976.68
460.218	993.86
460.591	993.86
460.964	993.86
461.337	1022.33
461.71	1047.64
462.083	1052.61
462.456	1045.83
462.829	1060.07
463.201	1063.91
463.574	1071.37
463.947	1079.96
464.32	1104.59
464.692	1123.35
465.065	1100.07
465.438	1124.02
465.81	1148.2
466.183	1168.54
466.555	1176.23
466.928	1187.53
467.3	1198.6
467.672	1245.83
468.045	1246.51
468.417	1260.52
468.789	1284.47
469.161	1264.36
469.534	1310.91
469.906	1333.96
470.278	1339.84
470.65	1372.38
471.022	1402.89
471.394	1427.07
471.766	1456.22
472.138	1463.68
472.51	1483.11
472.882	1534.63
473.253	1555.2
473.625	1578.02
473.997	1598.81
474.369	1633.39
474.74	1666.83
475.112	1700.51
475.484	1745.48
475.855	1733.5
476.227	1799.71
476.598	1837.9
476.97	1871.12
477.341	1931.69
477.713	1929.88
478.084	1966.04
478.455	2067.5
478.827	2080.61
479.198	2142.75
479.569	2155.64
479.94	2238.57
480.311	2304.56
480.682	2390.21
481.053	2442.41
481.424	2478.11
481.795	2499.58
482.166	2608.96
482.537	2669.52
482.908	2716.75
483.279	2796.07
483.65	2849.4
484.021	2944.54
484.391	2982.96
484.762	3033.58
485.133	3109.51
485.503	3213.69
485.874	3325.1
486.244	3359.67
486.615	3468.37
486.985	3558.76
487.356	3648.03
487.726	3697.74
488.097	3810.51
488.467	3843.73
488.837	4003.27
489.207	4080.1
489.578	4158.29
489.948	4235.13
490.318	4342.02
490.688	4395.35
491.058	4534.56
491.428	4636.47
491.798	4699.75
492.168	4820.88
492.538	4890.7
492.908	4976.58
493.278	5124.6
493.648	5152.39
494.017	5254.31
494.387	5322.78
494.757	5428.09
495.126	5542.21
495.496	5611.36
495.866	5690.68
496.235	5749.21
496.605	5838.7
496.974	5939.04
497.344	5969.55
497.713	6127.06
498.082	6159.6
498.452	6237.11
498.821	6327.96
499.19	6420.16
499.559	6426.94
499.928	6595.52
500.298	6670.54
500.667	6767.27
501.036	6767.27
501.405	6832.12
501.774	6852.46
502.143	6993.25
502.512	7035.73
502.88	7147.59
503.249	7140.82
503.618	7229.63
503.987	7309.85
504.356	7440.02
504.724	7484.76
505.093	7531.99
505.462	7578.54
505.83	7681.37
506.199	7783.96
506.567	7866.22
506.936	8000.68
507.304	7929.72
507.672	8084.52
508.041	8133.78
508.409	8169.04
508.777	8278.41
509.145	8368.81
509.514	8348.69
509.882	8423.27
510.25	8417.62
510.618	8540.78
510.986	8620.1
511.354	8636.14
511.722	8703.71
512.09	8789.13
512.458	8810.83
512.826	8948.45
513.193	8956.13
513.561	8979.18
513.929	9073.42
514.297	9109.35
514.664	9197.94
515.032	9213.3
515.4	9380.08
515.767	9381.66
516.135	9380.53
516.502	9437.48
516.869	9569.68
517.237	9636.57
517.604	9596.57
517.972	9687.41
518.339	9718.37
518.706	9769.9
519.073	9800.86
519.44	9905.71
519.808	9964.92
520.175	10014.41
520.542	10110.45
520.909	10145.26
521.276	10175.09
521.643	10257.8
522.009	10370.79
522.376	10359.26
522.743	10532.82
523.11	10539.82
523.477	10661.17
523.843	10667.73
524.21	10805.8
524.577	10826.14
524.943	10903.43
525.31	10893.26
525.676	10983.43
526.043	11099.36
526.409	11193.59
526.776	11263.87
527.142	11303.87
527.508	11370.08
527.874	11459.57
528.241	11446.46
528.607	11505.45
528.973	11599
529.339	11698.66
529.705	11715.16
530.071	11862.5
530.437	11947.24
530.803	12012.78
531.169	11992.21
531.535	11984.53
531.901	12094.58
532.267	12171.87
532.632	12288.25
532.998	12321.47
533.364	12363.05
533.73	12455.48
534.095	12558.3
534.461	12610.28
534.826	12627
535.192	12650.5
535.557	12714.68
535.923	12736.15
536.288	12846.65
536.653	12815.92
537.019	12852.53
537.384	12831.06
537.749	12980.21
538.114	13066.53
538.479	13051.62
538.845	13197.38
539.21	13134.78
539.575	13257.94
539.94	13231.5
540.305	13288.68
540.67	13306.08
541.034	13418.16
541.399	13492.29
541.764	13499.52
542.129	13536.58
542.494	13652.73
542.858	13597.37
543.223	13705.61
543.587	13811.37
543.952	13795.33
544.316	13908.55
544.681	13927.08
545.045	13930.02
545.41	14085.04
545.774	14076
546.138	14115.77
546.503	14210.01
546.867	14228.76
547.231	14343.79
547.595	14313.73
547.959	14353.05
548.324	14396.44
548.688	14426.73
549.052	14464.92
549.416	14585.37
549.779	14577
550.143	14646.15
550.507	14799.82
550.871	14770.22
551.235	14806.15
551.599	14892.93
551.962	14878.92
552.326	14845.47
552.689	15043.88
553.053	14987.84
553.417	15085.24
553.78	15237.55
554.143	15151
554.507	15278.68
554.87	15234.16
555.234	15451.33
555.597	15358.68
555.96	15430.31
556.323	15579.24
556.686	15544.21
557.05	15615.85
557.413	15657.65
557.776	15677.31
558.139	15779.23
558.502	15791.66
558.865	15797.08
559.228	15966.35
559.59	16088.83
559.953	16079.56
560.316	16184.19
560.679	16153.01
561.041	16404.3
561.404	16436.16
561.767	16480.91
562.129	16409.72
562.492	16646.1
562.854	16576.27
563.217	16536.05
563.579	16635.25
563.941	16772.65
564.304	16849.49
564.666	16863.72
565.028	16995.7
565.39	17001.57
565.753	17201.79
566.115	17120.44
566.477	17294.9
566.839	17291.96
567.201	17371.05
567.563	17468
567.925	17450.15
568.287	17540.99
568.648	17592.07
569.01	17712.51
569.372	17750.03
569.734	17770.37
570.095	17922.45
570.457	17982.79
570.819	18028.21
571.18	18026.63
571.542	18194.99
571.903	18211.94
572.265	18280.18
572.626	18350.24
572.987	18459.61
573.349	18441.08
573.71	18669.55
574.071	18724.24
574.432	18759.94
574.794	18922.88
575.155	18937.79
575.516	18900.05
575.877	19192.48
576.238	19264.79
576.599	19350.44
576.96	19364.45
577.32	19498.23
577.681	19657.77
578.042	19768.05
578.403	19876.3
578.763	19919.01
579.124	20097.08
579.485	20287.36
579.845	20407.13
580.206	20516.28
580.566	20568.48
580.927	20815.03
581.287	21067.68
581.648	21034.46
582.008	21336.83
582.368	21434.45
582.728	21658.63
583.089	21617.04
583.449	21917.38
583.809	22043.25
584.169	22192.4
584.529	22359.17
584.889	22717.13
585.249	22822.89
585.609	22890.01
585.969	23241.63
586.329	23317.79
586.688	23559.82
587.048	23749.19
587.408	23898.57
587.768	24160.03
588.127	24272.34
588.487	24544.65
588.846	24976.05
589.206	24858.32
589.565	25051.3
589.925	25490.84
590.284	25574.45
590.643	25957.95
591.003	26139.19
591.362	26403.81
591.721	26592.96
592.08	26627.31
592.44	27024.36
592.799	27161.98
593.158	27326.5
593.517	27549.54
593.876	27765.13
594.235	28000.38
594.593	28292.35
594.952	28536.41
595.311	28610.53
595.67	28857.76
596.029	29360.57
596.387	29377.29
596.746	29673.78
597.104	29791.74
597.463	29868.81
597.822	30268.34
598.18	30387.44
598.538	30488.45
598.897	30921.21
599.255	30890.7
599.613	31376.11
599.972	31462.44
600.33	31732.26
600.688	31750.79
601.046	31984
601.404	32294.96
601.762	32390.55
602.12	32633.03
602.478	32965.9
602.836	33000.7
603.194	33044.77
603.552	33306
603.91	33265.55
604.268	33581.93
604.625	33724.3
604.983	33897.17
605.341	33957.51
605.698	34367.44
606.056	34403.83
606.413	34545.74
606.771	34839.75
607.128	35032.29
607.485	35013.98
607.843	35034.09
608.2	35368.77
608.557	35504.82
608.914	35562.67
609.272	35764.7
609.629	36009.43
609.986	36062.99
610.343	36120.62
610.7	36597.67
611.057	36618.46
611.414	36540.04
611.771	36708.4
612.127	37156.97
612.484	37203.53
612.841	37216.18
613.198	37210.08
613.554	37391.77
613.911	37555.38
614.267	37706.57
614.624	37658.88
614.98	37923.06
615.337	38147.46
615.693	38193.11
616.05	38082.15
616.406	38528.46
616.762	38459.54
617.118	38432.65
617.475	38583.83
617.831	38723.26
618.187	38745.63
618.543	38903.82
618.899	39087.55
619.255	39053.65
619.611	39053.65
619.967	39374.77
620.323	39343.36
620.678	39454.32
621.034	39341.32
621.39	39429.46
621.746	39390.59
622.101	39867.86
622.457	39542.67
622.812	39775.21
623.168	39886.39
623.523	39935.43
623.879	40090.91
624.234	39869.45
624.589	40010.69
624.945	39981.76
625.3	40242.54
625.655	40219.04
626.01	40297.23
626.365	40257.68
626.72	40401.41
627.075	40376.78
627.43	40518.69
627.785	40385.82
628.14	40411.35
628.495	40522.31
628.85	40443.44
629.205	40263.79
629.559	40668.97
629.914	40558.24
630.269	40385.82
630.623	40404.57
630.978	40513.95
631.332	40699.71
631.687	40626.26
632.041	40673.27
632.396	40539.48
632.75	40579.26
633.104	40649.76
633.459	40543.78
633.813	40397.79
634.167	40553.95
634.521	40528.19
634.875	40656.32
635.229	40557.56
635.583	40328.42
635.937	40561.18
636.291	40328.19
636.645	40470.79
636.999	40477.57
637.352	40531.35
637.706	40408.19
638.06	40501.29
638.413	40328.64
638.767	40376.1
639.121	40373.61
639.474	40186.95
639.828	40225.82
640.181	40226.72
640.534	40294.29
640.888	40246.84
641.241	40055.43
641.594	40127.74
641.947	40281.19
642.301	40094.3
642.654	40149.66
643.007	40276.67
643.36	40199.83
643.713	40008.88
644.066	40238.02
644.419	40083.68
644.771	39823.8
645.124	39333.64
645.477	39343.58
645.83	39127.09
646.182	39070.15
646.535	38883.71
646.888	38971.62
647.24	38894.78
647.593	39125.28
647.945	39003.48
648.298	38772.3
648.65	38834.22
649.002	38701.57
649.355	38866.31
649.707	38804.16
650.059	38977.72
650.411	39420.87
650.763	39537.7
651.115	39800.52
651.467	39510.36
651.819	39547.42
652.171	39586.06
652.523	39426.75
652.875	39440.53
653.227	39273.08
653.578	39598.04
653.93	39482.11
654.282	39239.63
654.633	39178.39
654.985	39351.95
655.337	39372.96
655.688	39280.31
656.039	39445.05
656.391	39250.25
656.742	39179.29
657.094	39315.79
657.445	39432.17
657.796	39276.92
658.147	39371.38
658.498	39248.45
658.849	39331.83
659.2	39240.76
659.551	39110.37
659.902	39222.91
660.253	39245.28
660.604	39257.71
660.955	39102.23
661.306	39148.11
661.656	39169.8
662.007	39141.78
662.358	39200.31
662.708	39081.22
663.059	39154.89
663.409	38888.45
663.76	39233.53
664.11	39090.03
664.461	39248.67
664.811	39033.76
665.161	39112.63
665.511	39078.96
665.862	38901.79
666.212	39113.08
666.562	39169.58
666.912	39058.62
667.262	38991.95
667.612	39099.3
667.962	39025.63
668.312	38980.43
668.662	39268.78
669.011	39059.52
669.361	39017.27
669.711	39080.09
670.06	38866.76
670.41	38892.75
670.76	38780.21
671.109	39068.56
671.459	38935.69
671.808	38841
672.157	38859.76
672.507	38658.18
672.856	38691.62
673.205	38816.59
673.554	38779.31
673.904	38882.81
674.253	38977.94
674.602	38777.5
674.951	38266.78
675.3	38128.7
675.649	38733.2
675.998	38631.74
676.346	38667.22
676.695	38779.31
677.044	38517.39
677.393	38676.48
677.741	38721.68
678.09	38511.97
678.438	38418.86
678.787	38537.28
679.135	38668.12
679.484	38325.31
679.832	38532.08
680.181	38251.86
680.529	38418.86
680.877	38334.35
681.225	38257.29
681.573	38315.59
681.922	38002.38
682.27	38062.94
682.618	37973
682.966	37963.06
683.314	38025.43
683.661	37807.35
684.009	37697.53
684.357	37699.56
684.705	37610.97
685.053	37692.55
685.4	37576.85
685.748	37446.46
686.095	37486.68
686.443	37367.82
686.79	37211.66
687.138	37348.38
687.485	37230.65
687.832	37234.49
688.18	37275.62
688.527	36925.12
688.874	37001.27
689.221	36876.3
689.568	36883.08
689.915	36753.6
690.262	36813.71
690.609	36645.58
690.956	36500.95
691.303	36436.54
691.65	36252.14
691.997	36414.17
692.344	36172.59
692.69	36139.83
693.037	36143.22
693.383	35912.49
693.73	35965.59
694.077	35809.21
694.423	35829.1
694.769	35677.92
695.116	35549.33
695.462	35583.23
695.808	35364.25
696.155	35535.1
696.501	35300.98
696.847	35191.38
697.193	34999.97
697.539	35140.98
697.885	35100.08
698.231	34821.67
698.577	34765.85
698.923	34778.73
699.269	34569.92
699.614	34303.49
699.96	34397.5
700.306	34378.74
700.651	34310.04
700.997	34083.16
701.342	34065.53
701.688	34015.59
702.033	33852.66
702.379	33897.4
702.724	33814.46
703.069	33877.74
703.415	33500.35
703.76	33516.84
704.105	33526.79
704.45	33450.86
704.795	33154.14
705.14	33325.89
705.485	33179
705.83	33105.1
706.175	33112.56
706.52	33017.65
706.865	32866.69
707.209	32856.3
707.554	32719.13
707.899	32859.01
708.243	32553.25
708.588	32482.3
708.932	32398.91
709.277	32280.27
709.621	32379.93
709.966	32020.16
710.31	32077.56
710.654	31840.96
710.998	31923.21
711.342	32017.68
711.687	31944.91
712.031	31842.31
712.375	31545.37
712.719	31756.44
713.063	31601.41
713.407	31737.46
713.75	31568.2
714.094	31570.91
714.438	31329.33
714.782	31286.17
715.125	31233.51
715.469	31240.52
715.812	31048.21
716.156	30954.88
716.499	31005.95
716.843	31094.08
717.186	30724.15
717.53	30929.57
717.873	30965.5
718.216	30805.96
718.559	30747.65
718.902	30500.43
719.246	30665.17
719.589	30454.1
719.932	30456.81
720.275	30462.69
720.617	30308.12
720.96	30202.36
721.303	30271.28
721.646	30244.61
721.989	29998.07
722.331	30168.91
722.674	30069.25
723.016	29981.12
723.359	29962.14
723.701	30128.91
724.044	29871.97
724.386	29704.06
724.729	29814.8
725.071	29686.66
725.413	29727.57
725.755	29678.08
726.097	29482.6
726.439	29426.78
726.782	29436.5
727.124	29587.91
727.465	29395.82
727.807	29353.56
728.149	29314.7
728.491	29407.35
728.833	29217.3
729.175	29142.72
729.516	29184.53
729.858	29018.43
730.199	29043.52
730.541	28952.9
730.882	28940.69
731.224	29041.71
731.565	28890.07
731.906	28848.27
732.248	28804.88
732.589	28803.97
732.93	28477.66
733.271	28691.21
733.612	28696.18
733.953	28752.22
734.294	28570.99
734.635	28416.64
734.976	28444.89
735.317	28399.69
735.658	28451.67
735.999	28400.14
736.339	28274.5
736.68	28396.08
737.021	28212.35
737.361	28162.64
737.702	28276.76
738.042	28246.02
738.383	28028.85
738.723	28120.6
739.063	28112.02
739.404	28049.42
739.744	27977.78
740.084	27902.98
740.424	27993.6
740.764	27836.99
741.104	27986.14
741.444	27698.24
741.784	27688.52
742.124	27626.38
742.464	27608.98
742.804	27698.01
743.143	27630.45
743.483	27535.31
743.823	27382.09
744.162	27422.77
744.502	27517.91
744.841	27362.88
745.181	27487.4
745.52	27238.14
745.86	27386.16
746.199	27307.74
746.538	27230.46
746.877	27234.52
747.216	27232.49
747.556	27109.33
747.895	27067.75
748.234	27014.87
748.573	26974.87
748.911	26814.2
749.25	26945.27
749.589	26862.33
749.928	26750.47
750.267	26798.15
750.605	26621.43
750.944	26730.81
751.283	26602.45
751.621	26588.67
751.96	26406.07
752.298	26689.45
752.636	26446.97
752.975	26364.72
753.313	26384.38
753.651	26361.33
753.989	26202.46
754.327	26179.18
754.666	26060.32
755.004	26187.09
755.342	26201.56
755.679	26130.37
756.017	25976.7
756.355	26080.43
756.693	25886.99
757.031	25863.49
757.368	25808.35
757.706	25737.16
758.044	25575.58
