Data from hue_60_FLMS001491_90.txt Node
Date: Mon Feb 06 15:18:04 GMT 2017
User: dcchb
Spectrometer: FLMS00149
Trigger mode: 0
Integration Time (sec): 2.000000E-2
Scans to average: 10
Electric dark correction enabled: true
Nonlinearity correction enabled: false
Boxcar width: 0
XAxis mode: Wavelengths
Number of Pixels in Spectrum: 2048
>>>>>Begin Spectral Data<<<<<
341.393	-18.91
341.776	-18.91
342.16	-18.91
342.543	-50.55
342.927	-62.3
343.31	-71.57
343.693	-45.58
344.077	-70.21
344.46	-69.31
344.843	-39.48
345.226	-50.1
345.61	-46.71
345.993	-11.68
346.376	-14.17
346.759	2.1
347.142	37.81
347.525	35.78
347.908	61.76
348.291	64.25
348.674	92.27
349.057	124.81
349.44	118.71
349.823	124.59
350.206	164.36
350.588	195.32
350.971	187.41
351.354	242.32
351.737	242.78
352.119	254.3
352.502	291.14
352.884	275.54
353.267	285.71
353.65	302.89
354.032	286.84
354.414	329.1
354.797	323.23
355.179	305.83
355.562	330.46
355.944	325.94
356.326	321.19
356.709	346.28
357.091	344.69
357.473	354.41
357.855	354.41
358.238	349.89
358.62	333.17
359.002	334.98
359.384	339.27
359.766	325.94
360.148	324.81
360.53	339.27
360.912	346.95
361.294	363.45
361.676	345.37
362.057	355.99
362.439	307.18
362.821	351.93
363.203	323.9
363.584	327.97
363.966	325.26
364.348	334.75
364.729	314.86
365.111	295.88
365.493	334.98
365.874	313.73
366.256	321.64
366.637	326.39
367.019	329.33
367.4	299.05
367.781	320.51
368.163	310.34
368.544	320.97
368.925	314.86
369.306	319.16
369.688	321.87
370.069	311.02
370.45	323.9
370.831	327.29
371.212	319.61
371.593	313.96
371.974	311.7
372.355	313.51
372.736	325.71
373.117	319.84
373.498	318.93
373.879	315.99
374.26	310.57
374.641	314.86
375.021	297.69
375.402	331.81
375.783	310.34
376.163	323.45
376.544	337.91
376.925	324.13
377.305	335.43
377.686	339.5
378.066	313.51
378.447	334.98
378.827	312.83
379.208	329.78
379.588	312.6
379.968	322.1
380.349	342.66
380.729	343.11
381.109	335.66
381.489	332.49
381.87	327.07
382.25	335.88
382.63	321.87
383.01	335.2
383.39	330.46
383.77	349.21
384.15	353.28
384.53	344.24
384.91	342.66
385.29	351.25
385.67	347.63
386.049	364.35
386.429	359.38
386.809	345.6
387.189	350.57
387.568	355.09
387.948	352.15
388.328	352.15
388.707	355.77
389.087	367.07
389.466	379.04
389.846	351.7
390.225	348.08
390.605	358.93
390.984	356.67
391.363	358.71
391.743	359.61
392.122	356.22
392.501	353.28
392.881	370.68
393.26	381.98
393.639	367.07
394.018	377.91
394.397	370
394.776	384.02
395.155	358.03
395.534	364.35
395.913	364.81
396.292	395.09
396.671	394.64
397.05	370.23
397.429	364.13
397.808	399.16
398.186	382.66
398.565	375.43
398.944	376.11
399.323	383.56
399.701	369.78
400.08	381.98
400.458	394.41
400.837	375.88
401.215	386.05
401.594	383.11
401.972	393.28
402.351	399.83
402.729	410.91
403.107	387.41
403.486	401.64
403.864	404.13
404.242	413.62
404.62	410.68
404.999	436.9
405.377	406.16
405.755	402.77
406.133	412.04
406.511	413.17
406.889	410.23
407.267	429.21
407.645	421.53
408.023	421.75
408.401	425.14
408.779	426.95
409.156	417.23
409.534	429.66
409.912	443.67
410.29	433.51
410.667	433.05
411.045	442.09
411.422	452.26
411.8	431.47
412.178	443.67
412.555	450.45
412.933	445.93
413.31	442.09
413.687	465.6
414.065	450.68
414.442	452.26
414.819	468.76
415.197	461.53
415.574	481.19
415.951	461.98
416.328	475.54
416.705	468.98
417.082	460.85
417.46	484.8
417.837	498.81
418.214	490.23
418.591	486.16
418.967	486.84
419.344	490
419.721	505.37
420.098	485.93
420.475	500.85
420.852	488.42
421.228	486.61
421.605	485.93
421.982	506.72
422.358	526.16
422.735	511.7
423.111	504.69
423.488	507.4
423.864	531.81
424.241	529.1
424.617	518.25
424.994	511.02
425.37	540.17
425.746	538.81
426.123	557.57
426.499	542.2
426.875	515.09
427.251	539.27
427.627	559.15
428.003	524.35
428.379	548.53
428.756	578.81
429.132	560.96
429.507	575.42
429.883	581.98
430.259	583.56
430.635	587.63
431.011	578.81
431.387	560.96
431.763	584.46
432.138	607.06
432.514	588.3
432.89	619.49
433.265	606.83
433.641	620.62
434.016	602.54
434.392	651.58
434.767	643.67
435.143	634.63
435.518	634.18
435.894	643.22
436.269	660.84
436.644	646.38
437.02	660.39
437.395	655.19
437.77	693.39
438.145	664.23
438.52	652.03
438.895	676.89
439.271	690.9
439.646	686.83
440.021	684.12
440.395	699.71
440.77	694.29
441.145	691.13
441.52	719.15
441.895	711.46
442.27	715.08
442.645	716.21
443.019	726.61
443.394	730.67
443.769	731.35
444.143	726.61
444.518	734.74
444.892	748.3
445.267	753.27
445.641	765.7
446.016	748.3
446.39	744.91
446.764	749.66
447.139	779.71
447.513	757.34
447.887	765.02
448.262	765.02
448.636	799.6
449.01	787.85
449.384	783.78
449.758	803.89
450.132	803.44
450.506	799.37
450.88	799.15
451.254	824.46
451.628	821.29
452.002	826.72
452.376	833.72
452.75	851.8
453.123	839.37
453.497	846.83
453.871	852.48
454.244	873.49
454.618	882.31
454.992	903.1
455.365	900.84
455.739	894.96
456.112	897.9
456.486	919.37
456.859	921.18
457.232	938.35
457.606	913.04
457.979	950.55
458.352	955.98
458.725	975.86
459.099	960.95
459.472	1025.13
459.845	984
460.218	1025.81
460.591	1035.52
460.964	1028.29
461.337	1042.53
461.71	1046.6
462.083	1086.14
462.456	1059.48
462.829	1068.52
463.201	1111.68
463.574	1111
463.947	1151.45
464.32	1140.83
464.692	1153.26
465.065	1141.96
465.438	1166.59
465.81	1204.78
466.183	1217.89
466.555	1262.18
466.928	1262.18
467.3	1235.52
467.672	1279.81
468.045	1310.54
468.417	1305.8
468.789	1337.21
469.161	1373.37
469.534	1405.01
469.906	1388.06
470.278	1437.55
470.65	1452.69
471.022	1470.77
471.394	1522.74
471.766	1543.31
472.138	1576.53
472.51	1622.63
472.882	1625.34
473.253	1664.89
473.625	1706.01
473.997	1734.94
474.369	1767.48
474.74	1802.51
475.112	1847.03
475.484	1905.33
475.855	1932.45
476.227	1997.53
476.598	2082.73
476.97	2071.2
477.341	2126.34
477.713	2192.56
478.084	2226.45
478.455	2303.51
478.827	2380.57
479.198	2491.53
479.569	2494.02
479.94	2599.32
480.311	2640.23
480.682	2732.43
481.053	2811.75
481.424	2940.56
481.795	2951.86
482.166	3059.88
482.537	3191.17
482.908	3284.05
483.279	3336.25
483.65	3459.19
484.021	3536.7
484.391	3675.68
484.762	3746.41
485.133	3791.84
485.503	3944.6
485.874	4096.46
486.244	4217.36
486.615	4318.38
486.985	4455.32
487.356	4594.75
487.726	4653.06
488.097	4851.69
488.467	4942.99
488.837	5089.65
489.207	5217.79
489.578	5414.62
489.948	5486.93
490.318	5667.49
490.688	5770.77
491.058	5920.59
491.428	6030.65
491.798	6191.77
492.168	6339.56
492.538	6492.78
492.908	6709.95
493.278	6840.12
493.648	6923.96
494.017	7143.84
494.387	7261.8
494.757	7411.63
495.126	7611.85
495.496	7656.14
495.866	7862.46
496.235	8050.25
496.605	8212.74
496.974	8333.18
497.344	8490.02
497.713	8587.42
498.082	8737.69
498.452	8977.24
498.821	9160.73
499.19	9217
499.559	9359.37
499.928	9585.36
500.298	9664.22
500.667	9823.54
501.036	9904.89
501.405	10121.84
501.774	10237.77
502.143	10390.08
502.512	10565.44
502.88	10675.72
503.249	10824.64
503.618	10916.85
503.987	11062.83
504.356	11233.45
504.724	11366.55
505.093	11496.72
505.462	11587.34
505.83	11808.8
506.199	11892.87
506.567	12210.6
506.936	12171.95
507.304	12436.81
507.672	12546.18
508.041	12651.49
508.409	12862.11
508.777	12906.62
509.145	13104.58
509.514	13257.58
509.882	13405.82
510.25	13434.29
510.618	13609.66
510.986	13683.1
511.354	13898.91
511.722	14059.81
512.09	14264.1
512.458	14331.45
512.826	14450.09
513.193	14539.58
513.561	14589.74
513.929	14869.28
514.297	15018.88
514.664	15083.74
515.032	15256.17
515.4	15453.22
515.767	15441.02
516.135	15577.74
516.502	15645.99
516.869	15944.96
517.237	16083.72
517.604	16045.52
517.972	16320.09
518.339	16402.8
518.706	16521.9
519.073	16521.67
519.44	16688.22
519.808	16999.62
520.175	16988.1
520.542	17215.21
520.909	17412.04
521.276	17374.98
521.643	17567.97
522.009	17763.22
522.376	17913.72
522.743	18104.23
523.11	18249.76
523.477	18396.2
523.843	18536.53
524.21	18648.17
524.577	18893.59
524.943	18957.54
525.31	19099.68
525.676	19287.02
526.043	19417.19
526.409	19599.78
526.776	19760.68
527.142	19854.69
527.508	20022.59
527.874	20095.14
528.241	20272.31
528.607	20390.27
528.973	20565.41
529.339	20484.73
529.705	20733.54
530.071	20872.52
530.437	21072.74
530.803	21129.01
531.169	21266.4
531.535	21217.14
531.901	21359.06
532.267	21530.35
532.632	21723.79
532.998	21704.36
533.364	21878.14
533.73	21936.22
534.095	22155.65
534.461	22228.64
534.826	22226.15
535.192	22440.84
535.557	22518.8
535.923	22655.97
536.288	22726.03
536.653	22887.15
537.019	22827.49
537.384	22967.38
537.749	23091.44
538.114	23156.98
538.479	23212.79
538.845	23300.93
539.21	23406.46
539.575	23386.57
539.94	23473.13
540.305	23621.82
540.67	23680.58
541.034	23780.01
541.399	23796.06
541.764	23886.22
542.129	24072.66
542.494	23965.09
542.858	24176.16
543.223	24187.23
543.587	24232.88
543.952	24340.9
544.316	24406.43
544.681	24534.79
545.045	24530.5
545.41	24775.24
545.774	24754.9
546.138	24824.05
546.503	24782.02
546.867	24873.09
547.231	25138.62
547.595	25119.41
547.959	25293.19
548.324	25226.53
548.688	25342.68
549.052	25436.01
549.416	25540.64
549.779	25592.39
550.143	25617.02
550.507	25807.98
550.871	25797.81
551.235	25894.53
551.599	26105.15
551.962	26139.95
552.326	26105.82
552.689	26357.12
553.053	26432.37
553.417	26422.65
553.78	26626.04
554.143	26609.54
554.507	26736.77
554.87	26792.13
555.234	27107.83
555.597	27042.98
555.96	27089.08
556.323	27328.17
556.686	27255.17
557.05	27493.36
557.413	27539.91
557.776	27578.55
558.139	27731.32
558.502	27823.52
558.865	27932.44
559.228	28124.75
559.59	28198.2
559.953	28289.27
560.316	28549.38
560.679	28606.78
561.041	28683.38
561.404	28881.35
561.767	29149.81
562.129	29096.48
562.492	29415.12
562.854	29376.93
563.217	29307.32
563.579	29463.25
563.941	29666.41
564.304	29778.72
564.666	29855.1
565.028	29987.53
565.39	30094.65
565.753	30329.67
566.115	30412.83
566.477	30508.19
566.839	30620.96
567.201	30816.44
567.563	30808.98
567.925	31053.72
568.287	30980.95
568.648	31122.19
569.01	31225.69
569.372	31522.41
569.734	31561.27
570.095	31800.14
570.457	31781.16
570.819	31769.63
571.18	31867.71
571.542	32078.78
571.903	32163.29
572.265	32314.02
572.626	32350.63
572.987	32475.15
573.349	32568.03
573.71	32676.95
574.071	32766.44
574.432	32928.7
574.794	33088.01
575.155	32942.71
575.516	32959.2
575.877	33066.32
576.238	33189.48
576.599	33376.59
576.96	33356.48
577.32	33427.67
577.681	33476.25
578.042	33603.48
578.403	33576.14
578.763	33554.67
579.124	33732.07
579.485	33963.02
579.845	33983.13
580.206	33867.2
580.566	33884.38
580.927	33917.6
581.287	34182
581.648	33982.23
582.008	34289.79
582.368	34111.49
582.728	34111.26
583.089	34144.94
583.449	34151.94
583.809	34191.94
584.169	34250.24
584.529	34262.67
584.889	34538.6
585.249	34294.08
585.609	34252.73
585.969	34610.23
586.329	34240.53
586.688	34404.59
587.048	34464.7
587.408	34334.76
587.768	34455.89
588.127	34328.89
588.487	34401.2
588.846	34553.51
589.206	34217.02
589.565	34471.03
589.925	34660.4
590.284	34440.52
590.643	34793.28
591.003	34713.28
591.362	34786.95
591.721	34613.4
592.08	34768.2
592.44	34866.27
592.799	34745.6
593.158	34741.98
593.517	34772.72
593.876	34869.21
594.235	34748.08
594.593	34831.02
594.952	34911.92
595.311	34743.56
595.67	34929.32
596.029	35034.63
596.387	35088.19
596.746	35185.81
597.104	35012.03
597.463	34960.51
597.822	35257
598.18	35050
598.538	35047.96
598.897	35252.7
599.255	35036.44
599.613	35505.35
599.972	35254.28
600.33	35363.21
600.688	35285.02
601.046	35503.09
601.404	35583.09
601.762	35501.06
602.12	35617.21
602.478	35740.37
602.836	35668.29
603.194	35471.91
603.552	35731.56
603.91	35485.69
604.268	35807.49
604.625	35767.72
604.983	35914.83
605.341	35690.88
605.698	35944.89
606.056	35996.19
606.413	35920.93
606.771	36165
607.128	36231.21
607.485	36018.33
607.843	36071.44
608.2	36316.18
608.557	36494.48
608.914	36306.91
609.272	36573.57
609.629	36501.94
609.986	36795.94
610.343	36565.21
610.7	36953
611.057	36852.89
611.414	36814.02
611.771	36904.19
612.127	36922.04
612.484	36926.33
612.841	37154.35
613.198	37091.3
613.554	37236.83
613.911	37338.07
614.267	37399.54
614.624	37335.36
614.98	37370.16
615.337	37560.66
615.693	37592.08
616.05	37482.25
616.406	37584.17
616.762	37702.81
617.118	37609.48
617.475	37590.04
617.831	37862.8
618.187	37882.01
618.543	37903.03
618.899	38133.53
619.255	38134.66
619.611	37994.78
619.967	38192.29
620.323	38196.58
620.678	38205.62
621.034	38151.38
621.39	38137.6
621.746	38163.13
622.101	38647.42
622.457	38255.56
622.812	38303.47
623.168	38472.28
623.523	38378.5
623.879	38535.78
624.234	38310.25
624.589	38428.21
624.945	38606.97
625.3	38570.58
625.655	38571.49
626.01	38514.99
626.365	38640.41
626.72	38629.34
627.075	38537.14
627.43	38561.99
627.785	38590.02
628.14	38657.81
628.495	38741.65
628.85	38611.94
629.205	38587.98
629.559	38779.39
629.914	38560.41
630.269	38579.62
630.623	38648.09
630.978	38500.3
631.332	38636.12
631.687	38714.76
632.041	38683.8
632.396	38670.92
632.75	38526.06
633.104	38641.09
633.459	38390.25
633.813	38472.28
634.167	38451.49
634.521	38454.88
634.875	38552.05
635.229	38387.31
635.583	38357.25
635.937	38360.87
636.291	38252.17
636.645	38320.87
636.999	38280.65
637.352	38522.9
637.706	38171.5
638.06	38374.65
638.413	38232.74
638.767	38149.35
639.121	38215.34
639.474	37983.7
639.828	38083.82
640.181	38173.76
640.534	38191.16
640.888	38032.52
641.241	37865.52
641.594	37943.25
641.947	38045.62
642.301	37871.84
642.654	37985.06
643.007	37923.82
643.36	37976.7
643.713	37757.04
644.066	38114.55
644.419	37720.66
644.771	37468.92
645.124	37287.45
645.477	36996.61
645.83	36924.07
646.182	36677.75
646.535	36643.85
646.888	36679.33
647.24	36527.25
647.593	36683.17
647.945	36778.99
648.298	36429.62
648.65	36600.69
649.002	36442.28
649.355	36524.76
649.707	36437.76
650.059	36567.02
650.411	37072.99
650.763	37069.38
651.115	37389.14
651.467	37264.63
651.819	37296.04
652.171	37222.59
652.523	37194.57
652.875	37224.18
653.227	37052.88
653.578	37202.26
653.93	37280.22
654.282	37011.53
654.633	36980.79
654.985	37040.23
655.337	36962.94
655.688	36979.44
656.039	37128.36
656.391	36778.31
656.742	36718.88
657.094	36939.21
657.445	37053.11
657.796	36877.52
658.147	36929.04
658.498	36880.46
658.849	36711.2
659.2	36827.35
659.551	36738.99
659.902	36951.87
660.253	36741.93
660.604	37001.81
660.955	36776.96
661.306	36849.5
661.656	36580.58
662.007	36735.83
662.358	36682.72
662.708	36690.41
663.059	36739.9
663.409	36445.89
663.76	36765.43
664.11	36723.62
664.461	36824.87
664.811	36678.88
665.161	36712.1
665.511	36543.06
665.862	36562.27
666.212	36672.78
666.562	36723.85
666.912	36657.86
667.262	36685.89
667.612	36598.88
667.962	36651.99
668.312	36617.41
668.662	36780.8
669.011	36594.59
669.361	36602.27
669.711	36440.47
670.06	36508.72
670.41	36478.89
670.76	36512.78
671.109	36696.73
671.459	36417.42
671.808	36337.87
672.157	36515.27
672.507	36291.55
672.856	36335.39
673.205	36318.66
673.554	36510.98
673.904	36268.72
674.253	36429.62
674.602	36421.71
674.951	35837.09
675.3	35705.35
675.649	36165.22
675.998	36273.02
676.346	36046.13
676.695	36313.47
677.044	36060.14
677.393	36120.93
677.741	36079.35
678.09	36106.47
678.438	35966.81
678.787	35982.63
679.135	35964.55
679.484	35862.4
679.832	35940.37
680.181	35628.51
680.529	35801.62
680.877	35664.9
681.225	35753.71
681.573	35952.12
681.922	35576.08
682.27	35482.08
682.618	35452.47
682.966	35469.42
683.314	35577.44
683.661	35440.49
684.009	35403.66
684.357	35176.77
684.705	35204.34
685.053	35285.47
685.4	35111.24
685.748	34962.32
686.095	34974.74
686.443	34984.24
686.79	34862.66
687.138	35065.14
687.485	34847.06
687.832	34779.72
688.18	34846.61
688.527	34578.14
688.874	34690.91
689.221	34565.72
689.568	34452.95
689.915	34342.9
690.262	34471.93
690.609	34186.52
690.956	34125.95
691.303	34125.28
691.65	33958.05
691.997	33865.85
692.344	33804.83
692.69	33770.03
693.037	33852.06
693.383	33582.01
693.73	33556.7
694.077	33519.87
694.423	33420.66
694.769	33278.97
695.116	33281
695.462	33268.8
695.808	33019.77
696.155	33133.89
696.501	32891.86
696.847	32934.35
697.193	32702.26
697.539	32760.57
697.885	32581.81
698.231	32428.6
698.577	32449.16
698.923	32393.57
699.269	32343.63
699.614	32272.22
699.96	32121.03
700.306	32154.03
700.651	31998.33
700.997	31793.81
701.342	31859.8
701.688	31757.2
702.033	31596.75
702.379	31626.36
702.724	31578.9
703.069	31637.43
703.415	31129.2
703.76	31253.49
704.105	31180.95
704.45	31152.02
704.795	30997.45
705.14	30919.48
705.485	30855.08
705.83	30787.96
706.175	30832.03
706.52	30682.65
706.865	30545.48
707.209	30504.13
707.554	30318.6
707.899	30559.27
708.243	30168.09
708.588	30242.67
708.932	30209.22
709.277	30039.05
709.621	30092.61
709.966	29944.59
710.31	30107.75
710.654	29819.63
710.998	29754.09
711.342	29942.11
711.687	29689.46
712.031	29661.21
712.375	29540.08
712.719	29518.39
713.063	29416.92
713.407	29540.99
713.75	29336.25
714.094	29383.25
714.438	29151.85
714.782	29254.44
715.125	29099.87
715.469	29112.53
715.812	28962.92
716.156	28787.79
716.499	28842.7
716.843	28888.35
717.186	28684.74
717.53	28811.52
717.873	28691.52
718.216	28635.93
718.559	28577.85
718.902	28411.07
719.246	28532.43
719.589	28327.01
719.932	28331.53
720.275	28334.69
720.617	28293.11
720.96	28144.19
721.303	28175.37
721.646	28223.51
721.989	27950.3
722.331	28088.6
722.674	27948.94
723.016	27994.59
723.359	27945.32
723.701	27876.4
724.044	27673.24
724.386	27566.58
724.729	27827.81
725.071	27658.78
725.413	27596.18
725.755	27599.57
726.097	27520.02
726.439	27403.19
726.782	27297.21
727.124	27580.14
727.465	27331.1
727.807	27378.33
728.149	27332.91
728.491	27158.68
728.833	27143.76
729.175	27183.31
729.516	27042.3
729.858	26956.42
730.199	27080.04
730.541	27028.74
730.882	26969.08
731.224	26959.36
731.565	26879.59
731.906	26859.25
732.248	26903.32
732.589	26698.35
732.93	26550.33
733.271	26619.26
733.612	26668.52
733.953	26555.98
734.294	26477.34
734.635	26532.03
734.976	26591.91
735.317	26362.32
735.658	26376.1
735.999	26340.62
736.339	26207.52
736.68	26386.5
737.021	26248.42
737.361	26162.09
737.702	26313.95
738.042	26213.84
738.383	25991.03
738.723	26109.44
739.063	26067.41
739.404	26125.71
739.744	26049.78
740.084	25901.08
740.424	25969.11
740.764	25867.41
741.104	25919.62
741.444	25758.04
741.784	25686.85
742.124	25657.48
742.464	25623.35
742.804	25682.56
743.143	25648.89
743.483	25641.66
743.823	25530.25
744.162	25499.74
744.502	25462.23
744.841	25409.12
745.181	25438.95
745.52	25371.61
745.86	25393.75
746.199	25184.49
746.538	25193.31
746.877	25249.35
747.216	25328.44
747.556	25190.14
747.895	25168.22
748.234	25013.2
748.573	24939.3
748.911	24949.7
749.25	24938.62
749.589	24818.18
749.928	24860.66
750.267	24883.03
750.605	24670.38
750.944	24699.53
751.283	24589.93
751.621	24624.73
751.96	24486.43
752.298	24475.13
752.636	24483.04
752.975	24408.92
753.313	24379.77
753.651	24477.85
753.989	24290.96
754.327	24187.91
754.666	24166.67
755.004	24248.25
755.342	24194.69
755.679	24159.89
756.017	23936.84
756.355	23955.15
756.693	23949.95
