Data from hue_20_FLMS001491_96.txt Node
Date: Mon Feb 06 15:35:00 GMT 2017
User: dcchb
Spectrometer: FLMS00149
Trigger mode: 0
Integration Time (sec): 2.000000E-2
Scans to average: 10
Electric dark correction enabled: true
Nonlinearity correction enabled: false
Boxcar width: 0
XAxis mode: Wavelengths
Number of Pixels in Spectrum: 2048
>>>>>Begin Spectral Data<<<<<
341.393	-0.83
341.776	-0.83
342.16	-0.83
342.543	-71.57
342.927	-74.96
343.31	-71.57
343.693	-53.04
344.077	-75.41
344.46	-57.33
344.843	-57.1
345.226	-36.31
345.61	-29.53
345.993	-23.88
346.376	-9.42
346.759	12.05
347.142	0.3
347.525	45.27
347.908	65.38
348.291	95.89
348.674	77.36
349.057	117.36
349.44	127.07
349.823	146.96
350.206	155.32
350.588	195.77
350.971	211.59
351.354	245.26
351.737	254.75
352.119	219.5
352.502	258.37
352.884	283.45
353.267	274.64
353.65	276.22
354.032	294.75
354.414	315.09
354.797	330.46
355.179	313.96
355.562	321.87
355.944	344.24
356.326	322.55
356.709	322.77
357.091	345.6
357.473	328.88
357.855	348.76
358.238	337.01
358.62	355.09
359.002	328.88
359.384	361.87
359.766	355.54
360.148	349.89
360.53	350.8
360.912	348.76
361.294	373.39
361.676	361.87
362.057	336.33
362.439	344.24
362.821	316.45
363.203	320.74
363.584	328.65
363.966	326.16
364.348	335.43
364.729	318.03
365.111	313.96
365.493	321.19
365.874	309.44
366.256	323.23
366.637	326.16
367.019	332.49
367.4	305.83
367.781	306.73
368.163	330.68
368.544	330.91
368.925	314.19
369.306	328.42
369.688	319.84
370.069	341.3
370.45	332.27
370.831	310.57
371.212	314.64
371.593	309.22
371.974	322.32
372.355	324.58
372.736	333.62
373.117	317.35
373.498	319.38
373.879	324.13
374.26	315.77
374.641	328.2
375.021	303.57
375.402	337.91
375.783	343.56
376.163	325.71
376.544	342.43
376.925	324.13
377.305	322.32
377.686	317.58
378.066	329.1
378.447	340.17
378.827	339.95
379.208	346.73
379.588	341.08
379.968	312.6
380.349	334.3
380.729	320.74
381.109	341.53
381.489	347.41
381.87	332.27
382.25	359.61
382.63	340.85
383.01	342.66
383.39	344.92
383.77	353.73
384.15	359.61
384.53	350.12
384.91	345.6
385.29	365.03
385.67	365.26
386.049	378.59
386.429	360.06
386.809	352.15
387.189	355.77
387.568	361.42
387.948	379.5
388.328	381.98
388.707	349.44
389.087	370.91
389.466	373.62
389.846	387.63
390.225	381.98
390.605	378.59
390.984	389.66
391.363	359.61
391.743	362.55
392.122	380.17
392.501	390.57
392.881	406.84
393.26	380.4
393.639	389.44
394.018	406.39
394.397	407.97
394.776	391.7
395.155	400.29
395.534	392.83
395.913	396.67
396.292	414.52
396.671	408.42
397.05	400.96
397.429	416.56
397.808	410
398.186	418.59
398.565	425.82
398.944	411.13
399.323	419.49
399.701	426.27
400.08	415.43
400.458	413.85
400.837	410.91
401.215	431.92
401.594	428.99
401.972	429.44
402.351	427.4
402.729	431.47
403.107	427.86
403.486	452.49
403.864	436.67
404.242	436.44
404.62	446.16
404.999	469.66
405.377	435.77
405.755	440.74
406.133	462.88
406.511	448.65
406.889	460.17
407.267	478.7
407.645	475.31
408.023	466.73
408.401	487.29
408.779	475.99
409.156	467.63
409.534	496.33
409.912	491.81
410.29	484.35
410.667	499.72
411.045	501.75
411.422	480.96
411.8	491.81
412.178	487.74
412.555	533.16
412.933	521.41
413.31	498.36
413.687	519.38
414.065	538.14
414.442	539.94
414.819	529.77
415.197	537.23
415.574	525.03
415.951	526.84
416.328	541.07
416.705	553.5
417.082	566.84
417.46	539.49
417.837	565.71
418.214	540.85
418.591	567.06
418.967	555.08
419.344	582.88
419.721	582.65
420.098	586.27
420.475	571.13
420.852	580.39
421.228	599.83
421.605	589.89
421.982	597.12
422.358	585.59
422.735	607.74
423.111	601.86
423.488	616.78
423.864	628.98
424.241	610.22
424.617	618.81
424.994	624.91
425.37	630.11
425.746	631.92
426.123	670.11
426.499	624.69
426.875	661.52
427.251	687.06
427.627	674.63
428.003	657.23
428.379	659.26
428.756	671.01
429.132	685.48
429.507	689.09
429.883	693.84
430.259	694.52
430.635	712.37
431.011	704.68
431.387	709.2
431.763	731.58
432.138	721.63
432.514	746.27
432.89	742.2
433.265	760.05
433.641	765.47
434.016	754.63
434.392	784.46
434.767	768.19
435.143	774.74
435.518	796.43
435.894	797.34
436.269	819.94
436.644	792.82
437.02	832.82
437.395	831.69
437.77	821.07
438.145	846.15
438.52	805.7
438.895	843.89
439.271	830.56
439.646	859.26
440.021	852.03
440.395	878.69
440.77	889.31
441.145	887.73
441.52	883.89
441.895	896.32
442.27	886.83
442.645	876.21
443.019	888.41
443.394	914.4
443.769	917.11
444.143	906.71
444.518	923.21
444.892	934.96
445.267	942.42
445.641	953.49
446.016	936.09
446.39	944.23
446.764	937
447.139	966.82
447.513	986.71
447.887	993.04
448.262	984.68
448.636	983.55
449.01	1000.27
449.384	1016.32
449.758	976.77
450.132	1030.1
450.506	1031.68
450.88	1011.8
451.254	1054.51
451.628	1046.14
452.002	1049.08
452.376	1040.04
452.75	1054.05
453.123	1057.22
453.497	1085.92
453.871	1110.32
454.244	1109.19
454.618	1113.49
454.992	1128.18
455.365	1144.22
455.739	1161.4
456.112	1174.05
456.486	1159.81
456.859	1188.97
457.232	1171.79
457.606	1205.24
457.979	1200.27
458.352	1256.76
458.725	1234.61
459.099	1250.66
459.472	1274.84
459.845	1271.22
460.218	1277.78
460.591	1291.56
460.964	1302.18
461.337	1311.9
461.71	1359.13
462.083	1383.09
462.456	1371.11
462.829	1357.55
463.201	1420.6
463.574	1383.54
463.947	1419.02
464.32	1442.29
464.692	1474.83
465.065	1490.43
465.438	1516.19
465.81	1508.28
466.183	1523.87
466.555	1587.6
466.928	1585.34
467.3	1575.17
467.672	1609.29
468.045	1615.17
468.417	1656.75
468.789	1651.33
469.161	1667.82
469.534	1716.18
469.906	1736.07
470.278	1741.27
470.65	1772
471.022	1789.4
471.394	1842.96
471.766	1807.48
472.138	1854.26
472.51	1870.08
472.882	1925.22
473.253	1944.2
473.625	2000.02
473.997	2009.28
474.369	2048.6
474.74	2048.6
475.112	2080.47
475.484	2137.87
475.855	2184.19
476.227	2193.23
476.598	2265.32
476.97	2273.68
477.341	2309.61
477.713	2353.91
478.084	2383.74
478.455	2423.06
478.827	2474.13
479.198	2521.81
479.569	2541.7
479.94	2641.81
480.311	2646.33
480.682	2708.47
481.053	2754.8
481.424	2817.85
481.795	2860.56
482.166	2864.85
482.537	2908.24
482.908	2959.09
483.279	3030.05
483.65	3091.97
484.021	3184.85
484.391	3206.31
484.762	3193.88
485.133	3270.27
485.503	3306.2
485.874	3363.37
486.244	3414.22
486.615	3469.58
486.985	3541.45
487.356	3628
487.726	3620.31
488.097	3711.39
488.467	3732.85
488.837	3795
489.207	3898.5
489.578	3924.49
489.948	3969.68
490.318	4026.63
490.688	4017.82
491.058	4098.27
491.428	4165.84
491.798	4229.11
492.168	4298.26
492.538	4307.53
492.908	4385.49
493.278	4485.15
493.648	4449.9
494.017	4510.91
494.387	4597.92
494.757	4565.37
495.126	4660.06
495.496	4677.69
495.866	4645.82
496.235	4798.81
496.605	4794.75
496.974	4863.67
497.344	4922.2
497.713	4900.51
498.082	4951.35
498.452	5032.25
498.821	5028.19
499.19	5064.8
499.559	5117
499.928	5191.8
500.298	5159.71
500.667	5228.41
501.036	5238.58
501.405	5299.82
501.774	5298.24
502.143	5367.16
502.512	5356.77
502.88	5455.75
503.249	5463.2
503.618	5467.05
503.987	5511.56
504.356	5528.29
504.724	5583.88
505.093	5591.11
505.462	5620.94
505.83	5708.17
506.199	5709.07
506.567	5813.7
506.936	5782.52
507.304	5856.87
507.672	5887.37
508.041	5874.49
508.409	5917.88
508.777	5940.25
509.145	6013.47
509.514	6069.74
509.882	6049.18
510.25	6107.93
510.618	6089.63
510.986	6126.46
511.354	6191.09
511.722	6207.14
512.09	6246.23
512.458	6256.86
512.826	6300.92
513.193	6339.56
513.561	6306.57
513.929	6459.34
514.297	6471.54
514.664	6451.88
515.032	6530.07
515.4	6622.04
515.767	6598.09
516.135	6590.63
516.502	6572.78
516.869	6737.75
517.237	6733.9
517.604	6713.79
517.972	6749.95
518.339	6822.72
518.706	6799.21
519.073	6865.65
519.44	6933.45
519.808	6980.45
520.175	6965.99
520.542	7027.68
520.909	7071.07
521.276	7066.1
521.643	7086.66
522.009	7149.26
522.376	7198.3
522.743	7249.6
523.11	7290.27
523.477	7375.47
523.843	7366.2
524.21	7450.95
524.577	7496.14
524.943	7575.24
525.31	7567.1
525.676	7707.21
526.043	7712.64
526.409	7665.86
526.776	7851.39
527.142	7829.24
527.508	7779.53
527.874	7936.36
528.241	7972.52
528.607	8016.58
528.973	8033.31
529.339	8130.93
529.705	8154.88
530.071	8216.58
530.437	8291.83
530.803	8329.34
531.169	8316.01
531.535	8288.89
531.901	8443.92
532.267	8463.12
532.632	8486.4
532.998	8521.43
533.364	8543.8
533.73	8617.92
534.095	8705.15
534.461	8687.75
534.826	8730.46
535.192	8817.69
535.557	8771.82
535.923	8837.13
536.288	8869.67
536.653	8886.62
537.019	8887.97
537.384	8903.79
537.749	9010.68
538.114	9084.13
538.479	9038.7
538.845	9116.89
539.21	9118.25
539.575	9209.32
539.94	9178.13
540.305	9270.34
540.67	9230.34
541.034	9287.06
541.399	9283.89
541.764	9319.83
542.129	9410.44
542.494	9419.48
542.858	9463.1
543.223	9496.09
543.587	9551.68
543.952	9527.73
544.316	9642.53
544.681	9608.63
545.045	9695.63
545.41	9735.86
545.774	9779.25
546.138	9810.21
546.503	9833.03
546.867	9848.63
547.231	9876.87
547.595	9965.46
547.959	9903.54
548.324	10011.11
548.688	10066.25
549.052	10044.78
549.416	10065.12
549.779	10117.54
550.143	10046.59
550.507	10168.16
550.871	10225.56
551.235	10288.61
551.599	10313.92
551.962	10392.34
552.326	10414.49
552.689	10437.54
553.053	10439.57
553.417	10481.6
553.78	10596.4
554.143	10578.32
554.507	10587.59
554.87	10674.59
555.234	10793.91
555.597	10657.64
555.96	10682.73
556.323	10800.01
556.686	10763.4
557.05	10892.89
557.413	10854.02
557.776	10933.57
558.139	11037.75
558.502	10964.53
558.865	11032.32
559.228	11034.81
559.59	11178.53
559.953	11115.03
560.316	11292.88
560.679	11289.27
561.041	11328.13
561.404	11433.89
561.767	11484.06
562.129	11407
562.492	11577.62
562.854	11501.01
563.217	11544.4
563.579	11660.1
563.941	11627.11
564.304	11715.92
564.666	11851.28
565.028	11764.06
565.39	11860.55
565.753	11899.87
566.115	11919.31
566.477	11992.98
566.839	12084.27
567.201	12129.92
567.563	12093.76
567.925	12166.76
568.287	12174.89
568.648	12275.68
569.01	12264.15
569.372	12417.15
569.734	12387.32
570.095	12491.95
570.457	12501.66
570.819	12496.47
571.18	12593.41
571.542	12648.78
571.903	12748.89
572.265	12710.7
572.626	12828.43
572.987	12853.74
573.349	12878.6
573.71	13010.35
574.071	13021.65
574.432	13045.38
574.794	13237.01
575.155	13276.78
575.516	13234.3
575.877	13310
576.238	13399.04
576.599	13526.04
576.96	13481.75
577.32	13582.76
577.681	13615.76
578.042	13736.88
578.403	13823.66
578.763	13869.99
579.124	14043.09
579.485	14056.65
579.845	14221.62
580.206	14248.74
580.566	14383.42
580.927	14430.2
581.287	14649.63
581.648	14646.01
582.008	14907.7
582.368	14951.32
582.728	15090.75
583.089	15126.9
583.449	15341.36
583.809	15493.9
584.169	15672.88
584.529	15769.6
584.889	15963.27
585.249	16033.1
585.609	16151.51
585.969	16460.65
586.329	16678.28
586.688	16756.24
587.048	17054.09
587.408	17247.07
587.768	17432.61
588.127	17674.41
588.487	17765.71
588.846	18067.39
589.206	18265.58
589.565	18479.36
589.925	18797.77
590.284	18963.19
590.643	19240.47
591.003	19526.56
591.362	19837.06
591.721	19986.21
592.08	20293.55
592.44	20598.85
592.799	20757.04
593.158	21022.57
593.517	21312.28
593.876	21609.45
594.235	21695.32
594.593	22156.1
594.952	22469.76
595.311	22683.77
595.67	23124.89
596.029	23437.19
596.387	23662.27
596.746	23954.69
597.104	24302.48
597.463	24436.72
597.822	24857.04
598.18	25066.98
598.538	25273.3
598.897	25677.59
599.255	25719.17
599.613	26429.43
599.972	26449.77
600.33	26976.54
600.688	27073.71
601.046	27463.08
601.404	27789.17
601.762	28011.76
602.12	28419.66
602.478	28804.96
602.836	29023.94
603.194	29211.73
603.552	29482.23
603.91	29599.29
604.268	29976.46
604.625	30163.12
604.983	30459.38
605.341	30652.82
605.698	31150.89
606.056	31353.37
606.413	31589.07
606.771	31826.58
607.128	32238.54
607.485	32320.35
607.843	32534.81
608.2	32892.09
608.557	33253.43
608.914	33320.55
609.272	33672.63
609.629	33909.69
609.986	34187.65
610.343	34238.27
610.7	34669.89
611.057	34845.71
611.414	35005.25
611.771	35337.22
612.127	35586.71
612.484	35685.46
612.841	36082.96
613.198	35982.4
613.554	36226.91
613.911	36670.07
614.267	36765.21
614.624	36943.96
614.98	37160.68
615.337	37413.1
615.693	37435.7
616.05	37632.3
616.406	37988.22
616.762	37881.56
617.118	38128.11
617.475	38239.29
617.831	38594.31
618.187	38763.35
618.543	38894.19
618.899	39060.51
619.255	39233.16
619.611	39275.87
619.967	39628.41
620.323	39928.74
620.678	39678.35
621.034	39665.92
621.39	39837.44
621.746	39935.07
622.101	40486.92
622.457	40151.33
622.812	40351.55
623.168	40475.39
623.523	40592.68
623.879	40718.1
624.234	40570.76
624.589	40839.67
624.945	41087.58
625.3	41154.24
625.655	41210.51
626.01	41316.95
626.365	41403.05
626.72	41377.97
627.075	41504.52
627.43	41572.76
627.785	41439.43
628.14	41609.6
628.495	41785.64
628.85	41774.57
629.205	41743.83
629.559	42069.25
629.914	41839.42
630.269	41881.46
630.623	41824.06
630.978	41715.58
631.332	41920.78
631.687	42096.82
632.041	42038.97
632.396	42165.29
632.75	41975.92
633.104	42154.67
633.459	42005.29
633.813	41950.15
634.167	42087.55
634.521	42041
634.875	42189.02
635.229	42218.17
635.583	42052.52
635.937	41989.93
636.291	41931.85
636.645	42210.03
636.999	42110.83
637.352	42155.35
637.706	41928.01
638.06	42250.26
638.413	42062.24
638.767	42028.57
639.121	42132.52
639.474	41883.72
639.828	42030.15
640.181	41944.05
640.534	42020.66
640.888	41897.5
641.241	41728.46
641.594	41949.93
641.947	42053.2
642.301	41907.9
642.654	42007.55
643.007	41912.41
643.36	41958.29
643.713	41931.17
644.066	41994.9
644.419	41881.46
644.771	41557.4
645.124	41250.06
645.477	41165.77
645.83	40982.04
646.182	40883.29
646.535	40692.79
646.888	40756.51
647.24	40666.8
647.593	40734.37
647.945	40561.94
648.298	40560.59
648.65	40511.1
649.002	40396.52
649.355	40610.98
649.707	40593.35
650.059	40704.76
650.411	41184.52
650.763	41250.96
651.115	41586.32
651.467	41582.03
651.819	41492.76
652.171	41342.03
652.523	41461.81
652.875	41367.34
653.227	41166.45
653.578	41444.18
653.93	41321.92
654.282	41099.1
654.633	41108.82
654.985	41248.93
655.337	41170.74
655.688	41281.25
656.039	41388.59
656.391	41052.32
656.742	41161.7
657.094	41190.85
657.445	41275.6
657.796	41088.03
658.147	41089.84
658.498	41082.61
658.849	41179.1
659.2	41151.98
659.551	41066.34
659.902	41258.65
660.253	41068.6
660.604	41133.9
660.955	40894.81
661.306	41104.3
661.656	41103.62
662.007	41034.25
662.358	41150.4
662.708	41011.42
663.059	41026.79
663.409	40798.09
663.76	41047.35
664.11	41135.49
664.461	41099.55
664.811	41054.81
665.161	40951.99
665.511	40956.51
665.862	40900.69
666.212	41041.03
666.562	41008.71
666.912	41139.78
667.262	40905.89
667.612	40854.82
667.962	40987.47
668.312	40972.55
668.662	41077.63
669.011	40932.1
669.361	41049.61
669.711	40916.96
670.06	40823.63
670.41	40788.83
670.76	40733.91
671.109	40861.82
671.459	40842.84
671.808	40731.2
672.157	40864.31
672.507	40532.79
672.856	40668.61
673.205	40708.15
673.554	40787.92
673.904	40613.01
674.253	40829.28
674.602	40683.97
674.951	40210.76
675.3	39937.55
675.649	40603.07
675.998	40629.51
676.346	40552.9
676.695	40624.09
677.044	40289.18
677.393	40413.47
677.741	40551.55
678.09	40348.61
678.438	40355.85
678.787	40385
679.135	40432.45
679.484	40061.62
679.832	40377.77
680.181	40109.52
680.529	40160.82
680.877	40068.17
681.225	40027.49
681.573	40237.43
681.922	39881.28
682.27	39803.54
682.618	39815.29
682.966	39897.1
683.314	39815.75
683.661	39759.93
684.009	39624.79
684.357	39480.61
684.705	39457.79
685.053	39501.4
685.4	39478.35
685.748	39290.34
686.095	39221.64
686.443	39163.33
686.79	39078.37
687.138	39132.38
687.485	39059.16
687.832	38972.61
688.18	39020.51
688.527	38793.4
688.874	38744.81
689.221	38683.35
689.568	38587.53
689.915	38424.82
690.262	38523.13
690.609	38349.12
690.956	38295.79
691.303	38198.84
691.65	38023.48
691.997	38187.54
692.344	37923.59
692.69	37823.03
693.037	37837.95
693.383	37572.87
693.73	37703.26
694.077	37414
694.423	37557.73
694.769	37378.97
695.116	37282.71
695.462	37173.1
695.808	37045.42
696.155	37221.01
696.501	36957.97
696.847	36784.87
697.193	36671.65
697.539	36699.9
697.885	36380.58
698.231	36386.91
698.577	36410.41
698.923	36349.85
699.269	36248.61
699.614	35982.85
699.96	35930.2
700.306	36046.58
700.651	35835.96
700.997	35768.4
701.342	35689.75
701.688	35670.77
702.033	35477.1
702.379	35409.76
702.724	35274.17
703.069	35439.82
703.415	34940.39
703.76	34962.77
704.105	34884.35
704.45	34955.99
704.795	34775.2
705.14	34569.33
705.485	34667.18
705.83	34511.03
706.175	34532.95
706.52	34590.12
706.865	34351.48
707.209	34292.28
707.554	34169.57
707.899	34234.88
708.243	33990.36
708.588	33938.84
708.932	33798.05
709.277	33690.03
709.621	33781.33
709.966	33638.96
710.31	33663.37
710.654	33358.74
710.998	33443.26
711.342	33366.2
711.687	33335.47
712.031	33163.49
712.375	33218.41
712.719	33177.73
713.063	33063.83
713.407	33133.66
713.75	32974.57
714.094	32903.61
714.438	32782.71
714.782	32811.41
715.125	32549.72
715.469	32690.06
715.812	32597.86
716.156	32294.81
716.499	32338.66
716.843	32503.62
717.186	32239.22
717.53	32363.74
717.873	32407.58
718.216	32166.68
718.559	32198.32
718.902	32016.86
719.246	32064.76
719.589	31938.89
719.932	31723.76
720.275	31755.39
720.617	31764.21
720.96	31610.54
721.303	31675.62
721.646	31610.54
721.989	31473.59
722.331	31570.99
722.674	31515.4
723.016	31434.95
723.359	31354.27
723.701	31331.45
724.044	31022.53
724.386	31090.33
724.729	31061.63
725.071	31102.53
725.413	31096.65
725.755	30922.65
726.097	30951.35
726.439	30716.55
726.782	30723.78
727.124	30974.4
727.465	30655.99
727.807	30839.49
728.149	30654.63
728.491	30577.8
728.833	30541.64
729.175	30489.89
729.516	30501.64
729.858	30363.11
730.199	30386.16
730.541	30309.78
730.882	30142.1
731.224	30327.63
731.565	30183.68
731.906	30223.68
732.248	30216
732.589	30065.49
732.93	29905.5
733.271	29882.67
733.612	29898.95
733.953	30042.44
734.294	29792.51
734.635	29736.46
734.976	29884.71
735.317	29750.93
735.658	29718.16
735.999	29798.84
736.339	29585.96
736.68	29789.57
737.021	29604.26
737.361	29508.67
737.702	29482.23
738.042	29536.92
738.383	29422.8
738.723	29465.06
739.063	29281.79
739.404	29412.63
739.744	29160.21
740.084	29072.3
740.424	29216.25
740.764	29064.17
741.104	29235.91
741.444	28957.28
741.784	28885.64
742.124	29017.16
742.464	28988.01
742.804	28898.07
743.143	28889.71
743.483	28776.49
743.823	28663.95
744.162	28771.97
744.502	28785.3
744.841	28595.7
745.181	28779.2
745.52	28584.86
745.86	28580.34
746.199	28598.87
746.538	28428.25
746.877	28417.85
747.216	28438.64
747.556	28440.9
747.895	28349.61
748.234	28285.43
748.573	28202.49
748.911	28280.23
749.25	28298.31
749.589	28017.64
749.928	28167.24
750.267	28107.35
750.605	28052.89
750.944	28146
751.283	27863.07
751.621	27987.13
751.96	27879.11
752.298	28043.85
752.636	27845.44
752.975	27737.19
753.313	27617.2
753.651	27765.44
753.989	27654.03
754.327	27622.85
754.666	27499.91
755.004	27503.3
755.342	27516.41
755.679	27334.27
756.017	27202.07
756.355	27334.49
756.693	27230.54
757.031	27251.11
757.368	27016.54
757.706	27012.69
758.044	26903.09
758.381	26944.67
758.719	26754.17
759.056	26791.23
