Data from hue_10_FLMS001491_92.txt Node
Date: Mon Feb 06 15:32:49 GMT 2017
User: dcchb
Spectrometer: FLMS00149
Trigger mode: 0
Integration Time (sec): 2.000000E-2
Scans to average: 10
Electric dark correction enabled: true
Nonlinearity correction enabled: false
Boxcar width: 0
XAxis mode: Wavelengths
Number of Pixels in Spectrum: 2048
>>>>>Begin Spectral Data<<<<<
341.393	-11.4
341.776	-11.4
342.16	-11.4
342.543	-56.82
342.927	-59.98
343.31	-71.06
343.693	-71.06
344.077	-66.09
344.46	-69.02
344.843	-41.23
345.226	-61.79
345.61	-26.54
345.993	-15.01
346.376	-10.72
346.759	10.07
347.142	41.71
347.525	40.35
347.908	46.91
348.291	65.66
348.674	118.09
349.057	109.73
349.44	113.12
349.823	144.3
350.206	149.05
350.588	203.51
350.971	198.31
351.354	234.47
351.737	226.79
352.119	253
352.502	260.69
352.884	290.06
353.267	277.63
353.65	264.3
354.032	283.96
354.414	297.97
354.797	299.78
355.179	320.12
355.562	328.93
355.944	356.28
356.326	322.6
356.709	325.09
357.091	335.49
357.473	351.3
357.855	351.3
358.238	340.01
358.62	347.69
359.002	333.68
359.384	332.1
359.766	315.15
360.148	342.49
360.53	335.03
360.912	337.75
361.294	319.21
361.676	340.23
362.057	333.68
362.439	331.64
362.821	324.19
363.203	323.06
363.584	329.61
363.966	321.7
364.348	319.21
364.729	300.01
365.111	319.89
365.493	314.24
365.874	334.36
366.256	335.03
366.637	307.01
367.019	296.62
367.4	313.79
367.781	325.32
368.163	307.01
368.544	291.87
368.925	302.27
369.306	304.3
369.688	312.66
370.069	314.02
370.45	281.7
370.831	300.46
371.212	306.79
371.593	315.37
371.974	321.7
372.355	309.5
372.736	302.72
373.117	323.06
373.498	315.15
373.879	307.46
374.26	324.19
374.641	318.99
375.021	302.04
375.402	302.27
375.783	324.19
376.163	333
376.544	321.93
376.925	316.73
377.305	320.57
377.686	320.57
378.066	327.8
378.447	299.33
378.827	337.29
379.208	313.79
379.588	311.53
379.968	314.02
380.349	318.31
380.729	336.39
381.109	325.09
381.489	316.5
381.87	341.14
382.25	329.38
382.63	340.23
383.01	358.31
383.39	362.6
383.77	333.9
384.15	328.03
384.53	354.69
384.91	325.77
385.29	349.72
385.67	330.74
386.049	332.32
386.429	348.37
386.809	340.01
387.189	362.15
387.568	336.84
387.948	370.74
388.328	358.31
388.707	355.82
389.087	355.82
389.466	353.34
389.846	321.47
390.225	338.42
390.605	335.71
390.984	375.48
391.363	372.55
391.743	355.15
392.122	368.93
392.501	358.08
392.881	376.84
393.26	361.25
393.639	377.97
394.018	354.02
394.397	384.98
394.776	363.06
395.155	380.46
395.534	380.23
395.913	365.99
396.292	368.93
396.671	379.55
397.05	370.29
397.429	370.29
397.808	368.93
398.186	400.57
398.565	373.68
398.944	395.14
399.323	379.55
399.701	377.74
400.08	415.94
400.458	395.37
400.837	387.46
401.215	385.2
401.594	405.99
401.972	391.98
402.351	397.18
402.729	407.12
403.107	382.94
403.486	360.12
403.864	404.41
404.242	389.95
404.62	403.96
404.999	388.59
405.377	408.93
405.755	398.76
406.133	429.27
406.511	397.86
406.889	439.21
407.267	405.09
407.645	400.79
408.023	412.32
408.401	431.3
408.779	416.39
409.156	431.98
409.534	431.75
409.912	427.91
410.29	427.23
410.667	411.64
411.045	417.07
411.422	444.86
411.8	440.34
412.178	450.28
412.555	456.39
412.933	459.78
413.31	459.78
413.687	459.78
414.065	460
414.442	448.48
414.819	460.91
415.197	459.55
415.574	474.01
415.951	465.43
416.328	458.65
416.705	481.02
417.082	456.84
417.46	490.28
417.837	473.34
418.214	485.76
418.591	498.42
418.967	474.92
419.344	465.65
419.721	487.8
420.098	509.72
420.475	500.23
420.852	500.68
421.228	501.81
421.605	500.9
421.982	512.88
422.358	499.77
422.735	498.65
423.111	496.16
423.488	532.09
423.864	545.88
424.241	531.19
424.617	516.27
424.994	521.02
425.37	546.55
425.746	528.47
426.123	543.84
426.499	536.61
426.875	560.11
427.251	544.52
427.627	555.37
428.003	562.6
428.379	565.08
428.756	558.08
429.132	569.38
429.507	567.57
429.883	534.12
430.259	573.67
430.635	577.06
431.011	563.73
431.387	604.41
431.763	604.18
432.138	609.6
432.514	615.48
432.89	622.94
433.265	627.46
433.641	608.02
434.016	612.99
434.392	615.03
434.767	634.23
435.143	633.33
435.518	657.06
435.894	626.78
436.269	690.05
436.644	652.99
437.02	642.37
437.395	666.32
437.77	690.05
438.145	687.57
438.52	654.35
438.895	666.78
439.271	690.5
439.646	680.79
440.021	689.83
440.395	709.94
440.77	702.26
441.145	695.02
441.52	706.32
441.895	725.31
442.27	698.41
442.645	714.91
443.019	716.49
443.394	735.48
443.769	738.19
444.143	725.31
444.518	737.51
444.892	743.61
445.267	747.9
445.641	754.23
446.016	778.41
446.39	753.1
446.764	762.82
447.139	761.46
447.513	771.41
447.887	769.6
448.262	768.92
448.636	784.29
449.01	774.57
449.384	786.77
449.758	781.12
450.132	788.81
450.506	795.81
450.88	794.68
451.254	807.56
451.628	808.69
452.002	801.69
452.376	826.09
452.75	846.43
453.123	820.44
453.497	841.23
453.871	839.88
454.244	868.8
454.618	880.78
454.992	869.26
455.365	868.58
455.739	914.68
456.112	917.62
456.486	889.37
456.859	901.12
457.232	905.87
457.606	891.63
457.979	927.11
458.352	943.61
458.725	945.64
459.099	976.37
459.472	975.69
459.845	970.27
460.218	1005.07
460.591	992.64
460.964	1007.78
461.337	1029.48
461.71	1029.93
462.083	1029.48
462.456	1053.66
462.829	1047.56
463.201	1057.73
463.574	1054.34
463.947	1073.09
464.32	1103.37
464.692	1072.19
465.065	1109.25
465.438	1128.23
465.81	1146.76
466.183	1141.11
466.555	1157.84
466.928	1151.96
467.3	1170.72
467.672	1184.28
468.045	1208
468.417	1206.65
468.789	1217.95
469.161	1251.17
469.534	1262.92
469.906	1265.4
470.278	1299.53
470.65	1300.66
471.022	1338.4
471.394	1334.56
471.766	1370.71
472.138	1358.06
472.51	1374.55
472.882	1437.6
473.253	1417.49
473.625	1464.95
473.997	1479.86
474.369	1490.48
474.74	1540.2
475.112	1509.01
475.484	1556.02
475.855	1625.17
476.227	1619.52
476.598	1644.15
476.97	1664.49
477.341	1688.9
477.713	1726.86
478.084	1729.35
478.455	1780.87
478.827	1814.99
479.198	1858.38
479.569	1854.77
479.94	1899.74
480.311	1928.89
480.682	1967.31
481.053	2003.69
481.424	2053.63
481.795	2061.54
482.166	2116.91
482.537	2141.77
482.908	2181.09
483.279	2221.76
483.65	2244.14
484.021	2313.74
484.391	2286.39
484.762	2377.01
485.133	2409.1
485.503	2393.51
485.874	2468.31
486.244	2447.75
486.615	2522.77
486.985	2542.43
487.356	2595.09
487.726	2611.81
488.097	2717.57
488.467	2697.01
488.837	2740.85
489.207	2795.53
489.578	2842.99
489.948	2846.83
490.318	2915.08
490.688	2926.15
491.058	3003.21
491.428	3044.57
491.798	3055.64
492.168	3163.21
492.538	3183.32
492.908	3178.35
493.278	3247.95
493.648	3266.48
494.017	3293.6
494.387	3342.19
494.757	3363.2
495.126	3420.15
495.496	3427.83
495.866	3420.15
496.235	3470.09
496.605	3504.89
496.974	3539.24
497.344	3547.83
497.713	3558
498.082	3614.27
498.452	3632.35
498.821	3663.76
499.19	3701.72
499.559	3714.15
499.928	3738.56
500.298	3778.56
500.667	3814.26
501.036	3827.15
501.405	3816.75
501.774	3858.1
502.143	3892.45
502.512	3924.32
502.88	3944.88
503.249	3940.36
503.618	4008.84
503.987	3991.43
504.356	4066.23
504.724	4011.1
505.093	4019.23
505.462	4011.77
505.83	4061.72
506.199	4119.79
506.567	4148.27
506.936	4166.35
507.304	4202.73
507.672	4225.55
508.041	4237.53
508.409	4230.07
508.777	4231.2
509.145	4339
509.514	4292.22
509.882	4301.93
510.25	4338.77
510.618	4366.57
510.986	4395.04
511.354	4418.54
511.722	4394.14
512.09	4462.38
512.458	4440.01
512.826	4522.49
513.193	4530.86
513.561	4544.41
513.929	4522.95
514.297	4625.77
514.664	4628.71
515.032	4548.93
515.4	4640.68
515.767	4595.71
516.135	4702.6
516.502	4633.45
516.869	4697.18
517.237	4732.43
517.604	4727.01
517.972	4770.85
518.339	4770.4
518.706	4793.45
519.073	4785.99
519.44	4815.59
519.808	4877.74
520.175	4882.71
520.542	4872.09
520.909	4950.96
521.276	4913.67
521.643	4924.29
522.009	4956.38
522.376	4997.96
522.743	5044.74
523.11	5070.95
523.477	5134.91
523.843	5132.2
524.21	5137.17
524.577	5190.95
524.943	5228.24
525.31	5219.42
525.676	5280.44
526.043	5338.74
526.409	5370.38
526.776	5336.48
527.142	5351.17
527.508	5388.01
527.874	5416.71
528.241	5395.24
528.607	5487.89
528.973	5458.06
529.339	5566.76
529.705	5574.44
530.071	5562.01
530.437	5625.06
530.803	5652.18
531.169	5658.06
531.535	5734.67
531.901	5683.82
532.267	5719.98
532.632	5740.09
532.998	5762.91
533.364	5788.45
533.73	5810.14
534.095	5832.52
534.461	5903.7
534.826	5915.45
535.192	5968.11
535.557	5962.46
535.923	5952.29
536.288	5967.2
536.653	6017.6
537.019	6049.91
537.384	6082.45
537.749	6075.67
538.114	6119.74
538.479	6095.33
538.845	6144.15
539.21	6142.56
539.575	6197.7
539.94	6202.45
540.305	6238.61
540.67	6206.97
541.034	6262.56
541.399	6313.41
541.764	6322.67
542.129	6334.88
542.494	6390.47
542.858	6399.51
543.223	6446.06
543.587	6445.61
543.952	6487.87
544.316	6498.49
544.681	6513.85
545.045	6564.47
545.41	6616
545.774	6650.12
546.138	6651.03
546.503	6667.3
546.867	6637.92
547.231	6778.93
547.595	6721.53
547.959	6792.26
548.324	6739.61
548.688	6738.26
549.052	6817.57
549.416	6848.08
549.779	6821.64
550.143	6863.68
550.507	6945.71
550.871	6961.75
551.235	6941.41
551.599	7013.73
551.962	6984.12
552.326	7025.48
552.689	7121.75
553.053	7041.98
553.417	7083.78
553.78	7118.36
554.143	7086.72
554.507	7179.83
554.87	7120.84
555.234	7251.01
555.597	7216.21
555.96	7220.05
556.323	7312.03
556.686	7244.68
557.05	7327.39
557.413	7382.53
557.776	7362.42
558.139	7359.93
558.502	7398.8
558.865	7383.44
559.228	7445.36
559.59	7556.31
559.953	7486.71
560.316	7542.98
560.679	7580.49
561.041	7621.17
561.404	7706.14
561.767	7657.55
562.129	7622.07
562.492	7676.54
562.854	7727.16
563.217	7782.75
563.579	7774.61
563.941	7803.09
564.304	7840.37
564.666	7947.04
565.028	7885.34
565.39	7948.39
565.753	8005.57
566.115	8015.28
566.477	8076.3
566.839	8043.98
567.201	8059.58
567.563	8105.45
567.925	8239.68
568.287	8155.39
568.648	8220.25
569.01	8241.94
569.372	8247.59
569.734	8273.13
570.095	8344.77
570.457	8350.42
570.819	8381.83
571.18	8444.42
571.542	8495.27
571.903	8507.02
572.265	8606.68
572.626	8598.55
572.987	8619.11
573.349	8653.46
573.71	8756.28
574.071	8761.7
574.432	8874.92
574.794	8950.4
575.155	8919.21
575.516	8995.37
575.877	9040.79
576.238	9102.26
576.599	9104.52
576.96	9174.12
577.32	9194.01
577.681	9356.72
578.042	9378.64
578.403	9450.5
578.763	9561.23
579.124	9623.6
579.485	9765.97
579.845	9829.02
580.206	9909.02
580.566	10010.94
580.927	10102.46
581.287	10273.53
581.648	10308.1
582.008	10462
582.368	10554.43
582.728	10757.58
583.089	10802.78
583.449	10930.24
583.809	11116.22
584.169	11307.4
584.529	11398.92
584.889	11606.6
585.249	11666.71
585.609	11872.81
585.969	12059.25
586.329	12161.84
586.688	12441.61
587.048	12595.05
587.408	12839.56
587.768	13038.2
588.127	13172.44
588.487	13354.35
588.846	13733.55
589.206	13730.61
589.565	14032.98
589.925	14281.56
590.284	14541.89
590.643	14788.66
591.003	15051.03
591.362	15245.6
591.721	15481.98
592.08	15751.35
592.44	16083.32
592.799	16288.96
593.158	16562.86
593.517	16816.63
593.876	17072.9
594.235	17313.8
594.593	17480.57
594.952	17917.17
595.311	18055.02
595.67	18485.06
596.029	18818.84
596.387	19102
596.746	19363.01
597.104	19591.48
597.463	19816.78
597.822	20201.86
598.18	20357.11
598.538	20667.61
598.897	21056.97
599.255	21090.19
599.613	21732.89
599.972	21859.67
600.33	22178.3
600.688	22282.25
601.046	22596.37
601.404	23044.72
601.762	23188.9
602.12	23695.1
602.478	23948.42
602.836	24128.76
603.194	24230.9
603.552	24581.85
603.91	24785.46
604.268	25081.73
604.625	25307.26
604.983	25522.85
605.341	25729.39
605.698	26084.86
606.056	26494.8
606.413	26627.45
606.771	26829.7
607.128	27125.29
607.485	27294.32
607.843	27506.75
608.2	27855.89
608.557	28180.86
608.914	28264.24
609.272	28515.54
609.629	28786.26
609.986	29051.57
610.343	29132.69
610.7	29534.49
611.057	29644.32
611.414	29806.12
611.771	29971.32
612.127	30334.02
612.484	30435.03
612.841	30687
613.198	30728.36
613.554	31027.79
613.911	31197.27
614.267	31404.95
614.624	31536.47
614.98	31649.92
615.337	32091.26
615.693	32040.41
616.05	32088.1
616.406	32535.09
616.762	32572.83
617.118	32683.34
617.475	32799.04
617.831	33082.65
618.187	33168.75
618.543	33300.72
618.899	33651.9
619.255	33518.79
619.611	33873.36
619.967	33901.61
620.323	34171.66
620.678	34152.68
621.034	34218.21
621.39	34358.77
621.746	34393.35
622.101	34860.23
622.457	34711.76
622.812	34794.01
623.168	34916.05
623.523	35113.33
623.879	35114.01
624.234	35207.34
624.589	35380.44
624.945	35417.5
625.3	35552.19
625.655	35486.2
626.01	35621.34
626.365	35694.56
626.72	35809.13
627.075	35911.27
627.43	35840.99
627.785	35876.92
628.14	36092.06
628.495	36032.63
628.85	36031.95
629.205	35930.48
629.559	36369.57
629.914	36323.47
630.269	36278.95
630.623	36164.83
630.978	36108.33
631.332	36323.01
631.687	36399.62
632.041	36374.99
632.396	36406.85
632.75	36240.76
633.104	36480.07
633.459	36520.75
633.813	36240.08
634.167	36379.28
634.521	36488.89
634.875	36626.28
635.229	36502.67
635.583	36386.52
635.937	36403.24
636.291	36483.24
636.645	36519.39
636.999	36532.73
637.352	36447.3
637.706	36366.18
638.06	36565.04
638.413	36612.05
638.767	36406.4
639.121	36484.37
639.474	36313.97
639.828	36413.63
640.181	36424.71
640.534	36456.34
640.888	36502.44
641.241	36251.38
641.594	36291.38
641.947	36513.07
642.301	36406.18
642.654	36421.99
643.007	36391.94
643.36	36392.16
643.713	36294.99
644.066	36603.91
644.419	36179.97
644.771	36162.57
645.124	35702.47
645.477	35814.33
645.83	35469.7
646.182	35411.85
646.535	35307.67
646.888	35302.48
647.24	35185.87
647.593	35477.16
647.945	35373.21
648.298	35177.51
648.65	35172.31
649.002	35198.98
649.355	35209.6
649.707	35214.79
650.059	35406.43
650.411	35739.75
650.763	35882.12
651.115	36165.05
651.467	35954.44
651.819	36059.74
652.171	36059.97
652.523	35836.02
652.875	35955.57
653.227	35775.46
653.578	35988.79
653.93	35985.17
654.282	35883.03
654.633	35639.87
654.985	35824.72
655.337	35821.11
655.688	35841.22
656.039	36003.47
656.391	35788.79
656.742	35654.1
657.094	35745.63
657.445	35840.54
657.796	35716.7
658.147	35755.12
658.498	35652.75
658.849	35795.57
659.2	35726.19
659.551	35676.48
659.902	35777.94
660.253	35579.76
660.604	35779.75
660.955	35443.49
661.306	35647.55
661.656	35470.15
662.007	35734.78
662.358	35549.02
662.708	35581.11
663.059	35544.05
663.409	35247.34
663.76	35672.64
664.11	35580.43
664.461	35636.25
664.811	35647.78
665.161	35551.51
665.511	35603.48
665.862	35615.91
666.212	35629.7
666.562	35725.06
666.912	35547.67
667.262	35561
667.612	35545.41
667.962	35682.8
668.312	35532.07
668.662	35734.33
669.011	35569.81
669.361	35470.38
669.711	35486.88
670.06	35425.64
670.41	35324.17
670.76	35385.86
671.109	35565.07
671.459	35239.2
671.808	35361.68
672.157	35370.72
672.507	35376.82
672.856	35248.92
673.205	35383.83
673.554	35319.2
673.904	35265.19
674.253	35453.21
674.602	35129.6
674.951	34813.68
675.3	34702.27
675.649	35268.8
675.998	35151.75
676.346	35066.78
676.695	35107
677.044	35001.01
677.393	35210.73
677.741	35229.48
678.09	35043.5
678.438	35028.58
678.787	35100
679.135	35076.72
679.484	34873.11
679.832	34994.91
680.181	34886.22
680.529	34956.27
680.877	34656.39
681.225	34775.48
681.573	34984.07
681.922	34638.99
682.27	34640.35
682.618	34616.62
682.966	34461.82
683.314	34604.41
683.661	34468.83
684.009	34166.23
684.357	34183.64
684.705	34227.25
685.053	34127.82
685.4	34166.46
685.748	34014.15
686.095	33994.71
686.443	33900.48
686.79	33862.51
687.138	33904.77
687.485	33872
687.832	33861.61
688.18	33685.12
688.527	33583.88
688.874	33490.32
689.221	33494.61
689.568	33490.55
689.915	33424.33
690.262	33287.84
690.609	33265.24
690.956	33268.18
691.303	33192.02
691.65	33055.53
691.997	33034.74
692.344	32836.1
692.69	32892.37
693.037	32884.23
693.383	32516.56
693.73	32736.67
694.077	32582.1
694.423	32540.06
694.769	32289.9
695.116	32326.51
695.462	32193.63
695.808	32218.49
696.155	32221.43
696.501	31986.86
696.847	32014.43
697.193	31804.26
697.539	31891.72
697.885	31676.36
698.231	31651.05
698.577	31580.54
698.923	31503.03
699.269	31307.78
699.614	31138.97
699.96	31214.9
700.306	31099.42
700.651	31112.53
700.997	30939.43
701.342	30964.96
701.688	30821.24
702.033	30761.8
702.379	30637.29
702.724	30638.19
703.069	30604.29
703.415	30262.38
703.76	30376.96
704.105	30370.18
704.45	30203.4
704.795	30082.05
705.14	30093.57
705.485	30016.06
705.83	29855.16
706.175	29945.78
706.52	29762.73
706.865	29627.14
707.209	29676.18
707.554	29574.72
707.899	29562.29
708.243	29464.89
708.588	29500.14
708.932	29242.97
709.277	29205.46
709.621	29259.47
709.966	29108.97
710.31	29225.57
710.654	28941.96
710.998	28928.41
711.342	28901.97
711.687	28897.9
712.031	28696.55
712.375	28590.79
712.719	28663.33
713.063	28635.08
713.407	28519.15
713.75	28447.29
714.094	28520.28
714.438	28455.2
714.782	28409.1
715.125	28274.19
715.469	28326.84
715.812	28129.33
716.156	27923.01
716.499	28011.37
716.843	27980.41
717.186	27829.23
717.53	27983.35
717.873	27984.7
718.216	27934.08
718.559	27793.07
718.902	27561.44
719.246	27641.21
719.589	27628.33
719.932	27509.23
720.275	27480.08
720.617	27407.32
720.96	27336.13
721.303	27435.34
721.646	27374.77
721.989	27217.72
722.331	27213.2
722.674	27025.63
723.016	27229.24
723.359	27164.61
723.701	27083.71
724.044	26852.75
724.386	26891.85
724.729	26926.65
725.071	26848.23
725.413	26923.94
725.755	26959.87
726.097	26770.04
726.439	26612.53
726.782	26599.65
727.124	26720.1
727.465	26542.03
727.807	26507.23
728.149	26549.03
728.491	26455.93
728.833	26460.9
729.175	26384.52
729.516	26412.54
729.858	26263.17
730.199	26279.89
730.541	26323.73
730.882	26081.48
731.224	26245.54
731.565	25961.03
731.906	26119.44
732.248	26117.18
732.589	25951.99
732.93	25843.97
733.271	25938.65
733.612	25931.65
733.953	25916.73
734.294	25783.86
734.635	25864.53
734.976	25817.3
735.317	25700.92
735.658	25687.81
735.999	25601.04
736.339	25605.56
736.68	25727.36
737.021	25532.11
737.361	25465.9
737.702	25628.61
738.042	25479.46
738.383	25392
738.723	25361.72
739.063	25395.84
739.404	25375.28
739.744	25280.37
740.084	25209.41
740.424	25269.75
740.764	25277.2
741.104	25169.63
741.444	25060.26
741.784	25030.2
742.124	25079.02
742.464	25028.17
742.804	24980.94
743.143	25055.29
743.483	24939.81
743.823	24788.18
744.162	24801.06
744.502	24938
744.841	24746.6
745.181	24822.3
745.52	24740.95
745.86	24737.33
746.199	24649.2
746.538	24660.72
746.877	24677.44
747.216	24674.73
747.556	24578.24
747.895	24542.53
748.234	24401.29
748.573	24329.88
748.911	24438.13
749.25	24428.64
749.589	24330.56
749.928	24372.82
750.267	24288.75
750.605	24194.52
750.944	24192.71
751.283	24034.52
751.621	24166.05
751.96	24010.34
752.298	24216.89
752.636	24001.76
752.975	23916.33
753.313	23874.08
753.651	23943.9
753.989	23758.82
754.327	23851.03
754.666	23686.51
755.004	23739.84
755.342	23717.24
755.679	23665.95
756.017	23486.74
756.355	23723.8
756.693	23552.28
757.031	23527.42
757.368	23405.39
757.706	23447.42
758.044	23373.98
758.381	23406.74
758.719	23222.34
759.056	23249.69
759.394	23177.14
759.731	23005.85
760.068	23000.43
760.405	22893.08
760.743	22872.52
761.08	22862.35
