Data from hue_80_FLMS001491_59.txt Node
Date: Mon Feb 06 15:23:15 GMT 2017
User: dcchb
Spectrometer: FLMS00149
Trigger mode: 0
Integration Time (sec): 2.000000E-2
Scans to average: 10
Electric dark correction enabled: true
Nonlinearity correction enabled: false
Boxcar width: 0
XAxis mode: Wavelengths
Number of Pixels in Spectrum: 2048
>>>>>Begin Spectral Data<<<<<
341.393	-1.95
341.776	-1.95
342.16	-1.95
342.543	-65.22
342.927	-62.74
343.31	-72.68
343.693	-55.51
344.077	-63.64
344.46	-63.87
344.843	-68.84
345.226	-42.85
345.61	-9.18
345.993	-7.82
346.376	0.31
346.759	14.1
347.142	29.91
347.525	43.7
347.908	37.6
348.291	71.04
348.674	80.99
349.057	106.75
349.44	128.44
349.823	141.1
350.206	168.89
350.588	183.58
350.971	205.05
351.354	199.18
351.737	243.24
352.119	256.35
352.502	259.74
352.884	266.74
353.267	278.5
353.65	277.82
354.032	286.4
354.414	316.69
354.797	324.14
355.179	323.69
355.562	319.17
355.944	342.9
356.326	328.44
356.709	323.01
357.091	340.41
357.473	349.68
357.855	318.49
358.238	346.06
358.62	318.27
359.002	337.93
359.384	366.18
359.766	330.7
360.148	321.21
360.53	334.09
360.912	329.34
361.294	310.36
361.676	327.99
362.057	334.31
362.439	327.76
362.821	318.72
363.203	339.51
363.584	314.65
363.966	320.08
364.348	326.86
364.729	327.76
365.111	320.98
365.493	348.1
365.874	302.68
366.256	297.7
366.637	324.6
367.019	320.98
367.4	311.71
367.781	328.66
368.163	310.13
368.544	299.06
368.925	301.32
369.306	302.22
369.688	308.1
370.069	320.53
370.45	307.2
370.831	310.59
371.212	312.39
371.593	306.52
371.974	301.77
372.355	325.73
372.736	300.87
373.117	324.82
373.498	327.99
373.879	297.25
374.26	300.19
374.641	308.78
375.021	328.89
375.402	316.91
375.783	323.01
376.163	319.4
376.544	336.12
376.925	316.23
377.305	330.47
377.686	308.78
378.066	309.46
378.447	344.48
378.827	341.54
379.208	327.31
379.588	326.63
379.968	314.2
380.349	318.72
380.729	318.27
381.109	328.21
381.489	324.82
381.87	349.23
382.25	335.22
382.63	346.74
383.01	359.85
383.39	326.63
383.77	349.23
384.15	329.12
384.53	334.77
384.91	334.54
385.29	336.57
385.67	335.44
386.049	358.04
386.429	348.78
386.809	329.34
387.189	330.47
387.568	335.44
387.948	352.62
388.328	356.23
388.707	331.6
389.087	348.55
389.466	338.38
389.846	376.57
390.225	355.33
390.605	348.1
390.984	364.82
391.363	354.88
391.743	367.31
392.122	347.19
392.501	360.98
392.881	362.79
393.26	349.91
393.639	369.79
394.018	380.64
394.397	390.36
394.776	360.98
395.155	363.01
395.534	351.94
395.913	377.02
396.292	381.54
396.671	359.62
397.05	375.22
397.429	377.7
397.808	388.32
398.186	366.63
398.565	384.93
398.944	364.37
399.323	396.23
399.701	404.82
400.08	384.71
400.458	404.37
400.837	381.54
401.215	394.42
401.594	406.18
401.972	376.12
402.351	412.73
402.729	391.94
403.107	422.67
403.486	407.08
403.864	423.8
404.242	421.77
404.62	404.37
404.999	416.57
405.377	417.02
405.755	426.74
406.133	410.02
406.511	415.67
406.889	414.31
407.267	415.67
407.645	421.32
408.023	412.96
408.401	431.49
408.779	412.5
409.156	434.42
409.534	439.85
409.912	428.77
410.29	453.18
410.667	437.59
411.045	457.02
411.422	451.82
411.8	458.38
412.178	464.25
412.555	451.82
412.933	468.55
413.31	442.78
413.687	472.84
414.065	477.36
414.442	453.41
414.819	476.23
415.197	474.2
415.574	455.67
415.951	471.94
416.328	489.34
416.705	478.04
417.082	480.52
417.46	494.99
417.837	477.81
418.214	508.77
418.591	521.2
418.967	507.87
419.344	507.64
419.721	492.5
420.098	510.58
420.475	544.93
420.852	517.81
421.228	527.08
421.605	523.46
421.982	534.76
422.358	549.67
422.735	532.05
423.111	536.12
423.488	534.53
423.864	550.35
424.241	561.88
424.617	583.12
424.994	538.83
425.37	556.23
425.746	554.65
426.123	560.97
426.499	562.78
426.875	581.54
427.251	575.44
427.627	588.09
428.003	574.08
428.379	589.22
428.756	575.44
429.132	603.23
429.507	598.94
429.883	600.75
430.259	597.58
430.635	586.96
431.011	607.3
431.387	616.79
431.763	617.47
432.138	633.74
432.514	642.1
432.89	631.03
433.265	659.95
433.641	651.82
434.016	675.1
434.392	694.98
434.767	670.35
435.143	672.16
435.518	684.59
435.894	682.33
436.269	669.45
436.644	697.02
437.02	715.77
437.395	712.83
437.77	720.97
438.145	706.73
438.52	736.34
438.895	716.9
439.271	711.93
439.646	744.47
440.021	751.25
440.395	744.92
440.77	734.75
441.145	753.29
441.52	780.86
441.895	797.35
442.27	777.92
442.645	783.34
443.019	774.98
443.394	789.22
443.769	769.56
444.143	780.18
444.518	790.8
444.892	792.38
445.267	821.08
445.641	799.39
446.016	807.97
446.39	813.4
446.764	816.56
447.139	825.15
447.513	812.72
447.887	850.46
448.262	825.15
448.636	852.27
449.01	860.18
449.384	848.42
449.758	859.72
450.132	859.27
450.506	872.83
450.88	879.61
451.254	881.87
451.628	915.99
452.002	885.94
452.376	919.83
452.75	930.68
453.123	905.82
453.497	936.56
453.871	942.66
454.244	949.66
454.618	960.29
454.992	953.05
455.365	979.27
455.739	983.11
456.112	1010
456.486	987.4
456.859	1034.63
457.232	1026.05
457.606	1042.77
457.979	1070.34
458.352	1060.62
458.725	1081.86
459.099	1108.98
459.472	1078.25
459.845	1069.89
460.218	1132.48
460.591	1150.11
460.964	1130.9
461.337	1163.22
461.71	1197.12
462.083	1198.25
462.456	1196.66
462.829	1206.38
463.201	1197.57
463.574	1219.49
463.947	1263.33
464.32	1274.4
464.692	1274.4
465.065	1323.67
465.438	1327.96
465.81	1359.6
466.183	1375.64
466.555	1400.73
466.928	1411.57
467.3	1396.21
467.672	1461.06
468.045	1472.59
468.417	1493.6
468.789	1507.16
469.161	1511.68
469.534	1551.91
469.906	1593.04
470.278	1599.82
470.65	1630.55
471.022	1676.88
471.394	1722.98
471.766	1743.77
472.138	1749.42
472.51	1784.67
472.882	1854.5
473.253	1854.05
473.625	1900.6
473.997	1962.52
474.369	1978.56
474.74	2018.79
475.112	2103.31
475.484	2085.91
475.855	2172.23
476.227	2220.37
476.598	2271.66
476.97	2307.59
477.341	2369.29
477.713	2448.61
478.084	2490.19
478.455	2584.65
478.827	2619.45
479.198	2734.48
479.569	2777.86
479.94	2866.45
480.311	2919.78
480.682	3044.07
481.053	3122.94
481.424	3203.62
481.795	3272.32
482.166	3336.72
482.537	3448.13
482.908	3524.06
483.279	3669.14
483.65	3695.81
484.021	3874.33
484.391	3936.48
484.762	4016.48
485.133	4123.37
485.503	4216.02
485.874	4404.04
486.244	4484.26
486.615	4574.88
486.985	4719.73
487.356	4874.98
487.726	4903.91
488.097	5133.06
488.467	5209.21
488.837	5396.33
489.207	5475.2
489.578	5643.55
489.948	5708.18
490.318	5928.74
490.688	5964
491.058	6128.96
491.428	6314.04
491.798	6429.07
492.168	6633.81
492.538	6750.19
492.908	6799.91
493.278	6933.01
493.648	7110.86
494.017	7341.81
494.387	7452.09
494.757	7573.9
495.126	7669.04
495.496	7784.74
495.866	7919.65
496.235	8078.06
496.605	8209.13
496.974	8329.81
497.344	8531.61
497.713	8628.78
498.082	8713.3
498.452	8896.57
498.821	9017.93
499.19	9153.97
499.559	9266.73
499.928	9341.08
500.298	9479.84
500.667	9713.05
501.036	9701.07
501.405	9852.26
501.774	9916.89
502.143	10079.14
502.512	10111.91
502.88	10358.68
503.249	10343.99
503.618	10456.98
503.987	10552.35
504.356	10676.64
504.724	10787.37
505.093	10937.2
505.462	10954.82
505.83	11149.62
506.199	11208.38
506.567	11386.45
506.936	11375.83
507.304	11567.92
507.672	11695.37
508.041	11717.06
508.409	11874.8
508.777	11971.75
509.145	12019.66
509.514	12032.99
509.882	12177.17
510.25	12275.92
510.618	12347.33
510.986	12395.24
511.354	12608.34
511.722	12762.24
512.09	12820.99
512.458	12806.75
512.826	12962.23
513.193	12999.52
513.561	13043.81
513.929	13205.16
514.297	13318.83
514.664	13305.27
515.032	13422.1
515.4	13491.26
515.767	13632.27
516.135	13714.75
516.502	13634.3
516.869	13903
517.237	13865.93
517.604	13882.43
517.972	14062.99
518.339	14123.33
518.706	14164.68
519.073	14159.26
519.44	14176.44
519.808	14368.29
520.175	14385.47
520.542	14505.24
520.909	14592.24
521.276	14594.28
521.643	14723.31
522.009	14790.2
522.376	14851.22
522.743	14886.92
523.11	15094.6
523.477	15150.87
523.843	15156.3
524.21	15331.66
524.577	15414.82
524.943	15424.99
525.31	15427.02
525.676	15604.42
526.043	15676.73
526.409	15791.76
526.776	15800.35
527.142	15821.82
527.508	15912.43
527.874	15935.48
528.241	15995.14
528.607	16051.19
528.973	16112.2
529.339	16121.92
529.705	16219.77
530.071	16351.97
530.437	16352.65
530.803	16337.96
531.169	16486.88
531.535	16460.44
531.901	16427.45
532.267	16454.34
532.632	16574.34
532.998	16561.46
533.364	16716.71
533.73	16629.25
534.095	16641.68
534.461	16738.4
534.826	16731.85
535.192	16879.41
535.557	16781.34
535.923	16811.17
536.288	16751.73
536.653	16841.45
537.019	16845.52
537.384	16892.75
537.749	16858.62
538.114	16864.73
538.479	16881.45
538.845	16889.13
539.21	16842.58
539.575	16775.24
539.94	16871.28
540.305	16912.41
540.67	16885.74
541.034	16946.98
541.399	16856.14
541.764	16932.07
542.129	16951.05
542.494	16932.29
542.858	16901.11
543.223	16909.24
543.587	16905.63
543.952	16922.13
544.316	16895.01
544.681	16889.36
545.045	16848.23
545.41	16923.71
545.774	16819.3
546.138	16885.97
546.503	16962.12
546.867	16870.6
547.231	16939.53
547.595	16855.46
547.959	16920.77
548.324	16887.78
548.688	16843.48
549.052	16952.86
549.416	16904.05
549.779	16834.44
550.143	16897.95
550.507	16893.65
550.871	16918.06
551.235	16903.14
551.599	17000.99
551.962	16901.79
552.326	16880.09
552.689	16930.49
553.053	16838.51
553.417	16950.6
553.78	17015
554.143	16782.92
554.507	16946.31
554.87	16911.73
555.234	16992.63
555.597	16868.57
555.96	16952.18
556.323	16916.25
556.686	16979.07
557.05	16938.17
557.413	17019.52
557.776	17035.8
558.139	17080.77
558.502	17016.36
558.865	17044.38
559.228	17165.28
559.59	17117.83
559.953	17064.72
560.316	17343.13
560.679	17240.54
561.041	17356.69
561.404	17308.78
561.767	17433.98
562.129	17292.06
562.492	17496.12
562.854	17323.02
563.217	17363.02
563.579	17456.57
563.941	17577.48
564.304	17517.59
564.666	17592.39
565.028	17597.59
565.39	17673.74
565.753	17711.71
566.115	17689.11
566.477	17739.51
566.839	17710.13
567.201	17901.31
567.563	17817.02
567.925	17884.13
568.287	17953.06
568.648	17811.14
569.01	17991.7
569.372	18062.66
569.734	17953.74
570.095	18080.74
570.457	18167.74
570.819	18182.21
571.18	18123.22
571.542	18151.02
571.903	18170.23
572.265	18206.84
572.626	18205.26
572.987	18278.93
573.349	18274.86
573.71	18339.26
574.071	18388.3
574.432	18466.04
574.794	18511.24
575.155	18453.38
575.516	18380.62
575.877	18421.07
576.238	18409.54
576.599	18520.5
576.96	18566.6
577.32	18518.92
577.681	18536.09
578.042	18597.79
578.403	18639.59
578.763	18619.26
579.124	18619.93
579.485	18728.41
579.845	18692.02
580.206	18643.89
580.566	18622.19
580.927	18675.3
581.287	18674.4
581.648	18678.46
582.008	18779.03
582.368	18639.82
582.728	18611.57
583.089	18708.52
583.449	18572.03
583.809	18662.19
584.169	18736.99
584.529	18599.37
584.889	18704
585.249	18600.5
585.609	18586.26
585.969	18707.62
586.329	18603.21
586.688	18657.45
587.048	18555.3
587.408	18707.39
587.768	18619.03
588.127	18582.87
588.487	18483.89
588.846	18649.76
589.206	18532.03
589.565	18592.14
589.925	18668.52
590.284	18588.97
590.643	18515.53
591.003	18664.68
591.362	18632.14
591.721	18541.74
592.08	18588.3
592.44	18513.5
592.799	18602.99
593.158	18438.24
593.517	18560.27
593.876	18583.78
594.235	18402.09
594.593	18507.17
594.952	18575.19
595.311	18405.02
595.67	18515.08
596.029	18567.05
596.387	18600.27
596.746	18556.21
597.104	18574.96
597.463	18413.61
597.822	18587.17
598.18	18458.58
598.538	18479.15
598.897	18575.87
599.255	18392.82
599.613	18672.36
599.972	18510.11
600.33	18655.87
600.688	18427.17
601.046	18516.89
601.404	18681.63
601.762	18539.26
602.12	18637.11
602.478	18570.9
602.836	18560.27
603.194	18471.01
603.552	18486.83
603.91	18483.44
604.268	18572.03
604.625	18488.86
604.983	18533.38
605.341	18509.2
605.698	18625.58
606.056	18634.17
606.413	18617.22
606.771	18632.59
607.128	18597.11
607.485	18537.9
607.843	18591.69
608.2	18742.87
608.557	18728.63
608.914	18624.91
609.272	18793.94
609.629	18800.27
609.986	18846.82
610.343	18651.57
610.7	18931.11
611.057	18805.01
611.414	18833.26
611.771	18865.35
612.127	18932.02
612.484	18928.4
612.841	18955.97
613.198	18921.4
613.554	18957.33
613.911	19069.64
614.267	19001.39
614.624	18989.42
614.98	19006.82
615.337	18986.25
615.693	19096.98
616.05	19081.16
616.406	19225.57
616.762	19080.71
617.118	19080.49
617.475	19037.32
617.831	19170.43
618.187	19061.96
618.543	19149.86
618.899	19319.8
619.255	19174.5
619.611	19201.39
619.967	19205.68
620.323	19365
620.678	19213.14
621.034	19096.53
621.39	19189.41
621.746	19175.63
622.101	19422.17
622.457	19226.92
622.812	19244.55
623.168	19382.17
623.523	19322.29
623.879	19475.28
624.234	19223.08
624.589	19310.99
624.945	19342.85
625.3	19292.68
625.655	19362.29
626.01	19318.67
626.365	19351.67
626.72	19290.42
627.075	19350.76
627.43	19308.73
627.785	19247.04
628.14	19270.99
628.495	19258.56
628.85	19309.86
629.205	19214.95
629.559	19352.12
629.914	19241.61
630.269	19240.03
630.623	19214.04
630.978	19092.01
631.332	19212.91
631.687	19235.74
632.041	19054.72
632.396	19169.52
632.75	19163.65
633.104	19031.67
633.459	19075.29
633.813	19068.06
634.167	19009.75
634.521	19060.15
634.875	19034.84
635.229	19048.4
635.583	18958.46
635.937	18960.04
636.291	18907.84
636.645	18977.89
636.999	18953.94
637.352	18915.07
637.706	18854.96
638.06	18905.35
638.413	18843.88
638.767	18809.76
639.121	18809.76
639.474	18726.6
639.828	18698.35
640.181	18680.5
640.534	18714.17
640.888	18690.89
641.241	18649.99
641.594	18711.91
641.947	18721.4
642.301	18699.71
642.654	18613.83
643.007	18653.61
643.36	18613.61
643.713	18628.3
644.066	18683.66
644.419	18476.66
644.771	18435.31
645.124	18314.41
645.477	18186.95
645.83	18182.66
646.182	18098.59
646.535	17945.15
646.888	17991.93
647.24	17923.68
647.593	18047.52
647.945	18003.91
648.298	17897.02
648.65	17859.95
649.002	17846.4
649.355	17986.73
649.707	17821.54
650.059	18004.81
650.411	18199.15
650.763	18274.18
651.115	18447.96
651.467	18313.05
651.819	18381.07
652.171	18388.08
652.523	18318.93
652.875	18417
653.227	18180.17
653.578	18516.89
653.93	18293.84
654.282	18231.24
654.633	18260.17
654.985	18270.56
655.337	18264.92
655.688	18368.87
656.039	18500.16
656.391	18241.64
656.742	18208.42
657.094	18264.01
657.445	18376.32
657.796	18341.75
658.147	18370.9
658.498	18388.75
658.849	18310.11
659.2	18307.17
659.551	18324.12
659.902	18305.14
660.253	18286.84
660.604	18272.6
660.955	18282.32
661.306	18281.41
661.656	18333.61
662.007	18306.72
662.358	18309.89
662.708	18450.67
663.059	18361.64
663.409	18245.93
663.76	18370
664.11	18342.65
664.461	18479.37
664.811	18364.8
665.161	18338.81
665.511	18322.99
665.862	18389.21
666.212	18451.58
666.562	18338.81
666.912	18346.5
667.262	18337
667.612	18317.57
667.962	18342.88
668.312	18355.99
668.662	18414.06
669.011	18339.26
669.361	18275.99
669.711	18346.04
670.06	18275.08
670.41	18297.23
670.76	18289.32
671.109	18302.88
671.459	18250
671.808	18167.97
672.157	18279.38
672.507	18165.93
672.856	18171.36
673.205	18194.18
673.554	18148.08
673.904	18076.45
674.253	18268.3
674.602	18166.84
674.951	17901.08
675.3	17822.67
675.649	18088.42
675.998	18147.18
676.346	18095.43
676.695	18107.86
677.044	18086.61
677.393	18061.53
677.741	18018.82
678.09	18065.37
678.438	17934.98
678.787	18003.23
679.135	18022.66
679.484	17917.81
679.832	17922.1
680.181	17807.3
680.529	17811.14
680.877	17875.77
681.225	17725.27
681.573	17966.84
681.922	17788.32
682.27	17687.76
682.618	17647.76
682.966	17612.95
683.314	17702.67
683.661	17690.47
684.009	17527.76
684.357	17548.32
684.705	17463.35
685.053	17494.09
685.4	17360.76
685.748	17333.64
686.095	17315.56
686.443	17187.43
686.79	17263.36
687.138	17196.69
687.485	17216.81
687.832	17164.83
688.18	17146.53
688.527	17045.51
688.874	17027.89
689.221	16974.55
689.568	16925.29
689.915	16836.03
690.262	16856.36
690.609	16817.95
690.956	16686.43
691.303	16717.84
691.65	16654.11
691.997	16684.84
692.344	16463.83
692.69	16448.92
693.037	16482.59
693.383	16349.71
693.73	16402.59
694.077	16400.56
694.423	16325.53
694.769	16188.81
695.116	16209.6
695.462	16173.44
695.808	16099.77
696.155	16061.36
696.501	15917.63
696.847	15890.74
697.193	15785.21
697.539	15852.32
697.885	15753.34
698.231	15704.98
698.577	15674.47
698.923	15675.6
699.269	15505.21
699.614	15399.91
699.96	15506.8
700.306	15347.7
700.651	15337.53
700.997	15235.39
701.342	15125.56
701.688	15197.43
702.033	15153.13
702.379	15069.75
702.724	15074.94
703.069	14956.98
703.415	14855.51
703.76	14888.96
704.105	14874.04
704.45	14815.97
704.795	14699.59
705.14	14687.61
705.485	14663.43
705.83	14626.14
706.175	14612.13
706.52	14528.74
706.865	14579.81
707.209	14407.39
707.554	14370.78
707.899	14560.61
708.243	14305.47
708.588	14271.8
708.932	14237.45
709.277	14195.19
709.621	14178.92
709.966	14056.66
710.31	14127.85
710.654	14049.66
710.998	13966.5
711.342	14005.59
711.687	13915.65
712.031	13895.31
712.375	13785.71
712.719	13858.7
713.063	13851.47
713.407	13915.65
713.75	13747.29
714.094	13768.08
714.438	13607.86
714.782	13679.95
715.125	13616.45
715.469	13648.99
715.812	13531.03
716.156	13479.28
716.499	13514.53
716.843	13557.92
717.186	13454.19
717.53	13449.45
717.873	13497.36
718.216	13423.69
718.559	13426.17
718.902	13392.73
719.246	13378.72
719.589	13364.71
719.932	13284.26
720.275	13242.45
720.617	13252.39
720.96	13227.76
721.303	13158.16
721.646	13218.72
721.989	13135.78
722.331	13157.93
722.674	13188.89
723.016	13154.77
723.359	13116.12
723.701	13059.18
724.044	13093.53
724.386	12985.05
724.729	13048.78
725.071	13068.89
725.413	13019.18
725.755	12980.08
726.097	13019.4
726.439	12951.16
726.782	12985.96
727.124	12939.63
727.465	12997.03
727.807	12973.75
728.149	12933.08
728.491	12900.31
728.833	12913.19
729.175	12875.68
729.516	12849.46
729.858	12820.09
730.199	12801.33
730.541	12789.58
730.882	12858.5
731.224	12845.62
731.565	12835
731.906	12790.03
732.248	12837.49
732.589	12761.33
732.93	12682.69
733.271	12714.55
733.612	12667.32
733.953	12729.69
734.294	12742.12
734.635	12746.42
734.976	12749.58
735.317	12659.41
735.658	12688.11
735.999	12716.36
736.339	12691.95
736.68	12770.6
737.021	12691.73
737.361	12646.31
737.702	12704.38
738.042	12704.38
738.383	12768.79
738.723	12780.99
739.063	12727.43
739.404	12793.87
739.744	12658.06
740.084	12778.28
740.424	12745.06
740.764	12773.76
741.104	12791.84
741.444	12762.46
741.784	12818.96
742.124	12808.56
742.464	12830.26
742.804	12872.29
743.143	12855.57
743.483	12919.97
743.823	12839.3
744.162	12843.14
744.502	12961.1
744.841	12936.02
745.181	12991.38
745.52	13049.46
745.86	13105.5
746.199	13129.23
746.538	13111.38
746.877	13198.38
747.216	13166.52
747.556	13221.43
747.895	13264.14
748.234	13286.74
748.573	13411.48
748.911	13347.08
749.25	13471.14
749.589	13442.67
749.928	13555.21
750.267	13619.84
750.605	13695.32
750.944	13779.61
751.283	13741.87
751.621	13924.69
751.96	13961.53
752.298	14084.01
752.636	14098.47
752.975	14194.51
753.313	14239.48
753.651	14399.48
753.989	14415.3
754.327	14482.42
754.666	14575.07
755.004	14685.35
755.342	14900.94
755.679	14887.6
756.017	14946.13
756.355	15142.74
756.693	15201.72
