Data from hue_180_FLMS001491_00038.txt Node
Date: Tue Feb 07 16:46:55 GMT 2017
User: dcchb
Spectrometer: FLMS00149
Trigger mode: 0
Integration Time (sec): 2.000000E-2
Scans to average: 10
Electric dark correction enabled: true
Nonlinearity correction enabled: false
Boxcar width: 0
XAxis mode: Wavelengths
Number of Pixels in Spectrum: 2048
>>>>>Begin Spectral Data<<<<<
341.393	-18.76
341.776	-18.76
342.16	-18.76
342.543	-57.85
342.927	-66.21
343.31	-46.1
343.693	-77.06
344.077	-64.18
344.46	-53.11
344.843	-51.3
345.226	-23.05
345.61	-24.86
345.993	-2.49
346.376	-1.36
346.759	-5.42
347.142	16.04
347.525	34.12
347.908	52.2
348.291	63.73
348.674	84.97
349.057	97.85
349.44	125.19
349.823	165.65
350.206	166.55
350.588	176.49
350.971	223.5
351.354	234.12
351.737	250.61
352.119	256.04
352.502	249.26
352.884	270.95
353.267	263.95
353.65	276.6
354.032	306.66
354.414	306.43
354.797	321.8
355.179	338.07
355.562	326.77
355.944	327.45
356.326	322.93
356.709	351.86
357.091	350.5
357.473	343.04
357.855	332.19
358.238	335.13
358.62	349.82
359.002	349.14
359.384	341.23
359.766	343.27
360.148	343.49
360.53	353.89
360.912	331.52
361.294	344.4
361.676	337.84
362.057	346.88
362.439	316.83
362.821	333.1
363.203	338.52
363.584	328.8
363.966	328.13
364.348	307.56
364.729	346.88
365.111	317.96
365.493	329.48
365.874	311.63
366.256	306.21
366.637	303.27
367.019	336.26
367.4	320.22
367.781	323.83
368.163	310.73
368.544	308.01
368.925	327.22
369.306	287
369.688	296.04
370.069	322.48
370.45	322.7
370.831	297.85
371.212	307.11
371.593	317.51
371.974	321.57
372.355	310.95
372.736	304.85
373.117	346.21
373.498	312.99
373.879	303.49
374.26	315.02
374.641	324.06
375.021	318.18
375.402	320.22
375.783	340.78
376.163	316.15
376.544	319.77
376.925	326.32
377.305	311.18
377.686	326.55
378.066	303.95
378.447	311.63
378.827	328.13
379.208	336.26
379.588	315.02
379.968	325.19
380.349	329.26
380.729	326.55
381.109	355.7
381.489	356.37
381.87	341.91
382.25	343.49
382.63	334.45
383.01	360.44
383.39	352.31
383.77	338.75
384.15	350.27
384.53	364.51
384.91	333.1
385.29	344.85
385.67	336.26
386.049	348.47
386.429	364.96
386.809	350.73
387.189	336.04
387.568	364.96
387.948	364.51
388.328	353.21
388.707	363.15
389.087	355.47
389.466	351.4
389.846	353.44
390.225	368.35
390.605	382.36
390.984	350.5
391.363	379.2
391.743	366.32
392.122	369.48
392.501	376.26
392.881	383.72
393.26	386.2
393.639	371.52
394.018	390.72
394.397	389.59
394.776	388.92
395.155	398.63
395.534	375.81
395.913	402.7
396.292	394.79
396.671	410.38
397.05	395.02
397.429	403.61
397.808	415.36
398.186	395.7
398.565	403.38
398.944	414.68
399.323	398.86
399.701	417.16
400.08	412.87
400.458	406.32
400.837	406.99
401.215	415.13
401.594	414.45
401.972	437.28
402.351	436.37
402.729	420.55
403.107	438.63
403.486	434.11
403.864	434.56
404.242	447.22
404.62	457.16
404.999	432.31
405.377	448.8
405.755	432.76
406.133	458.74
406.511	444.06
406.889	464.85
407.267	474.79
407.645	471.4
408.023	479.31
408.401	480.89
408.779	510.95
409.156	501
409.534	491.29
409.912	503.49
410.29	524.28
410.667	516.6
411.045	519.53
411.422	529.25
411.8	536.48
412.178	525.18
412.555	549.59
412.933	551.85
413.31	572.64
413.687	602.24
414.065	594.79
414.442	573.77
414.819	592.75
415.197	624.62
415.574	606.31
415.951	598.63
416.328	622.36
416.705	625.75
417.082	655.58
417.46	644.95
417.837	622.81
418.214	642.92
418.591	656.93
418.967	655.35
419.344	670.49
419.721	691.51
420.098	710.94
420.475	689.47
420.852	710.49
421.228	718.17
421.605	717.27
421.982	738.29
422.358	757.49
422.735	771.28
423.111	765.18
423.488	784.16
423.864	802.69
424.241	789.58
424.617	810.83
424.994	789.13
425.37	794.56
425.746	805.4
426.123	873.42
426.499	837.49
426.875	857.15
427.251	863.71
427.627	913.42
428.003	915.91
428.379	912.52
428.756	922.01
429.132	931.5
429.507	951.84
429.883	948
430.259	966.98
430.635	978.05
431.011	985.06
431.387	1007.21
431.763	1009.24
432.138	995.45
432.514	1052.63
432.89	1050.82
433.265	1078.84
433.641	1063.47
434.016	1109.58
434.392	1102.12
434.767	1132.17
435.143	1144.6
435.518	1157.71
435.894	1194.54
436.269	1190.93
436.644	1204.94
437.02	1228.44
437.395	1205.17
437.77	1258.27
438.145	1276.12
438.52	1301.43
438.895	1330.59
439.271	1350.92
439.646	1352.28
440.021	1368.55
440.395	1405.61
440.77	1371.49
441.145	1394.77
441.52	1426.63
441.895	1419.62
442.27	1444.93
442.645	1461.88
443.019	1488.77
443.394	1491.26
443.769	1518.15
444.143	1508.66
444.518	1543.24
444.892	1546.85
445.267	1543.91
445.641	1587.98
446.016	1573.29
446.39	1591.6
446.764	1612.61
447.139	1586.85
447.513	1616.45
447.887	1617.36
448.262	1674.98
448.636	1650.58
449.01	1728.09
449.384	1697.13
449.758	1731.25
450.132	1765.15
450.506	1747.3
450.88	1780.74
451.254	1753.63
451.628	1811.7
452.002	1801.31
452.376	1845.38
452.75	1872.04
453.123	1859.61
453.497	1940.74
453.871	1914.53
454.244	1957.69
454.618	1948.65
454.992	1980.74
455.365	2024.81
455.739	2048.31
456.112	2039.95
456.486	2082.21
456.859	2081.98
457.232	2164.01
457.606	2152.26
457.979	2145.25
458.352	2220.05
458.725	2266.16
459.099	2286.27
459.472	2303.44
459.845	2298.02
460.218	2331.92
460.591	2344.8
460.964	2351.35
461.337	2421.63
461.71	2470.44
462.083	2508.86
462.456	2484
462.829	2525.36
463.201	2548.41
463.574	2635.18
463.947	2621.63
464.32	2677.44
464.692	2745.24
465.065	2736.43
465.438	2796.54
465.81	2813.94
466.183	2850.55
466.555	2916.08
466.928	2948.17
467.3	2984.33
467.672	3004.44
468.045	3099.35
468.417	3108.17
468.789	3116.08
469.161	3179.58
469.534	3255.28
469.906	3306.58
470.278	3344.32
470.65	3381.15
471.022	3454.6
471.394	3522.39
471.766	3575.27
472.138	3625.67
472.51	3656.63
472.882	3737.08
473.253	3773.01
473.625	3864.08
473.997	3933.46
474.369	3967.58
474.74	4031.31
475.112	4099.78
475.484	4195.6
475.855	4245.09
476.227	4278.08
476.598	4445.53
476.97	4503.84
477.341	4662.7
477.713	4685.3
478.084	4723.27
478.455	4889.59
478.827	4885.97
479.198	5059.53
479.569	5118.96
479.94	5229.92
480.311	5307.21
480.682	5418.16
481.053	5551.49
481.424	5725.05
481.795	5753.97
482.166	5830.58
482.537	5940.41
482.908	6068.09
483.279	6163
483.65	6303.79
484.021	6413.84
484.391	6495.87
484.762	6597.79
485.133	6633.72
485.503	6801.18
485.874	6932.47
486.244	6983.55
486.615	7144.67
486.985	7170.88
487.356	7411.33
487.726	7432.8
488.097	7623.75
488.467	7648.61
488.837	7829.4
489.207	7883.86
489.578	8048.83
489.948	8129.5
490.318	8264.87
490.688	8322.72
491.058	8433.68
491.428	8535.59
491.798	8716.16
492.168	8870.73
492.538	8881.8
492.908	8990.72
493.278	9030.05
493.648	9113.21
494.017	9272.3
494.387	9296.93
494.757	9468.23
495.126	9601.33
495.496	9495.12
495.866	9640.65
496.235	9778.27
496.605	9792.28
496.974	9943.47
497.344	9988.66
497.713	10058.72
498.082	10088.77
498.452	10225.72
498.821	10137.13
499.19	10303.01
499.559	10373.06
499.928	10439.27
500.298	10541.19
500.667	10497.8
501.036	10506.62
501.405	10568.08
501.774	10679.04
502.143	10798.81
502.512	10742.54
502.88	10864.57
503.249	10847.17
503.618	10905.7
503.987	10938.24
504.356	11038.58
504.724	11027.73
505.093	11132.81
505.462	11051.69
505.83	11232.02
506.199	11288.97
506.567	11299.36
506.936	11252.81
507.304	11417.1
507.672	11429.76
508.041	11493.71
508.409	11503.88
508.777	11645.8
509.145	11624.55
509.514	11625.23
509.882	11590.66
510.25	11694.38
510.618	11700.94
510.986	11664.55
511.354	11797.66
511.722	11832.01
512.09	11946.8
512.458	11897.31
512.826	11954.49
513.193	11993.58
513.561	11972.57
513.929	12017.76
514.297	12103.41
514.664	12190.87
515.032	12170.53
515.4	12106.12
515.767	12203.75
516.135	12225.67
516.502	12056.63
516.869	12385.66
517.237	12271.09
517.604	12185.67
517.972	12359
518.339	12361.93
518.706	12304.99
519.073	12353.35
519.44	12341.6
519.808	12440.8
520.175	12365.55
520.542	12476.73
520.909	12458.43
521.276	12427.92
521.643	12490.75
522.009	12556.96
522.376	12565.55
522.743	12556.96
523.11	12756.73
523.477	12676.28
523.843	12706.33
524.21	12808.25
524.577	12730.29
524.943	12730.29
525.31	12822.04
525.676	12851.87
526.043	12788.36
526.409	12915.37
526.776	12905.42
527.142	12886.67
527.508	12859.77
527.874	12916.5
528.241	12928.02
528.607	12952.43
528.973	12879.21
529.339	12890.96
529.705	12939.77
530.071	13024.29
530.437	12954.46
530.803	12916.95
531.169	12966.89
531.535	12881.02
531.901	12830.62
532.267	12889.6
532.632	12857.29
532.998	12925.76
533.364	12880.79
533.73	12806.44
534.095	12783.62
534.461	12733.45
534.826	12910.17
535.192	12755.14
535.557	12783.84
535.923	12711.76
536.288	12688.25
536.653	12716.5
537.019	12565.32
537.384	12635.6
537.749	12590.86
538.114	12554.25
538.479	12442.84
538.845	12515.6
539.21	12427.7
539.575	12361.48
539.94	12363.52
540.305	12375.27
540.67	12279.68
541.034	12262.95
541.399	12204.65
541.764	12194.26
542.129	12217.31
542.494	12091.43
542.858	12124.65
543.223	12033.13
543.587	11999.01
543.952	11978.44
544.316	11863.64
544.681	11809.41
545.045	11804.44
545.41	11808.73
545.774	11796.3
546.138	11737.32
546.503	11698
546.867	11724.21
547.231	11699.13
547.595	11697.77
547.959	11528.51
548.324	11521.05
548.688	11493.03
549.052	11539.36
549.416	11459.81
549.779	11405.8
550.143	11375.97
550.507	11354.96
550.871	11294.62
551.235	11249.65
551.599	11303.88
551.962	11207.16
552.326	11197.9
552.689	11203.1
553.053	11093.95
553.417	11085.13
553.78	11104.34
554.143	11041.29
554.507	11051.91
554.87	10925.59
555.234	11097.34
555.597	10907.51
555.96	10966.94
556.323	10918.13
556.686	10881.52
557.05	10946.15
557.413	10866.38
557.776	10904.12
558.139	10915.65
558.502	10861.18
558.865	10767.63
559.228	10775.54
559.59	10802.88
559.953	10762.43
560.316	10865.48
560.679	10769.43
561.041	10822.09
561.404	10804.91
561.767	10718.14
562.129	10752.94
562.492	10827.06
562.854	10798.59
563.217	10737.34
563.579	10752.49
563.941	10779.15
564.304	10775.08
564.666	10808.08
565.028	10812.37
565.39	10794.97
565.753	10784.35
566.115	10846.49
566.477	10798.13
566.839	10834.97
567.201	10798.36
567.563	10825.48
567.925	10829.32
568.287	10823.67
568.648	10835.42
569.01	10879.71
569.372	10884.23
569.734	10841.07
570.095	10822.31
570.457	10878.81
570.819	10928.98
571.18	10850.11
571.542	10887.4
571.903	10886.04
572.265	10919.26
572.626	10887.4
572.987	10917.91
573.349	10975.08
573.71	10951.8
574.071	11008.3
574.432	10957
574.794	10926.72
575.155	10924.68
575.516	11006.49
575.877	10978.47
576.238	10950.67
576.599	11011.69
576.96	10930.56
577.32	10999.48
577.681	10927.4
578.042	10974.17
578.403	10936.21
578.763	10965.36
579.124	10998.35
579.485	10932.14
579.845	10960.16
580.206	10937.57
580.566	11013.95
580.927	10938.24
581.287	11007.85
581.648	10884.91
582.008	11022.54
582.368	10944.8
582.728	10944.12
583.089	10991.35
583.449	10879.94
583.809	10908.87
584.169	10950.45
584.529	10964.46
584.889	10949.32
585.249	10919.03
585.609	10913.39
585.969	10893.95
586.329	10789.32
586.688	10911.35
587.048	10795.87
587.408	10841.75
587.768	10771.47
588.127	10824.8
588.487	10806.04
588.846	10905.7
589.206	10851.47
589.565	10789.55
589.925	10795.87
590.284	10725.37
590.643	10736.89
591.003	10776.67
591.362	10836.55
591.721	10725.59
592.08	10698.7
592.44	10792.94
592.799	10722.66
593.158	10653.51
593.517	10718.81
593.876	10785.93
594.235	10740.96
594.593	10704.58
594.952	10738.7
595.311	10661.41
595.67	10694.18
596.029	10783.45
596.387	10745.03
596.746	10667.74
597.104	10677.23
597.463	10677.01
597.822	10667.29
598.18	10603.56
598.538	10600.63
598.897	10662.54
599.255	10593.62
599.613	10701.19
599.972	10614.18
600.33	10664.8
600.688	10586.16
601.046	10659.61
601.404	10691.24
601.762	10642.43
602.12	10712.26
602.478	10674.75
602.836	10689.66
603.194	10607.18
603.552	10644.24
603.91	10581.87
604.268	10645.14
604.625	10625.48
604.983	10626.61
605.341	10640.85
605.698	10608.08
606.056	10617.12
606.413	10651.02
606.771	10603.79
607.128	10653.73
607.485	10594.3
607.843	10650.12
608.2	10656.22
608.557	10706.39
608.914	10659.38
609.272	10722.2
609.629	10708.64
609.986	10741.19
610.343	10554.98
610.7	10725.37
611.057	10804.91
611.414	10691.02
611.771	10706.39
612.127	10740.96
612.484	10757.91
612.841	10736.89
613.198	10790.45
613.554	10739.38
613.911	10740.51
614.267	10771.02
614.624	10695.99
614.98	10821.86
615.337	10772.37
615.693	10862.77
616.05	10816.66
616.406	10878.81
616.762	10757.46
617.118	10773.5
617.475	10785.25
617.831	10855.76
618.187	10783.45
618.543	10933.5
618.899	10942.54
619.255	10957.45
619.611	10909.09
619.967	10904.8
620.323	10928.07
620.678	10838.81
621.034	10870.9
621.39	10884.69
621.746	10822.77
622.101	10914.97
622.457	10778.93
622.812	10916.78
623.168	10883.78
623.523	10891.47
623.879	10930.56
624.234	10853.73
624.589	10888.3
624.945	10899.37
625.3	10888.75
625.655	10870
626.01	10875.19
626.365	10808.3
626.72	10905.93
627.075	10794.29
627.43	10778.02
627.785	10774.63
628.14	10812.82
628.495	10852.37
628.85	10891.47
629.205	10787.96
629.559	10813.05
629.914	10800.85
630.269	10787.51
630.623	10801.07
630.978	10732.37
631.332	10746.38
631.687	10755.65
632.041	10719.94
632.396	10762.2
632.75	10671.81
633.104	10750.23
633.459	10605.14
633.813	10628.65
634.167	10667.29
634.521	10670.68
634.875	10655.09
635.229	10637.46
635.583	10589.33
635.937	10557.46
636.291	10537.8
636.645	10538.25
636.999	10563.79
637.352	10492.38
637.706	10519.72
638.06	10555.2
638.413	10529.21
638.767	10506.16
639.121	10461.19
639.474	10446.96
639.828	10453.28
640.181	10459.39
640.534	10386.39
640.888	10388.43
641.241	10366.51
641.594	10371.93
641.947	10355.21
642.301	10397.01
642.654	10423.91
643.007	10396.11
643.36	10347.75
643.713	10361.76
644.066	10359.28
644.419	10328.32
644.771	10264.14
645.124	10156.34
645.477	10084.71
645.83	10109.11
646.182	10080.41
646.535	9977.14
646.888	9992.51
647.24	10016.01
647.593	9991.6
647.945	10007.87
648.298	9919.74
648.65	9936.69
649.002	9965.16
649.355	10006.97
649.707	10013.07
650.059	10020.3
650.411	10131.26
650.763	10183.01
651.115	10221.65
651.467	10142.78
651.819	10219.62
652.171	10177.81
652.523	10168.77
652.875	10184.59
653.227	10082.9
653.578	10180.07
653.93	10147.98
654.282	10151.15
654.633	10114.99
654.985	10131.49
655.337	10215.32
655.688	10142.11
656.039	10241.99
656.391	10151.37
656.742	10141.43
657.094	10069.79
657.445	10229.79
657.796	10201.31
658.147	10208.09
658.498	10234.31
658.849	10130.58
659.2	10194.76
659.551	10170.13
659.902	10192.73
660.253	10243.57
660.604	10194.31
660.955	10176
661.306	10194.99
661.656	10218.04
662.007	10248.32
662.358	10207.19
662.708	10217.81
663.059	10191.82
663.409	10170.13
663.76	10154.08
664.11	10187.08
664.461	10255.78
664.811	10226.62
665.161	10258.49
665.511	10138.26
665.862	10226.62
666.212	10264.14
666.562	10245.38
666.912	10195.66
667.262	10198.6
667.612	10294.64
667.962	10247.41
668.312	10223.69
668.662	10317.92
669.011	10222.33
669.361	10184.82
669.711	10174.2
670.06	10181.43
670.41	10185.27
670.76	10172.39
671.109	10189.56
671.459	10153.86
671.808	10191.14
672.157	10239.5
672.507	10073.63
672.856	10136.68
673.205	10161.99
673.554	10191.82
673.904	10094.42
674.253	10185.95
674.602	10121.54
674.951	10016.46
675.3	9895.78
675.649	10055.1
675.998	10045.61
676.346	10106.17
676.695	10112.05
677.044	9973.52
677.393	10066.63
677.741	10084.48
678.09	9958.61
678.438	9995.22
678.787	9949.12
679.135	9964.26
679.484	9962.9
679.832	9937.59
680.181	9858.95
680.529	9916.35
680.877	9925.39
681.225	9875.22
681.573	9922.22
681.922	9833.87
682.27	9847.65
682.618	9833.64
682.966	9828.89
683.314	9788.22
683.661	9784.83
684.009	9698.5
684.357	9653.98
684.705	9650.14
685.053	9739.18
685.4	9690.14
685.748	9650.82
686.095	9596.13
686.443	9543.03
686.79	9542.12
687.138	9577.38
687.485	9580.09
687.832	9470.49
688.18	9500.32
688.527	9466.42
688.874	9419.41
689.221	9417.15
689.568	9354.1
689.915	9410.37
690.262	9399.98
690.609	9340.32
690.956	9313.43
691.303	9275.69
691.65	9209.02
691.997	9206.99
692.344	9131.51
692.69	9132.42
693.037	9125.64
693.383	9066.2
693.73	9019.2
694.077	8958.63
694.423	8969.03
694.769	8945.53
695.116	8892.42
695.462	8907.11
695.808	8858.3
696.155	8911.63
696.501	8802.03
696.847	8777.62
697.193	8752.54
697.539	8773.1
697.885	8702.14
698.231	8621.02
698.577	8630.51
698.923	8628.47
699.269	8559.1
699.614	8456.5
699.96	8533.11
700.306	8471.42
700.651	8410.17
700.997	8362.94
701.342	8393.23
701.688	8357.52
702.033	8357.75
702.379	8333.79
702.724	8275.26
703.069	8327.01
703.415	8207.24
703.76	8257.64
704.105	8182.61
704.45	8176.28
704.795	8174.7
705.14	8060.35
705.485	8086.12
705.83	8042.27
706.175	7995.04
706.52	8010.64
706.865	8034.14
707.209	7909.85
707.554	7870.98
707.899	7961.37
708.243	7832.79
708.588	7817.42
708.932	7832.11
709.277	7813.35
709.621	7805.22
709.966	7756.41
710.31	7728.61
710.654	7712.34
710.998	7725.9
711.342	7736.29
711.687	7681.83
712.031	7676.41
712.375	7638.9
712.719	7604.09
713.063	7640.25
713.407	7558.67
713.75	7612.68
714.094	7505.34
714.438	7496.75
714.782	7569.29
715.125	7466.02
715.469	7545.11
715.812	7469.41
716.156	7365
716.499	7391.44
716.843	7404.1
717.186	7393.7
717.53	7463.53
717.873	7402.97
718.216	7344.67
718.559	7364.1
718.902	7286.14
719.246	7319.36
719.589	7304.89
719.932	7332.46
720.275	7317.32
720.617	7249.53
720.96	7254.72
721.303	7299.7
721.646	7272.35
721.989	7260.83
722.331	7328.62
722.674	7258.57
723.016	7239.58
723.359	7221.96
723.701	7224.44
724.044	7235.52
724.386	7160.72
724.729	7240.26
725.071	7180.15
725.413	7184.67
725.755	7117.33
726.097	7123.43
726.439	7137.21
726.782	7136.99
727.124	7194.84
727.465	7126.82
727.807	7103.32
728.149	7142.64
728.491	7081.85
728.833	7116.2
729.175	7108.74
729.516	7075.29
729.858	7103.99
730.199	7105.12
730.541	7101.73
730.882	7101.28
731.224	7100.15
731.565	7096.76
731.906	7120.49
732.248	7085.46
732.589	7070.32
732.93	7067.84
733.271	7052.47
733.612	7076.65
733.953	7122.52
734.294	7084.79
734.635	7098.57
734.976	7103.09
735.317	7084.79
735.658	7027.39
735.999	7084.79
736.339	7042.3
736.68	7121.62
737.021	7071.23
737.361	7052.92
737.702	7025.35
738.042	7092.47
738.383	7135.63
738.723	7162.75
739.063	7127.95
739.404	7138.12
739.744	7096.08
740.084	7114.16
740.424	7217.21
740.764	7165.01
741.104	7151.45
741.444	7227.38
741.784	7211.79
742.124	7179.7
742.464	7270.32
742.804	7233.71
743.143	7230.32
743.483	7270.09
743.823	7192.13
744.162	7308.96
744.502	7329.07
744.841	7316.19
745.181	7376.08
745.52	7406.81
745.86	7445.23
746.199	7433.48
746.538	7510.09
746.877	7536.3
747.216	7577.43
747.556	7637.54
747.895	7703.75
748.234	7755.05
748.573	7667.82
748.911	7819.68
749.25	7846.35
749.589	7868.49
749.928	7948.72
750.267	8005.89
750.605	8022.84
750.944	8074.14
751.283	8251.53
751.621	8315.71
751.96	8378.76
752.298	8423.96
752.636	8465.09
752.975	8554.35
753.313	8646.78
753.651	8800.22
753.989	8878.64
754.327	8944.17
754.666	9077.05
755.004	9199.76
755.342	9304.39
755.679	9389.58
756.017	9512.52
756.355	9681.33
756.693	9738.05
757.031	9934.2
757.368	9973.75
757.706	10152.5
758.044	10262.56
758.381	10468.65
758.719	10572.15
759.056	10765.37
759.394	10894.63
759.731	10940.05
