Data from hue_160_FLMS001491_00024.txt Node
Date: Tue Feb 07 16:50:57 GMT 2017
User: dcchb
Spectrometer: FLMS00149
Trigger mode: 0
Integration Time (sec): 2.000000E-2
Scans to average: 10
Electric dark correction enabled: true
Nonlinearity correction enabled: false
Boxcar width: 0
XAxis mode: Wavelengths
Number of Pixels in Spectrum: 2048
>>>>>Begin Spectral Data<<<<<
341.393	-7.67
341.776	-7.67
342.16	-7.67
342.543	-61.68
342.927	-58.52
343.31	-68.23
343.693	-58.74
344.077	-60.32
344.46	-36.6
344.843	-56.93
345.226	-31.62
345.61	-33.66
345.993	-20.1
346.376	-8.12
346.759	-8.12
347.142	21.03
347.525	35.27
347.908	53.8
348.291	68.94
348.674	83.63
349.057	119.78
349.44	129.95
349.823	142.16
350.206	161.82
350.588	179.67
350.971	210.18
351.354	210.63
351.737	246.34
352.119	234.58
352.502	244.75
352.884	287.69
353.267	277.75
353.65	284.75
354.032	282.49
354.414	288.82
354.797	309.38
355.179	307.8
355.562	324.3
355.944	308.48
356.326	323.4
356.709	328.37
357.091	322.94
357.473	327.46
357.855	335.6
358.238	339.89
358.62	333.34
359.002	333.79
359.384	334.47
359.766	325.2
360.148	339.44
360.53	315.26
360.912	330.4
361.294	325.43
361.676	331.3
362.057	340.8
362.439	320.01
362.821	331.76
363.203	325.88
363.584	325.66
363.966	307.8
364.348	303.06
364.729	306.9
365.111	311.64
365.493	318.88
365.874	311.64
366.256	307.12
366.637	305.54
367.019	314.36
367.4	324.75
367.781	302.15
368.163	298.09
368.544	313.68
368.925	317.29
369.306	309.16
369.688	317.52
370.069	298.31
370.45	284.07
370.831	289.95
371.212	319.78
371.593	301.25
371.974	310.06
372.355	297.18
372.736	315.94
373.117	307.8
373.498	296.05
373.879	305.32
374.26	273.91
374.641	288.59
375.021	302.38
375.402	323.4
375.783	322.04
376.163	312.77
376.544	320.23
376.925	308.25
377.305	320.01
377.686	335.37
378.066	310.51
378.447	323.85
378.827	333.11
379.208	329.72
379.588	321.36
379.968	311.64
380.349	339.44
380.729	328.37
381.109	335.82
381.489	332.43
381.87	324.07
382.25	335.82
382.63	354.13
383.01	352.55
383.39	324.07
383.77	348.03
384.15	333.34
384.53	326.11
384.91	357.74
385.29	349.38
385.67	341.47
386.049	329.05
386.429	347.35
386.809	369.72
387.189	336.95
387.568	359.33
387.948	332.66
388.328	356.61
388.707	345.77
389.087	367.01
389.466	357.97
389.846	359.33
390.225	361.13
390.605	351.87
390.984	340.57
391.363	334.69
391.743	353.23
392.122	366.56
392.501	360.23
392.881	365.2
393.26	357.97
393.639	347.12
394.018	364.98
394.397	382.83
394.776	376.05
395.155	385.09
395.534	378.31
395.913	389.61
396.292	379.44
396.671	360.68
397.05	373.11
397.429	377.63
397.808	374.92
398.186	397.97
398.565	383.96
398.944	384.18
399.323	390.06
399.701	375.6
400.08	382.6
400.458	391.42
400.837	402.26
401.215	393.68
401.594	394.81
401.972	385.77
402.351	403.17
402.729	392.09
403.107	403.39
403.486	398.2
403.864	383.05
404.242	441.81
404.62	401.36
404.999	409.27
405.377	430.29
405.755	424.64
406.133	423.05
406.511	430.51
406.889	413.79
407.267	414.01
407.645	432.09
408.023	438.87
408.401	437.97
408.779	435.48
409.156	429.61
409.534	437.06
409.912	449.72
410.29	471.41
410.667	458.99
411.045	430.06
411.422	459.89
411.8	463.96
412.178	458.08
412.555	466.22
412.933	472.09
413.31	481.13
413.687	495.37
414.065	457.4
414.442	506.22
414.819	486.78
415.197	504.63
415.574	491.53
415.951	510.74
416.328	500.34
416.705	497.4
417.082	505.76
417.46	504.41
417.837	517.29
418.214	524.29
418.591	521.13
418.967	521.58
419.344	524.75
419.721	532.43
420.098	516.38
420.475	541.24
420.852	534.46
421.228	547.57
421.605	560.23
421.982	539.21
422.358	521.13
422.735	537.4
423.111	569.72
423.488	576.72
423.864	570.85
424.241	574.24
424.617	598.42
424.994	571.98
425.37	579.66
425.746	588.7
426.123	598.64
426.499	559.32
426.875	610.85
427.251	578.98
427.627	601.81
428.003	620.79
428.379	607
428.756	621.01
429.132	623.73
429.507	624.86
429.883	628.92
430.259	665.76
430.635	652.65
431.011	648.58
431.387	649.04
431.763	680.45
432.138	662.82
432.514	686.78
432.89	694.91
433.265	696.04
433.641	710.28
434.016	715.48
434.392	708.47
434.767	728.36
435.143	725.64
435.518	728.58
435.894	738.3
436.269	748.7
436.644	756.38
437.02	753.44
437.395	745.31
437.77	779.65
438.145	785.53
438.52	784.4
438.895	800.9
439.271	793.67
439.646	821.46
440.021	840.67
440.395	805.87
440.77	823.04
441.145	799.77
441.52	855.58
441.895	830.05
442.27	825.3
442.645	852.42
443.019	872.08
443.394	848.81
443.769	875.47
444.143	881.12
444.518	872.08
444.892	895.81
445.267	889.03
445.641	919.76
446.016	914.79
446.39	899.65
446.764	891.74
447.139	919.99
447.513	918.18
447.887	948.46
448.262	932.64
448.636	927.67
449.01	956.37
449.384	958.18
449.758	953.44
450.132	987.56
450.506	956.37
450.88	991.4
451.254	993.66
451.628	1004.51
452.002	1017.16
452.376	1027.56
452.75	1030.5
453.123	1047.44
453.497	1024.62
453.871	1058.52
454.244	1070.95
454.618	1098.74
454.992	1111.62
455.365	1096.03
455.739	1109.36
456.112	1123.6
456.486	1153.2
456.859	1155.92
457.232	1170.6
457.606	1190.94
457.979	1190.27
458.352	1197.95
458.725	1241.79
459.099	1235.91
459.472	1242.02
459.845	1264.61
460.218	1277.04
460.591	1286.99
460.964	1295.8
461.337	1325.85
461.71	1339.19
462.083	1341.67
462.456	1364.27
462.829	1403.14
463.201	1403.82
463.574	1417.83
463.947	1452.63
464.32	1473.87
464.692	1533.08
465.065	1526.08
465.438	1525.17
465.81	1546.19
466.183	1559.07
466.555	1631.61
466.928	1623.02
467.3	1645.85
467.672	1641.1
468.045	1718.39
468.417	1713.19
468.789	1724.26
469.161	1773.3
469.534	1780.08
469.906	1824.15
470.278	1858.95
470.65	1861.89
471.022	1915.9
471.394	1977.82
471.766	1991.83
472.138	2055.55
472.51	2100.98
472.882	2114.08
473.253	2158.15
473.625	2204.7
473.997	2284.47
474.369	2252.38
474.74	2342.55
475.112	2382.55
475.484	2436.33
475.855	2477.46
476.227	2583.68
476.598	2634.75
476.97	2674.52
477.341	2738.47
477.713	2825.02
478.084	2836.78
478.455	2960.39
478.827	3002.65
479.198	3112.47
479.569	3180.27
479.94	3255.52
480.311	3312.24
480.682	3428.17
481.053	3547.04
481.424	3598.79
481.795	3697.09
482.166	3790.42
482.537	3879.23
482.908	4024.54
483.279	4064.77
483.65	4210.3
484.021	4313.12
484.391	4409.62
484.762	4463.85
485.133	4562.38
485.503	4689.61
485.874	4817.74
486.244	4945.19
486.615	5047.34
486.985	5147.22
487.356	5312.19
487.726	5380.66
488.097	5516.71
488.467	5577.04
488.837	5812.74
489.207	5840.09
489.578	6007.77
489.948	6169.12
490.318	6301.77
490.688	6364.59
491.058	6548.99
491.428	6697.92
491.798	6832.83
492.168	6918.7
492.538	7066.72
492.908	7181.97
493.278	7349.88
493.648	7418.58
494.017	7588.74
494.387	7667.84
494.757	7849.3
495.126	7936.75
495.496	8000.03
495.866	8143.53
496.235	8221.27
496.605	8351.66
496.974	8403.63
497.344	8532.22
497.713	8578.09
498.082	8756.85
498.452	8863.06
498.821	8920.46
499.19	9045.2
499.559	9106.22
499.928	9254.23
500.298	9364.06
500.667	9416.04
501.036	9515.24
501.405	9599.08
501.774	9643.6
502.143	9758.63
502.512	9879.08
502.88	9935.8
503.249	9919.53
503.618	10085.85
503.987	10070.48
504.356	10183.25
504.724	10242.68
505.093	10272.74
505.462	10315.45
505.83	10495.33
506.199	10576.01
506.567	10664.82
506.936	10684.48
507.304	10794.98
507.672	10809.45
508.041	10869.78
508.409	10902.33
508.777	10987.75
509.145	11173.96
509.514	11098.25
509.882	11152.26
510.25	11186.61
510.618	11287.4
510.986	11235.88
511.354	11367.62
511.722	11384.12
512.09	11536.66
512.458	11451.46
512.826	11524.46
513.193	11556.77
513.561	11600.16
513.929	11713.38
514.297	11722.87
514.664	11761.74
515.032	11856.88
515.4	11879.02
515.767	11889.65
516.135	11923.99
516.502	11840.61
516.869	12000.15
517.237	11998.12
517.604	11976.65
517.972	12116.98
518.339	12120.15
518.706	12031.79
519.073	12079.92
519.44	12147.04
519.808	12239.01
520.175	12188.17
520.542	12340.03
520.909	12326.92
521.276	12270.43
521.643	12339.8
522.009	12429.29
522.376	12487.82
522.743	12450.31
523.11	12525.79
523.477	12662.28
523.843	12610.53
524.21	12596.75
524.577	12736.18
524.943	12652.34
525.31	12740.7
525.676	12761.03
526.043	12851.2
526.409	12807.14
526.776	12868.6
527.142	12829.73
527.508	12854.82
527.874	12847.59
528.241	12871.09
528.607	12879
528.973	12966.45
529.339	12928.71
529.705	12956.96
530.071	12959.22
530.437	13034.47
530.803	13002.16
531.169	12979.56
531.535	12967.58
531.901	12910.41
532.267	12909.28
532.632	12920.35
532.998	12889.17
533.364	12943.4
533.73	12847.81
534.095	12924.65
534.461	12946.79
534.826	12865.89
535.192	12863.86
535.557	12942.5
535.923	12885.55
536.288	12830.41
536.653	12788.83
537.019	12709.06
537.384	12776.18
537.749	12836.29
538.114	12691.43
538.479	12680.58
538.845	12699.57
539.21	12580.7
539.575	12559.91
539.94	12565.33
540.305	12551.1
540.67	12449.86
541.034	12410.31
541.399	12459.8
541.764	12425.45
542.129	12448.95
542.494	12369.41
542.858	12375.06
543.223	12312.46
543.587	12238.34
543.952	12166.93
544.316	12226.81
544.681	12156.76
545.045	12189.07
545.41	12226.36
545.774	12204.21
546.138	12102.52
546.503	12027.72
546.867	11978
547.231	12060.49
547.595	11933.03
547.959	11923.54
548.324	11846.48
548.688	11879.02
549.052	11850.78
549.416	11846.71
549.779	11736.43
550.143	11728.07
550.507	11755.41
550.871	11697.33
551.235	11626.15
551.599	11672.7
551.962	11614.62
552.326	11620.05
552.689	11582.99
553.053	11597.68
553.417	11494.18
553.78	11607.17
554.143	11546.38
554.507	11489.43
554.87	11463.67
555.234	11532.59
555.597	11401.75
555.96	11456.89
556.323	11425.7
556.686	11342.99
557.05	11333.28
557.413	11333.05
557.776	11364.24
558.139	11382.77
558.502	11351.81
558.865	11380.96
559.228	11398.58
559.59	11328.76
559.953	11298.47
560.316	11446.04
560.679	11313.61
561.041	11368.3
561.404	11412.6
561.767	11327.63
562.129	11357
562.492	11414.4
562.854	11305.48
563.217	11266.61
563.579	11265.93
563.941	11415.99
564.304	11416.21
564.666	11438.58
565.028	11432.48
565.39	11349.09
565.753	11405.59
566.115	11421.63
566.477	11398.13
566.839	11429.54
567.201	11444.91
567.563	11500.05
567.925	11450.56
568.287	11461.63
568.648	11464.12
569.01	11489.88
569.372	11559.71
569.734	11503.67
570.095	11570.56
570.457	11589.54
570.819	11548.41
571.18	11557.9
571.542	11609.65
571.903	11575.75
572.265	11491.92
572.626	11624.34
572.987	11620.05
573.349	11672.93
573.71	11662.31
574.071	11668.63
574.432	11618.24
574.794	11735.07
575.155	11631.8
575.516	11596.55
575.877	11620.95
576.238	11683.1
576.599	11656.66
576.96	11676.32
577.32	11665.92
577.681	11649.43
578.042	11741.17
578.403	11650.1
578.763	11674.06
579.124	11657.79
579.485	11690.1
579.845	11724.45
580.206	11637
580.566	11663.89
580.927	11751.34
581.287	11680.16
581.648	11676.77
582.008	11724.45
582.368	11717.45
582.728	11705.24
583.089	11672.48
583.449	11643.32
583.809	11670.22
584.169	11739.82
584.529	11648.75
584.889	11684.68
585.249	11679.93
585.609	11557.45
585.969	11708.18
586.329	11561.97
586.688	11614.62
587.048	11597.9
587.408	11570.78
587.768	11536.89
588.127	11561.52
588.487	11575.08
588.846	11637.22
589.206	11547.28
589.565	11559.03
589.925	11552.25
590.284	11466.38
590.643	11575.53
591.003	11613.04
591.362	11557
591.721	11510.22
592.08	11523.55
592.44	11564.23
592.799	11503.67
593.158	11463.22
593.517	11508.64
593.876	11553.38
594.235	11437.68
594.593	11449.66
594.952	11519.03
595.311	11484.46
595.67	11406.49
596.029	11469.54
596.387	11467.28
596.746	11436.78
597.104	11428.41
597.463	11419.37
597.822	11455.31
598.18	11408.3
598.538	11380.96
598.897	11506.15
599.255	11407.62
599.613	11502.08
599.972	11398.81
600.33	11378.47
600.688	11374.18
601.046	11408.98
601.404	11483.78
601.762	11428.19
602.12	11455.08
602.478	11503.89
602.836	11514.97
603.194	11394.06
603.552	11402.2
603.91	11412.6
604.268	11402.88
604.625	11422.31
604.983	11425.93
605.341	11374.86
605.698	11395.65
606.056	11476.32
606.413	11421.86
606.771	11480.39
607.128	11437.91
607.485	11427.28
607.843	11441.07
608.2	11435.19
608.557	11511.8
608.914	11436.55
609.272	11519.94
609.629	11531.46
609.986	11524.91
610.343	11421.18
610.7	11528.07
611.057	11425.48
611.414	11437.68
611.771	11502.54
612.127	11544.12
612.484	11539.6
612.841	11579.82
613.198	11497.34
613.554	11629.31
613.911	11613.27
614.267	11612.59
614.624	11546.38
614.98	11576.43
615.337	11669.99
615.693	11590.44
616.05	11605.36
616.406	11676.32
616.762	11701.18
617.118	11662.08
617.475	11668.86
617.831	11707.73
618.187	11706.37
618.543	11700.95
618.899	11802.87
619.255	11698.69
619.611	11720.38
619.967	11781.85
620.323	11759.7
620.678	11743.66
621.034	11724
621.39	11678.8
621.746	11732.36
622.101	11861.62
622.457	11654.4
622.812	11728.97
623.168	11726.94
623.523	11742.98
623.879	11845.35
624.234	11715.64
624.589	11766.71
624.945	11759.7
625.3	11765.13
625.655	11708.63
626.01	11735.98
626.365	11788.4
626.72	11776.43
627.075	11731.91
627.43	11740.5
627.785	11736.2
628.14	11773.94
628.495	11725.36
628.85	11688.97
629.205	11778.46
629.559	11782.53
629.914	11671.12
630.269	11678.13
630.623	11627.28
630.978	11683.55
631.332	11667.73
631.687	11648.07
632.041	11574.17
632.396	11588.86
632.75	11625.92
633.104	11600.61
633.459	11585.7
633.813	11507.96
634.167	11592.93
634.521	11622.08
634.875	11563.78
635.229	11522.65
635.583	11552.48
635.937	11470.22
636.291	11527.39
636.645	11501.18
636.999	11414.18
637.352	11397.68
637.706	11399.49
638.06	11474.29
638.413	11441.97
638.767	11391.8
639.121	11404.23
639.474	11289.43
639.828	11319.26
640.181	11365.59
640.534	11377.12
640.888	11278.36
641.241	11240.17
641.594	11273.16
641.947	11340.05
642.301	11257.57
642.654	11295.54
643.007	11272.94
643.36	11264.58
643.713	11254.18
644.066	11257.12
644.419	11140.51
644.771	11155.65
645.124	11067.07
645.477	10959.5
645.83	10978.48
646.182	10940.52
646.535	10912.95
646.888	10893.96
647.24	10889.22
647.593	10921.31
647.945	10900.07
648.298	10797.7
648.65	10819.16
649.002	10827.3
649.355	10879.05
649.707	10840.86
650.059	10870.24
650.411	11046.5
650.763	11088.99
651.115	11150
651.467	11094.86
651.819	11134.41
652.171	11186.61
652.523	11078.37
652.875	11082.21
653.227	11103
653.578	11106.84
653.93	11190
654.282	11088.31
654.633	11139.38
654.985	11073.62
655.337	11134.18
655.688	11164.47
656.039	11059.16
656.391	11033.62
656.742	11092.83
657.094	11118.14
657.445	11140.74
657.796	11085.6
658.147	11103.45
658.498	11093.73
658.849	11117.24
659.2	11138.93
659.551	11064.58
659.902	11138.93
660.253	11116.56
660.604	11132.38
660.955	11043.57
661.306	11154.3
661.656	11133.28
662.007	11127.86
662.358	11179.16
662.708	11209.66
663.059	11153.62
663.409	11072.27
663.76	11166.95
664.11	11178.48
664.461	11132.38
664.811	11178.93
665.161	11124.02
665.511	11153.85
665.862	11155.88
666.212	11247.85
666.562	11175.09
666.912	11152.26
667.262	11178.03
667.612	11185.48
667.962	11142.77
668.312	11221.64
668.662	11170.12
669.011	11170.79
669.361	11173.73
669.711	11213.73
670.06	11168.76
670.41	11110
670.76	11123.56
671.109	11117.91
671.459	11184.8
671.808	11055.77
672.157	11122.66
672.507	11118.82
672.856	11100.74
673.205	11079.04
673.554	11103.68
673.904	11021.87
674.253	11164.24
674.602	11041.31
674.951	10981.87
675.3	10887.64
675.649	11022.32
675.998	10982.32
676.346	11072.94
676.695	10978.93
677.044	10959.95
677.393	10950.23
677.741	10991.36
678.09	10913.85
678.438	10951.14
678.787	10956.56
679.135	10941.65
679.484	10903.91
679.832	10937.13
680.181	10791.82
680.529	10909.11
680.877	10865.27
681.225	10802.89
681.573	10819.62
681.922	10814.65
682.27	10751.6
682.618	10753.63
682.966	10741.2
683.314	10762.89
683.661	10629.11
684.009	10605.16
684.357	10661.65
684.705	10547.99
685.053	10590.02
685.4	10630.24
685.748	10550.02
686.095	10534.65
686.443	10489.46
686.79	10466.63
687.138	10453.52
687.485	10485.39
687.832	10412.85
688.18	10399.74
688.527	10425.28
688.874	10397.03
689.221	10318.61
689.568	10353.41
689.915	10334.21
690.262	10304.6
690.609	10272.29
690.956	10205.62
691.303	10140.76
691.65	10083.59
691.997	10107.09
692.344	10044.5
692.69	10035.46
693.037	10066.19
693.383	9972.18
693.73	9949.13
694.077	9844.73
694.423	9890.83
694.769	9886.76
695.116	9836.37
695.462	9795.24
695.808	9726.54
696.155	9778.06
696.501	9705.3
696.847	9701.91
697.193	9610.83
697.539	9657.84
697.885	9504.17
698.231	9520.22
698.577	9527.45
698.923	9472.76
699.269	9482.25
699.614	9353.21
699.96	9372.65
700.306	9343.5
700.651	9272.54
700.997	9270.5
701.342	9233.44
701.688	9222.14
702.033	9143.5
702.379	9143.05
702.724	9122.03
703.069	9099.44
703.415	9032.54
703.76	8980.79
704.105	9075.26
704.45	9014.01
704.795	8923.4
705.14	8874.13
705.485	8830.06
705.83	8864.87
706.175	8873.45
706.52	8824.19
706.865	8805.43
707.209	8742.38
707.554	8731.08
707.899	8767.02
708.243	8679.11
708.588	8692.44
708.932	8546.68
709.277	8639.79
709.621	8660.35
709.966	8605.66
710.31	8548.94
710.654	8496.51
710.998	8477.98
711.342	8448.15
711.687	8483.86
712.031	8414.03
712.375	8426.23
712.719	8436.18
713.063	8377.42
713.407	8449.51
713.75	8392.56
714.094	8381.04
714.438	8322.06
714.782	8344.43
715.125	8262.62
715.469	8301.04
715.812	8302.39
716.156	8240.7
716.499	8229.4
716.843	8210.65
717.186	8157.31
717.53	8232.57
717.873	8242.74
718.216	8192.79
718.559	8135.39
718.902	8138.78
719.246	8114.83
719.589	8092.46
719.932	8085.23
720.275	8124.09
720.617	8179.01
720.96	8055.4
721.303	8064.89
721.646	8039.8
721.989	8056.07
722.331	8094.72
722.674	8052.46
723.016	8050.42
723.359	8038.45
723.701	8017.88
724.044	7953.25
724.386	7963.42
724.729	8026.02
725.071	7963.42
725.413	7967.49
725.755	7955.96
726.097	7939.92
726.439	7860.82
726.782	7911.67
727.124	7973.36
727.465	7905.79
727.807	7897.66
728.149	7879.13
728.491	7830.99
728.833	7884.78
729.175	7836.87
729.516	7947.38
729.858	7840.49
730.199	7918.68
730.541	7833.48
730.882	7871.9
731.224	7853.82
731.565	7836.42
731.906	7881.61
732.248	7893.82
732.589	7875.97
732.93	7773.6
733.271	7831.45
733.612	7866.7
733.953	7890.65
734.294	7814.72
734.635	7781.73
734.976	7830.77
735.317	7825.12
735.658	7772.92
735.999	7890.43
736.339	7861.95
736.68	7894.95
737.021	7836.19
737.361	7908.28
737.702	7897.43
738.042	7860.82
738.383	7883.2
738.723	7886.36
739.063	7893.14
739.404	7906.7
739.744	7894.04
740.084	7925.23
740.424	7965.68
740.764	7962.06
741.104	7960.48
741.444	7928.62
741.784	7971.1
742.124	7962.97
742.464	7969.52
742.804	8055.62
743.143	8008.84
743.483	8077.77
743.823	8058.11
744.162	8029.41
744.502	8132.46
744.841	8075.28
745.181	8152.12
745.52	8201.83
745.86	8265.11
746.199	8309.85
746.538	8312.56
746.877	8382.39
747.216	8437.08
747.556	8451.09
747.895	8506.46
748.234	8495.61
748.573	8543.74
748.911	8627.36
749.25	8733.57
749.589	8708.03
749.928	8770.4
750.267	8848.37
750.605	8887.01
750.944	8999.55
751.283	8978.76
751.621	9086.33
751.96	9191.41
752.298	9260.11
752.636	9410.84
752.975	9435.25
753.313	9504.17
753.651	9734.67
753.989	9670.49
754.327	9811.73
754.666	9964.5
755.004	9990.26
755.342	10207.2
755.679	10240.65
756.017	10425.73
756.355	10504.14
756.693	10621.2
757.031	10824.59
757.368	10854.42
757.706	10966.73
758.044	11129.44
758.381	11351.35
758.719	11427.51
759.056	11665.92
759.394	11820.27
759.731	11814.84
760.068	12046.03
