Data from hue_70_FLMS001491_96.txt Node
Date: Mon Feb 06 15:21:46 GMT 2017
User: dcchb
Spectrometer: FLMS00149
Trigger mode: 0
Integration Time (sec): 2.000000E-2
Scans to average: 10
Electric dark correction enabled: true
Nonlinearity correction enabled: false
Boxcar width: 0
XAxis mode: Wavelengths
Number of Pixels in Spectrum: 2048
>>>>>Begin Spectral Data<<<<<
341.393	-22.06
341.776	-22.06
342.16	-22.06
342.543	-56.86
342.927	-74.26
343.31	-67.03
343.693	-78.33
344.077	-83.75
344.46	-51.44
344.843	-56.86
345.226	-35.62
345.61	-27.71
345.993	-15.28
346.376	1.44
346.759	27.88
347.142	22.46
347.525	31.95
347.908	64.94
348.291	71.72
348.674	99.07
349.057	96.58
349.44	119.86
349.823	142.68
350.206	156.24
350.588	211.38
350.971	203.92
351.354	210.93
351.737	243.92
352.119	248.89
352.502	267.2
352.884	260.19
353.267	262.9
353.65	303.58
354.032	315.33
354.414	305.61
354.797	297.48
355.179	312.84
355.562	318.04
355.944	330.25
356.326	319.62
356.709	311.04
357.091	346.52
357.473	342.67
357.855	348.32
358.238	326.18
358.62	347.65
359.002	341.09
359.384	328.89
359.766	339.51
360.148	325.05
360.53	321.66
360.912	318.04
361.294	320.98
361.676	346.29
362.057	332.51
362.439	325.5
362.821	333.86
363.203	321.21
363.584	309
363.966	313.52
364.348	306.29
364.729	310.59
365.111	313.52
365.493	347.65
365.874	325.95
366.256	307.2
366.637	277.14
367.019	312.84
367.4	308.33
367.781	329.12
368.163	301.55
368.544	304.94
368.925	299.29
369.306	336.57
369.688	329.57
370.069	318.04
370.45	301.09
370.831	311.94
371.212	298.61
371.593	289.79
371.974	294.09
372.355	310.59
372.736	312.39
373.117	300.42
373.498	314.2
373.879	315.78
374.26	328.21
374.641	304.26
375.021	329.57
375.402	302
375.783	313.07
376.163	301.55
376.544	323.69
376.925	331.15
377.305	308.78
377.686	334.31
378.066	317.14
378.447	336.12
378.827	311.26
379.208	336.8
379.588	324.6
379.968	326.4
380.349	327.53
380.729	322.11
381.109	318.72
381.489	328.21
381.87	356.23
382.25	340.19
382.63	332.96
383.01	337.7
383.39	355.56
383.77	340.41
384.15	318.95
384.53	328.66
384.91	340.87
385.29	341.32
385.67	332.28
386.049	346.52
386.429	346.29
386.809	347.87
387.189	356.23
387.568	332.05
387.948	337.93
388.328	343.8
388.707	353.3
389.087	349.23
389.466	344.48
389.846	354.65
390.225	364.59
390.605	353.75
390.984	343.8
391.363	352.62
391.743	364.82
392.122	348.32
392.501	367.31
392.881	365.5
393.26	337.25
393.639	370.92
394.018	373.86
394.397	368.21
394.776	367.98
395.155	365.05
395.534	380.41
395.913	353.75
396.292	366.18
396.671	369.57
397.05	385.16
397.429	388.78
397.808	387.65
398.186	363.01
398.565	376.12
398.944	379.06
399.323	361.66
399.701	377.7
400.08	351.94
400.458	388.32
400.837	380.87
401.215	370.02
401.594	399.85
401.972	392.84
402.351	402.56
402.729	401.66
403.107	394.88
403.486	416.12
403.864	383.8
404.242	389.45
404.62	383.13
404.999	405.95
405.377	406.18
405.755	399.17
406.133	430.36
406.511	411.83
406.889	394.2
407.267	410.92
407.645	416.34
408.023	400.3
408.401	399.62
408.779	396.91
409.156	434.88
409.534	418.15
409.912	423.8
410.29	427.42
410.667	416.34
411.045	442.11
411.422	466.29
411.8	440.75
412.178	426.06
412.555	438.04
412.933	455.21
413.31	447.08
413.687	466.97
414.065	460.41
414.442	455.67
414.819	440.07
415.197	477.36
415.574	461.99
415.951	473.74
416.328	469
416.705	450.24
417.082	472.84
417.46	487.53
417.837	472.84
418.214	491.6
418.591	469
418.967	487.3
419.344	506.06
419.721	495.89
420.098	485.5
420.475	478.49
420.852	494.31
421.228	503.12
421.605	497.02
421.982	501.77
422.358	504.25
422.735	529.79
423.111	510.58
423.488	520.07
423.864	536.57
424.241	506.51
424.617	530.01
424.994	525.72
425.37	522.1
425.746	537.92
426.123	523.01
426.499	543.57
426.875	548.32
427.251	532.95
427.627	555.55
428.003	547.19
428.379	582.67
428.756	568.21
429.132	547.19
429.507	563.69
429.883	566.85
430.259	589.67
430.635	581.54
431.011	576.11
431.387	627.64
431.763	604.81
432.138	623.8
432.514	609.33
432.89	619.28
433.265	631.03
433.641	621.31
434.016	624.93
434.392	638.71
434.767	636.68
435.143	633.74
435.518	631.93
435.894	636.68
436.269	649.33
436.644	652.72
437.02	659.5
437.395	650.01
437.77	666.73
438.145	682.55
438.52	680.74
438.895	703.57
439.271	694.53
439.646	687.52
440.021	710.35
440.395	726.17
440.77	685.49
441.145	694.3
441.52	709.67
441.895	715.32
442.27	701.76
442.645	706.51
443.019	739.95
443.394	742.89
443.769	734.08
444.143	746.28
444.518	737.47
444.892	741.31
445.267	746.05
445.641	763.23
446.016	745.38
446.39	790.12
446.764	739.05
447.139	770.01
447.513	779.95
447.887	765.71
448.262	795.09
448.636	821.76
449.01	777.24
449.384	799.39
449.758	774.98
450.132	791.93
450.506	814.75
450.88	842.1
451.254	847.75
451.628	846.16
452.002	845.26
452.376	836.67
452.75	854.3
453.123	839.38
453.497	860.85
453.871	892.72
454.244	883.23
454.618	878.48
454.992	903.34
455.365	875.77
455.739	911.93
456.112	932.49
456.486	947.18
456.859	969.78
457.232	940.4
457.606	935.88
457.979	967.52
458.352	987.4
458.725	994.86
459.099	996.44
459.472	1003.22
459.845	1034.41
460.218	1040.96
460.591	1039.38
460.964	1051.36
461.337	1068.08
461.71	1070.11
462.083	1094.29
462.456	1115.54
462.829	1102.88
463.201	1118.47
463.574	1139.26
463.947	1161.64
464.32	1179.94
464.692	1178.81
465.065	1177.91
465.438	1199.38
465.81	1240.28
466.183	1230.33
466.555	1265.59
466.928	1273.95
467.3	1285.93
467.672	1318.47
468.045	1327.73
468.417	1357.56
468.789	1404.79
469.161	1359.37
469.534	1412.03
469.906	1438.24
470.278	1465.81
470.65	1490.67
471.022	1527.05
471.394	1558.69
471.766	1564.56
472.138	1593.26
472.51	1636.2
472.882	1649.08
473.253	1702.64
473.625	1732.92
473.997	1783.99
474.369	1805.24
474.74	1800.04
475.112	1866.02
475.484	1911.45
475.855	1989.18
476.227	2001.84
476.598	2077.09
476.97	2098.56
477.341	2172.68
477.713	2226.24
478.084	2304.2
478.455	2345.56
478.827	2423.07
479.198	2516.4
479.569	2503.3
479.94	2620.35
480.311	2648.38
480.682	2735.61
481.053	2870.97
481.424	2898.99
481.795	2970.85
482.166	3090.85
482.537	3171.53
482.908	3255.82
483.279	3330.39
483.65	3445.42
484.021	3562.25
484.391	3621.91
484.762	3724.96
485.133	3832.75
485.503	3862.58
485.874	4039.75
486.244	4136.93
486.615	4259.63
486.985	4368.56
487.356	4516.35
487.726	4624.6
488.097	4742.78
488.467	4877.24
488.837	5002.89
489.207	5112.94
489.578	5254.86
489.948	5398.13
490.318	5554.51
490.688	5607.62
491.058	5806.71
491.428	5928.06
491.798	6092.13
492.168	6248.96
492.538	6309.07
492.908	6495.06
493.278	6643.75
493.648	6707.93
494.017	6963.29
494.387	7030.86
494.757	7190.18
495.126	7333.45
495.496	7458.19
495.866	7550.85
496.235	7712.42
496.605	7841.91
496.974	7973.66
497.344	8141.79
497.713	8273.54
498.082	8355.35
498.452	8592.4
498.821	8683.47
499.19	8779.06
499.559	8956.46
499.928	9054.76
500.298	9194.19
500.667	9363
501.036	9438.25
501.405	9595.99
501.774	9658.81
502.143	9864.68
502.512	9967.96
502.88	10013.38
503.249	10173.38
503.618	10235.07
503.987	10351.45
504.356	10540.15
504.724	10655.17
505.093	10703.31
505.462	10789.41
505.83	10954.82
506.199	11129.51
506.567	11308.26
506.936	11301.48
507.304	11482.95
507.672	11544.87
508.041	11600.01
508.409	11805.2
508.777	11968.36
509.145	12046.55
509.514	12174.68
509.882	12257.16
510.25	12332.19
510.618	12447.67
510.986	12598.85
511.354	12623.03
511.722	12739.18
512.09	12891.05
512.458	12950.03
512.826	13007.43
513.193	13177.82
513.561	13185.5
513.929	13352.95
514.297	13492.61
514.664	13632.27
515.032	13643.12
515.4	13900.28
515.767	13859.83
516.135	13934.41
516.502	13931.92
516.869	14199.03
517.237	14220.73
517.604	14206.49
517.972	14353.61
518.339	14438.12
518.706	14557.89
519.073	14593.6
519.44	14667.04
519.808	14881.05
520.175	14951.78
520.542	15041.72
520.909	15082.4
521.276	15070.65
521.643	15339.79
522.009	15378.89
522.376	15422.28
522.743	15604.42
523.11	15745.66
523.477	15803.06
523.843	15867.46
524.21	15967.8
524.577	16125.31
524.943	16166.21
525.31	16258.87
525.676	16408.01
526.043	16464.28
526.409	16531.18
526.776	16710.83
527.142	16778.4
527.508	16898.4
527.874	16924.84
528.241	17005.97
528.607	17059.98
528.973	17216.58
529.339	17194.21
529.705	17378.84
530.071	17405.28
530.437	17537.7
530.803	17495.44
531.169	17565.05
531.535	17503.13
531.901	17785.83
532.267	17752.61
532.632	17849.11
532.998	17824.7
533.364	18019.05
533.73	17915.32
534.095	18153.05
534.461	18099.72
534.826	18099.04
535.192	18218.36
535.557	18331.58
535.923	18232.6
536.288	18350.56
536.653	18375.87
537.019	18294.52
537.384	18447.28
537.749	18343.78
538.114	18465.81
538.479	18532.48
538.845	18519.82
539.21	18403.44
539.575	18515.53
539.94	18551.24
540.305	18669.88
540.67	18588.75
541.034	18672.14
541.399	18689.08
541.764	18763.21
542.129	18765.92
542.494	18749.65
542.858	18871.23
543.223	18766.37
543.587	18943.77
543.952	18842.75
544.316	18838.23
544.681	18819.93
545.045	18904.45
545.41	18982.18
545.774	19022.41
546.138	18935.18
546.503	18967.95
546.867	18910.1
547.231	19134.5
547.595	19148.73
547.959	19218.79
548.324	19122.52
548.688	19062.63
549.052	19162.74
549.416	19259.92
549.779	19152.12
550.143	19226.02
550.507	19321.61
550.871	19330.65
551.235	19352.8
551.599	19349.86
551.962	19360.48
552.326	19470.76
552.689	19438.22
553.053	19405.9
553.417	19427.14
553.78	19708.04
554.143	19523.64
554.507	19571.77
554.87	19650.42
555.234	19802.05
555.597	19565.67
555.96	19768.15
556.323	19709.62
556.686	19712.33
557.05	19905.55
557.413	19908.71
557.776	19948.94
558.139	19973.34
558.502	20003.85
558.865	20013.57
559.228	20168.82
559.59	20241.13
559.953	20149.16
560.316	20306.44
560.679	20381.24
561.041	20322.94
561.404	20477.51
561.767	20458.76
562.129	20430.51
562.492	20617.4
562.854	20679.09
563.217	20640.45
563.579	20708.47
563.941	20759.99
564.304	20878.86
564.666	20868.46
565.028	20983.04
565.39	21078.63
565.753	21099.42
566.115	21174.22
566.477	21230.94
566.839	21270.94
567.201	21304.16
567.563	21399.3
567.925	21467.99
568.287	21454.21
568.648	21436.81
569.01	21540.08
569.372	21690.59
569.734	21605.62
570.095	21764.94
570.457	21781.43
570.819	21842.9
571.18	21930.58
571.542	22076.11
571.903	22061.43
572.265	22028.21
572.626	22143.23
572.987	22207.64
573.349	22086.74
573.71	22221.42
574.071	22278.37
574.432	22318.59
574.794	22394.75
575.155	22464.35
575.516	22310.23
575.877	22474.52
576.238	22524.24
576.599	22572.15
576.96	22515.42
577.32	22526.5
577.681	22576.44
578.042	22660.96
578.403	22670.22
578.763	22670.68
579.124	22802.88
579.485	22926.04
579.845	22892.36
580.206	22833.83
580.566	22847.62
580.927	22795.19
581.287	22958.8
581.648	22812.14
582.008	23008.52
582.368	22923.78
582.728	22929.43
583.089	22860.27
583.449	22878.35
583.809	23024.79
584.169	22979.14
584.529	22845.36
584.889	23041.96
585.249	22917.45
585.609	22800.16
585.969	22949.99
586.329	22851.46
586.688	22867.51
587.048	22944.11
587.408	22888.52
587.768	22945.24
588.127	22917.67
588.487	22970.1
588.846	23091.91
589.206	22834.96
589.565	22906.38
589.925	22953.15
590.284	22993.15
590.643	22957.45
591.003	23000.16
591.362	23087.16
591.721	22999.25
592.08	22902.99
592.44	23099.14
592.799	22979.37
593.158	22963.32
593.517	22968.07
593.876	22886.04
594.235	23011.46
594.593	22935.98
594.952	23006.03
595.311	22977.11
595.67	22987.95
596.029	23038.35
596.387	23201.51
596.746	23113.83
597.104	22957.22
597.463	23051.68
597.822	23152.92
598.18	23030.44
598.538	23081.96
598.897	23129.87
599.255	22908.41
599.613	23242.19
599.972	23164.22
600.33	23211.45
600.688	23092.36
601.046	23189.76
601.404	23234.73
601.762	23099.82
602.12	23266.14
602.478	23202.64
602.836	23269.76
603.194	23163.32
603.552	23281.73
603.91	23135.07
604.268	23232.69
604.625	23278.79
604.983	23325.8
605.341	23256.65
605.698	23358.34
606.056	23399.7
606.413	23390.66
606.771	23492.35
607.128	23368.06
607.485	23339.81
607.843	23398.79
608.2	23477.21
608.557	23492.12
608.914	23528.73
609.272	23610.54
609.629	23513.82
609.986	23767.14
610.343	23709.74
610.7	23782.96
611.057	23744.32
611.414	23742.74
611.771	23768.05
612.127	23903.86
612.484	23801.27
612.841	23878.78
613.198	23907.25
613.554	23884.2
613.911	24016.85
614.267	23929.17
614.624	24009.62
614.98	23897.31
615.337	24242.39
615.693	24079.9
616.05	24043.07
616.406	24282.38
616.762	24208.04
617.118	24171.2
617.475	24150.41
617.831	24204.42
618.187	24288.03
618.543	24226.11
618.899	24346.34
619.255	24450.97
619.611	24299.11
619.967	24394.47
620.323	24399.67
620.678	24385.88
621.034	24312.44
621.39	24395.15
621.746	24336.85
622.101	24574.58
622.457	24488.71
622.812	24506.79
623.168	24583.39
623.523	24527.58
623.879	24678.53
624.234	24528.03
624.589	24615.26
624.945	24575.94
625.3	24566.67
625.655	24646.67
626.01	24584.07
626.365	24572.77
626.72	24614.58
627.075	24590.85
627.43	24584.98
627.785	24565.99
628.14	24607.57
628.495	24655.26
628.85	24673.11
629.205	24424.75
629.559	24665.42
629.914	24578.42
630.269	24553.56
630.623	24591.53
630.978	24464.75
631.332	24511.98
631.687	24629.95
632.041	24554.24
632.396	24498.88
632.75	24554.47
633.104	24580.46
633.459	24360.35
633.813	24317.64
634.167	24470.63
634.521	24444.19
634.875	24468.14
635.229	24292.33
635.583	24219.79
635.937	24220.46
636.291	24265.89
636.645	24215.49
636.999	24237.87
637.352	24185.44
637.706	24006.01
638.06	24210.97
638.413	24052.11
638.767	24104.99
639.121	24176.17
639.474	23912.22
639.828	23989.96
640.181	23956.52
640.534	23978.21
640.888	23924.88
641.241	23845.11
641.594	23928.5
641.947	23958.32
642.301	23855.95
642.654	24004.43
643.007	23907.48
643.36	23841.04
643.713	23867.48
644.066	24058.89
644.419	23809.4
644.771	23765.56
645.124	23432.24
645.477	23387.72
645.83	23250.32
646.182	23156.09
646.535	23069.76
646.888	23098.23
647.24	23084.9
647.593	23183.43
647.945	23116.31
648.298	23038.58
648.65	23037.22
649.002	22870.22
649.355	23086.03
649.707	23019.14
650.059	23122.64
650.411	23397.44
650.763	23374.61
651.115	23681.27
651.467	23564.21
651.819	23562.86
652.171	23453.93
652.523	23534.16
652.875	23421.62
653.227	23397.89
653.578	23592.68
653.93	23498.68
654.282	23334.39
654.633	23413.93
654.985	23398.57
655.337	23462.74
655.688	23416.87
656.039	23548.62
656.391	23323.09
656.742	23345.69
657.094	23334.16
657.445	23399.7
657.796	23322.18
658.147	23237.44
658.498	23366.02
658.849	23335.52
659.2	23436.76
659.551	23403.54
659.902	23361.73
660.253	23255.29
660.604	23314.5
660.955	23300.72
661.306	23426.14
661.656	23367.38
662.007	23331.22
662.358	23338.45
662.708	23419.36
663.059	23368.06
663.409	23144.11
663.76	23405.12
664.11	23267.72
664.461	23409.86
664.811	23367.83
665.161	23307.27
665.511	23316.53
665.862	23363.09
666.212	23508.39
666.562	23435.63
666.912	23305.23
667.262	23396.08
667.612	23351.34
667.962	23356.08
668.312	23312.01
668.662	23470.2
669.011	23393.37
669.361	23234.28
669.711	23329.87
670.06	23368.96
670.41	23295.74
670.76	23226.37
671.109	23407.83
671.459	23291.9
671.808	23288.06
672.157	23313.37
672.507	23194.28
672.856	23162.64
673.205	23133.26
673.554	23225.01
673.904	23043.55
674.253	23264.78
674.602	23145.24
674.951	22882.42
675.3	22687.62
675.649	23087.61
675.998	23025.47
676.346	23098.69
676.695	23118.8
677.044	22985.24
677.393	22984.11
677.741	23000.16
678.09	23016.88
678.438	22872.7
678.787	22994.28
679.135	22946.6
679.484	22872.93
679.832	22801.75
680.181	22668.87
680.529	22825.93
680.877	22755.87
681.225	22662.99
681.573	22844.91
681.922	22734.85
682.27	22575.99
682.618	22477.46
682.966	22496.67
683.314	22515.88
683.661	22492.83
684.009	22431.81
684.357	22419.38
684.705	22302.32
685.053	22248.31
685.4	22302.1
685.748	22220.07
686.095	22257.35
686.443	22090.35
686.79	22072.5
687.138	22062.1
687.485	22076.34
687.832	22008.32
688.18	21986.85
688.527	21835.22
688.874	21839.51
689.221	21798.38
689.568	21602.91
689.915	21630.93
690.262	21694.88
690.609	21635.22
690.956	21541.67
691.303	21457.15
691.65	21293.31
691.997	21314.1
692.344	21275.23
692.69	21144.39
693.037	21252.18
693.383	20990.72
693.73	21081.11
694.077	20964.28
694.423	20927.67
694.769	20828.92
695.116	20752.53
695.462	20713.66
695.808	20648.81
696.155	20720.67
696.501	20550.73
696.847	20539.66
697.193	20346.67
697.539	20430.96
697.885	20266.67
698.231	20173.34
698.577	20227.58
698.923	20224.19
699.269	20120.91
699.614	19987.13
699.96	19949.16
700.306	19908.49
700.651	19869.39
700.997	19730.87
701.342	19776.74
701.688	19689.51
702.033	19682.05
702.379	19504.2
702.724	19590.3
703.069	19545.56
703.415	19293.81
703.76	19327.71
704.105	19348.5
704.45	19243.65
704.795	19120.71
705.14	19094.27
705.485	19049.53
705.83	19018.12
706.175	19007.04
706.52	18893.15
706.865	18847.95
707.209	18785.13
707.554	18647.05
707.899	18647.28
708.243	18607.73
708.588	18551.01
708.932	18482.54
709.277	18483.21
709.621	18520.28
709.966	18360.73
710.31	18375.42
710.654	18169.55
710.998	18294.52
711.342	18200.74
711.687	18090
712.031	18053.4
712.375	17985.6
712.719	18044.13
713.063	17963.68
713.407	18025.37
713.75	18011.81
714.094	17898.82
714.438	17774.31
714.782	17955.77
715.125	17800.97
715.469	17761.43
715.812	17687.08
716.156	17602.56
716.499	17744.02
716.843	17695.66
717.186	17561.2
717.53	17594.88
717.873	17620.64
718.216	17490.7
718.559	17499.06
718.902	17351.27
719.246	17465.84
719.589	17472.85
719.932	17362.79
720.275	17325.5
720.617	17305.17
720.96	17340.65
721.303	17268.11
721.646	17235.56
721.989	17161.89
722.331	17170.71
722.674	17209.35
723.016	17087.77
723.359	17108.56
723.701	17037.83
724.044	17057.94
724.386	16946.53
724.729	17084.61
725.071	16978.17
725.413	16913.09
725.755	16943.82
726.097	16896.82
726.439	16777.95
726.782	16818.63
727.124	16770.27
727.465	16718.97
727.807	16809.36
728.149	16735.92
728.491	16717.39
728.833	16796.48
729.175	16678.06
729.516	16659.31
729.858	16570.27
730.199	16767.55
730.541	16701.11
730.882	16725.29
731.224	16701.79
731.565	16575.92
731.906	16619.99
732.248	16493.44
732.589	16610.04
732.93	16403.27
733.271	16589.25
733.612	16492.31
733.953	16555.58
734.294	16485.98
734.635	16491.4
734.976	16420.67
735.317	16422.03
735.658	16455.25
735.999	16485.75
736.339	16428.35
736.68	16419.99
737.021	16411.18
737.361	16379.54
737.702	16444.4
738.042	16478.07
738.383	16377.96
738.723	16461.8
739.063	16440.33
739.404	16438.52
739.744	16354.91
740.084	16226.78
740.424	16346.1
740.764	16393.78
741.104	16478.07
741.444	16339.54
741.784	16330.28
742.124	16283.05
742.464	16426.09
742.804	16302.71
743.143	16402.37
743.483	16343.61
743.823	16315.59
744.162	16401.91
744.502	16530.72
744.841	16372.99
745.181	16464.28
745.52	16389.26
745.86	16462.25
746.199	16459.54
746.538	16475.81
746.877	16577.73
747.216	16523.72
747.556	16522.36
747.895	16534.57
748.234	16581.34
748.573	16612.53
748.911	16629.03
749.25	16578.41
749.589	16625.41
749.928	16723.03
750.267	16864.73
750.605	16806.42
750.944	16936.81
751.283	16890.26
751.621	16866.99
751.96	16945.63
752.298	16984.04
752.636	17063.59
752.975	17081.67
753.313	17137.04
753.651	17273.08
753.989	17279.86
754.327	17283.92
754.666	17338.39
755.004	17504.71
755.342	17542
755.679	17530.25
756.017	17601.2
756.355	17663.8
