Data from hue_80_FLMS001491_39.txt Node
Date: Mon Feb 06 15:22:55 GMT 2017
User: dcchb
Spectrometer: FLMS00149
Trigger mode: 0
Integration Time (sec): 2.000000E-2
Scans to average: 10
Electric dark correction enabled: true
Nonlinearity correction enabled: false
Boxcar width: 0
XAxis mode: Wavelengths
Number of Pixels in Spectrum: 2048
>>>>>Begin Spectral Data<<<<<
341.393	-20.2
341.776	-20.2
342.16	-20.2
342.543	-40.08
342.927	-60.42
343.31	-64.72
343.693	-85.28
344.077	-76.01
344.46	-65.17
344.843	-43.93
345.226	-46.19
345.61	-21.1
345.993	-23.36
346.376	-0.08
346.759	16.19
347.142	17.09
347.525	44.21
347.908	43.08
348.291	78.33
348.674	101.38
349.057	125.56
349.44	123.08
349.823	137.76
350.206	173.92
350.588	199.01
350.971	213.02
351.354	221.83
351.737	219.8
352.119	237.42
352.502	244.88
352.884	253.69
353.267	281.04
353.65	290.3
354.032	292.34
354.414	301.38
354.797	318.78
355.179	308.16
355.562	312.68
355.944	333.69
356.326	326.23
356.709	322.62
357.091	342.96
357.473	353.8
357.855	339.57
358.238	349.74
358.62	343.64
359.002	338.66
359.384	351.09
359.766	347.7
360.148	352.22
360.53	336.4
360.912	354.48
361.294	336.86
361.676	317.65
362.057	315.84
362.439	320.36
362.821	324.65
363.203	307.48
363.584	324.2
363.966	340.92
364.348	319.68
364.729	322.39
365.111	312.45
365.493	294.14
365.874	328.72
366.256	310.87
366.637	316.97
367.019	318.55
367.4	317.42
367.781	316.52
368.163	313.81
368.544	312.45
368.925	319
369.306	338.66
369.688	302.96
370.069	313.58
370.45	309.06
370.831	323.07
371.212	323.07
371.593	299.12
371.974	319
372.355	291.66
372.736	313.35
373.117	296.63
373.498	311.55
373.879	330.3
374.26	318.78
374.641	325.33
375.021	333.01
375.402	322.17
375.783	319.45
376.163	323.3
376.544	322.62
376.925	313.81
377.305	339.79
377.686	317.42
378.066	343.18
378.447	328.72
378.827	309.51
379.208	339.79
379.588	305.22
379.968	328.72
380.349	321.04
380.729	333.47
381.109	339.79
381.489	359.68
381.87	327.36
382.25	330.75
382.63	319.68
383.01	341.15
383.39	350.87
383.77	327.14
384.15	342.28
384.53	336.63
384.91	363.97
385.29	328.04
385.67	347.93
386.049	350.19
386.429	360.81
386.809	348.83
387.189	331.66
387.568	351.09
387.948	349.51
388.328	343.41
388.707	350.19
389.087	345.67
389.466	362.39
389.846	369.62
390.225	352
390.605	355.39
390.984	369.17
391.363	380.47
391.743	357.42
392.122	352.45
392.501	352.9
392.881	356.06
393.26	370.98
393.639	347.93
394.018	343.18
394.397	362.84
394.776	372.79
395.155	381.6
395.534	388.83
395.913	359.68
396.292	374.59
396.671	374.37
397.05	377.08
397.429	372.79
397.808	385.67
398.186	374.37
398.565	383.41
398.944	367.36
399.323	362.17
399.701	382.05
400.08	380.02
400.458	382.96
400.837	395.61
401.215	393.35
401.594	373.92
401.972	387.48
402.351	398.1
402.729	386.57
403.107	398.32
403.486	398.32
403.864	398.1
404.242	387.93
404.62	396.29
404.999	382.5
405.377	398.1
405.755	413.24
406.133	421.83
406.511	421.37
406.889	423.86
407.267	425.67
407.645	413.69
408.023	409.62
408.401	416.4
408.779	417.31
409.156	439.45
409.534	460.02
409.912	423.63
410.29	434.03
410.667	446.46
411.045	436.29
411.422	430.86
411.8	447.81
412.178	450.98
412.555	439
412.933	446.91
413.31	441.49
413.687	472.22
414.065	464.99
414.442	485.55
414.819	482.16
415.197	483.52
415.574	470.41
415.951	497.76
416.328	464.99
416.705	462.73
417.082	472.9
417.46	486
417.837	488.04
418.214	486.91
418.591	503.18
418.967	497.3
419.344	501.37
419.721	482.39
420.098	504.99
420.475	502.05
420.852	504.99
421.228	509.05
421.605	512.67
421.982	515.61
422.358	509.51
422.735	544.99
423.111	517.19
423.488	520.81
423.864	539.11
424.241	550.86
424.617	550.18
424.994	554.7
425.37	535.27
425.746	539.11
426.123	543.4
426.499	554.7
426.875	560.13
427.251	562.61
427.627	567.81
428.003	565.55
428.379	576.4
428.756	604.19
429.132	599.45
429.507	573.23
429.883	596.96
430.259	575.27
430.635	584.08
431.011	601.48
431.387	617.3
431.763	611.2
432.138	620.69
432.514	610.97
432.89	623.4
433.265	638.54
433.641	635.83
434.016	637.64
434.392	652.78
434.767	635.15
435.143	677.86
435.518	647.58
435.894	660.01
436.269	690.29
436.644	672.44
437.02	704.98
437.395	678.99
437.77	694.81
438.145	685.77
438.52	683.29
438.895	725.09
439.271	730.97
439.646	743.17
440.021	729.61
440.395	737.52
440.77	737.75
441.145	730.07
441.52	744.3
441.895	734.59
442.27	747.92
442.645	752.89
443.019	760.12
443.394	754.92
443.769	757.86
444.143	744.08
444.518	779.1
444.892	788.37
445.267	788.6
445.641	772.55
446.016	826.11
446.39	803.96
446.764	788.6
447.139	814.13
447.513	800.57
447.887	808.48
448.262	793.34
448.636	833.34
449.01	815.94
449.384	813.68
449.758	823.62
450.132	829.95
450.506	833.79
450.88	872.43
451.254	874.47
451.628	868.14
452.002	887.35
452.376	897.52
452.75	876.73
453.123	911.98
453.497	915.15
453.871	908.37
454.244	934.58
454.618	911.76
454.992	952.21
455.365	921.02
455.739	983.84
456.112	967.8
456.486	952.88
456.859	998.31
457.232	979.32
457.606	975.93
457.979	1016.84
458.352	1012.09
458.725	1056.61
459.099	1067.23
459.472	1045.76
459.845	1083.5
460.218	1099.32
460.591	1102.03
460.964	1061.36
461.337	1130.73
461.71	1107
462.083	1154.46
462.456	1147.68
462.829	1138.87
463.201	1171.64
463.574	1184.29
463.947	1203.95
464.32	1239.66
464.692	1242.82
465.065	1239.88
465.438	1263.61
465.81	1300.9
466.183	1318.07
466.555	1319.65
466.928	1311.07
467.3	1339.54
467.672	1366.21
468.045	1401.46
468.417	1402.59
468.789	1414.12
469.161	1436.49
469.534	1459.76
469.906	1500.21
470.278	1518.75
470.65	1561.91
471.022	1583.6
471.394	1619.53
471.766	1638.97
472.138	1662.47
472.51	1695.69
472.882	1733.2
473.253	1727.33
473.625	1774.56
473.997	1878.74
474.369	1858.62
474.74	1905.18
475.112	1966.87
475.484	2003.48
475.855	2040.77
476.227	2080.09
476.598	2121.89
476.97	2189.01
477.341	2215.45
477.713	2319.4
478.084	2321.66
478.455	2393.75
478.827	2441.21
479.198	2538.61
479.569	2551.94
479.94	2664.25
480.311	2723.01
480.682	2807.53
481.053	2933.17
481.424	2981.08
481.795	3062.89
482.166	3173.39
482.537	3164.58
482.908	3285.93
483.279	3388.07
483.65	3461.97
484.021	3581.97
484.391	3674.39
484.762	3745.58
485.133	3792.13
485.503	3940.15
485.874	4031.22
486.244	4107.83
486.615	4270.54
486.985	4350.99
487.356	4478.67
487.726	4633.24
488.097	4747.36
488.467	4821.26
488.837	4966.56
489.207	5041.82
489.578	5177.86
489.948	5308.93
490.318	5452.88
490.688	5552.54
491.058	5717.28
491.428	5813.77
491.798	5889.7
492.168	6117.49
492.538	6215.8
492.908	6346.42
493.278	6468.22
493.648	6594.32
494.017	6741.21
494.387	6898.72
494.757	7041.76
495.126	7153.63
495.496	7244.02
495.866	7375.99
496.235	7447.18
496.605	7665.48
496.974	7792.25
497.344	7860.95
497.713	7962.87
498.082	8057.1
498.452	8230.66
498.821	8343.88
499.19	8429.52
499.559	8540.71
499.928	8692.34
500.298	8786.58
500.667	8906.8
501.036	8996.74
501.405	9143.4
501.774	9160.35
502.143	9318.09
502.512	9448.25
502.88	9534.35
503.249	9597.4
503.618	9738.19
503.987	9827.91
504.356	9975.25
504.724	10024.06
505.093	10096.6
505.462	10161.91
505.83	10316.71
506.199	10432.41
506.567	10610.03
506.936	10554.89
507.304	10698.62
507.672	10807.09
508.041	10866.75
508.409	10998.72
508.777	11090.47
509.145	11238.94
509.514	11197.81
509.882	11264.48
510.25	11433.96
510.618	11486.17
510.986	11482.55
511.354	11598.48
511.722	11738.36
512.09	11874.86
512.458	11871.47
512.826	11922.31
513.193	12016.32
513.561	12060.84
513.929	12179.93
514.297	12339.25
514.664	12368.86
515.032	12468.97
515.4	12465.35
515.767	12588.28
516.135	12722.97
516.502	12580.15
516.869	12868.05
517.237	12887.71
517.604	12812.69
517.972	12960.7
518.339	13049.52
518.706	13027.14
519.073	13064.43
519.44	13132.9
519.808	13312.33
520.175	13281.15
520.542	13447.92
520.909	13493.57
521.276	13487.24
521.643	13609.73
522.009	13663.96
522.376	13746.45
522.743	13809.27
523.11	13853.11
523.477	14034.57
523.843	14011.75
524.21	14187.79
524.577	14181.46
524.943	14203.61
525.31	14312.31
525.676	14401.34
526.043	14369.03
526.409	14519.99
526.776	14476.82
527.142	14606.08
527.508	14642.24
527.874	14757.72
528.241	14804.5
528.607	14790.26
528.973	14869.35
529.339	14788
529.705	15013.53
530.071	14999.97
530.437	15049.92
530.803	15072.97
531.169	15161.55
531.535	15089.24
531.901	15091.27
532.267	15071.61
532.632	15196.13
532.998	15193.64
533.364	15320.19
533.73	15299.85
534.095	15241.77
534.461	15316.57
534.826	15429.34
535.192	15369.91
535.557	15519.51
535.923	15435.89
536.288	15492.16
536.653	15491.49
537.019	15481.77
537.384	15371.71
537.749	15485.84
538.114	15476.8
538.479	15474.76
538.845	15449.45
539.21	15426.4
539.575	15490.81
539.94	15597.7
540.305	15590.69
540.67	15467.53
541.034	15455.78
541.399	15565.38
541.764	15481.09
542.129	15564.7
542.494	15489.9
542.858	15360.42
543.223	15476.57
543.587	15443.8
543.952	15375.78
544.316	15491.03
544.681	15374.65
545.045	15481.99
545.41	15462.11
545.774	15494.65
546.138	15381.88
546.503	15449.68
546.867	15338.72
547.231	15436.8
547.595	15428.66
547.959	15508.89
548.324	15352.73
548.688	15397.02
549.052	15488.1
549.416	15467.31
549.779	15327.65
550.143	15423.01
550.507	15454.65
550.871	15463.69
551.235	15451.94
551.599	15504.37
551.962	15461.43
552.326	15497.13
552.689	15535.1
553.053	15368.32
553.417	15483.12
553.78	15588.66
554.143	15419.62
554.507	15464.37
554.87	15418.94
555.234	15603.57
555.597	15402
555.96	15579.62
556.323	15471.37
556.686	15540.07
557.05	15591.6
557.413	15518.15
557.776	15618.94
558.139	15579.39
558.502	15647.19
558.865	15552.27
559.228	15732.61
559.59	15697.81
559.953	15679.73
560.316	15874.07
560.679	15722.67
561.041	15831.14
561.404	15862.77
561.767	15886.5
562.129	15787.97
562.492	15994.07
562.854	15992.26
563.217	15921.53
563.579	15968.08
563.941	15953.39
564.304	16089.44
564.666	16073.16
565.028	16112.94
565.39	16158.13
565.753	16206.04
566.115	16172.82
566.477	16314.97
566.839	16312.25
567.201	16339.6
567.563	16308.41
567.925	16371.69
568.287	16411.01
568.648	16340.05
569.01	16411.46
569.372	16585.47
569.734	16475.87
570.095	16515.64
570.457	16606.94
570.819	16636.54
571.18	16653.94
571.542	16704.56
571.903	16728.29
572.265	16715.86
572.626	16729.42
572.987	16770.32
573.349	16826.37
573.71	16920.37
574.071	16869.08
574.432	16975.97
574.794	16970.09
575.155	16967.83
575.516	16948.62
575.877	17014.61
576.238	16894.61
576.599	17014.38
576.96	16970.09
577.32	16978.68
577.681	17008.73
578.042	17034.5
578.403	17002.86
578.763	17063.42
579.124	17061.84
579.485	17138.67
579.845	17203.3
580.206	17109.3
580.566	17104.78
580.927	17107.49
581.287	17187.26
581.648	17143.87
582.008	17172.35
582.368	17196.53
582.728	17182.06
583.089	17125.79
583.449	17067.04
583.809	17123.53
584.169	17168.5
584.529	17116.75
584.889	17265
585.249	16998.11
585.609	17115.85
585.969	17218.9
586.329	17087.38
586.688	17066.81
587.048	17151.55
587.408	17025
587.768	17086.92
588.127	17056.87
588.487	17062.74
588.846	17209.18
589.206	16978.45
589.565	17095.96
589.925	17080.6
590.284	17063.42
590.643	17114.95
591.003	17179.35
591.362	17267.26
591.721	17091.44
592.08	17100.03
592.44	17086.7
592.799	16978.23
593.158	17017.55
593.517	17043.76
593.876	17066.81
594.235	17028.62
594.593	17024.55
594.952	16973.25
595.311	16957.89
595.67	17117.21
596.029	17066.13
596.387	17054.38
596.746	17053.48
597.104	16958.57
597.463	17030.43
597.822	17136.64
598.18	16981.84
598.538	16955.18
598.897	17054.38
599.255	16986.81
599.613	17153.14
599.972	16985.68
600.33	17055.29
600.688	16977.55
601.046	17099.58
601.404	17116.98
601.762	17059.13
602.12	17115.4
602.478	17170.09
602.836	17112.91
603.194	17101.84
603.552	17131.89
603.91	17044.44
604.268	17113.14
604.625	17112.01
604.983	17114.72
605.341	17117.88
605.698	17186.13
606.056	17148.39
606.413	17175.06
606.771	17177.09
607.128	17182.97
607.485	17133.25
607.843	17172.12
608.2	17375.28
608.557	17265
608.914	17231.78
609.272	17280.36
609.629	17290.76
609.986	17384.99
610.343	17334.6
610.7	17399.46
611.057	17308.16
611.414	17363.98
611.771	17349.06
612.127	17485.33
612.484	17300.48
612.841	17445.33
613.198	17462.96
613.554	17448.27
613.911	17554.26
614.267	17502.28
614.624	17442.85
614.98	17413.69
615.337	17660.02
615.693	17558.55
616.05	17595.38
616.406	17728.26
616.762	17577.98
617.118	17614.14
617.475	17594.25
617.831	17651.2
618.187	17682.84
618.543	17730.97
618.899	17805.32
619.255	17820.69
619.611	17717.87
619.967	17796.28
620.323	17801.48
620.678	17801.26
621.034	17716.51
621.39	17809.39
621.746	17730.75
622.101	17983.4
622.457	17798.54
622.812	17804.42
623.168	17866.34
623.523	17873.12
623.879	17978.43
624.234	17715.38
624.589	17859.11
624.945	17931.65
625.3	17888.26
625.655	17851.42
626.01	17885.77
626.365	17898.2
626.72	17798.54
627.075	17858.65
627.43	17877.19
627.785	17794.02
628.14	17839.9
628.495	17855.26
628.85	17764.87
629.205	17762.61
629.559	17888.94
629.914	17705.21
630.269	17798.09
630.623	17737.53
630.978	17730.75
631.332	17723.52
631.687	17783.63
632.041	17817.98
632.396	17747.92
632.75	17687.13
633.104	17704.76
633.459	17580.24
633.813	17603.52
634.167	17629.96
634.521	17671.99
634.875	17591.54
635.229	17618.89
635.583	17493.47
635.937	17561.04
636.291	17452.11
636.645	17463.41
636.999	17452.34
637.352	17498.66
637.706	17451.89
638.06	17472.45
638.413	17458.67
638.767	17471.09
639.121	17421.6
639.474	17310.42
639.828	17372.34
640.181	17368.27
640.534	17316.52
640.888	17380.7
641.241	17254.38
641.594	17244.89
641.947	17243.76
642.301	17192.91
642.654	17286.69
643.007	17277.2
643.36	17281.04
643.713	17198.56
644.066	17308.61
644.419	17126.24
644.771	16971.67
645.124	16945.23
645.477	16932.8
645.83	16780.94
646.182	16655.3
646.535	16606.03
646.888	16696.43
647.24	16614.85
647.593	16662.98
647.945	16661.4
648.298	16526.94
648.65	16553.15
649.002	16513.15
649.355	16584.34
649.707	16546.6
650.059	16582.76
650.411	16806.25
650.763	16872.01
651.115	17048.28
651.467	16988.62
651.819	16969.41
652.171	16986.59
652.523	16936.19
652.875	16937.55
653.227	16864.33
653.578	17011.67
653.93	16901.62
654.282	16946.59
654.633	16927.61
654.985	16880.38
655.337	16861.62
655.688	16867.72
656.039	17004.21
656.391	16855.29
656.742	16867.04
657.094	16918.57
657.445	16911.11
657.796	16878.79
658.147	16884.22
658.498	16854.39
658.849	16945.23
659.2	16945.91
659.551	16963.54
659.902	16905.23
660.253	16953.37
660.604	16965.34
660.955	16916.53
661.306	16978.68
661.656	16957.66
662.007	17009.86
662.358	16947.94
662.708	16964.67
663.059	16915.85
663.409	16789.08
663.76	16959.7
664.11	16997.66
664.461	16935.52
664.811	17025.46
665.161	16977.1
665.511	17027.94
665.862	16900.04
666.212	17045.79
666.562	17010.32
666.912	16991.56
667.262	16920.15
667.612	16939.13
667.962	17043.53
668.312	16885.57
668.662	16970.09
669.011	16862.52
669.361	16850.32
669.711	16996.98
670.06	16892.8
670.41	16849.64
670.76	16833.14
671.109	16953.14
671.459	16889.19
671.808	16775.75
672.157	16873.37
672.507	16796.76
672.856	16835.63
673.205	16787.27
673.554	16730.32
673.904	16776.65
674.253	16773.94
674.602	16773.26
674.951	16595.86
675.3	16482.19
675.649	16675.86
675.998	16711.34
676.346	16711.79
676.695	16803.09
677.044	16598.57
677.393	16625.01
677.741	16662.3
678.09	16654.39
678.438	16588.41
678.787	16644.45
679.135	16609.2
679.484	16466.6
679.832	16526.03
680.181	16460.05
680.529	16450.1
680.877	16471.8
681.225	16453.49
681.573	16520.16
681.922	16370.56
682.27	16326.94
682.618	16378.92
682.966	16282.42
683.314	16328.53
683.661	16237.23
684.009	16150.23
684.357	16052.37
684.705	16167.17
685.053	16137.57
685.4	16098.93
685.748	16004.47
686.095	15995.65
686.443	16008.53
686.79	15887.63
687.138	15909.55
687.485	15973.96
687.832	15797.69
688.18	15905.94
688.527	15785.04
688.874	15849.44
689.221	15671.14
689.568	15671.59
689.915	15685.15
690.262	15626.17
690.609	15522.9
690.956	15504.14
691.303	15530.35
691.65	15465.27
691.997	15359.74
692.344	15348.44
692.69	15301.43
693.037	15222.34
693.383	15172.62
693.73	15232.28
694.077	15070.93
694.423	15174.66
694.769	15063.47
695.116	14896.7
695.462	14940.31
695.808	14881.56
696.155	14901.9
696.501	14832.97
696.847	14804.05
697.193	14586.42
697.539	14727.21
697.885	14596.59
698.231	14522.7
698.577	14626.88
698.923	14431.4
699.269	14374.23
699.614	14349.37
699.96	14364.74
700.306	14230.5
700.651	14291.29
700.997	14106.89
701.342	14118.19
701.688	14028.7
702.033	14016.27
702.379	13985.99
702.724	13977.4
703.069	13983.28
703.415	13801.13
703.76	13807.91
704.105	13824.64
704.45	13770.4
704.795	13672.55
705.14	13686.11
705.485	13671.65
705.83	13564.53
706.175	13508.49
706.52	13523.18
706.865	13462.16
707.209	13448.83
707.554	13398.43
707.899	13287.48
708.243	13370.86
708.588	13268.27
708.932	13207.25
709.277	13233.24
709.621	13190.08
709.966	13111.89
710.31	13077.09
710.654	12999.57
710.998	13002.74
711.342	13029.4
711.687	12989.18
712.031	12910.08
712.375	12922.06
712.719	12805.45
713.063	12899.46
713.407	12896.98
713.75	12789.41
714.094	12847.04
714.438	12747.15
714.782	12745.12
715.125	12663.31
715.469	12743.99
715.812	12571.79
716.156	12546.7
716.499	12570.88
716.843	12584.9
717.186	12542.18
717.53	12613.59
717.873	12520.26
718.216	12515.74
718.559	12455.18
718.902	12399.59
719.246	12476.65
719.589	12374.51
719.932	12333.6
720.275	12386.03
720.617	12302.87
720.96	12290.67
721.303	12302.42
721.646	12318.01
721.989	12256.77
722.331	12310.33
722.674	12248.63
723.016	12159.37
723.359	12221.51
723.701	12257.45
724.044	12109.65
724.386	12139.94
724.729	12174.28
725.071	12115.3
725.413	12096.55
725.755	12095.87
726.097	12004.57
726.439	12074.4
726.782	11941.75
727.124	12014.06
727.465	11997.57
727.807	11982.88
728.149	11968.41
728.491	11966.83
728.833	12035.08
729.175	11906.95
729.516	11984.46
729.858	11897.91
730.199	11954.86
730.541	11947.62
730.882	11935.42
731.224	11918.7
731.565	11894.97
731.906	11919.6
732.248	11906.27
732.589	11842.32
732.93	11947.85
733.271	11824.69
733.612	11868.3
733.953	11885.48
734.294	11799.6
734.635	11871.92
734.976	11919.83
735.317	11824.92
735.658	11815.42
735.999	11811.36
736.339	11786.72
736.68	11861.98
737.021	11832.6
737.361	11835.54
737.702	11922.54
738.042	11858.13
738.383	11875.99
738.723	11909.43
739.063	11774.07
739.404	11910.34
739.744	11822.43
740.084	11892.48
740.424	11885.7
740.764	11910.56
741.104	11845.48
741.444	11899.94
741.784	11850.9
742.124	11958.24
742.464	11913.05
742.804	11897.68
743.143	11942.43
743.483	11971.35
743.823	11869.89
744.162	12015.19
744.502	12042.76
744.841	12028.3
745.181	12011.58
745.52	12068.3
745.86	12048.86
746.199	12112.37
746.538	12145.36
746.877	12226.71
747.216	12271.68
747.556	12351
747.895	12274.85
748.234	12346.48
748.573	12398.91
748.911	12372.92
749.25	12515.52
749.589	12456.54
749.928	12549.87
750.267	12683.42
750.605	12699.92
750.944	12731.56
751.283	12825.34
751.621	12910.08
751.96	12896.07
752.298	12988.05
752.636	13140.59
752.975	13053.58
753.313	13173.35
753.651	13320.47
753.989	13280.02
754.327	13406.12
754.666	13455.83
755.004	13631.42
755.342	13737.86
755.679	13797.97
756.017	13872.32
756.355	14035.48
756.693	14100.11
757.031	14235.93
