Data from hue_28_FLMS001491_00024.txt Node
Date: Tue Feb 07 17:17:03 GMT 2017
User: dcchb
Spectrometer: FLMS00149
Trigger mode: 0
Integration Time (sec): 2.000000E-2
Scans to average: 10
Electric dark correction enabled: true
Nonlinearity correction enabled: false
Boxcar width: 0
XAxis mode: Wavelengths
Number of Pixels in Spectrum: 2048
>>>>>Begin Spectral Data<<<<<
341.393	-6.51
341.776	-6.51
342.16	-6.51
342.543	-73.18
342.927	-60.07
343.31	-81.31
343.693	-83.12
344.077	-71.59
344.46	-58.04
344.843	-54.87
345.226	-52.39
345.61	-35.66
345.993	-9.22
346.376	-8.09
346.759	38.01
347.142	27.61
347.525	53.83
347.908	48.85
348.291	87.72
348.674	85.24
349.057	113.03
349.44	122.53
349.823	157.1
350.206	174.5
350.588	198.23
350.971	186.7
351.354	202.3
351.737	251.34
352.119	248.85
352.502	256.31
352.884	278
353.267	296.53
353.65	293.37
354.032	298.79
354.414	329.3
354.797	315.74
355.179	322.07
355.562	346.25
355.944	334.72
356.326	350.99
356.709	333.37
357.091	338.56
357.473	335.17
357.855	341.05
358.238	349.19
358.62	344.21
359.002	339.47
359.384	353.03
359.766	344.89
360.148	332.24
360.53	339.02
360.912	348.06
361.294	322.97
361.676	351.67
362.057	337.43
362.439	327.94
362.821	310.99
363.203	327.27
363.584	324.55
363.966	345.8
364.348	332.01
364.729	311.22
365.111	312.8
365.493	313.71
365.874	328.85
366.256	329.75
366.637	333.14
367.019	313.03
367.4	321.39
367.781	304.22
368.163	296.53
368.544	305.35
368.925	329.3
369.306	325.23
369.688	319.13
370.069	302.18
370.45	307.38
370.831	310.77
371.212	333.82
371.593	314.16
371.974	311.9
372.355	291.79
372.736	315.97
373.117	313.71
373.498	298.11
373.879	306.93
374.26	320.71
374.641	323.2
375.021	313.93
375.402	325.23
375.783	327.27
376.163	333.82
376.544	354.84
376.925	350.32
377.305	320.94
377.686	317.77
378.066	330.88
378.447	344.21
378.827	341.28
379.208	328.17
379.588	339.69
379.968	355.51
380.349	331.79
380.729	336.53
381.109	347.38
381.489	347.38
381.87	349.64
382.25	352.8
382.63	353.03
383.01	340.37
383.39	332.24
383.77	364.55
384.15	340.6
384.53	347.83
384.91	333.14
385.29	339.69
385.67	336.3
386.049	347.38
386.429	365
386.809	376.53
387.189	355.06
387.568	368.17
387.948	368.17
388.328	362.52
388.707	356.42
389.087	356.42
389.466	396.64
389.846	364.33
390.225	395.29
390.605	374.95
390.984	393.25
391.363	371.11
391.743	367.94
392.122	376.98
392.501	372.46
392.881	378.79
393.26	387.83
393.639	379.02
394.018	397.32
394.397	394.16
394.776	381.28
395.155	369.98
395.534	370.88
395.913	392.12
396.292	393.25
396.671	396.42
397.05	405.23
397.429	382.63
397.808	408.17
398.186	403.65
398.565	407.04
398.944	405.68
399.323	413.36
399.701	399.58
400.08	413.59
400.458	434.16
400.837	403.87
401.215	426.47
401.594	437.77
401.972	428.96
402.351	417.88
402.729	412.01
403.107	407.04
403.486	426.7
403.864	420.37
404.242	426.92
404.62	445.23
404.999	409.52
405.377	430.54
405.755	434.38
406.133	448.17
406.511	437.54
406.889	445
407.267	439.8
407.645	470.99
408.023	456.98
408.401	467.83
408.779	435.06
409.156	453.36
409.534	456.98
409.912	475.74
410.29	467.37
410.667	476.64
411.045	458.56
411.422	473.25
411.8	467.83
412.178	484.1
412.555	484.32
412.933	490.65
413.31	492.91
413.687	487.49
414.065	487.94
414.442	503.08
414.819	499.46
415.197	503.98
415.574	515.74
415.951	508.28
416.328	508.96
416.705	533.14
417.082	523.42
417.46	515.06
417.837	534.04
418.214	527.71
418.591	539.92
418.967	535.17
419.344	545.34
419.721	529.52
420.098	547.82
420.475	536.07
420.852	555.51
421.228	548.28
421.605	562.29
421.982	542.18
422.358	557.99
422.735	575.85
423.111	551.44
423.488	589.86
423.864	557.09
424.241	583.98
424.617	560.25
424.994	598.9
425.37	593.47
425.746	593.93
426.123	591.89
426.499	616.52
426.875	635.73
427.251	608.39
427.627	618.11
428.003	634.38
428.379	657.88
428.756	641.38
429.132	640.93
429.507	659.23
429.883	626.69
430.259	640.93
430.635	645
431.011	667.82
431.387	691.55
431.763	673.02
432.138	698.78
432.514	672.79
432.89	702.4
433.265	704.2
433.641	716.63
434.016	720.48
434.392	717.76
434.767	736.97
435.143	742.62
435.518	742.17
435.894	713.24
436.269	710.31
436.644	743.07
437.02	748.5
437.395	764.77
437.77	782.62
438.145	776.07
438.52	781.26
438.895	777.42
439.271	772.68
439.646	812
440.021	799.8
440.395	804.09
440.77	819.46
441.145	810.19
441.52	849.06
441.895	806.57
442.27	825.11
442.645	824.65
443.019	868.04
443.394	855.39
443.769	846.35
444.143	829.4
444.518	866.01
444.892	877.53
445.267	880.7
445.641	882.73
446.016	866.01
446.39	892.45
446.764	894.03
447.139	898.55
447.513	884.09
447.887	901.94
448.262	912.11
448.636	909.4
449.01	924.76
449.384	915.5
449.758	938.32
450.132	951.43
450.506	949.85
450.88	945.33
451.254	954.37
451.628	963.86
452.002	978.77
452.376	968.15
452.75	990.75
453.123	975.16
453.497	990.75
453.871	1019
454.244	1021.48
454.618	1000.02
454.992	1032.56
455.365	1027.59
455.739	1068.04
456.112	1088.83
456.486	1074.14
456.859	1092.67
457.232	1127.24
457.606	1121.37
457.979	1125.21
458.352	1141.48
458.725	1167.7
459.099	1139.45
459.472	1176.51
459.845	1180.8
460.218	1195.27
460.591	1225.77
460.964	1245.66
461.337	1226.45
461.71	1247.69
462.083	1258.31
462.456	1301.25
462.829	1293.12
463.201	1286.56
463.574	1297.64
463.947	1308.03
464.32	1340.57
464.692	1358.42
465.065	1358.65
465.438	1380.57
465.81	1415.6
466.183	1430.74
466.555	1418.76
466.928	1458.08
467.3	1461.25
467.672	1487.91
468.045	1533.34
468.417	1525.88
468.789	1534.69
469.161	1570.62
469.534	1560.45
469.906	1593.67
470.278	1648.59
470.65	1618.98
471.022	1709.38
471.394	1699.43
471.766	1735.36
472.138	1759.32
472.51	1744.18
472.882	1828.24
473.253	1820.79
473.625	1834.12
473.997	1908.24
474.369	1908.24
474.74	1934.91
475.112	1962.25
475.484	2018.97
475.855	2066.2
476.227	2041.57
476.598	2110.04
476.97	2129.25
477.341	2192.08
477.713	2203.83
478.084	2237.72
478.455	2327.21
478.827	2359.75
479.198	2395.69
479.569	2425.29
479.94	2511.16
480.311	2550.48
480.682	2588.67
481.053	2669.35
481.424	2713.42
481.795	2754.55
482.166	2797.48
482.537	2823.92
482.908	2915.45
483.279	2925.62
483.65	2997.7
484.021	3086.97
484.391	3138.04
484.762	3130.36
485.133	3187.76
485.503	3246.28
485.874	3328.32
486.244	3379.16
486.615	3431.59
486.985	3508.88
487.356	3607.63
487.726	3616.9
488.097	3701.87
488.467	3741.86
488.837	3827.74
489.207	3846.04
489.578	3975.98
489.948	3969.88
490.318	4047.85
490.688	4059.14
491.058	4143.44
491.428	4184.79
491.798	4291
492.168	4339.82
492.538	4361.28
492.908	4441.51
493.278	4548.85
493.648	4573.93
494.017	4583.2
494.387	4660.71
494.757	4686.7
495.126	4749.3
495.496	4826.58
495.866	4804.66
496.235	4889.63
496.605	4942.06
496.974	5012.34
497.344	5011.66
497.713	5075.39
498.082	5101.38
498.452	5199
498.821	5164.88
499.19	5192.9
499.559	5267.93
499.928	5331.65
500.298	5363.97
500.667	5394.7
501.036	5426.11
501.405	5437.19
501.774	5507.24
502.143	5514.93
502.512	5596.73
502.88	5652.78
503.249	5694.36
503.618	5669.72
503.987	5725.32
504.356	5725.09
504.724	5788.36
505.093	5859.32
505.462	5811.64
505.83	5902.49
506.199	5909.72
506.567	5997.62
506.936	6008.7
507.304	6040.56
507.672	6109.26
508.041	6115.81
508.409	6216.38
508.777	6252.53
509.145	6221.57
509.514	6203.5
509.882	6307
510.25	6336.6
510.618	6318.29
510.986	6343.15
511.354	6408.24
511.722	6429.7
512.09	6527.78
512.458	6495.92
512.826	6560.77
513.193	6582.47
513.561	6603.71
513.929	6647.1
514.297	6694.56
514.664	6754.67
515.032	6675.35
515.4	6776.36
515.767	6812.29
516.135	6830.37
516.502	6854.78
516.869	6831.73
517.237	6966.41
517.604	6913.31
517.972	6999.63
518.339	7009.58
518.706	7048.67
519.073	7040.54
519.44	7116.24
519.808	7158.27
520.175	7109.91
520.542	7277.37
520.909	7273.75
521.276	7256.57
521.643	7365.72
522.009	7388.1
522.376	7344.26
522.743	7425.61
523.11	7457.47
523.477	7570.69
523.843	7593.97
524.21	7683.23
524.577	7633.29
524.943	7704.47
525.31	7752.38
525.676	7816.33
526.043	7810.46
526.409	7923.9
526.776	7979.49
527.142	7977.23
527.508	8061.98
527.874	8080.73
528.241	8089.77
528.607	8129.09
528.973	8240.28
529.339	8185.59
529.705	8287.73
530.071	8397.79
530.437	8362.99
530.803	8367.73
531.169	8526.37
531.535	8482.76
531.901	8466.71
532.267	8559.37
532.632	8601.85
532.998	8633.94
533.364	8639.14
533.73	8715.52
534.095	8775.4
534.461	8728.85
534.826	8842.07
535.192	8829.41
535.557	8968.85
535.923	8922.97
536.288	8991.22
536.653	9011.33
537.019	8998.9
537.384	9069.86
537.749	9092.01
538.114	9133.81
538.479	9113.93
538.845	9160.71
539.21	9217.88
539.575	9217.65
539.94	9269.18
540.305	9355.95
540.67	9392.34
541.034	9347.82
541.399	9445.22
541.764	9429.4
542.129	9463.52
542.494	9511.66
542.858	9538.55
543.223	9653.12
543.587	9660.13
543.952	9714.36
544.316	9733.35
544.681	9703.52
545.045	9739.67
545.41	9799.78
545.774	9866.45
546.138	9909.39
546.503	9959.1
546.867	9851.76
547.231	10039.78
547.595	9978.54
547.959	10097.18
548.324	10194.12
548.688	10057.63
549.052	10097.63
549.416	10104.18
549.779	10142.37
550.143	10185.31
550.507	10292.43
550.871	10339.21
551.235	10294.46
551.599	10438.19
551.962	10422.14
552.326	10468.47
552.689	10502.59
553.053	10491.74
553.417	10545.98
553.78	10673.21
554.143	10679.99
554.507	10693.55
554.87	10762.7
555.234	10788.01
555.597	10730.38
555.96	10728.12
556.323	10868.46
556.686	10871.39
557.05	10953.65
557.413	10954.1
557.776	10967.44
558.139	11067.1
558.502	11018.06
558.865	11077.72
559.228	11153.65
559.59	11173.53
559.953	11147.32
560.316	11284.04
560.679	11328.56
561.041	11366.3
561.404	11414.43
561.767	11464.15
562.129	11461.89
562.492	11476.8
562.854	11554.77
563.217	11532.17
563.579	11618.27
563.941	11639.51
564.304	11684.93
564.666	11824.59
565.028	11708.89
565.39	11773.74
565.753	11821.65
566.115	11882.44
566.477	11959.95
566.839	11890.13
567.201	11995.21
567.563	12119.27
567.925	12195.65
568.287	12141.19
568.648	12197.91
569.01	12235.65
569.372	12378.47
569.734	12252.15
570.095	12457.57
570.457	12375.54
570.819	12563.33
571.18	12483.33
571.542	12584.34
571.903	12674.96
572.265	12645.36
572.626	12759.48
572.987	12738.69
573.349	12870.21
573.71	12967.39
574.071	13012.36
574.432	13048.96
574.794	13121.51
575.155	13168.06
575.516	13317.21
575.877	13345
576.238	13376.19
576.599	13459.35
576.96	13631.32
577.32	13625.67
577.681	13791.54
578.042	13886.46
578.403	13954.48
578.763	13991.54
579.124	14229.5
579.485	14302.72
579.845	14519.66
580.206	14539.77
580.566	14615.25
580.927	14801.69
581.287	14970.5
581.648	15037.16
582.008	15219.98
582.368	15367.32
582.728	15542.46
583.089	15672.4
583.449	15808.89
583.809	15995.1
584.169	16253.17
584.529	16395.54
584.889	16678.02
585.249	16745.14
585.609	16987.39
585.969	17292.24
586.329	17437.32
586.688	17651.56
587.048	17931.1
587.408	18134.25
587.768	18310.97
588.127	18651.3
588.487	18842.94
588.846	19126.55
589.206	19288.8
589.565	19624.39
589.925	20006.3
590.284	20196.8
590.643	20454.87
591.003	20721.98
591.362	21101.63
591.721	21317.9
592.08	21641.73
592.44	21966.7
592.799	22237.88
593.158	22493.91
593.517	22767.35
593.876	23116.95
594.235	23412.31
594.593	23711.51
594.952	23943.82
595.311	24309.23
595.67	24555.55
596.029	25025.83
596.387	25371.35
596.746	25573.16
597.104	25678.92
597.463	26134.27
597.822	26497.88
598.18	26622.85
598.538	26940.8
598.897	27469.15
599.255	27430.06
599.613	28106.87
599.972	28284.27
600.33	28577.6
600.688	28858.94
601.046	29172.16
601.404	29559.49
601.762	29743.22
602.12	30195.18
602.478	30394.05
602.836	30745.45
603.194	30791.55
603.552	31068.6
603.91	31240.58
604.268	31645.09
604.625	31862.26
604.983	32159.87
605.341	32326.65
605.698	32642.12
606.056	33002.56
606.413	33238.04
606.771	33570.01
607.128	33781.53
607.485	33841.19
607.843	34143.78
608.2	34534.95
608.557	34952.12
608.914	34757.55
609.272	35310.75
609.629	35550.29
609.986	35836.39
610.343	35802.04
610.7	36228.24
611.057	36312.76
611.414	36392.31
611.771	36728.57
612.127	36870.03
612.484	37153.64
612.841	37546.4
613.198	37483.58
613.554	37687.64
613.911	38014.86
614.267	38154.52
614.624	38268.64
614.98	38583.89
615.337	38824.33
615.693	38965.35
616.05	39049.64
616.406	39217.77
616.762	39308.16
617.118	39476.97
617.475	39740.47
617.831	39890.74
618.187	40129.83
618.543	40285.76
618.899	40494.57
619.255	40611.18
619.611	40611.63
619.967	40788.8
620.323	40906.09
620.678	40954.45
621.034	40999.64
621.39	41039.42
621.746	41067.44
622.101	41789.68
622.457	41407.32
622.812	41474.88
623.168	41714.88
623.523	41833.07
623.879	42037.81
624.234	41778.83
624.589	42064.47
624.945	42134.53
625.3	42184.24
625.655	42265.82
626.01	42482.09
626.365	42405.71
626.72	42461.07
627.075	42499.04
627.43	42410.45
627.785	42631.46
628.14	42670.56
628.495	42872.59
628.85	42917.33
629.205	42738.13
629.559	42939.7
629.914	42883.66
630.269	42909.42
630.623	43023.54
630.978	42945.35
631.332	43196.42
631.687	43220.15
632.041	43131.11
632.396	43181.05
632.75	43019.7
633.104	43137.67
633.459	43187.61
633.813	43112.81
634.167	43278.68
634.521	43046.82
634.875	43237.78
635.229	43278.9
635.583	43099.7
635.937	43200.71
636.291	43206.59
636.645	43260.37
636.999	43137.44
637.352	43224.22
637.706	42927.28
638.06	43148.96
638.413	43089.53
638.767	43115.74
639.121	43107.38
639.474	42945.13
639.828	43094.73
640.181	43108.29
640.534	43173.6
640.888	43105.8
641.241	42823.78
641.594	43003.43
641.947	43081.17
642.301	43023.54
642.654	42975.18
643.007	43016.76
643.36	42951.91
643.713	42993.04
644.066	43013.37
644.419	42847.73
644.771	42757.56
645.124	42361.64
645.477	42194.87
645.83	42034.19
646.182	41837.81
646.535	41816.57
646.888	41893.86
647.24	41588.1
647.593	41913.52
647.945	41737.93
648.298	41589.01
648.65	41611.6
649.002	41447.54
649.355	41749
649.707	41612.51
650.059	41820.19
650.411	42250.68
650.763	42363.22
651.115	42595.08
651.467	42522.31
651.819	42472.6
652.171	42433.28
652.523	42466.95
652.875	42403.22
653.227	42176.56
653.578	42597.34
653.93	42441.64
654.282	42276.67
654.633	42196
654.985	42258.37
655.337	42224.47
655.688	42391.47
656.039	42418.59
656.391	42162.78
656.742	42222.21
657.094	42221.53
657.445	42429.89
657.796	42431.02
658.147	42249.1
658.498	42034.42
658.849	42275.54
659.2	42292.04
659.551	42157.35
659.902	42323.22
660.253	42182.89
660.604	42238.48
660.955	42070.57
661.306	42259.72
661.656	42258.14
662.007	42264.69
662.358	42087.75
662.708	42161.19
663.059	42048.65
663.409	41989.9
663.76	42315.77
664.11	42089.78
664.461	42153.51
664.811	42207.07
665.161	42052.04
665.511	42026.73
665.862	42102.21
666.212	42241.42
666.562	42211.14
666.912	41978.37
667.262	42084.13
667.612	42007.98
667.962	42172.49
668.312	42116.45
668.662	42196.22
669.011	42080.07
669.361	42140.86
669.711	41944.25
670.06	42050.01
670.41	41908.54
670.76	41991.48
671.109	42066.73
671.459	41995.1
671.808	41859.96
672.157	41978.37
672.507	41784.25
672.856	41767.53
673.205	41840.75
673.554	41835.55
673.904	41725.27
674.253	41886.62
674.602	41872.16
674.951	41262.01
675.3	41024.05
675.649	41703.8
675.998	41709.23
676.346	41526.18
676.695	41799.62
677.044	41389.91
677.393	41572.73
677.741	41537.03
678.09	41503.36
678.438	41461.55
678.787	41541.77
679.135	41534.32
679.484	41273.76
679.832	41417.26
680.181	41232.4
680.529	41310.59
680.877	41177.26
681.225	41252.74
681.573	41341.78
681.922	41079.19
682.27	40966.42
682.618	41143.59
682.966	41025.86
683.314	41024.05
683.661	40815.69
684.009	40697.05
684.357	40729.59
684.705	40633.1
685.053	40796.94
685.4	40587.22
685.748	40391.07
686.095	40469.26
686.443	40211.87
686.79	40193.34
687.138	40303.62
687.485	40267.01
687.832	40105.88
688.18	40084.41
688.527	39802.61
688.874	40016.39
689.221	39860.46
689.568	39693.24
689.915	39606.68
690.262	39556.06
690.609	39422.06
690.956	39356.3
691.303	39320.14
691.65	39153.36
691.997	39234.72
692.344	39005.34
692.69	38853.48
693.037	38921.73
693.383	38752.47
693.73	38867.95
694.077	38557.67
694.423	38629.08
694.769	38552.7
695.116	38553.38
695.462	38291.92
695.808	38300.73
696.155	38212.82
696.501	37940.06
696.847	38042.88
697.193	37657.13
697.539	37854.87
697.885	37647.87
698.231	37452.39
698.577	37504.82
698.923	37444.26
699.269	37282.23
699.614	37165.39
699.96	37025.96
700.306	37152.51
700.651	36970.37
700.997	36870.49
701.342	36750.94
701.688	36736.7
702.033	36628.01
702.379	36553.66
702.724	36494.45
703.069	36577.84
703.415	36200.67
703.76	36394.57
704.105	36154.12
704.45	36160.9
704.795	35887.01
705.14	35820.57
705.485	35729.05
705.83	35694.25
706.175	35730.18
706.52	35576.06
706.865	35399.79
707.209	35340.81
707.554	35313.01
707.899	35437.98
708.243	35153.02
708.588	35206.57
708.932	34861.5
709.277	34948.05
709.621	34906.24
709.966	34595.29
710.31	34749.64
710.654	34438.23
710.998	34455.86
711.342	34488.85
711.687	34293.38
712.031	34270.1
712.375	34176.09
712.719	34195.53
713.063	34168.18
713.407	34305.13
713.75	34036.89
714.094	34045.25
714.438	33887.06
714.782	33889.77
715.125	33739.04
715.469	33799.38
715.812	33693.62
716.156	33447.3
716.499	33619.05
716.843	33537.69
717.186	33369.11
717.53	33538.37
717.873	33327.75
718.216	33267.87
718.559	33236.23
718.902	32940.87
719.246	32929.35
719.589	32993.3
719.932	32758.28
720.275	32926.63
720.617	32779.29
720.96	32597.15
721.303	32660.2
721.646	32714.44
721.989	32448.23
722.331	32507.66
722.674	32542.92
723.016	32438.29
723.359	32459.08
723.701	32424.5
724.044	32240.78
724.386	31983.61
724.729	32310.38
725.071	32085.53
725.413	32181.8
725.755	32067.67
726.097	31885.76
726.439	31820.9
726.782	31819.09
727.124	31983.38
727.465	31796.49
727.807	31826.78
728.149	31653
728.491	31563.96
728.833	31669.72
729.175	31605.54
729.516	31490.29
729.858	31471.76
730.199	31590.62
730.541	31490.51
730.882	31385.88
731.224	31404.64
731.565	31222.5
731.906	31188.6
732.248	31325.77
732.589	31069.06
732.93	30923.07
733.271	31057.08
733.612	30971.66
733.953	31014.82
734.294	30802.62
734.635	30806.69
734.976	30927.36
735.317	30728.05
735.658	30680.59
735.999	30588.62
736.339	30651.89
736.68	30797.65
737.021	30533.25
737.361	30521.95
737.702	30699.57
738.042	30524.89
738.383	30441.95
738.723	30497.77
739.063	30400.82
739.404	30382.07
739.744	30275.4
740.084	30192.24
740.424	30204.45
740.764	30100.95
741.104	30310.21
741.444	30057.33
741.784	29918.58
742.124	30002.19
742.464	29962.19
742.804	29854.4
743.143	29834.51
743.483	29856.43
743.823	29710.45
744.162	29618.92
744.502	29702.31
744.841	29614.63
745.181	29673.61
745.52	29526.95
745.86	29622.99
746.199	29532.83
746.538	29490.34
746.877	29465.93
747.216	29518.59
747.556	29298.26
747.895	29404.69
748.234	29322.44
748.573	29246.05
748.911	29235.88
749.25	29158.15
749.589	29006.74
749.928	29073.63
750.267	29157.47
750.605	28998.83
750.944	29084.25
751.283	28871.15
751.621	28995.66
751.96	28755.22
752.298	28823.01
752.636	28879.06
752.975	28650.36
753.313	28590.48
753.651	28740.53
753.989	28458.73
754.327	28576.92
754.666	28288.11
755.004	28381.89
755.342	28420.09
755.679	28240.43
756.017	28155.23
756.355	28216.25
756.693	28135.8
757.031	28179.19
757.368	27890.61
757.706	27978.52
758.044	27884.96
758.381	27857.84
758.719	27825.3
759.056	27813.32
