Data from hue_280_FLMS001491_00041.txt Node
Date: Tue Feb 07 15:55:19 GMT 2017
User: dcchb
Spectrometer: FLMS00149
Trigger mode: 0
Integration Time (sec): 2.000000E-2
Scans to average: 10
Electric dark correction enabled: true
Nonlinearity correction enabled: false
Boxcar width: 0
XAxis mode: Wavelengths
Number of Pixels in Spectrum: 2048
>>>>>Begin Spectral Data<<<<<
341.393	6.05
341.776	6.05
342.16	6.05
342.543	-67.85
342.927	-78.02
343.31	-64.69
343.693	-61.75
344.077	-57.91
344.46	-64.91
344.843	-28.53
345.226	-45.48
345.61	-23.56
345.993	-2.99
346.376	-8.19
346.759	-10.68
347.142	31.58
347.525	39.26
347.908	46.04
348.291	68.87
348.674	88.08
349.057	94.86
349.44	111.13
349.823	128.08
350.206	164.68
350.588	196.32
350.971	186.83
351.354	191.35
351.737	225.25
352.119	249.2
352.502	247.85
352.884	249.2
353.267	274.06
353.65	274.96
354.032	301.63
354.414	292.59
354.797	301.63
355.179	298.92
355.562	309.77
355.944	296.43
356.326	319.71
356.709	335.53
357.091	328.52
357.473	330.78
357.855	328.75
358.238	347.73
358.62	321.52
359.002	315.64
359.384	326.26
359.766	335.3
360.148	320.84
360.53	328.52
360.912	321.74
361.294	320.39
361.676	323.1
362.057	328.07
362.439	303.66
362.821	302.76
363.203	327.62
363.584	304.57
363.966	320.39
364.348	292.14
364.729	314.51
365.111	302.76
365.493	314.06
365.874	312.48
366.256	314.06
366.637	315.19
367.019	295.75
367.4	300.95
367.781	298.01
368.163	312.48
368.544	315.64
368.925	304.12
369.306	313.61
369.688	291.91
370.069	300.05
370.45	300.5
370.831	310.44
371.212	307.73
371.593	315.87
371.974	316.32
372.355	300.05
372.736	302.99
373.117	308.18
373.498	304.57
373.879	292.59
374.26	311.57
374.641	295.53
375.021	307.96
375.402	315.87
375.783	311.8
376.163	314.96
376.544	322.19
376.925	319.26
377.305	302.08
377.686	326.04
378.066	321.07
378.447	330.78
378.827	342.08
379.208	326.26
379.588	314.51
379.968	302.31
380.349	324
380.729	336.21
381.109	312.93
381.489	314.51
381.87	347.96
382.25	345.25
382.63	347.73
383.01	344.34
383.39	324.91
383.77	334.62
384.15	337.11
384.53	336.88
384.91	357
385.29	341.4
385.67	336.43
386.049	349.99
386.429	345.7
386.809	355.87
387.189	349.99
387.568	342.76
387.948	337.56
388.328	343.44
388.707	352.93
389.087	341.63
389.466	354.96
389.846	331.69
390.225	369.2
390.605	358.58
390.984	337.79
391.363	373.27
391.743	351.12
392.122	374.62
392.501	360.16
392.881	359.48
393.26	361.74
393.639	374.4
394.018	368.3
394.397	380.72
394.776	372.59
395.155	371.01
395.534	378.69
395.913	386.6
396.292	378.01
396.671	382.08
397.05	372.59
397.429	367.39
397.808	367.17
398.186	371.01
398.565	389.54
398.944	400.84
399.323	404.23
399.701	371.46
400.08	414.62
400.458	387.5
400.837	401.74
401.215	406.94
401.594	404.23
401.972	399.26
402.351	401.51
402.729	403.1
403.107	401.74
403.486	414.4
403.864	397.45
404.242	420.72
404.62	419.14
404.999	444
405.377	417.56
405.755	439.03
406.133	413.04
406.511	440.84
406.889	431.57
407.267	455.3
407.645	456.65
408.023	446.49
408.401	463.89
408.779	455.52
409.156	483.09
409.534	489.87
409.912	465.47
410.29	491
410.667	502.98
411.045	505.01
411.422	503.21
411.8	509.99
412.178	531.23
412.555	543.66
412.933	526.71
413.31	532.36
413.687	546.82
414.065	536.43
414.442	547.95
414.819	548.4
415.197	579.14
415.574	573.26
415.951	575.3
416.328	575.75
416.705	582.98
417.082	603.09
417.46	581.17
417.837	622.07
418.214	624.56
418.591	613.94
418.967	625.92
419.344	632.47
419.721	629.98
420.098	672.69
420.475	652.13
420.852	684.9
421.228	656.65
421.605	687.61
421.982	708.63
422.358	716.08
422.735	703.43
423.111	698.46
423.488	729.64
423.864	734.84
424.241	732.81
424.617	739.13
424.994	757.66
425.37	765.35
425.746	773.26
426.123	791.56
426.499	786.14
426.875	795.18
427.251	811.45
427.627	848.96
428.003	795.18
428.379	825.46
428.756	853.48
429.132	885.57
429.507	872.01
429.883	869.75
430.259	890.09
430.635	896.42
431.011	902.97
431.387	917.21
431.763	937.77
432.138	961.5
432.514	945
432.89	970.31
433.265	969.64
433.641	1011.44
434.016	1003.53
434.392	1013.25
434.767	1041.72
435.143	1025.23
435.518	1052.12
435.894	1061.16
436.269	1076.98
436.644	1101.84
437.02	1107.26
437.395	1103.19
437.77	1142.96
438.145	1160.59
438.52	1161.49
438.895	1146.58
439.271	1173.02
439.646	1226.13
440.021	1229.52
440.395	1223.64
440.77	1227.26
441.145	1259.12
441.52	1252.34
441.895	1264.99
442.27	1256.18
442.645	1230.87
443.019	1297.08
443.394	1314.26
443.769	1314.71
444.143	1280.81
444.518	1337.99
444.892	1320.13
445.267	1352.68
445.641	1337.76
446.016	1350.42
446.39	1366.24
446.764	1373.01
447.139	1344.54
447.513	1366.46
447.887	1354.94
448.262	1357.42
448.636	1393.35
449.01	1416.18
449.384	1440.58
449.758	1394.03
450.132	1424.31
450.506	1406.23
450.88	1448.27
451.254	1431.77
451.628	1424.31
452.002	1464.54
452.376	1483.75
452.75	1513.35
453.123	1484.65
453.497	1521.71
453.871	1534.59
454.244	1577.76
454.618	1560.13
454.992	1568.72
455.365	1575.04
455.739	1605.55
456.112	1653.23
456.486	1587.92
456.859	1629.96
457.232	1648.04
457.606	1651.43
457.979	1682.39
458.352	1707.47
458.725	1710.63
459.099	1718.32
459.472	1716.73
459.845	1758.09
460.218	1758.54
460.591	1780.24
460.964	1764.42
461.337	1797.18
461.71	1837.18
462.083	1834.47
462.456	1814.59
462.829	1846.22
463.201	1861.36
463.574	1875.6
463.947	1921.93
464.32	1948.37
464.692	1955.37
465.065	1953.34
465.438	1979.78
465.81	1991.98
466.183	2025.2
466.555	2028.14
466.928	2056.84
467.3	2029.04
467.672	2081.02
468.045	2099.32
468.417	2085.76
468.789	2154.69
469.161	2157.17
469.534	2199.43
469.906	2198.76
470.278	2217.74
470.65	2221.58
471.022	2272.43
471.394	2315.59
471.766	2304.52
472.138	2349.49
472.51	2367.11
472.882	2412.31
473.253	2434.46
473.625	2445.3
473.997	2472.65
474.369	2500.22
474.74	2539.99
475.112	2561.01
475.484	2536.6
475.855	2615.02
476.227	2648.46
476.598	2668.57
476.97	2677.39
477.341	2728.46
477.713	2766.65
478.084	2788.34
478.455	2811.17
478.827	2829.25
479.198	2912.41
479.569	2937.95
479.94	2992.18
480.311	3025.63
480.682	3029.02
481.053	3116.47
481.424	3151.05
481.795	3129.8
482.166	3200.09
482.537	3209.58
482.908	3259.29
483.279	3262.46
483.65	3340.65
484.021	3386.97
484.391	3421.1
484.762	3413.64
485.133	3445.73
485.503	3448.89
485.874	3542
486.244	3549.45
486.615	3607.53
486.985	3647.53
487.356	3673.29
487.726	3726.17
488.097	3766.85
488.467	3750.13
488.837	3848.66
489.207	3856.57
489.578	3895.21
489.948	3924.36
490.318	3971.82
490.688	4000.52
491.058	3990.12
491.428	4062.21
491.798	4090.23
492.168	4180.85
492.538	4156.67
492.908	4199.38
493.278	4229.89
493.648	4241.87
494.017	4304.46
494.387	4338.13
494.757	4333.84
495.126	4341.75
495.496	4375.42
495.866	4411.35
496.235	4446.83
496.605	4467.17
496.974	4474.85
497.344	4503.55
497.713	4541.29
498.082	4541.97
498.452	4593.72
498.821	4596.88
499.19	4593.04
499.559	4647.05
499.928	4687.5
500.298	4644.79
500.667	4685.02
501.036	4710.55
501.405	4745.36
501.774	4748.07
502.143	4749.88
502.512	4748.52
502.88	4785.58
503.249	4800.5
503.618	4842.53
503.987	4842.53
504.356	4833.04
504.724	4845.47
505.093	4892.7
505.462	4911.68
505.83	4915.52
506.199	4967.27
506.567	4982.19
506.936	4989.19
507.304	5036.2
507.672	5018.57
508.041	5073.03
508.409	5015.18
508.777	5085.46
509.145	5157.32
509.514	5084.78
509.882	5148.51
510.25	5101.73
510.618	5190.32
510.986	5160.49
511.354	5238.22
511.722	5213.37
512.09	5298.34
512.458	5203.87
512.826	5272.8
513.193	5277.54
513.561	5272.12
513.929	5334.04
514.297	5329.07
514.664	5390.99
515.032	5346.7
515.4	5387.15
515.767	5395.28
516.135	5430.08
516.502	5391.21
516.869	5445.22
517.237	5448.61
517.604	5447.48
517.972	5434.15
518.339	5485.9
518.706	5486.58
519.073	5490.65
519.44	5566.8
519.808	5562.74
520.175	5575.39
520.542	5601.6
520.909	5587.37
521.276	5589.4
521.643	5603.41
522.009	5647.03
522.376	5644.09
522.743	5708.72
523.11	5698.78
523.477	5772.67
523.843	5758.66
524.21	5769.06
524.577	5836.17
524.943	5804.31
525.31	5833.91
525.676	5870.75
526.043	5877.98
526.409	5879.79
526.776	5956.62
527.142	5916.62
527.508	5987.58
527.874	6011.31
528.241	6018.54
528.607	6044.98
528.973	6097.18
529.339	6082.04
529.705	6068.03
530.071	6168.37
530.437	6098.31
530.803	6208.14
531.169	6180.8
531.535	6174.47
531.901	6227.8
532.267	6282.94
532.632	6243.17
532.998	6279.55
533.364	6263.51
533.73	6297.41
534.095	6371.3
534.461	6354.8
534.826	6337.4
535.192	6390.51
535.557	6425.31
535.923	6368.14
536.288	6432.99
536.653	6469.83
537.019	6325.2
537.384	6424.86
537.749	6448.14
538.114	6508.47
538.479	6474.8
538.845	6521.81
539.21	6454.69
539.575	6504.41
539.94	6535.14
540.305	6614.46
540.67	6523.16
541.034	6557.29
541.399	6574.23
541.764	6665.98
542.129	6622.14
542.494	6569.71
542.858	6621.92
543.223	6625.53
543.587	6653.78
543.952	6634.35
544.316	6682.71
544.681	6696.49
545.045	6713.89
545.41	6752.76
545.774	6759.54
546.138	6742.59
546.503	6752.53
546.867	6717.96
547.231	6815.58
547.595	6781.01
547.959	6827.11
548.324	6820.33
548.688	6811.29
549.052	6823.27
549.416	6838.63
549.779	6851.29
550.143	6869.14
550.507	6887.45
550.871	6924.73
551.235	6903.94
551.599	6970.61
551.962	6973.55
552.326	6963.6
552.689	6999.76
553.053	6987.33
553.417	6976.48
553.78	7060.77
554.143	7025.97
554.507	6984.84
554.87	7051.06
555.234	7114.56
555.597	7055.58
555.96	7086.54
556.323	7104.16
556.686	7090.83
557.05	7152.98
557.413	7147.55
557.776	7140.77
558.139	7175.12
558.502	7179.42
558.865	7191.84
559.228	7224.16
559.59	7218.74
559.953	7284.27
560.316	7359.3
560.679	7315.23
561.041	7373.08
561.404	7329.24
561.767	7404.49
562.129	7427.77
562.492	7475.23
562.854	7395.23
563.217	7429.35
563.579	7467.09
563.941	7543.02
564.304	7514.32
564.666	7556.81
565.028	7518.84
565.39	7619.18
565.753	7667.31
566.115	7649.91
566.477	7643.36
566.839	7715.9
567.201	7729.23
567.563	7704.6
567.925	7779.85
568.287	7786.41
568.648	7834.99
569.01	7839.51
569.372	7905.95
569.734	7911.83
570.095	7885.84
570.457	7994.76
570.819	7918.15
571.18	8046.06
571.542	8031.37
571.903	8072.05
572.265	8099.17
572.626	8089
572.987	8158.15
573.349	8162.89
573.71	8183.91
574.071	8219.39
574.432	8271.59
574.794	8288.77
575.155	8324.47
575.516	8314.08
575.877	8413.96
576.238	8423
576.599	8411.7
576.96	8506.39
577.32	8468.65
577.681	8523.11
578.042	8583.9
578.403	8587.51
578.763	8660.05
579.124	8631.35
579.485	8739.6
579.845	8720.84
580.206	8838.36
580.566	8832.03
580.927	8846.49
581.287	8886.49
581.648	8970.1
582.008	8976.2
582.368	9072.93
582.728	9104.79
583.089	9135.3
583.449	9157.67
583.809	9264.33
584.169	9302.75
584.529	9306.82
584.889	9418.68
585.249	9412.13
585.609	9423.2
585.969	9506.81
586.329	9585.68
586.688	9607.37
587.048	9597.88
587.408	9712.91
587.768	9723.3
588.127	9838.78
588.487	9837.65
588.846	9993.35
589.206	10041.49
589.565	10052.33
589.925	10115.38
590.284	10193.35
590.643	10246.91
591.003	10330.07
591.362	10398.54
591.721	10417.75
592.08	10541.81
592.44	10529.38
592.799	10607.8
593.158	10627.01
593.517	10691.87
593.876	10785.65
594.235	10832.65
594.593	10930.05
594.952	10948.13
595.311	11014.57
595.67	11076.49
596.029	11215.92
596.387	11242.59
596.746	11315.58
597.104	11320.55
597.463	11333.43
597.822	11405.75
598.18	11429.25
598.538	11459.76
598.897	11541.79
599.255	11507.44
599.613	11788.11
599.972	11681.22
600.33	11739.07
600.688	11753.53
601.046	11827.2
601.404	11987.2
601.762	11924.83
602.12	11969.35
602.478	12038.95
602.836	12043.69
603.194	12052.73
603.552	12110.36
603.91	12112.85
604.268	12161.66
604.625	12180.41
604.983	12333.86
605.341	12247.31
605.698	12311.71
606.056	12356.45
606.413	12386.74
606.771	12503.12
607.128	12518.03
607.485	12487.07
607.843	12493.4
608.2	12532.27
608.557	12631.25
608.914	12711.02
609.272	12736.33
609.629	12745.82
609.986	12854.52
610.343	12750.57
610.7	12752.15
611.057	12883.9
611.414	12871.47
611.771	12926.61
612.127	12983.56
612.484	12978.59
612.841	13031.47
613.198	13066.04
613.554	12957.57
613.911	13146.72
614.267	13104.46
614.624	13050.22
614.98	13160.5
615.337	13187.85
615.693	13218.35
616.05	13202.53
616.406	13346.03
616.762	13241.86
617.118	13258.58
617.475	13291.12
617.831	13313.27
618.187	13419.03
618.543	13388.52
618.899	13431
619.255	13413.15
619.611	13392.13
619.967	13494.96
620.323	13554.84
620.678	13552.13
621.034	13571.79
621.39	13465.58
621.746	13463.09
622.101	13567.04
622.457	13502.87
622.812	13551.45
623.168	13560.49
623.523	13553.03
623.879	13661.51
624.234	13525.46
624.589	13702.63
624.945	13571.11
625.3	13581.28
625.655	13585.57
626.01	13686.36
626.365	13640.49
626.72	13615.18
627.075	13665.12
627.43	13630.32
627.785	13631.45
628.14	13635.52
628.495	13686.82
628.85	13700.37
629.205	13556.42
629.559	13670.09
629.914	13540.6
630.269	13681.17
630.623	13486.82
630.978	13527.95
631.332	13617.21
631.687	13583.99
632.041	13566.37
632.396	13534.5
632.75	13593.26
633.104	13601.62
633.459	13493.83
633.813	13539.47
634.167	13613.6
634.521	13460.61
634.875	13550.77
635.229	13512.58
635.583	13432.36
635.937	13483.66
636.291	13426.48
636.645	13430.78
636.999	13471.68
637.352	13470.32
637.706	13295.19
638.06	13405.24
638.413	13393.72
638.767	13323.89
639.121	13404.11
639.474	13365.02
639.828	13343.77
640.181	13373.6
640.534	13369.76
640.888	13270.56
641.241	13252.93
641.594	13273.27
641.947	13331.34
642.301	13273.94
642.654	13305.36
643.007	13339.93
643.36	13177.22
643.713	13319.59
644.066	13298.35
644.419	13182.2
644.771	13145.13
645.124	13024.23
645.477	13073.5
645.83	12868.31
646.182	12872.6
646.535	12860.4
646.888	12936.78
647.24	12853.16
647.593	12912.15
647.945	12817.91
648.298	12837.35
648.65	12788.31
649.002	12764.81
649.355	12866.27
649.707	12866.72
650.059	12887.97
650.411	13078.02
650.763	13101.52
651.115	13237.56
651.467	13145.59
651.819	13207.73
652.171	13134.51
652.523	13067.62
652.875	13147.39
653.227	13127.06
653.578	13203.89
653.93	13155.98
654.282	13077.34
654.633	13092.71
654.985	13120.95
655.337	13093.16
655.688	13092.93
656.039	13218.13
656.391	13127.28
656.742	13189.43
657.094	13141.74
657.445	13159.6
657.796	13140.61
658.147	13201.63
658.498	13135.64
658.849	13250.44
659.2	13093.16
659.551	13129.99
659.902	13200.5
660.253	13165.93
660.604	13189.43
660.955	13108.07
661.306	13230.1
661.656	13198.69
662.007	13318.92
662.358	13148.07
662.708	13213.83
663.059	13181.52
663.409	13100.84
663.76	13330.21
664.11	13291.57
664.461	13197.56
664.811	13320.72
665.161	13231.46
665.511	13216.77
665.862	13223.78
666.212	13325.69
666.562	13314.85
666.912	13267.39
667.262	13180.84
667.612	13157.34
667.962	13258.8
668.312	13254.51
668.662	13309.2
669.011	13229.88
669.361	13287.05
669.711	13232.82
670.06	13225.58
670.41	13242.76
670.76	13176.55
671.109	13224.23
671.459	13245.02
671.808	13201.18
672.157	13144
672.507	13111.46
672.856	13093.38
673.205	13175.87
673.554	13144.68
673.904	13165.93
674.253	13237.11
674.602	13102.2
674.951	12986.49
675.3	12939.04
675.649	13135.87
675.998	13133.16
676.346	13088.41
676.695	13097
677.044	13002.99
677.393	13022.43
677.741	13047.51
678.09	12967.74
678.438	12951.69
678.787	12931.13
679.135	12943.78
679.484	12839.61
679.832	12886.61
680.181	12843.22
680.529	12875.31
680.877	12814.75
681.225	12782.66
681.573	12930.9
681.922	12814.75
682.27	12796.44
682.618	12809.55
682.966	12747.4
683.314	12708.99
683.661	12698.14
684.009	12621.76
684.357	12661.31
684.705	12587.18
685.053	12616.11
685.4	12605.94
685.748	12595.77
686.095	12557.58
686.443	12492.95
686.79	12467.41
687.138	12527.07
687.485	12444.14
687.832	12337.02
688.18	12396.91
688.527	12254.08
688.874	12256.34
689.221	12258.6
689.568	12217.02
689.915	12199.62
690.262	12152.17
690.609	12168.66
690.956	12106.97
691.303	12104.71
691.65	11991.49
691.997	11983.58
692.344	11981.78
692.69	11904.49
693.037	11910.82
693.383	11799.41
693.73	11833.53
694.077	11737.04
694.423	11709.92
694.769	11674.89
695.116	11611.39
695.462	11611.62
695.808	11517.83
696.155	11616.14
696.501	11518.96
696.847	11458.17
697.193	11362.36
697.539	11421.79
697.885	11341.79
698.231	11284.17
698.577	11255.24
698.923	11233.09
699.269	11191.97
699.614	11030.61
699.96	11097.5
700.306	10966.21
700.651	11028.35
700.997	10967.11
701.342	10881.92
701.688	10929.6
702.033	10877.4
702.379	10844.86
702.724	10791.98
703.069	10850.51
703.415	10661.58
703.76	10634.92
704.105	10733.22
704.45	10617.52
704.795	10591.98
705.14	10562.38
705.485	10524.19
705.83	10490.52
706.175	10467.24
706.52	10466.79
706.865	10409.16
707.209	10331.42
707.554	10336.85
707.899	10338.88
708.243	10329.16
708.588	10263.4
708.932	10193.35
709.277	10192.44
709.621	10188.38
709.966	10075.61
710.31	10110.64
710.654	10004.88
710.998	10033.35
711.342	10060.92
711.687	10050.53
712.031	10033.8
712.375	9974.82
712.719	9998.32
713.063	9944.31
713.407	9944.31
713.75	9951.55
714.094	9908.84
714.438	9832.45
714.782	9810.53
715.125	9787.03
715.469	9839.91
715.812	9724.43
716.156	9678.56
716.499	9717.2
716.843	9693.02
717.186	9630.42
717.53	9671.33
717.873	9706.35
718.216	9668.39
718.559	9628.39
718.902	9576.64
719.246	9551.78
719.589	9513.37
719.932	9566.92
720.275	9532.12
720.617	9544.55
720.96	9472.46
721.303	9409.64
721.646	9478.79
721.989	9443.09
722.331	9485.34
722.674	9509.52
723.016	9450.32
723.359	9532.12
723.701	9441.5
724.044	9354.95
724.386	9348.62
724.729	9439.92
725.071	9366.25
725.413	9398.79
725.755	9389.98
726.097	9359.7
726.439	9316.31
726.782	9318.57
727.124	9435.85
727.465	9298.46
727.807	9319.25
728.149	9303.2
728.491	9249.42
728.833	9342.07
729.175	9293.03
729.516	9347.04
729.858	9227.95
730.199	9265.24
730.541	9250.32
730.882	9220.27
731.224	9306.14
731.565	9202.41
731.906	9232.7
732.248	9271.79
732.589	9173.04
732.93	9187.5
733.271	9298.91
733.612	9321.96
733.953	9326.48
734.294	9264.78
734.635	9248.29
734.976	9323.77
735.317	9317.44
735.658	9238.8
735.999	9255.97
736.339	9279.93
736.68	9345.91
737.021	9263.88
737.361	9260.04
737.702	9301.62
738.042	9222.75
738.383	9284.67
738.723	9296.65
739.063	9327.16
739.404	9324.67
739.744	9273.37
740.084	9340.71
740.424	9367.38
740.764	9328.96
741.104	9433.14
741.444	9332.81
741.784	9345.46
742.124	9460.49
742.464	9388.17
742.804	9533.03
743.143	9483.08
743.483	9498
743.823	9471.33
744.162	9501.61
744.502	9554.72
744.841	9536.87
745.181	9640.82
745.52	9694.6
745.86	9644.21
746.199	9733.47
746.538	9747.48
746.877	9857.99
747.216	9786.58
747.556	9875.39
747.895	9900.93
748.234	9993.81
748.573	9987.25
748.911	10088.04
749.25	10155.38
749.589	10150.41
749.928	10258.43
750.267	10297.53
750.605	10445.77
750.944	10405.55
751.283	10501.59
751.621	10607.12
751.96	10691.41
752.298	10859.32
752.636	10865.19
752.975	10924.18
753.313	11047.56
753.651	11128.24
753.989	11259.31
754.327	11256.6
754.666	11349.02
755.004	11521
755.342	11710.37
755.679	11733.65
756.017	11928.9
756.355	12067.87
756.693	12180.19
757.031	12277.13
757.368	12405.04
757.706	12494.76
758.044	12616.79
758.381	12800.74
758.719	12917.8
759.056	13066.72
759.394	13221.97
759.731	13295.64
760.068	13431.45
760.405	13580.6
760.743	13699.7
761.08	13951.67
761.417	13955.06
761.754	14157.09
762.091	14301.26
