Data from hue_240_FLMS001491_00034.txt Node
Date: Tue Feb 07 16:35:23 GMT 2017
User: dcchb
Spectrometer: FLMS00149
Trigger mode: 0
Integration Time (sec): 2.000000E-2
Scans to average: 10
Electric dark correction enabled: true
Nonlinearity correction enabled: false
Boxcar width: 0
XAxis mode: Wavelengths
Number of Pixels in Spectrum: 2048
>>>>>Begin Spectral Data<<<<<
341.393	-15.17
341.776	-15.17
342.16	-15.17
342.543	-48.39
342.927	-67.82
343.31	-66.24
343.693	-74.83
344.077	-64.89
344.46	-65.34
344.843	-58.33
345.226	-35.28
345.61	-11.33
345.993	-21.5
346.376	-0.03
346.759	6.98
347.142	45.85
347.525	33.19
347.908	51.72
348.291	68.22
348.674	81.78
349.057	110.03
349.44	112.51
349.823	124.94
350.206	164.94
350.588	173.75
350.971	181.44
351.354	190.7
351.737	227.99
352.119	239.74
352.502	263.24
352.884	250.36
353.267	290.36
353.65	292.62
354.032	293.52
354.414	294.88
354.797	318.61
355.179	310.25
355.562	318.16
355.944	307.53
356.326	320.42
356.709	320.19
357.091	319.29
357.473	333.07
357.855	327.19
358.238	330.13
358.62	333.3
359.002	319.29
359.384	339.85
359.766	327.65
360.148	348.44
360.53	316.35
360.912	334.2
361.294	318.83
361.676	328.55
362.057	315.9
362.439	312.51
362.821	324.03
363.203	298.95
363.584	333.07
363.966	314.77
364.348	322.45
364.729	312.96
365.111	331.04
365.493	320.42
365.874	308.66
366.256	305.73
366.637	305.95
367.019	320.19
367.4	316.57
367.781	315.67
368.163	309.79
368.544	298.04
368.925	308.21
369.306	306.18
369.688	311.15
370.069	320.42
370.45	288.55
370.831	295.56
371.212	298.72
371.593	315.22
371.974	306.18
372.355	292.62
372.736	320.42
373.117	299.85
373.498	298.72
373.879	303.92
374.26	316.57
374.641	318.16
375.021	320.42
375.402	317.48
375.783	306.86
376.163	311.6
376.544	312.73
376.925	329
377.305	324.71
377.686	321.77
378.066	294.2
378.447	320.42
378.827	322.22
379.208	309.34
379.588	324.03
379.968	319.96
380.349	313.86
380.729	318.83
381.109	340.08
381.489	336.23
381.87	322
382.25	336.01
382.63	334.88
383.01	329.45
383.39	330.13
383.77	338.04
384.15	336.23
384.53	340.08
384.91	341.43
385.29	337.14
385.67	349.34
386.049	352.05
386.429	327.19
386.809	346.86
387.189	346.18
387.568	333.3
387.948	348.44
388.328	341.21
388.707	346.63
389.087	380.75
389.466	355.44
389.846	344.14
390.225	358.83
390.605	353.86
390.984	361.54
391.363	367.65
391.743	367.87
392.122	380.98
392.501	362
392.881	347.53
393.26	365.84
393.639	370.58
394.018	349.12
394.397	384.82
394.776	385.95
395.155	368.1
395.534	395.44
395.913	374.43
396.292	359.51
396.671	385.5
397.05	404.25
397.429	399.28
397.808	390.7
398.186	387.98
398.565	384.37
398.944	395.67
399.323	390.24
399.701	387.08
400.08	404.93
400.458	401.77
400.837	411.94
401.215	440.19
401.594	407.42
401.972	405.84
402.351	419.17
402.729	413.52
403.107	428.44
403.486	418.94
403.864	418.72
404.242	438.15
404.62	444.25
404.999	419.85
405.377	429.34
405.755	437.47
406.133	432.73
406.511	428.89
406.889	434.31
407.267	436.12
407.645	461.88
408.023	467.3
408.401	438.6
408.779	467.53
409.156	460.98
409.534	473.18
409.912	476.12
410.29	469.79
410.667	474.76
411.045	486.96
411.422	499.39
411.8	524.48
412.178	510.47
412.555	522.67
412.933	505.72
413.31	515.89
413.687	533.07
414.065	554.08
414.442	560.63
414.819	568.54
415.197	566.28
415.574	577.81
415.951	581.2
416.328	558.15
416.705	578.71
417.082	606.28
417.46	609.22
417.837	605.83
418.214	620.07
418.591	600.86
418.967	605.38
419.344	630.46
419.721	627.98
420.098	644.47
420.475	637.24
420.852	637.47
421.228	655.55
421.605	664.81
421.982	681.99
422.358	664.81
422.735	700.97
423.111	690.8
423.488	695.55
423.864	702.33
424.241	724.92
424.617	719.05
424.994	746.62
425.37	738.26
425.746	755.66
426.123	777.8
426.499	764.92
426.875	773.06
427.251	781.87
427.627	813.51
428.003	834.3
428.379	814.19
428.756	799.5
429.132	830.68
429.507	862.55
429.883	846.5
430.259	886.95
430.635	881.53
431.011	857.8
431.387	879.27
431.763	907.97
432.138	952.26
432.514	938.03
432.89	929.21
433.265	957.23
433.641	954.75
434.016	983
434.392	998.82
434.767	996.1
435.143	1032.94
435.518	1047.18
435.894	1044.24
436.269	1069.1
436.644	1071.81
437.02	1106.38
437.395	1087.85
437.77	1116.33
438.145	1132.15
438.52	1167.62
438.895	1172.37
439.271	1154.29
439.646	1209.88
440.021	1214.63
440.395	1230.22
440.77	1237.45
441.145	1227.06
441.52	1278.58
441.895	1252.82
442.27	1279.49
442.645	1264.12
443.019	1285.14
443.394	1284.23
443.769	1314.29
444.143	1312.71
444.518	1342.76
444.892	1318.13
445.267	1357.9
445.641	1380.95
446.016	1379.14
446.39	1384.79
446.764	1401.29
447.139	1392.03
447.513	1416.88
447.887	1412.59
448.262	1448.3
448.636	1429.99
449.01	1443.1
449.384	1440.16
449.758	1478.35
450.132	1490.55
450.506	1501.4
450.88	1501.4
451.254	1492.59
451.628	1505.69
452.002	1552.02
452.376	1572.81
452.75	1540.5
453.123	1564.9
453.497	1614.39
453.871	1639.48
454.244	1636.99
454.618	1684.22
454.992	1683.09
455.365	1671.57
455.739	1715.18
456.112	1721.51
456.486	1727.61
456.859	1737.33
457.232	1786.37
457.606	1778.46
457.979	1775.74
458.352	1835.86
458.725	1807.16
459.099	1837.66
459.472	1896.65
459.845	1877.66
460.218	1899.13
460.591	1932.35
460.964	1958.79
461.337	1978.9
461.71	2018
462.083	2031.1
462.456	2027.72
462.829	2044.44
463.201	2059.35
463.574	2103.65
463.947	2099.58
464.32	2182.51
464.692	2177.09
465.065	2172.57
465.438	2190.42
465.81	2246.92
466.183	2274.26
466.555	2270.87
466.928	2293.02
467.3	2308.16
467.672	2392.45
468.045	2375.95
468.417	2404.88
468.789	2429.29
469.161	2449.4
469.534	2485.56
469.906	2480.13
470.278	2551.77
470.65	2565.78
471.022	2604.88
471.394	2667.7
471.766	2687.36
472.138	2678.32
472.51	2691.65
472.882	2799.67
473.253	2813.68
473.625	2796.51
473.997	2880.57
474.369	2902.49
474.74	2935.04
475.112	2984.75
475.484	3056.16
475.855	3073.34
476.227	3106.56
476.598	3164.18
476.97	3149.95
477.341	3255.71
477.713	3267.46
478.084	3305.87
478.455	3382.26
478.827	3407.57
479.198	3506.32
479.569	3469.03
479.94	3584.51
480.311	3570.27
480.682	3656.82
481.053	3714
481.424	3762.81
481.795	3838.51
482.166	3864.28
482.537	3874.9
482.908	3964.84
483.279	4001.9
483.65	4057.72
484.021	4144.04
484.391	4210.26
484.762	4205.06
485.133	4256.81
485.503	4291.38
485.874	4388.33
486.244	4371.83
486.615	4468.1
486.985	4531.38
487.356	4579.06
487.726	4600.08
488.097	4673.97
488.467	4714.2
488.837	4814.08
489.207	4864.7
489.578	4892.05
489.948	4877.58
490.318	4980.86
490.688	4972.5
491.058	5061.76
491.428	5169.78
491.798	5167.07
492.168	5225.82
492.538	5230.57
492.908	5325.93
493.278	5354.63
493.648	5367.74
494.017	5472.14
494.387	5434.63
494.757	5504.01
495.126	5584.23
495.496	5560.73
495.866	5575.87
496.235	5646.6
496.605	5639.6
496.974	5709.88
497.344	5794.17
497.713	5765.47
498.082	5793.94
498.452	5851.12
498.821	5927.05
499.19	5876.65
499.559	5970.89
499.928	5962.53
500.298	6003.88
500.667	5984.22
501.036	6010.44
501.405	6075.29
501.774	6074.61
502.143	6126.59
502.512	6151.22
502.88	6166.82
503.249	6142.64
503.618	6256.53
503.987	6227.15
504.356	6286.81
504.724	6282.52
505.093	6335.4
505.462	6294.72
505.83	6353.03
506.199	6383.08
506.567	6421.05
506.936	6466.47
507.304	6487.94
507.672	6519.12
508.041	6555.51
508.409	6562.29
508.777	6596.18
509.145	6649.74
509.514	6619.01
509.882	6605.45
510.25	6647.48
510.618	6690.42
510.986	6616.75
511.354	6747.59
511.722	6759.12
512.09	6856.06
512.458	6795.73
512.826	6854.71
513.193	6881.82
513.561	6853.8
513.929	6899.68
514.297	6938.77
514.664	6948.72
515.032	6954.37
515.4	6972.9
515.767	6958.43
516.135	7067.36
516.502	6941.03
516.869	7077.07
517.237	7034.14
517.604	7017.41
517.972	7122.72
518.339	7055.61
518.706	7083.18
519.073	7144.19
519.44	7190.52
519.808	7166.34
520.175	7166.56
520.542	7240.69
520.909	7244.3
521.276	7198.43
521.643	7246.56
522.009	7290.85
522.376	7350.29
522.743	7348.03
523.11	7385.54
523.477	7388.48
523.843	7378.99
524.21	7453.34
524.577	7503.28
524.943	7486.1
525.31	7445.43
525.676	7508.02
526.043	7507.57
526.409	7579.21
526.776	7588.25
527.142	7592.31
527.508	7626.66
527.874	7674.8
528.241	7631.18
528.607	7648.58
528.973	7696.27
529.339	7678.64
529.705	7725.42
530.071	7768.36
530.437	7724.97
530.803	7793.89
531.169	7803.38
531.535	7772.65
531.901	7773.1
532.267	7733.55
532.632	7701.01
532.998	7806.77
533.364	7737.85
533.73	7784.85
534.095	7780.78
534.461	7794.57
534.826	7888.35
535.192	7829.14
535.557	7843.38
535.923	7865.75
536.288	7818.98
536.653	7822.36
537.019	7802.93
537.384	7775.13
537.749	7778.3
538.114	7785.76
538.479	7800.22
538.845	7856.71
539.21	7763.61
539.575	7796.15
539.94	7796.83
540.305	7777.17
540.67	7769.94
541.034	7788.47
541.399	7753.21
541.764	7804.29
542.129	7739.66
542.494	7798.41
542.858	7724.51
543.223	7742.14
543.587	7822.59
543.952	7790.95
544.316	7715.7
544.681	7727.9
545.045	7767
545.41	7748.47
545.774	7714.35
546.138	7692.88
546.503	7744.17
546.867	7679.54
547.231	7740.33
547.595	7694.68
547.959	7736.04
548.324	7674.8
548.688	7688.36
549.052	7705.31
549.416	7700.11
549.779	7673.89
550.143	7660.34
550.507	7687.45
550.871	7741.01
551.235	7700.79
551.599	7677.28
551.962	7722.71
552.326	7608.59
552.689	7811.07
553.053	7609.72
553.417	7670.5
553.78	7700.56
554.143	7655.36
554.507	7717.51
554.87	7668.92
555.234	7725.42
555.597	7661.47
555.96	7638.19
556.323	7707.79
556.686	7683.84
557.05	7678.87
557.413	7675.7
557.776	7733.55
558.139	7765.42
558.502	7718.19
558.865	7703.05
559.228	7790.73
559.59	7788.02
559.953	7730.16
560.316	7809.48
560.679	7754.34
561.041	7820.78
561.404	7848.8
561.767	7878.86
562.129	7852.42
562.492	7957.73
562.854	7902.59
563.217	7889.93
563.579	7904.85
563.941	7980.78
564.304	7938.75
564.666	8058.29
565.028	7979.87
565.39	8028.24
565.753	7962.25
566.115	8037.05
566.477	8126.31
566.839	8048.35
567.201	8115.01
567.563	8100.78
567.925	8222.58
568.287	8195.24
568.648	8163.6
569.01	8182.58
569.372	8244.73
569.734	8163.15
570.095	8350.03
570.457	8266.87
570.819	8269.81
571.18	8319.75
571.542	8366.76
571.903	8354.1
572.265	8363.59
572.626	8410.37
572.987	8384.84
573.349	8415.12
573.71	8447.89
574.071	8485.4
574.432	8511.39
574.794	8589.8
575.155	8538.73
575.516	8455.57
575.877	8580.31
576.238	8577.15
576.599	8625.28
576.96	8628.22
577.32	8643.59
577.681	8685.85
578.042	8676.13
578.403	8686.75
578.763	8665.96
579.124	8734.66
579.485	8720.19
579.845	8743.92
580.206	8730.59
580.566	8804.03
580.927	8690.82
581.287	8815.11
581.648	8792.51
582.008	8827.08
582.368	8890.13
582.728	8802.9
583.089	8849.46
583.449	8863.24
583.809	8894.2
584.169	8822.34
584.529	8858.72
584.889	8913.64
585.249	8871.6
585.609	8852.17
585.969	8941.21
586.329	8957.25
586.688	8933.97
587.048	8915.67
587.408	8947.53
587.768	8920.19
588.127	8943.47
588.487	9025.5
588.846	8989.79
589.206	8980.07
589.565	8959.96
589.925	8984.82
590.284	9020.3
590.643	9080.41
591.003	9030.02
591.362	9002.45
591.721	9067.76
592.08	9004.48
592.44	9070.47
592.799	9069.11
593.158	9084.03
593.517	9081.09
593.876	9076.34
594.235	9081.99
594.593	9074.99
594.952	9130.35
595.311	9062.11
595.67	9126.74
596.029	9168.77
596.387	9231.59
596.746	9196.57
597.104	9180.3
597.463	9149.11
597.822	9183.91
598.18	9157.25
598.538	9166.51
598.897	9239.05
599.255	9129
599.613	9272.5
599.972	9192.72
600.33	9232.5
600.688	9197.47
601.046	9211.48
601.404	9284.93
601.762	9314.08
602.12	9213.97
602.478	9276.34
602.836	9254.19
603.194	9258.49
603.552	9277.24
603.91	9244.93
604.268	9250.35
604.625	9185.04
604.983	9190.92
605.341	9169.22
605.698	9244.93
606.056	9318.6
606.413	9299.39
606.771	9306.39
607.128	9269.56
607.485	9256.45
607.843	9335.55
608.2	9345.71
608.557	9375.09
608.914	9361.31
609.272	9410.8
609.629	9444.7
609.986	9426.39
610.343	9404.92
610.7	9448.08
611.057	9467.97
611.414	9414.87
611.771	9481.53
612.127	9422.1
612.484	9479.5
612.841	9455.32
613.198	9459.38
613.554	9439.95
613.911	9486.05
614.267	9518.37
614.624	9527.86
614.98	9496.45
615.337	9591.58
615.693	9585.03
616.05	9550.23
616.406	9569.21
616.762	9553.17
617.118	9536.9
617.475	9601.08
617.831	9644.01
618.187	9581.19
618.543	9559.27
618.899	9644.46
619.255	9567.63
619.611	9616.89
619.967	9549.78
620.323	9681.98
620.678	9594.75
621.034	9587.29
621.39	9578.25
621.746	9582.54
622.101	9691.69
622.457	9605.37
622.812	9635.42
623.168	9611.92
623.523	9667.29
623.879	9607.4
624.234	9576.9
624.589	9641.98
624.945	9707.97
625.3	9623.9
625.655	9719.04
626.01	9601.53
626.365	9640.17
626.72	9627.74
627.075	9611.47
627.43	9713.84
627.785	9566.95
628.14	9590.68
628.495	9615.54
628.85	9607.4
629.205	9524.02
629.559	9620.96
629.914	9568.08
630.269	9551.36
630.623	9542.32
630.978	9499.61
631.332	9588.42
631.687	9539.61
632.041	9491.02
632.396	9546.84
632.75	9491.47
633.104	9507.97
633.459	9420.97
633.813	9398.82
634.167	9470.01
634.521	9421.64
634.875	9422.55
635.229	9406.28
635.583	9368.99
635.937	9392.27
636.291	9345.94
636.645	9372.15
636.999	9342.78
637.352	9357.01
637.706	9287.86
638.06	9340.07
638.413	9344.81
638.767	9298.94
639.121	9343.45
639.474	9267.52
639.828	9327.18
640.181	9307.3
640.534	9272.72
640.888	9268.2
641.241	9194.08
641.594	9233.63
641.947	9210.58
642.301	9229.33
642.654	9134.42
643.007	9173.52
643.36	9225.27
643.713	9203.8
644.066	9240.18
644.419	9089
644.771	9083.35
645.124	9007.42
645.477	8967.19
645.83	8902.34
646.182	8924.48
646.535	8967.19
646.888	8883.58
647.24	8908.21
647.593	8920.64
647.945	8893.75
648.298	8867.31
648.65	8757.93
649.002	8805.39
649.355	8797.71
649.707	8788.22
650.059	8839.51
650.411	8942.34
650.763	8972.84
651.115	9020.3
651.467	9020.53
651.819	9068.43
652.171	8988.89
652.523	9025.95
652.875	9007.64
653.227	8930.13
653.578	9016.46
653.93	8970.36
654.282	8950.24
654.633	8946.4
654.985	8917.7
655.337	8966.97
655.688	9012.84
656.039	8952.73
656.391	8882
656.742	8950.92
657.094	8978.27
657.445	8933.97
657.796	8979.4
658.147	8918.61
658.498	8967.65
658.849	8964.71
659.2	8946.18
659.551	8919.74
659.902	8996.12
660.253	8965.61
660.604	8950.47
660.955	8962.9
661.306	9002.67
661.656	8879.51
662.007	8851.49
662.358	8944.37
662.708	9009.68
663.059	8955.22
663.409	8911.38
663.76	8997.93
664.11	8980.53
664.461	9035.67
664.811	8934.2
665.161	8941.21
665.511	8940.75
665.862	9022.11
666.212	8953.18
666.562	9007.87
666.912	8938.95
667.262	8919.96
667.612	8931.49
667.962	8936.69
668.312	8971.04
668.662	8975.33
669.011	8988.66
669.361	8935.33
669.711	8929.23
670.06	8918.16
670.41	8912.73
670.76	8902.56
671.109	8953.41
671.459	8883.35
671.808	8881.09
672.157	8855.78
672.507	8778.95
672.856	8872.51
673.205	8875.22
673.554	8866.86
673.904	8818.95
674.253	8905.73
674.602	8811.94
674.951	8727.2
675.3	8665.96
675.649	8773.53
675.998	8764.04
676.346	8821.89
676.695	8833.19
677.044	8731.49
677.393	8787.54
677.741	8716.13
678.09	8732.85
678.438	8773.07
678.787	8747.31
679.135	8766.75
679.484	8674.77
679.832	8706.64
680.181	8699.4
680.529	8698.05
680.877	8682.68
681.225	8632.74
681.573	8717.26
681.922	8613.76
682.27	8591.16
682.618	8577.37
682.966	8572.63
683.314	8640.65
683.661	8541.44
684.009	8515.45
684.357	8533.53
684.705	8494.66
685.053	8545.28
685.4	8518.62
685.748	8410.6
686.095	8424.61
686.443	8400.65
686.79	8349.13
687.138	8402.24
687.485	8290.83
687.832	8264.61
688.18	8299.64
688.527	8288.12
688.874	8268.45
689.221	8260.32
689.568	8194.78
689.915	8178.29
690.262	8204.73
690.609	8189.13
690.956	8135.13
691.303	8152.75
691.65	8166.76
691.997	8145.29
692.344	8052.42
692.69	7988.01
693.037	8057.16
693.383	7976.26
693.73	7977.62
694.077	7884.51
694.423	7914.34
694.769	7925.87
695.116	7869.14
695.462	7838.41
695.808	7779.65
696.155	7855.58
696.501	7774
696.847	7769.71
697.193	7736.94
697.539	7731.07
697.885	7654.91
698.231	7627.12
698.577	7621.24
698.923	7662.6
699.269	7569.26
699.614	7539.43
699.96	7491.75
700.306	7517.74
700.651	7476.84
700.997	7431.41
701.342	7400
701.688	7395.48
702.033	7414.92
702.379	7350.06
702.724	7322.27
703.069	7323.17
703.415	7242.95
703.76	7306.45
704.105	7306.22
704.45	7298.31
704.795	7164.76
705.14	7188.48
705.485	7160.46
705.83	7160.01
706.175	7159.56
706.52	7102.16
706.865	7071.42
707.209	7070.52
707.554	7034.36
707.899	7067.81
708.243	6978.09
708.588	6994.36
708.932	6901.26
709.277	6920.47
709.621	6908.04
709.966	6885.89
710.31	6916.85
710.654	6836.4
710.998	6846.35
711.342	6882.95
711.687	6847.02
712.031	6846.12
712.375	6762.51
712.719	6767.48
713.063	6781.26
713.407	6838.89
713.75	6714.82
714.094	6757.76
714.438	6708.04
714.782	6733.81
715.125	6699
715.469	6727.48
715.812	6711.43
716.156	6631.44
716.499	6632.34
716.843	6683.86
717.186	6656.97
717.53	6588.27
717.873	6632.57
718.216	6605.67
718.559	6540.14
718.902	6609.06
719.246	6582.17
719.589	6541.95
719.932	6584.43
720.275	6502.85
720.617	6555.51
720.96	6506.47
721.303	6559.57
721.646	6516.41
721.989	6501.72
722.331	6538.56
722.674	6498.33
723.016	6473.47
723.359	6509.41
723.701	6486.35
724.044	6428.5
724.386	6388.05
724.729	6500.82
725.071	6461.04
725.413	6415.85
725.755	6441.16
726.097	6419.46
726.439	6379.47
726.782	6398
727.124	6386.24
727.465	6419.92
727.807	6379.69
728.149	6385.79
728.491	6348.51
728.833	6376.08
729.175	6329.97
729.516	6338.56
729.858	6391.44
730.199	6404.78
730.541	6331.33
730.882	6310.99
731.224	6346.25
731.565	6323.2
731.906	6325.46
732.248	6355.06
732.589	6293.59
732.93	6319.13
733.271	6299.47
733.612	6390.76
733.953	6310.99
734.294	6241.39
734.635	6296.53
734.976	6288.85
735.317	6273.03
735.658	6268.28
735.999	6327.04
736.339	6318.45
736.68	6309.64
737.021	6280.48
737.361	6206.36
737.702	6244.1
738.042	6256.98
738.383	6251.11
738.723	6296.98
739.063	6309.86
739.404	6306.7
739.744	6283.87
740.084	6288.85
740.424	6330.2
740.764	6305.79
741.104	6345.12
741.444	6329.75
741.784	6296.08
742.124	6361.16
742.464	6372.23
742.804	6398.45
743.143	6340.82
743.483	6372.01
743.823	6370.65
744.162	6395.06
744.502	6421.05
744.841	6386.7
745.181	6473.02
745.52	6501.04
745.86	6486.58
746.199	6501.04
746.538	6500.59
746.877	6542.62
747.216	6582.85
747.556	6627.82
747.895	6573.81
748.234	6631.44
748.573	6647.71
748.911	6624.88
749.25	6685.22
749.589	6762.05
749.928	6801.6
750.267	6851.99
750.605	6872.56
750.944	6928.83
751.283	6930.19
751.621	7019
751.96	7014.7
752.298	7059
752.636	7147.58
752.975	7191.2
753.313	7240.91
753.651	7317.29
753.989	7334.47
754.327	7447.91
754.666	7438.42
755.004	7573.78
755.342	7574.91
755.679	7663.27
756.017	7756.6
756.355	7874.11
756.693	7945.98
757.031	8012.87
757.368	8036.82
757.706	8142.13
758.044	8164.5
758.381	8372.41
758.719	8438.17
759.056	8496.92
759.394	8575.57
759.731	8629.8
760.068	8741.21
760.405	8856.91
760.743	8885.39
761.08	8994.31
761.417	9038.38
761.754	9170.35
762.091	9316.34
762.428	9437.69
762.765	9388.65
763.102	9618.48
763.438	9608.98
763.775	9710.9
764.112	9891.92
764.449	9877.68
764.785	9943.67
765.122	10011.01
765.458	10048.3
765.795	10228.63
766.131	10294.39
766.467	10388.63
766.804	10383.2
767.14	10493.26
767.476	10611.44
767.812	10560.37
768.148	10715.4
768.485	10748.16
768.821	10758.33
769.157	10892.11
769.492	10959.01
769.828	10981.15
