Data from hue_38_FLMS001491_00085.txt Node
Date: Tue Feb 07 17:32:06 GMT 2017
User: dcchb
Spectrometer: FLMS00149
Trigger mode: 0
Integration Time (sec): 2.000000E-2
Scans to average: 10
Electric dark correction enabled: true
Nonlinearity correction enabled: false
Boxcar width: 0
XAxis mode: Wavelengths
Number of Pixels in Spectrum: 2048
>>>>>Begin Spectral Data<<<<<
341.393	-31.72
341.776	-31.72
342.16	-31.72
342.543	-78.05
342.927	-64.04
343.31	-76.24
343.693	-76.01
344.077	-50.7
344.46	-46.64
344.843	-48.22
345.226	-34.43
345.61	-34.21
345.993	-33.98
346.376	-17.03
346.759	17.09
347.142	22.97
347.525	33.36
347.908	50.08
348.291	77.65
348.674	99.35
349.057	116.97
349.44	130.08
349.823	151.78
350.206	156.3
350.588	210.76
350.971	214.15
351.354	229.97
351.737	246.69
352.119	249.85
352.502	251.66
352.884	249.4
353.267	279.68
353.65	291.66
354.032	298.21
354.414	308.61
354.797	312.22
355.179	326.69
355.562	338.66
355.944	325.78
356.326	331.88
356.709	336.4
357.091	339.12
357.473	352.67
357.855	321.04
358.238	350.41
358.62	343.18
359.002	326.23
359.384	349.51
359.766	336.86
360.148	364.65
360.53	331.43
360.912	343.18
361.294	343.64
361.676	345.44
362.057	340.7
362.439	328.27
362.821	338.21
363.203	352
363.584	342.73
363.966	331.66
364.348	321.49
364.729	334.82
365.111	317.87
365.493	320.36
365.874	344.99
366.256	302.96
366.637	323.3
367.019	321.49
367.4	320.81
367.781	326.91
368.163	322.39
368.544	307.03
368.925	334.14
369.306	328.27
369.688	328.49
370.069	318.78
370.45	334.37
370.831	302.51
371.212	327.36
371.593	318.32
371.974	318.78
372.355	329.4
372.736	299.12
373.117	335.73
373.498	333.47
373.879	314.48
374.26	318.1
374.641	323.75
375.021	311.32
375.402	327.82
375.783	309.06
376.163	344.54
376.544	323.3
376.925	332.11
377.305	321.04
377.686	352.67
378.066	320.36
378.447	328.72
378.827	344.31
379.208	331.66
379.588	316.07
379.968	338.44
380.349	347.7
380.729	334.37
381.109	331.66
381.489	338.44
381.87	356.29
382.25	331.88
382.63	332.79
383.01	345.67
383.39	343.18
383.77	343.41
384.15	365.1
384.53	368.72
384.91	366.69
385.29	355.39
385.67	344.54
386.049	336.4
386.429	356.29
386.809	359.45
387.189	344.76
387.568	330.98
387.948	362.17
388.328	367.14
388.707	344.31
389.087	358.78
389.466	355.84
389.846	349.28
390.225	380.02
390.605	380.47
390.984	363.75
391.363	396.74
391.743	377.53
392.122	362.84
392.501	367.59
392.881	370.98
393.26	377.31
393.639	389.96
394.018	378.66
394.397	377.53
394.776	386.12
395.155	372.56
395.534	374.59
395.913	392
396.292	379.79
396.671	396.29
397.05	403.52
397.429	384.54
397.808	397.87
398.186	384.76
398.565	400.13
398.944	400.81
399.323	395.16
399.701	413.24
400.08	401.71
400.458	397.87
400.837	417.98
401.215	407.14
401.594	395.16
401.972	394.48
402.351	404.65
402.729	406.68
403.107	415.72
403.486	414.82
403.864	414.37
404.242	410.07
404.62	414.59
404.999	415.05
405.377	402.62
405.755	414.37
406.133	431.54
406.511	433.8
406.889	432.45
407.267	421.15
407.645	432.67
408.023	443.52
408.401	418.21
408.779	448.49
409.156	463.63
409.534	466.57
409.912	456.63
410.29	449.39
410.667	471.32
411.045	461.82
411.422	466.12
411.8	469.51
412.178	467.47
412.555	464.99
412.933	469.06
413.31	460.02
413.687	479.45
414.065	505.21
414.442	474.93
414.819	494.14
415.197	496.85
415.574	514.03
415.951	523.29
416.328	507.92
416.705	509.73
417.082	497.76
417.46	501.15
417.837	517.64
418.214	503.63
418.591	510.18
418.967	515.61
419.344	521.94
419.721	514.48
420.098	516.29
420.475	522.84
420.852	526
421.228	550.64
421.605	546.34
421.982	541.6
422.358	560.13
422.735	556.51
423.111	552.22
423.488	556.74
423.864	559.45
424.241	574.36
424.617	569.39
424.994	566.23
425.37	559
425.746	566
426.123	578.88
426.499	573.23
426.875	571.43
427.251	595.61
427.627	615.04
428.003	597.41
428.379	619.56
428.756	603.52
429.132	604.19
429.507	604.42
429.883	615.72
430.259	644.42
430.635	649.16
431.011	675.6
431.387	648.03
431.763	657.98
432.138	662.95
432.514	663.63
432.89	649.16
433.265	653.68
433.641	670.41
434.016	671.54
434.392	687.58
434.767	709.5
435.143	682.61
435.518	691.65
435.894	697.3
436.269	726.68
436.644	731.42
437.02	738.88
437.395	721.93
437.77	726.68
438.145	731.42
438.52	744.98
438.895	766.67
439.271	732.55
439.646	788.82
440.021	777.75
440.395	767.58
440.77	757.86
441.145	781.36
441.52	783.17
441.895	790.63
442.27	793.57
442.645	782.04
443.019	798.99
443.394	801.25
443.769	841.7
444.143	818.2
444.518	839.67
444.892	825.88
445.267	821.36
445.641	850.51
446.016	841.93
446.39	825.2
446.764	845.77
447.139	833.34
447.513	865.43
447.887	860.23
448.262	846.9
448.636	881.25
449.01	906.56
449.384	914.47
449.758	883.06
450.132	872.66
450.506	888.71
450.88	880.34
451.254	894.36
451.628	902.72
452.002	914.02
452.376	940
452.75	917.18
453.123	931.64
453.497	941.13
453.871	956.5
454.244	970.74
454.618	954.92
454.992	963.51
455.365	965.99
455.739	1003.05
456.112	998.53
456.486	1013.45
456.859	1030.62
457.232	1016.39
457.606	1021.36
457.979	1055.48
458.352	1076.27
458.725	1042.83
459.099	1072.66
459.472	1138.19
459.845	1120.11
460.218	1151.07
460.591	1117.4
460.964	1144.97
461.337	1156.27
461.71	1207.57
462.083	1225.87
462.456	1221.13
462.829	1239.2
463.201	1236.94
463.574	1233.33
463.947	1242.82
464.32	1310.16
464.692	1306.32
465.065	1296.38
465.438	1313.33
465.81	1357.62
466.183	1355.13
466.555	1383.83
466.928	1417.28
467.3	1410.73
467.672	1434.23
468.045	1454.57
468.417	1462.02
468.789	1487.56
469.161	1489.82
469.534	1529.37
469.906	1556.03
470.278	1575.24
470.65	1589.93
471.022	1634.45
471.394	1673.54
471.766	1695.46
472.138	1703.15
472.51	1735.69
472.882	1794.67
473.253	1827.21
473.625	1823.37
473.997	1904.95
474.369	1936.81
474.74	1946.3
475.112	1977.94
475.484	2061.1
475.855	2076.7
476.227	2089.8
476.598	2202.8
476.97	2241.44
477.341	2278.05
477.713	2323.24
478.084	2352.85
478.455	2415.9
478.827	2464.71
479.198	2566.63
479.569	2612.73
479.94	2692.73
480.311	2720.97
480.682	2808.88
481.053	2904.7
481.424	2963.45
481.795	3030.57
482.166	3094.75
482.537	3158.7
482.908	3276.89
483.279	3324.12
483.65	3429.66
484.021	3533.83
484.391	3627.39
484.762	3649.08
485.133	3738.12
485.503	3842.07
485.874	3957.78
486.244	3978.57
486.615	4097.21
486.985	4240.93
487.356	4348.95
487.726	4405.68
488.097	4528.16
488.467	4604.99
488.837	4748.04
489.207	4843.86
489.578	4933.12
489.948	5022.61
490.318	5151.42
490.688	5202.72
491.058	5392.99
491.428	5480.9
491.798	5534.68
492.168	5694.23
492.538	5792.08
492.908	5879.08
493.278	6009.47
493.648	6040.21
494.017	6206.08
494.387	6332.63
494.757	6401.1
495.126	6543.47
495.496	6541.66
495.866	6698.04
496.235	6776.69
496.605	6944.37
496.974	6949.34
497.344	7152.27
497.713	7190.46
498.082	7267.52
498.452	7371.02
498.821	7472.26
499.19	7574.86
499.559	7715.19
499.928	7722.2
500.298	7784.57
500.667	7950.44
501.036	7998.57
501.405	8096.88
501.774	8148.18
502.143	8276.31
502.512	8339.81
502.88	8465.23
503.249	8423.65
503.618	8517.66
503.987	8726.69
504.356	8723.08
504.724	8765.11
505.093	8866.35
505.462	8918.32
505.83	8982.73
506.199	9092.33
506.567	9197.64
506.936	9272.89
507.304	9358.09
507.672	9482.15
508.041	9548.82
508.409	9625.2
508.777	9771.41
509.145	9770.05
509.514	9769.83
509.882	9930.95
510.25	9866.77
510.618	10007.34
510.986	10104.06
511.354	10185.18
511.722	10247.33
512.09	10331.85
512.458	10367.55
512.826	10498.17
513.193	10513.76
513.561	10660.65
513.929	10645.96
514.297	10714.89
514.664	10883.92
515.032	10866.75
515.4	10962.11
515.767	10981.32
516.135	11108.32
516.502	11045.73
516.869	11294.31
517.237	11325.27
517.604	11275.78
517.972	11367.98
518.339	11548.76
518.706	11561.19
519.073	11641.87
519.44	11709.89
519.808	11777.01
520.175	11766.61
520.542	11986.04
520.909	12005.25
521.276	12016.32
521.643	12194.85
522.009	12232.14
522.376	12289.54
522.743	12375.86
523.11	12459.7
523.477	12619.47
523.843	12584.44
524.21	12750.31
524.577	12906.47
524.943	12895.85
525.31	12971.55
525.676	13026.69
526.043	13108.5
526.409	13210.42
526.776	13318.44
527.142	13323.18
527.508	13437.3
527.874	13494.25
528.241	13667.13
528.607	13667.58
528.973	13757.52
529.339	13887.91
529.705	13903.05
530.071	14141.69
530.437	14112.09
530.803	14190.73
531.169	14221.01
531.535	14253.33
531.901	14352.08
532.267	14380.78
532.632	14563.37
532.998	14629.81
533.364	14701.45
533.73	14695.8
534.095	14862.35
534.461	14902.57
534.826	14963.14
535.192	14972.4
535.557	15074.55
535.923	15117.03
536.288	15131.04
536.653	15323.35
537.019	15239.74
537.384	15296.24
537.749	15330.81
538.114	15380.53
538.479	15534.2
538.845	15575.55
539.21	15568.32
539.575	15726.51
539.94	15710.91
540.305	15767.64
540.67	15783.68
541.034	15912.72
541.399	15942.09
541.764	15956.33
542.129	16018.93
542.494	16133.95
542.858	16190.68
543.223	16134.63
543.587	16260.28
543.952	16322.65
544.316	16481.97
544.681	16407.17
545.045	16554.51
545.41	16619.59
545.774	16653.94
546.138	16621.85
546.503	16856.87
546.867	16727.16
547.231	16980.71
547.595	17010.99
547.959	17052.12
548.324	17093.03
548.688	17078.34
549.052	17244.21
549.416	17166.24
549.779	17353.36
550.143	17310.42
550.507	17364.88
550.871	17442.62
551.235	17473.58
551.599	17653.24
551.962	17596.06
552.326	17612.56
552.689	17785.89
553.053	17763.74
553.417	17827.24
553.78	18055.26
554.143	17963.96
554.507	18003.28
554.87	18078.76
555.234	18297.97
555.597	18165.54
555.96	18338.64
556.323	18416.61
556.686	18367.57
557.05	18480.56
557.413	18534.34
557.776	18568.01
558.139	18812.53
558.502	18661.12
558.865	18731.63
559.228	18982.69
559.59	19007.1
559.953	19042.13
560.316	19158.73
560.679	19240.54
561.041	19213.65
561.404	19384.49
561.767	19450.48
562.129	19413.42
562.492	19634.65
562.854	19614.54
563.217	19608.21
563.579	19662.45
563.941	19832.39
564.304	19960.07
564.666	19982.89
565.028	19957.13
565.39	20073.51
565.753	20187.41
566.115	20309.44
566.477	20317.12
566.839	20343.56
567.201	20598.7
567.563	20447.29
567.925	20717.79
568.287	20779.48
568.648	20671.46
569.01	20884.79
569.372	20986.48
569.734	20989.19
570.095	21170.66
570.457	21279.36
570.819	21303.54
571.18	21361.39
571.542	21480.03
571.903	21459.92
572.265	21610.19
572.626	21601.38
572.987	21703.98
573.349	21875.72
573.71	22004.76
574.071	22089.73
574.432	22214.25
574.794	22353.68
575.155	22409.04
575.516	22443.39
575.877	22517.97
576.238	22721.8
576.599	22834.34
576.96	22785.3
577.32	22983.49
577.681	23218.97
578.042	23348
578.403	23399.3
578.763	23503.03
579.124	23597.71
579.485	23782.57
579.845	23933.07
580.206	24082.9
580.566	24157.47
580.927	24321.31
581.287	24468.42
581.648	24574.18
582.008	24851.24
582.368	25017.79
582.728	25116.32
583.089	25284.22
583.449	25392.02
583.809	25606.93
584.169	25841.27
584.529	25986.8
584.889	26279
585.249	26265.67
585.609	26441.03
585.969	26841.92
586.329	26784.97
586.688	27231.29
587.048	27283.27
587.408	27377.5
587.768	27680.09
588.127	27860.43
588.487	28065.17
588.846	28418.38
589.206	28466.29
589.565	28694.98
589.925	28971.36
590.284	29035.99
590.643	29455.86
591.003	29815.4
591.362	29909.86
591.721	30093.59
592.08	30147.37
592.44	30590.07
592.799	30703.97
593.158	30861.25
593.517	30985.99
593.876	31289.94
594.235	31410.84
594.593	31638.86
594.952	31910.49
595.311	31989.36
595.67	32246.98
596.029	32632.05
596.387	32855.1
596.746	33057.58
597.104	32994.75
597.463	33221.19
597.822	33527.62
598.18	33609.88
598.538	33810.55
598.897	34146.81
599.255	33985.01
599.613	34622.51
599.972	34632.22
600.33	34776.63
600.688	34922.39
601.046	35221.59
601.404	35485.76
601.762	35540.22
602.12	35695.93
602.478	35956.94
602.836	36015.47
603.194	36121.68
603.552	36139.08
603.91	36300.88
604.268	36481.22
604.625	36681.44
604.983	36885.27
605.341	36800.98
605.698	37063.12
606.056	37327.52
606.413	37404.81
606.771	37560.28
607.128	37757.34
607.485	37632.37
607.843	37883.89
608.2	38227.61
608.557	38363.65
608.914	38264.45
609.272	38635.06
609.629	38763.87
609.986	39184.42
610.343	38910.53
610.7	39230.07
611.057	39294.48
611.414	39422.38
611.771	39562.72
612.127	39748.47
612.484	39835.48
612.841	39996.83
613.198	40008.35
613.554	40027.34
613.911	40381.68
614.267	40348.91
614.624	40423.03
614.98	40658.51
615.337	40781.22
615.693	40638.62
616.05	40621.22
616.406	41113.18
616.762	40840.65
617.118	41105.73
617.475	41176.23
617.831	41398.6
618.187	41508.88
618.543	41493.97
618.899	41647.63
619.255	41805.37
619.611	41710.23
619.967	42015.08
620.323	41910.9
620.678	41980.73
621.034	41897.8
621.39	42019.6
621.746	41967.63
622.101	42600.38
622.457	42300.27
622.812	42373.04
623.168	42351.8
623.523	42581.17
623.879	42822.29
624.234	42483.32
624.589	42643.09
624.945	42665.23
625.3	42733.71
625.655	42681.28
626.01	42823.42
626.365	42896.19
626.72	42886.25
627.075	42901.61
627.43	42873.82
627.785	42855.06
628.14	43163.98
628.495	43071.33
628.85	42950.65
629.205	42912.69
629.559	43197.2
629.914	43028.84
630.269	43050.76
630.623	43020.48
630.978	42964.44
631.332	43239
631.687	43164.2
632.041	43098.67
632.396	43123.08
632.75	43203.3
633.104	43229.29
633.459	42936.19
633.813	42916.53
634.167	42959.69
634.521	43158.1
634.875	43226.12
635.229	43171.21
635.583	42946.36
635.937	42860.71
636.291	42947.26
636.645	42912.69
636.999	42965.34
637.352	43177.09
637.706	42866.81
638.06	43085.79
638.413	42898
638.767	42898.67
639.121	42876.08
639.474	42702.3
639.828	42606.03
640.181	42885.12
640.534	42697.55
640.888	42543.66
641.241	42572.36
641.594	42670.43
641.947	42729.19
642.301	42568.97
642.654	42621.85
643.007	42607.38
643.36	42505.46
643.713	42526.25
644.066	42813.7
644.419	42305.7
644.771	42064.35
645.124	41771.47
645.477	41778.25
645.83	41567.18
646.182	41269.34
646.535	41295.55
646.888	41341.43
647.24	41166.06
647.593	41442.44
647.945	41321.09
648.298	41212.39
648.65	41152.05
649.002	41072.06
649.355	41246.06
649.707	41198.38
650.059	41432.5
650.411	41752.49
650.763	41819.38
651.115	42189.54
651.467	42048.08
651.819	42046.27
652.171	42094.85
652.523	42041.52
652.875	41963.33
653.227	41786.16
653.578	42096.66
653.93	41997.68
654.282	41817.8
654.633	41663
654.985	41914.29
655.337	41869.77
655.688	41831.36
656.039	41911.13
656.391	41694.19
656.742	41802.43
657.094	41712.72
657.445	41905.71
657.796	41808.53
658.147	41734.86
658.498	41728.31
658.849	41832.71
659.2	41722.89
659.551	41608.99
659.902	41687.86
660.253	41703.68
660.604	41808.08
660.955	41563.34
661.306	41744.13
661.656	41557.92
662.007	41739.16
662.358	41615.54
662.708	41719.04
663.059	41618.93
663.409	41237.25
663.76	41549.33
664.11	41606.05
664.461	41452.61
664.811	41594.53
665.161	41443.57
665.511	41373.74
665.862	41461.65
666.212	41625.04
666.562	41692.38
666.912	41452.84
667.262	41583.23
667.612	41418.04
667.962	41448.77
668.312	41426.62
668.662	41565.83
669.011	41460.52
669.361	41481.31
669.711	41433.63
670.06	41320.41
670.41	41400.86
670.76	41135.78
671.109	41354.99
671.459	41275.67
671.808	41385.04
672.157	41412.16
672.507	41147.99
672.856	41173.97
673.205	41275.21
673.554	41365.83
673.904	41127.87
674.253	41491.93
674.602	41165.84
674.951	40639.3
675.3	40577.61
675.649	41121.32
675.998	41068.21
676.346	41134.43
676.695	41119.96
677.044	40875.45
677.393	41005.84
677.741	41119.51
678.09	40944.6
678.438	40869.58
678.787	41078.61
679.135	41023.7
679.484	40685.4
679.832	40934.88
680.181	40759.07
680.529	40849.24
680.877	40602.46
681.225	40583.48
681.573	40738.51
681.922	40491.96
682.27	40437.72
682.618	40365.18
682.966	40343.94
683.314	40490.6
683.661	40373.32
684.009	40090.84
684.357	39940.79
684.705	39964.06
685.053	39909.83
685.4	40028.47
685.748	39851.75
686.095	39861.92
686.443	39814.01
686.79	39556.16
687.138	39688.36
687.485	39649.72
687.832	39630.06
688.18	39487.69
688.527	39328.6
688.874	39366.56
689.221	39268.26
689.568	39190.75
689.915	39163.63
690.262	39079.79
690.609	38995.05
690.956	38890.42
691.303	38856.07
691.65	38666.24
691.997	38797.99
692.344	38521.39
692.69	38567.49
693.037	38532.46
693.383	38139.48
693.73	38293.37
694.077	38057.22
694.423	38115.75
694.769	37943.1
695.116	37930.22
695.462	37755.31
695.808	37648.42
696.155	37640.51
696.501	37548.98
696.847	37467.4
697.193	37147.64
697.539	37416.11
697.885	36953.29
698.231	37023.35
698.577	37041.2
698.923	36929.79
699.269	36826.97
699.614	36550.82
699.96	36494.32
700.306	36538.16
700.651	36337.94
700.997	36306.98
701.342	36333.88
701.688	36160.77
702.033	36022.92
702.379	36100.43
702.724	35928.69
703.069	36085.75
703.415	35658.41
703.76	35669.71
704.105	35588.58
704.45	35655.93
704.795	35402.37
705.14	35324.86
705.485	35211.64
705.83	35092.55
706.175	35188.59
706.52	35045.1
706.865	34842.84
707.209	34810.53
707.554	34823.86
707.899	34788.38
708.243	34613.02
708.588	34551.78
708.932	34245.12
709.277	34309.75
709.621	34294.15
709.966	34145.01
710.31	34162.18
710.654	33837.9
710.998	34111.33
711.342	34141.16
711.687	33914.73
712.031	33821.85
712.375	33608.52
712.719	33701.63
713.063	33564.91
713.407	33840.38
713.75	33530.79
714.094	33512.25
714.438	33355.87
714.782	33452.59
715.125	33213.05
715.469	33257.8
715.812	33061.87
716.156	32849
716.499	33000.4
716.843	32955.21
717.186	32759.05
717.53	32927.86
717.873	32823.46
718.216	32794.99
718.559	32610.58
718.902	32456.91
719.246	32439.51
719.589	32373.3
719.932	32339.4
720.275	32434.32
720.617	32237.26
720.96	32236.13
721.303	32148.9
721.646	32194.32
721.989	31953.2
722.331	32073.42
722.674	32011.95
723.016	31938.28
723.359	31952.07
723.701	31922.24
724.044	31653.77
724.386	31510.27
724.729	31872.3
725.071	31564.74
725.413	31550.72
725.755	31588.69
726.097	31312.31
726.439	31394.57
726.782	31353.22
727.124	31541.46
727.465	31301.47
727.807	31197.74
728.149	31289.71
728.491	31116.39
728.833	31166.1
729.175	31154.12
729.516	30885.66
729.858	30921.36
730.199	30968.59
730.541	30958.42
730.882	30809.95
731.224	30977.63
731.565	30639.56
731.906	30629.17
732.248	30595.72
732.589	30586
732.93	30552.33
733.271	30536.06
733.612	30504.88
733.953	30596.62
734.294	30329.29
734.635	30334.26
734.976	30404.77
735.317	30079.35
735.658	30226.69
735.999	30089.07
736.339	30124.09
736.68	30147.15
737.021	29997.32
737.361	29892.01
737.702	30028.05
738.042	30040.93
738.383	29943.99
738.723	30083.87
739.063	29850.43
739.404	29918.9
739.744	29773.82
740.084	29694.95
740.424	29734.5
740.764	29748.96
741.104	29754.61
741.444	29560.04
741.784	29474.85
742.124	29622.19
742.464	29543.09
742.804	29487.28
743.143	29424.45
743.483	29421.51
743.823	29239.6
744.162	29187.62
744.502	29230.56
744.841	29134.52
745.181	29245.25
745.52	29038.25
745.86	29111.69
746.199	29008.87
746.538	29105.14
746.877	28977.68
747.216	28897.46
747.556	28887.07
747.895	28897.91
748.234	28790.34
748.573	28576.11
748.911	28630.35
749.25	28744.02
749.589	28570.69
749.928	28654.08
750.267	28687.52
750.605	28465.61
750.944	28369.11
751.283	28317.14
751.621	28378.6
751.96	28187.2
752.298	28137.03
752.636	28173.64
752.975	27911.95
753.313	27966.19
753.651	28104.26
753.989	27888.67
754.327	27864.04
754.666	27770.03
755.004	27921.89
755.342	27891.61
755.679	27678.96
756.017	27553.77
756.355	27706.98
756.693	27505.18
