Data from hue_10_FLMS001491_95.txt Node
Date: Mon Feb 06 15:32:50 GMT 2017
User: dcchb
Spectrometer: FLMS00149
Trigger mode: 0
Integration Time (sec): 2.000000E-2
Scans to average: 10
Electric dark correction enabled: true
Nonlinearity correction enabled: false
Boxcar width: 0
XAxis mode: Wavelengths
Number of Pixels in Spectrum: 2048
>>>>>Begin Spectral Data<<<<<
341.393	-5.83
341.776	-5.83
342.16	-5.83
342.543	-84.02
342.927	-83.35
343.31	-54.65
343.693	-63.68
344.077	-84.93
344.46	-63.23
344.843	-48.32
345.226	-40.86
345.61	-27.3
345.993	-32.73
346.376	-16.68
346.759	-3.12
347.142	21.06
347.525	44.11
347.908	74.16
348.291	73.26
348.674	112.81
349.057	110.1
349.44	128.17
349.823	130.89
350.206	159.13
350.588	212.47
350.971	194.84
351.354	228.28
351.737	242.3
352.119	243.65
352.502	255.63
352.884	278.45
353.267	276.19
353.65	292.69
354.032	287.72
354.414	291.79
354.797	319.81
355.179	282.29
355.562	309.19
355.944	298.57
356.326	330.88
356.709	322.97
357.091	322.29
357.473	336.98
357.855	332.46
358.238	333.14
358.62	316.19
359.002	304.44
359.384	341.5
359.766	343.08
360.148	325.01
360.53	344.89
360.912	324.33
361.294	332.24
361.676	327.72
362.057	327.27
362.439	330.2
362.821	312.12
363.203	314.61
363.584	328.62
363.966	321.62
364.348	316.42
364.729	336.98
365.111	314.38
365.493	302.63
365.874	296.76
366.256	288.85
366.637	307.83
367.019	308.28
367.4	309.64
367.781	308.51
368.163	323.42
368.544	304.44
368.925	295.85
369.306	320.26
369.688	287.49
370.069	328.62
370.45	309.86
370.831	311.22
371.212	295.4
371.593	307.38
371.974	311.22
372.355	304.22
372.736	312.8
373.117	307.15
373.498	321.39
373.879	318.9
374.26	289.3
374.641	304.44
375.021	308.51
375.402	290.88
375.783	312.35
376.163	335.63
376.544	346.02
376.925	313.48
377.305	329.98
377.686	332.69
378.066	294.05
378.447	319.36
378.827	319.13
379.208	322.97
379.588	308.96
379.968	327.94
380.349	335.85
380.729	338.34
381.109	340.82
381.489	332.69
381.87	312.35
382.25	314.84
382.63	327.49
383.01	314.84
383.39	340.82
383.77	321.16
384.15	339.24
384.53	344.44
384.91	347.15
385.29	346.02
385.67	333.37
386.049	343.31
386.429	345.34
386.809	372.69
387.189	333.14
387.568	332.24
387.948	348.96
388.328	344.67
388.707	349.64
389.087	352.12
389.466	369.98
389.846	343.99
390.225	359.13
390.605	369.07
390.984	363.65
391.363	363.2
391.743	355.06
392.122	337.21
392.501	364.33
392.881	358.9
393.26	374.5
393.639	336.76
394.018	363.65
394.397	341.95
394.776	377.66
395.155	349.41
395.534	371.33
395.913	366.13
396.292	377.21
396.671	365.46
397.05	383.08
397.429	384.67
397.808	369.75
398.186	385.79
398.565	384.89
398.944	388.28
399.323	383.08
399.701	372.01
400.08	359.35
400.458	369.07
400.837	383.54
401.215	385.79
401.594	390.77
401.972	404.55
402.351	370.43
402.729	398.68
403.107	388.96
403.486	390.31
403.864	388.28
404.242	392.57
404.62	399.81
404.999	393.7
405.377	419.69
405.755	417.43
406.133	386.25
406.511	394.61
406.889	404.33
407.267	395.96
407.645	398.22
408.023	424.66
408.401	409.52
408.779	409.07
409.156	422.4
409.534	421.5
409.912	409.52
410.29	415.17
410.667	431.22
411.045	430.09
411.422	426.92
411.8	434.38
412.178	442.97
412.555	446.13
412.933	446.13
413.31	419.47
413.687	445.23
414.065	450.2
414.442	451.78
414.819	469.86
415.197	458.34
415.574	469.41
415.951	477.32
416.328	473.25
416.705	466.47
417.082	460.14
417.46	484.55
417.837	466.24
418.214	483.65
418.591	477.32
418.967	490.65
419.344	487.94
419.721	484.55
420.098	500.82
420.475	498.33
420.852	511.89
421.228	497.66
421.605	508.5
421.982	503.98
422.358	517.54
422.735	512.35
423.111	517.32
423.488	512.12
423.864	524.32
424.241	520.93
424.617	524.32
424.994	534.94
425.37	534.72
425.746	533.36
426.123	531.33
426.499	535.62
426.875	529.75
427.251	534.27
427.627	566.13
428.003	547.37
428.379	550.76
428.756	536.07
429.132	567.94
429.507	571.78
429.883	586.02
430.259	598.67
430.635	579.46
431.011	582.85
431.387	592.34
431.763	597.99
432.138	606.81
432.514	579.01
432.89	613.81
433.265	606.35
433.641	622.62
434.016	625.56
434.392	629.18
434.767	626.47
435.143	629.18
435.518	621.72
435.894	653.81
436.269	654.04
436.644	665.11
437.02	646.58
437.395	640.7
437.77	668.73
438.145	675.05
438.52	680.25
438.895	690.65
439.271	690.19
439.646	679.8
440.021	700.14
440.395	691.55
440.77	698.56
441.145	697.43
441.52	707.37
441.895	727.93
442.27	715.96
442.645	715.28
443.019	714.37
443.394	698.33
443.769	741.49
444.143	718.89
444.518	715.05
444.892	722.28
445.267	741.72
445.641	750.53
446.016	749.85
446.39	750.31
446.764	736.52
447.139	780.81
447.513	784.88
447.887	739.91
448.262	762.06
448.636	770.64
449.01	771.77
449.384	788.72
449.758	805.9
450.132	803.64
450.506	804.09
450.88	818.78
451.254	832.11
451.628	809.96
452.002	809.51
452.376	848.83
452.75	815.39
453.123	817.42
453.497	851.77
453.871	840.47
454.244	871.88
454.618	849.29
454.992	859.68
455.365	856.29
455.739	889.28
456.112	874.82
456.486	888.38
456.859	909.17
457.232	915.5
457.606	908.95
457.979	949.62
458.352	939
458.725	959.57
459.099	944.42
459.472	967.25
459.845	976.74
460.218	949.4
460.591	954.14
460.964	998.89
461.337	1010.86
461.71	1022.61
462.083	1030.75
462.456	1023.97
462.829	1008.15
463.201	1052.44
463.574	1035.27
463.947	1088.15
464.32	1107.13
464.692	1100.58
465.065	1091.09
465.438	1107.81
465.81	1097.19
466.183	1146.45
466.555	1161.59
466.928	1175.6
467.3	1153.68
467.672	1169.96
468.045	1188.26
468.417	1204.53
468.789	1232.55
469.161	1239.78
469.534	1253.34
469.906	1276.17
470.278	1279.33
470.65	1317.52
471.022	1335.6
471.394	1363.17
471.766	1334.24
472.138	1377.18
472.51	1408.37
472.882	1417.63
473.253	1460.12
473.625	1436.61
473.997	1498.53
474.369	1471.87
474.74	1507.35
475.112	1517.06
475.484	1552.09
475.855	1581.7
476.227	1576.95
476.598	1630.06
476.97	1646.78
477.341	1683.61
477.713	1741.92
478.084	1724.52
478.455	1791.41
478.827	1778.53
479.198	1832.99
479.569	1856.04
479.94	1926.77
480.311	1918.64
480.682	1971.52
481.053	2008.8
481.424	2071.17
481.795	2079.31
482.166	2081.34
482.537	2123.83
482.908	2175.13
483.279	2166.77
483.65	2217.16
484.021	2270.04
484.391	2300.32
484.762	2343.26
485.133	2408.11
485.503	2417.15
485.874	2457.6
486.244	2479.98
486.615	2553.42
486.985	2559.07
487.356	2649.01
487.726	2635
488.097	2698.28
488.467	2702.57
488.837	2787.54
489.207	2804.26
489.578	2827.31
489.948	2871.15
490.318	2922.68
490.688	2939.4
491.058	3009.23
491.428	3026.86
491.798	3046.52
492.168	3121.32
492.538	3164.48
492.908	3213.07
493.278	3226.4
493.648	3251.71
494.017	3310.24
494.387	3316.57
494.757	3328.54
495.126	3367.41
495.496	3399.28
495.866	3439.27
496.235	3472.95
496.605	3485.37
496.974	3479.95
497.344	3540.51
497.713	3563.79
498.082	3615.31
498.452	3655.99
498.821	3667.74
499.19	3688.76
499.559	3741.19
499.928	3728.76
500.298	3743.67
500.667	3807.63
501.036	3804.46
501.405	3849.21
501.774	3835.87
502.143	3889.66
502.512	3900.73
502.88	3933.95
503.249	3903.44
503.618	3975.98
503.987	3979.15
504.356	3997.45
504.724	4045.81
505.093	4052.82
505.462	4066.15
505.83	4086.49
506.199	4114.96
506.567	4161.51
506.936	4139.59
507.304	4179.59
507.672	4208.97
508.041	4212.81
508.409	4236.09
508.777	4314.51
509.145	4286.71
509.514	4311.57
509.882	4306.6
510.25	4381.17
510.618	4347.95
510.986	4346.14
511.354	4440.83
511.722	4429.98
512.09	4462.75
512.458	4434.73
512.826	4518.12
513.193	4536.87
513.561	4467.72
513.929	4525.57
514.297	4589.07
514.664	4596.98
515.032	4616.64
515.4	4602.86
515.767	4690.99
516.135	4672.91
516.502	4646.25
516.869	4718.34
517.237	4713.36
517.604	4688.28
517.972	4764.89
518.339	4762.85
518.706	4768.96
519.073	4785.68
519.44	4801.27
519.808	4920.82
520.175	4824.77
520.542	4833.14
520.909	4911.1
521.276	4959.46
521.643	4980.7
522.009	5052.34
522.376	5028.38
522.743	5017.76
523.11	5066.35
523.477	5114.26
523.843	5113.13
524.21	5146.8
524.577	5189.06
524.943	5240.81
525.31	5260.7
525.676	5275.84
526.043	5269.96
526.409	5326.23
526.776	5376.4
527.142	5367.13
527.508	5374.36
527.874	5459.79
528.241	5477.19
528.607	5421.14
528.973	5487.13
529.339	5490.52
529.705	5564.42
530.071	5603.28
530.437	5624.53
530.803	5608.03
531.169	5693
531.535	5669.5
531.901	5625.21
532.267	5697.07
532.632	5770.51
532.998	5776.39
533.364	5816.39
533.73	5824.07
534.095	5856.84
534.461	5871.98
534.826	5878.08
535.192	5938.87
535.557	5985.2
535.923	5942.71
536.288	5954.91
536.653	6060.67
537.019	6034.46
537.384	6083.72
537.749	6119.2
538.114	6101.12
538.479	6081.01
538.845	6161.46
539.21	6135.7
539.575	6176.38
539.94	6191.97
540.305	6239.88
540.67	6241.46
541.034	6351.74
541.399	6322.14
541.764	6297.96
542.129	6353.32
542.494	6405.3
542.858	6440.33
543.223	6440.33
543.587	6426.31
543.952	6462.7
544.316	6493.66
544.681	6512.41
545.045	6569.81
545.41	6585.18
545.774	6617.95
546.138	6711.96
546.503	6661.11
546.867	6709.7
547.231	6777.94
547.595	6700.88
547.959	6805.06
548.324	6798.73
548.688	6810.26
549.052	6815.46
549.416	6804.84
549.779	6895.23
550.143	6875.57
550.507	6976.58
550.871	6939.07
551.235	6926.64
551.599	7005.73
551.962	7019.29
552.326	6992.4
552.689	7056.81
553.053	7030.37
553.417	7040.54
553.78	7191.49
554.143	7171.15
554.507	7172.28
554.87	7193.53
555.234	7271.26
555.597	7213.86
555.96	7231.04
556.323	7280.75
556.686	7306.06
557.05	7336.35
557.413	7359.62
557.776	7370.7
558.139	7359.85
558.502	7384.71
558.865	7482.78
559.228	7536.57
559.59	7501.09
559.953	7521.88
560.316	7610.92
560.679	7556.91
561.041	7592.84
561.404	7657.47
561.767	7602.1
562.129	7701.31
562.492	7784.47
562.854	7733.4
563.217	7788.99
563.579	7800.97
563.941	7838.48
564.304	7842.1
564.666	7943.34
565.028	7885.48
565.39	7932.72
565.753	7955.09
566.115	8064.92
566.477	8048.87
566.839	8064.01
567.201	8117.8
567.563	8122.09
567.925	8224.68
568.287	8113.95
568.648	8228.3
569.01	8197.79
569.372	8219.94
569.734	8280.05
570.095	8332.03
570.457	8396.66
570.819	8421.74
571.18	8438.24
571.542	8494.51
571.903	8536.99
572.265	8579.48
572.626	8598.69
572.987	8631.68
573.349	8637.33
573.71	8726.14
574.071	8834.16
574.432	8811.11
574.794	8917.32
575.155	9005.46
575.516	8920.94
575.877	8993.93
576.238	9105.57
576.599	9124.77
576.96	9199.57
577.32	9276.86
577.681	9281.38
578.042	9449.74
578.403	9455.61
578.763	9562.95
579.124	9615.61
579.485	9788.03
579.845	9827.58
580.206	9876.17
580.566	9979.22
580.927	10122.04
581.287	10260.56
581.648	10290.85
582.008	10441.8
582.368	10563.61
582.728	10720.66
583.089	10807.44
583.449	10943.03
583.809	11091.5
584.169	11294.43
584.529	11374.21
584.889	11623.24
585.249	11727.64
585.609	11886.06
585.969	12135.09
586.329	12220.51
586.688	12486.95
587.048	12629.31
587.408	12786.37
587.768	12998.34
588.127	13132.13
588.487	13390.42
588.846	13685.33
589.206	13681.26
589.565	14055.04
589.925	14288.71
590.284	14572.99
590.643	14764.4
591.003	15010.72
591.362	15313.31
591.721	15482.35
592.08	15821.77
592.44	16082.33
592.799	16323.45
593.158	16512.38
593.517	16835.53
593.876	17127.95
594.235	17395.97
594.593	17674.38
594.952	17927.48
595.311	18130.64
595.67	18435.94
596.029	18866.66
596.387	19042.93
596.746	19471.62
597.104	19581
597.463	19857.37
597.822	20169.91
598.18	20424.36
598.538	20724.24
598.897	21069.09
599.255	21232.48
599.613	21799.92
599.972	21889.41
600.33	22223.86
600.688	22487.59
601.046	22738.43
601.404	23071.75
601.762	23358.98
602.12	23703.37
602.478	23909.92
602.836	24150.82
603.194	24280.31
603.552	24620.41
603.91	24715.78
604.268	25097.01
604.625	25322.99
604.983	25744.68
605.341	25768.86
605.698	26161.61
606.056	26400.7
606.413	26632.56
606.771	26829.85
607.128	27178.99
607.485	27381.47
607.843	27553.22
608.2	27778.52
608.557	28195.69
608.914	28257.15
609.272	28596.8
609.629	28885.61
609.986	29256.22
610.343	29311.59
610.7	29628.19
611.057	29676.78
611.414	29882.19
611.771	30146.14
612.127	30308.85
612.484	30422.07
612.841	30869.51
613.198	30769.18
613.554	31014.14
613.911	31372.1
614.267	31483.96
614.624	31627.91
614.98	31806.66
615.337	32164.17
615.693	32118.29
616.05	32392.64
616.406	32585.17
616.762	32583.82
617.118	32804.38
617.475	32890.7
617.831	33118.04
618.187	33257.7
618.543	33447.3
618.899	33744.01
619.255	33798.25
619.611	33775.43
619.967	33955.99
620.323	34303.55
620.678	34200.5
621.034	34294.96
621.39	34395.52
621.746	34415.86
622.101	34811.56
622.457	34708.73
622.812	34910.08
623.168	35051.32
623.523	35191.89
623.879	35299.23
624.234	35222.39
624.589	35482.95
624.945	35481.14
625.3	35652.44
625.655	35658.77
626.01	35828.7
626.365	35860.57
626.72	35983.73
627.075	35921.36
627.43	35896.95
627.785	35982.83
628.14	36049.26
628.495	36197.73
628.85	36112.54
629.205	36176.49
629.559	36488.8
629.914	36135.14
630.269	36331.74
630.623	36277.28
630.978	36213.55
631.332	36505.3
631.687	36637.72
632.041	36432.3
632.396	36701.45
632.75	36556.6
633.104	36625.75
633.459	36373.78
633.813	36510.72
634.167	36530.83
634.521	36462.36
634.875	36712.3
635.229	36455.36
635.583	36535.13
635.937	36586.65
636.291	36656.48
636.645	36570.38
636.999	36513.66
637.352	36707.33
637.706	36527.44
638.06	36590.94
638.413	36537.39
638.767	36588.23
639.121	36531.51
639.474	36388.01
639.828	36415.81
640.181	36559.99
640.534	36608.57
640.888	36404.06
641.241	36450.61
641.594	36458.07
641.947	36658.51
642.301	36473.66
642.654	36453.77
643.007	36500.33
643.36	36569.02
643.713	36564.96
644.066	36533.77
644.419	36348.01
644.771	36105.53
645.124	35886.33
645.477	35872.55
645.83	35656.05
646.182	35505.55
646.535	35327.7
646.888	35563.63
647.24	35265.78
647.593	35453.35
647.945	35317.53
648.298	35282.73
648.65	35204.09
649.002	35145.78
649.355	35253.8
649.707	35291.32
650.059	35360.47
650.411	35728.59
650.763	35887.01
651.115	36197.51
651.467	36162.71
651.819	36085.42
652.171	35994.12
652.523	35948.7
652.875	35953.22
653.227	35780.34
653.578	36086.1
653.93	36150.73
654.282	35964.52
654.633	35752.1
654.985	35884.97
655.337	35876.16
655.688	35895.82
656.039	35955.48
656.391	35635.04
656.742	35708.48
657.094	35786.67
657.445	35887.46
657.796	35704.87
658.147	35798.2
658.498	35703.06
658.849	35705.77
659.2	35910.74
659.551	35635.26
659.902	35746
660.253	35830.29
660.604	35751.19
660.955	35523.18
661.306	35695.37
661.656	35677.3
662.007	35646.79
662.358	35676.39
662.708	35614.02
663.059	35690.18
663.409	35482.95
663.76	35717.97
664.11	35737.63
664.461	35804.52
664.811	35643.62
665.161	35693.34
665.511	35599.56
665.862	35656.73
666.212	35737.86
666.562	35588.26
666.912	35656.05
667.262	35589.62
667.612	35618.99
667.962	35697.18
668.312	35602.04
668.662	35848.14
669.011	35624.19
669.361	35538.77
669.711	35480.92
670.06	35530.86
670.41	35512.78
670.76	35477.98
671.109	35574.7
671.459	35519.11
671.808	35524.53
672.157	35583.06
672.507	35268.04
672.856	35393.91
673.205	35310.07
673.554	35397.98
673.904	35390.07
674.253	35466.68
674.602	35276.63
674.951	34734.95
675.3	34659.92
675.649	35317.08
675.998	35169.51
676.346	35156.63
676.695	35340.81
677.044	35084.32
677.393	35176.74
677.741	35129.74
678.09	35079.57
678.438	34924.1
678.787	35071.66
679.135	35208.61
679.484	34905.79
679.832	34966.58
680.181	34802.07
680.529	35043.19
680.877	34862.4
681.225	34799.35
681.573	34944.43
681.922	34798.45
682.27	34721.62
682.618	34630.32
682.966	34598.91
683.314	34708.96
683.661	34527.72
684.009	34387.84
684.357	34192.82
684.705	34238.46
685.053	34295.41
685.4	34073.72
685.748	34112.82
686.095	34070.56
686.443	33857.91
686.79	33818.14
687.138	34005.7
687.485	33950.56
687.832	33654.07
688.18	33886.61
688.527	33543.34
688.874	33770.45
689.221	33690.23
689.568	33647.75
689.915	33445.49
690.262	33533.17
690.609	33373.4
690.956	33244.82
691.303	33133.63
691.65	33156.23
691.997	33083.01
692.344	32924.37
692.69	32856.81
693.037	32950.81
693.383	32694.78
693.73	32814.77
694.077	32608.68
694.423	32516.25
694.769	32429.7
695.116	32490.49
695.462	32400.55
695.808	32125.53
696.155	32261.79
696.501	32010.27
696.847	32036.94
697.193	31787.23
697.539	31976.6
697.885	31640.11
698.231	31567.57
698.577	31601.47
698.923	31524.64
699.269	31365.32
699.614	31224.98
699.96	31158.55
700.306	31240.12
700.651	31001.94
700.997	31093.01
701.342	30989.51
701.688	30816.41
702.033	30713.81
702.379	30753.58
702.724	30624.1
703.069	30739.57
703.415	30340.04
703.76	30420.49
704.105	30411.67
704.45	30356.31
704.795	30105.47
705.14	30055.52
705.485	30067.5
705.83	30045.81
706.175	29932.36
706.52	29928.52
706.865	29789.77
707.209	29680.62
707.554	29498.02
707.899	29567.17
708.243	29502.77
708.588	29396.78
708.932	29278.59
709.277	29357.69
709.621	29214.64
709.966	29006.29
710.31	29075.21
710.654	28979.62
710.998	28962.44
711.342	29006.51
711.687	28905.72
712.031	28842.67
712.375	28620.76
712.719	28783.01
713.063	28576.01
713.407	28745.95
713.75	28485.85
714.094	28493.53
714.438	28378.73
714.782	28381.67
715.125	28350.71
715.469	28301.45
715.812	28199.3
716.156	28073.88
716.499	28056.48
716.843	28028.23
717.186	28056.71
717.53	28044.28
717.873	28031.4
718.216	28027.33
718.559	27865.52
718.902	27762.48
719.246	27712.53
719.589	27593.89
719.932	27566.55
720.275	27558.41
720.617	27448.81
720.96	27432.09
721.303	27403.84
721.646	27395.25
721.989	27168.37
722.331	27227.58
722.674	27186.67
723.016	27168.59
723.359	27156.16
723.701	27150.74
724.044	27043.4
724.386	26936.96
724.729	26948.94
725.071	26880.69
725.413	27023.96
725.755	26924.08
726.097	26732.67
726.439	26673.69
726.782	26744.88
727.124	26744.65
727.465	26649.51
727.807	26655.16
728.149	26478.44
728.491	26487.71
728.833	26482.06
729.175	26371.55
729.516	26412.68
729.858	26360.03
730.199	26398.22
730.541	26263.08
730.882	26341.04
731.224	26339.46
731.565	26077.1
731.906	26073.93
732.248	26178.11
732.589	26059.47
732.93	25898.34
733.271	25939.25
733.612	25992.81
733.953	25989.42
734.294	25912.36
734.635	25708.52
734.976	25820.61
735.317	25636.2
735.658	25712.81
735.999	25796.88
736.339	25518.47
736.68	25667.39
737.021	25532.48
737.361	25494.51
737.702	25643.66
738.042	25467.85
738.383	25401.41
738.723	25436.21
739.063	25384.91
739.404	25349.43
739.744	25207.52
740.084	25219.72
740.424	25273.28
740.764	25199.61
741.104	25324.35
741.444	25134.07
741.784	25095.65
742.124	25143.79
742.464	25076.22
742.804	24955.77
743.143	24989.44
743.483	25038.25
743.823	24899.5
744.162	24876.45
744.502	24963.91
744.841	24777.24
745.181	24836.23
745.52	24748.77
745.86	24716.68
746.199	24591.94
746.538	24699.73
746.877	24718.04
747.216	24689.11
747.556	24504.48
747.895	24504.48
748.234	24521.66
748.573	24491.38
748.911	24482.56
749.25	24448.21
749.589	24288.44
749.928	24333.87
750.267	24341.32
750.605	24183.14
750.944	24210.03
751.283	24071.05
751.621	24177.49
751.96	23960.77
752.298	24077.38
752.636	24070.37
752.975	23984.95
753.313	23950.6
753.651	24059.75
753.989	23852.75
754.327	23832.64
754.666	23843.03
755.004	23875.57
755.342	23714
755.679	23763.26
756.017	23643.71
756.355	23668.35
756.693	23497.05
757.031	23482.81
757.368	23508.58
757.706	23337.06
758.044	23297.06
758.381	23299.77
758.719	23254.12
759.056	23346.55
759.394	23113.78
759.731	23114.91
760.068	22982.49
760.405	23060.9
