Data from hue_24_FLMS001491_00056.txt Node
Date: Tue Feb 07 17:12:27 GMT 2017
User: dcchb
Spectrometer: FLMS00149
Trigger mode: 0
Integration Time (sec): 2.000000E-2
Scans to average: 10
Electric dark correction enabled: true
Nonlinearity correction enabled: false
Boxcar width: 0
XAxis mode: Wavelengths
Number of Pixels in Spectrum: 2048
>>>>>Begin Spectral Data<<<<<
341.393	-7.12
341.776	-7.12
342.16	-7.12
342.543	-63.16
342.927	-62.71
343.31	-55.93
343.693	-74.24
344.077	-67.91
344.46	-73.78
344.843	-53.9
345.226	-33.33
345.61	-20.9
345.993	-24.29
346.376	1.02
346.759	3.05
347.142	7.12
347.525	45.76
347.908	62.71
348.291	74.24
348.674	90.51
349.057	119.88
349.44	129.15
349.823	145.19
350.206	171.41
350.588	172.31
350.971	222.48
351.354	211.86
351.737	245.76
352.119	245.76
352.502	267
352.884	271.52
353.267	286.21
353.65	311.74
354.032	315.58
354.414	307.68
354.797	310.61
355.179	322.82
355.562	313.55
355.944	337.28
356.326	341.8
356.709	323.49
357.091	355.81
357.473	362.36
357.855	338.41
358.238	342.25
358.62	328.69
359.002	336.6
359.384	352.65
359.766	322.14
360.148	347.45
360.53	344.28
360.912	364.4
361.294	334.57
361.676	343.83
362.057	330.5
362.439	341.12
362.821	321.69
363.203	322.14
363.584	307.9
363.966	331.86
364.348	339.99
364.729	322.82
365.111	337.73
365.493	327.79
365.874	309.03
366.256	311.52
366.637	304.29
367.019	320.78
367.4	313.33
367.781	313.78
368.163	304.06
368.544	329.6
368.925	319.88
369.306	302.7
369.688	306.32
370.069	316.04
370.45	319.65
370.831	317.62
371.212	327.34
371.593	319.43
371.974	303.61
372.355	290.05
372.736	314
373.117	325.98
373.498	297.51
373.879	302.93
374.26	307.68
374.641	307.9
375.021	331.86
375.402	330.5
375.783	325.08
376.163	319.2
376.544	336.83
376.925	342.7
377.305	330.73
377.686	337.28
378.066	332.53
378.447	350.16
378.827	329.37
379.208	330.95
379.588	327.79
379.968	326.66
380.349	351.74
380.729	351.06
381.109	339.09
381.489	331.63
381.87	346.09
382.25	353.32
382.63	333.89
383.01	324.62
383.39	343.61
383.77	355.13
384.15	340.89
384.53	349.48
384.91	339.99
385.29	339.99
385.67	346.09
386.049	361.23
386.429	339.31
386.809	358.07
387.189	361.46
387.568	370.5
387.948	361.91
388.328	352.65
388.707	382.02
389.087	354.68
389.466	360.56
389.846	367.33
390.225	363.95
390.605	361.01
390.984	354.45
391.363	370.95
391.743	343.83
392.122	377.5
392.501	368.01
392.881	359.43
393.26	387.22
393.639	349.48
394.018	377.28
394.397	382.48
394.776	384.06
395.155	365.08
395.534	376.37
395.913	380.22
396.292	391.74
396.671	398.52
397.05	393.1
397.429	396.94
397.808	376.83
398.186	400.78
398.565	380.89
398.944	366.66
399.323	402.59
399.701	407.56
400.08	374.79
400.458	387
400.837	394.45
401.215	384.96
401.594	398.52
401.972	396.49
402.351	404.85
402.729	415.24
403.107	404.4
403.486	395.58
403.864	431.51
404.242	408.92
404.62	413.21
404.999	402.36
405.377	407.56
405.755	412.98
406.133	438.07
406.511	405.53
406.889	416.6
407.267	431.06
407.645	428.58
408.023	395.58
408.401	425.41
408.779	418.86
409.156	432.19
409.534	434.68
409.912	440.55
410.29	442.81
410.667	471.06
411.045	448.46
411.422	440.55
411.8	457.73
412.178	457.05
412.555	439.88
412.933	461.12
413.31	455.02
413.687	483.26
414.065	487.11
414.442	474.22
414.819	479.87
415.197	494.11
415.574	484.39
415.951	466.09
416.328	488.46
416.705	488.01
417.082	484.39
417.46	504.05
417.837	479.42
418.214	501.79
418.591	494.34
418.967	528.69
419.344	495.69
419.721	497.73
420.098	493.89
420.475	499.53
420.852	498.4
421.228	514.22
421.605	524.62
421.982	520.33
422.358	497.95
422.735	529.14
423.111	535.01
423.488	528.69
423.864	529.14
424.241	523.72
424.617	543.6
424.994	542.02
425.37	543.15
425.746	556.71
426.123	543.83
426.499	571.17
426.875	527.78
427.251	566.88
427.627	553.54
428.003	557.16
428.379	572.3
428.756	580.66
429.132	594.67
429.507	602.13
429.883	584.28
430.259	588.35
430.635	571.85
431.011	581.34
431.387	594.22
431.763	615.24
432.138	604.84
432.514	630.6
432.89	635.12
433.265	611.85
433.641	636.93
434.016	649.59
434.392	630.15
434.767	643.26
435.143	640.55
435.518	654.56
435.894	661.34
436.269	652.3
436.644	667.67
437.02	667.67
437.395	660.43
437.77	698.4
438.145	667.21
438.52	680.77
438.895	679.42
439.271	690.94
439.646	719.64
440.021	714.22
440.395	702.92
440.77	695.01
441.145	724.61
441.52	735.23
441.895	721.45
442.27	708.34
442.645	743.37
443.019	753.99
443.394	731.39
443.769	749.47
444.143	747.21
444.518	752.64
444.892	735.01
445.267	735.01
445.641	748.57
446.016	758.96
446.39	776.14
446.764	773.88
447.139	774.33
447.513	790.37
447.887	784.73
448.262	782.01
448.636	798.96
449.01	795.35
449.384	787.89
449.758	798.51
450.132	830.15
450.506	817.72
450.88	832.18
451.254	814.55
451.628	813.65
452.002	850.49
452.376	828.11
452.75	815.91
453.123	852.52
453.497	869.24
453.871	873.76
454.244	879.64
454.618	870.15
454.992	867.89
455.365	876.93
455.739	896.59
456.112	934.33
456.486	920.31
456.859	918.05
457.232	935.46
457.606	966.42
457.979	967.32
458.352	971.39
458.725	978.62
459.099	989.69
459.472	1013.65
459.845	977.26
460.218	983.36
460.591	995.79
460.964	1005.28
461.337	1048.45
461.71	1055
462.083	1054.1
462.456	1058.62
462.829	1065.4
463.201	1092.97
463.574	1079.86
463.947	1079.63
464.32	1133.19
464.692	1114.66
465.065	1144.72
465.438	1139.74
465.81	1136.81
466.183	1180.19
466.555	1185.39
466.928	1178.39
467.3	1180.87
467.672	1203.47
468.045	1246.18
468.417	1257.03
468.789	1246.41
469.161	1273.75
469.534	1304.49
469.906	1309.46
470.278	1315.33
470.65	1344.48
471.022	1348.33
471.394	1389
471.766	1378.16
472.138	1416.8
472.51	1479.85
472.882	1477.14
473.253	1492.96
473.625	1491.83
473.997	1557.59
474.369	1518.04
474.74	1559.39
475.112	1557.13
475.484	1597.13
475.855	1664.7
476.227	1640.3
476.598	1719.62
476.97	1711.25
477.341	1754.19
477.713	1788.99
478.084	1810.91
478.455	1843.23
478.827	1862.89
479.198	1944.47
479.569	1964.36
479.94	1992.15
480.311	1991.25
480.682	2028.99
481.053	2091.81
481.424	2145.37
481.795	2137.68
482.166	2194.41
482.537	2208.19
482.908	2282.76
483.279	2344.01
483.65	2354.4
484.021	2385.59
484.391	2458.35
484.762	2511.23
485.133	2506.71
485.503	2569.99
485.874	2616.32
486.244	2643.43
486.615	2700.61
486.985	2751.45
487.356	2806.59
487.726	2828.06
488.097	2893.6
488.467	2908.29
488.837	2981.28
489.207	2999.13
489.578	3047.72
489.948	3117.09
490.318	3177.43
490.688	3180.59
491.058	3190.99
491.428	3305.34
491.798	3336.75
492.168	3394.15
492.538	3333.81
492.908	3489.74
493.278	3564.77
493.648	3535.84
494.017	3577.65
494.387	3640.02
494.757	3682.28
495.126	3688.15
495.496	3717.08
495.866	3762.73
496.235	3813.12
496.605	3837.75
496.974	3874.81
497.344	3941.03
497.713	3977.64
498.082	3993.45
498.452	4003.85
498.821	4054.24
499.19	4060.35
499.559	4113.9
499.928	4064.41
500.298	4199.55
500.667	4216.95
501.036	4194.58
501.405	4199.55
501.774	4231.41
502.143	4283.16
502.512	4310.28
502.88	4307.8
503.249	4357.74
503.618	4400.68
503.987	4441.58
504.356	4466.66
504.724	4499.88
505.093	4514.8
505.462	4512.54
505.83	4575.13
506.199	4576.94
506.567	4654
506.936	4598.64
507.304	4663.95
507.672	4697.16
508.041	4694
508.409	4700.55
508.777	4782.36
509.145	4829.36
509.514	4834.34
509.882	4842.02
510.25	4818.07
510.618	4896.71
510.986	4865.97
511.354	4936.93
511.722	4944.62
512.09	4980.77
512.458	5014.67
512.826	5079.08
513.193	5025.52
513.561	5034.33
513.929	5100.77
514.297	5112.97
514.664	5119.53
515.032	5156.59
515.4	5165.85
515.767	5191.16
516.135	5265.96
516.502	5179.19
516.869	5215.57
517.237	5257.6
517.604	5295.79
517.972	5309.35
518.339	5374.89
518.706	5397.94
519.073	5355.45
519.44	5382.57
519.808	5420.99
520.175	5407.43
520.542	5498.27
520.909	5484.94
521.276	5528.1
521.643	5529.69
522.009	5642.9
522.376	5592.51
522.743	5602.9
523.11	5712.28
523.477	5738.72
523.843	5768.32
524.21	5784.82
524.577	5830.24
524.943	5843.58
525.31	5851.48
525.676	5935.32
526.043	5973.52
526.409	5955.89
526.776	6025.27
527.142	6013.06
527.508	6032.95
527.874	6097.13
528.241	6156.79
528.607	6170.35
528.973	6178.71
529.339	6207.86
529.705	6280.85
530.071	6302.55
530.437	6293.96
530.803	6314.98
531.169	6354.07
531.535	6347.29
531.901	6394.97
532.267	6416.89
532.632	6462.54
532.998	6498.25
533.364	6566.04
533.73	6536.66
534.095	6581.41
534.461	6658.47
534.826	6650.79
535.192	6675.42
535.557	6718.35
535.923	6759.26
536.288	6785.47
536.653	6781.4
537.019	6769.88
537.384	6790.44
537.749	6768.52
538.114	6884
538.479	6908.63
538.845	6879.25
539.21	6893.94
539.575	6984.79
539.94	6966.71
540.305	7048.52
540.67	7020.49
541.034	7020.27
541.399	7109.08
541.764	7153.82
542.129	7126.25
542.494	7130.55
542.858	7253.93
543.223	7213.93
543.587	7288.73
543.952	7313.37
544.316	7301.84
544.681	7324.89
545.045	7302.29
545.41	7434.04
545.774	7472.23
546.138	7458.22
546.503	7503.87
546.867	7474.72
547.231	7559.24
547.595	7530.54
547.959	7595.17
548.324	7644.66
548.688	7626.58
549.052	7630.42
549.416	7661.38
549.779	7718.78
550.143	7715.84
550.507	7762.39
550.871	7807.14
551.235	7819.57
551.599	7884.2
551.962	7931.43
552.326	7909.74
552.689	7949.28
553.053	7929.17
553.417	8002.39
553.78	8075.83
554.143	8031.99
554.507	8081.03
554.87	8094.14
555.234	8152.89
555.597	8147.7
555.96	8198.99
556.323	8207.81
556.686	8181.82
557.05	8244.42
557.413	8282.38
557.776	8317.63
558.139	8323.96
558.502	8386.56
558.865	8307.47
559.228	8391.53
559.59	8493.67
559.953	8416.16
560.316	8480.57
560.679	8519.66
561.041	8603.28
561.404	8615.03
561.767	8657.51
562.129	8647.8
562.492	8710.84
562.854	8791.07
563.217	8743.61
563.579	8763.5
563.941	8828.36
564.304	8872.87
564.666	8958.75
565.028	8921.69
565.39	8914.23
565.753	9008.92
566.115	9024.06
566.477	9043.72
566.839	9070.38
567.201	9150.38
567.563	9127.1
567.925	9216.37
568.287	9185.86
568.648	9200.55
569.01	9282.58
569.372	9340.66
569.734	9320.55
570.095	9421.56
570.457	9481.9
570.819	9465.85
571.18	9528
571.542	9576.58
571.903	9560.77
572.265	9663.14
572.626	9668.11
572.987	9727.54
573.349	9758.73
573.71	9798.27
574.071	9851.38
574.432	9927.76
574.794	10044.14
575.155	10069.68
575.516	10066.06
575.877	10174.31
576.238	10208.88
576.599	10247.3
576.96	10385.15
577.32	10401.87
577.681	10523.45
578.042	10561.87
578.403	10661.3
578.763	10810.9
579.124	10824.91
579.485	10957.34
579.845	11126.6
580.206	11151.46
580.566	11301.28
580.927	11329.53
581.287	11469.42
581.648	11591.22
582.008	11686.13
582.368	11833.47
582.728	12012.9
583.089	12072.56
583.449	12223.52
583.809	12470.75
584.169	12549.84
584.529	12720.68
584.889	12988.92
585.249	13111.63
585.609	13207.45
585.969	13506.65
586.329	13751.62
586.688	13941.89
587.048	14090.59
587.408	14403.35
587.768	14534.19
588.127	14803.11
588.487	14990
588.846	15296.43
589.206	15400.16
589.565	15706.14
589.925	16047.15
590.284	16298.67
590.643	16529.85
591.003	16848.03
591.362	17124.18
591.721	17350.17
592.08	17664.28
592.44	17941.34
592.799	18215
593.158	18528.89
593.517	18818.6
593.876	19073.28
594.235	19372.71
594.593	19803.89
594.952	20003.2
595.311	20319.13
595.67	20592.79
596.029	21080.91
596.387	21368.59
596.746	21569.04
597.104	21914.11
597.463	22163.82
597.822	22614.66
598.18	22812.17
598.538	23084.93
598.897	23444.02
599.255	23573.5
599.613	24266.59
599.972	24368.74
600.33	24706.81
600.688	24960.59
601.046	25323.74
601.404	25725.09
601.762	25885.53
602.12	26301.34
602.478	26725.29
602.836	26892.29
603.194	27072.85
603.552	27335.67
603.91	27582.44
604.268	27934.75
604.625	28129.99
604.983	28574.5
605.341	28729.98
605.698	29000.25
606.056	29463.29
606.413	29533.35
606.771	29993.9
607.128	30244.97
607.485	30290.62
607.843	30495.13
608.2	30885.85
608.557	31265.96
608.914	31410.36
609.272	31885.38
609.629	32051.47
609.986	32312.94
610.343	32438.13
610.7	32708.18
611.057	32917.21
611.414	33123.54
611.771	33363.3
612.127	33645.33
612.484	33861.14
612.841	34089.61
613.198	33969.62
613.554	34235.37
613.911	34713.55
614.267	34783.15
614.624	34967.1
614.98	35109.02
615.337	35476.02
615.693	35605.5
616.05	35670.59
616.406	36158.26
616.762	36027.64
617.118	36171.14
617.475	36260.85
617.831	36595.76
618.187	36810.44
618.543	36789.2
618.899	37163.43
619.255	37307.83
619.611	37367.94
619.967	37578.33
620.323	37785.79
620.678	37711.21
621.034	37847.03
621.39	37956.63
621.746	37960.92
622.101	38476.84
622.457	38262.61
622.812	38598.87
623.168	38562.71
623.523	38836.38
623.879	38863.05
624.234	38762.26
624.589	39175.58
624.945	39071.85
625.3	39251.96
625.655	39251.96
626.01	39347.1
626.365	39448.12
626.72	39531.73
627.075	39470.94
627.43	39603.37
627.785	39557.04
628.14	39681.56
628.495	39846.52
628.85	39963.13
629.205	39666.41
629.559	40067.08
629.914	39811.72
630.269	39942.11
630.623	39893.53
630.978	39929.01
631.332	40253.74
631.687	40364.93
632.041	40219.85
632.396	40284.93
632.75	40247.19
633.104	40197.25
633.459	40081.77
633.813	40168.55
634.167	40164.48
634.521	40106.63
634.875	40239.51
635.229	40243.8
635.583	40108.44
635.937	40026.18
636.291	40256.68
636.645	40237.93
636.999	40265.95
637.352	40318.6
637.706	40103.47
638.06	40303.69
638.413	40241.77
638.767	40143.46
639.121	40210.36
639.474	40020.3
639.828	40185.5
640.181	40174.88
640.534	40227.98
640.888	40047.87
641.241	39974.88
641.594	40059.17
641.947	40243.8
642.301	40142.79
642.654	40263.01
643.007	40257.81
643.36	40122.9
643.713	40035.22
644.066	40328.77
644.419	40062.11
644.771	39663.93
645.124	39505.97
645.477	39402.69
645.83	39143.26
646.182	39005.19
646.535	38904.17
646.888	39056.94
647.24	38880.45
647.593	39083.38
647.945	38985.08
648.298	38862.14
648.65	38803.84
649.002	38774.91
649.355	38891.07
649.707	38851.75
650.059	39046.09
650.411	39543.93
650.763	39443.6
651.115	40085.84
651.467	39802
651.819	39915.45
652.171	39708.22
652.523	39602.91
652.875	39530.15
653.227	39536.25
653.578	39789.8
653.93	39691.72
654.282	39427.78
654.633	39409.25
654.985	39489.7
655.337	39617.38
655.688	39553.88
656.039	39733.98
656.391	39363.37
656.742	39376.25
657.094	39466.65
657.445	39515.91
657.796	39498.28
658.147	39515.68
658.498	39362.02
658.849	39555.91
659.2	39265.97
659.551	39273.2
659.902	39444.73
660.253	39376.93
660.604	39597.94
660.955	39180.78
661.306	39413.99
661.656	39321.79
662.007	39427.78
662.358	39336.03
662.708	39380.32
663.059	39377.83
663.409	39009.26
663.76	39438.85
664.11	39405.63
664.461	39350.04
664.811	39363.82
665.161	39378.74
665.511	39180.1
665.862	39372.86
666.212	39456.93
666.562	39434.78
666.912	39350.26
667.262	39201.12
667.612	39219.87
667.962	39395.46
668.312	39108.92
668.662	39398.85
669.011	39310.72
669.361	39052.65
669.711	39124.28
670.06	39146.88
670.41	39075.92
670.76	39124.28
671.109	39218.97
671.459	39195.69
671.808	38985.08
672.157	39144.39
672.507	38925.64
672.856	39064.17
673.205	39015.58
673.554	39007
673.904	38936.94
674.253	39225.52
674.602	39038.18
674.951	38506.67
675.3	38231.2
675.649	38855.14
675.998	38866.44
676.346	38810.39
676.695	39009.48
677.044	38745.53
677.393	38830.96
677.741	38901.91
678.09	38725.65
678.438	38658.53
678.787	38655.59
679.135	38713.22
679.484	38485.88
679.832	38698.3
680.181	38411.53
680.529	38512.55
680.877	38452.89
681.225	38290.63
681.573	38604.52
681.922	38370.86
682.27	38197.07
682.618	38291.08
682.966	38049.28
683.314	38286.56
683.661	38075.95
684.009	37867.82
684.357	38047.25
684.705	37975.84
685.053	37929.29
685.4	37816.52
685.748	37768.61
686.095	37730.87
686.443	37632.57
686.79	37507.6
687.138	37599.58
687.485	37452.46
687.832	37496.75
688.18	37387.6
688.527	37216.76
688.874	37209.3
689.221	37178.57
689.568	37023.55
689.915	37024.68
690.262	36914.62
690.609	36869.88
690.956	36706.04
691.303	36626.04
691.65	36487.52
691.997	36598.7
692.344	36421.98
692.69	36313.73
693.037	36324.36
693.383	35918.49
693.73	36255.88
694.077	35867.64
694.423	35981.77
694.769	35793.75
695.116	35754.88
695.462	35846.4
695.808	35656.58
696.155	35693.86
696.501	35335.68
696.847	35261.33
697.193	35042.13
697.539	35181.33
697.885	34995.8
698.231	34919.42
698.577	34916.26
698.923	34849.59
699.269	34732.76
699.614	34665.64
699.96	34443.28
700.306	34540.45
700.651	34397.85
700.997	34269.49
701.342	34199.44
701.688	34160.34
702.033	34104.53
702.379	34056.84
702.724	33963.74
703.069	34027.01
703.415	33651.88
703.76	33721.26
704.105	33789.96
704.45	33645.1
704.795	33346.58
705.14	33312.91
705.485	33375.73
705.83	33135.74
706.175	33273.14
706.52	33200.37
706.865	32986.36
707.209	32852.81
707.554	32849.87
707.899	32939.13
708.243	32627.73
708.588	32554.51
708.932	32368.75
709.277	32450.56
709.621	32401.97
709.966	32293.73
710.31	32295.31
710.654	32060.06
710.998	32204.01
711.342	32008.08
711.687	31974.64
712.031	31906.62
712.375	31833.85
712.719	31797.02
713.063	31775.55
713.407	31943
713.75	31582.11
714.094	31714.53
714.438	31464.82
714.782	31582.11
715.125	31402.45
715.469	31304.37
715.812	31300.98
716.156	31076.13
716.499	31186.64
716.843	31140.09
717.186	30912.07
717.53	31150.48
717.873	31012.4
718.216	30876.82
718.559	30814.44
718.902	30690.61
719.246	30638.4
719.589	30630.72
719.932	30523.83
720.275	30520.44
720.617	30450.84
720.96	30536.49
721.303	30327.23
721.646	30416.49
721.989	30197.29
722.331	30288.13
722.674	30268.47
723.016	30265.08
723.359	30111.86
723.701	30117.29
724.044	29948.03
724.386	29756.62
724.729	29958.2
725.071	29863.73
725.413	29874.36
725.755	29820.8
726.097	29637.53
726.439	29479.11
726.782	29515.95
727.124	29661.03
727.465	29513.01
727.807	29488.6
728.149	29408.15
728.491	29379.23
728.833	29404.76
729.175	29450.64
729.516	29251.1
729.858	29310.3
730.199	29212.68
730.541	29207.93
730.882	29306.46
731.224	29239.34
731.565	28988.05
731.906	28954.83
732.248	29037.54
732.589	28791.9
732.93	28813.14
733.271	28690.88
733.612	28804.55
733.953	28822.18
734.294	28662.18
734.635	28602.75
734.976	28721.62
735.317	28528.4
735.658	28468.29
735.999	28570.66
736.339	28527.95
736.68	28467.16
737.021	28395.52
737.361	28314.85
737.702	28416.31
738.042	28318.24
738.383	28281.63
738.723	28209.99
739.063	28135.64
739.404	28236.66
739.744	28095.87
740.084	28096.1
740.424	28060.62
740.764	27944.69
741.104	28128.19
741.444	28071.69
741.784	27826.95
742.124	27989.66
742.464	27980.17
742.804	27703.79
743.143	27755.09
743.483	27855.65
743.823	27653.62
744.162	27553.06
744.502	27622.21
744.841	27643.45
745.181	27565.26
745.52	27504.02
745.86	27612.27
746.199	27561.65
746.538	27525.26
746.877	27370.92
747.216	27440.97
747.556	27420.18
747.895	27322.56
748.234	27334.31
748.573	27080.53
748.911	27141.77
749.25	27119.63
749.589	27141.32
749.928	27078.95
750.267	27188.32
750.605	27019.52
750.944	27038.27
751.283	26919.18
751.621	27031.27
751.96	26816.36
752.298	26803.25
752.636	26833.76
752.975	26744.95
753.313	26595.57
753.651	26548.57
753.989	26459.08
754.327	26516.48
754.666	26350.15
755.004	26253.21
755.342	26411.17
755.679	26404.84
756.017	26176.37
756.355	26381.79
756.693	26248.46
757.031	26252.76
757.368	25990.84
757.706	25982.25
758.044	25851.86
758.381	25916.72
758.719	25913.33
759.056	26017.06
759.394	25795.59
759.731	25738.42
760.068	25603.06
760.405	25440.35
