Data from hue_210_FLMS001491_00078.txt Node
Date: Tue Feb 07 16:41:41 GMT 2017
User: dcchb
Spectrometer: FLMS00149
Trigger mode: 0
Integration Time (sec): 2.000000E-2
Scans to average: 10
Electric dark correction enabled: true
Nonlinearity correction enabled: false
Boxcar width: 0
XAxis mode: Wavelengths
Number of Pixels in Spectrum: 2048
>>>>>Begin Spectral Data<<<<<
341.393	-6.54
341.776	-6.54
342.16	-6.54
342.543	-75.24
342.927	-50.83
343.31	-63.04
343.693	-61
344.077	-55.35
344.46	-74.33
344.843	-62.81
345.226	-39.98
345.61	-22.81
345.993	-11.96
346.376	-23.26
346.759	0.92
347.142	16.51
347.525	39.56
347.908	62.16
348.291	89.73
348.674	100.35
349.057	105.32
349.44	120.01
349.823	158.88
350.206	155.26
350.588	196.39
350.971	215.38
351.354	234.58
351.737	253.57
352.119	237.75
352.502	251.98
352.884	263.74
353.267	274.58
353.65	296.73
354.032	294.02
354.414	303.73
354.797	301.25
355.179	321.81
355.562	342.38
355.944	319.33
356.326	337.18
356.709	332.89
357.091	340.8
357.473	338.99
357.855	337.41
358.238	337.63
358.62	349.84
359.002	332.89
359.384	361.36
359.766	340.8
360.148	325.88
360.53	360.68
360.912	335.82
361.294	342.15
361.676	329.5
362.057	345.54
362.439	311.19
362.821	325.43
363.203	312.1
363.584	326.33
363.966	318.65
364.348	311.19
364.729	311.19
365.111	339.21
365.493	324.53
365.874	313.9
366.256	305.77
366.637	318.42
367.019	321.59
367.4	312.1
367.781	317.29
368.163	330.63
368.544	323.17
368.925	316.39
369.306	323.85
369.688	341.02
370.069	322.94
370.45	336.73
370.831	313.68
371.212	317.52
371.593	319.33
371.974	323.17
372.355	327.01
372.736	309.38
373.117	310.97
373.498	315.03
373.879	323.62
374.26	321.14
374.641	325.66
375.021	336.73
375.402	317.07
375.783	328.37
376.163	339.89
376.544	327.92
376.925	324.53
377.305	309.38
377.686	347.8
378.066	337.63
378.447	328.14
378.827	326.33
379.208	320.46
379.588	337.86
379.968	324.53
380.349	347.35
380.729	330.17
381.109	309.84
381.489	341.93
381.87	343.06
382.25	335.37
382.63	342.6
383.01	333.56
383.39	340.12
383.77	364.07
384.15	368.59
384.53	339.21
384.91	332.89
385.29	377.86
385.67	345.32
386.049	349.16
386.429	353.68
386.809	343.06
387.189	354.81
387.568	368.59
387.948	367.91
388.328	337.41
388.707	362.49
389.087	372.66
389.466	376.5
389.846	360.46
390.225	397.29
390.605	362.94
390.984	379.67
391.363	365.43
391.743	367.01
392.122	372.89
392.501	353
392.881	377.63
393.26	384.41
393.639	375.6
394.018	344.86
394.397	382.15
394.776	398.65
395.155	399.33
395.534	384.18
395.913	366.78
396.292	372.21
396.671	388.7
397.05	403.17
397.429	386.9
397.808	403.62
398.186	400
398.565	401.36
398.944	416.05
399.323	421.25
399.701	397.29
400.08	423.28
400.458	428.25
400.837	434.8
401.215	434.35
401.594	418.99
401.972	404.75
402.351	428.03
402.729	416.95
403.107	437.29
403.486	431.19
403.864	436.61
404.242	440.23
404.62	467.12
404.999	454.47
405.377	447.01
405.755	451.98
406.133	466.22
406.511	472.54
406.889	470.74
407.267	476.84
407.645	491.07
408.023	482.04
408.401	487.01
408.779	526.1
409.156	526.33
409.534	507.12
409.912	536.95
410.29	542.82
410.667	547.12
411.045	541.47
411.422	565.65
411.8	562.49
412.178	593.44
412.555	581.24
412.933	563.16
413.31	583.95
413.687	609.94
414.065	606.55
414.442	652.43
414.819	647.68
415.197	642.71
415.574	657.17
415.951	659.21
416.328	671.86
416.705	680.67
417.082	667.12
417.46	698.53
417.837	699.2
418.214	707.57
418.591	721.8
418.967	734.46
419.344	748.24
419.721	748.92
420.098	761.35
420.475	780.78
420.852	767.45
421.228	802.25
421.605	821.91
421.982	808.13
422.358	830.05
422.735	847.45
423.111	843.38
423.488	860.33
423.864	891.29
424.241	914.34
424.617	926.54
424.994	943.04
425.37	947.33
425.746	913.66
426.123	968.35
426.499	976.26
426.875	994.79
427.251	995.02
427.627	1041.12
428.003	1029.37
428.379	1035.47
428.756	1059.65
429.132	1072.75
429.507	1072.53
429.883	1117.05
430.259	1115.24
430.635	1115.01
431.011	1137.16
431.387	1154.56
431.763	1195.69
432.138	1191.62
432.514	1219.64
432.89	1212.64
433.265	1256.93
433.641	1282.01
434.016	1283.14
434.392	1315.01
434.767	1350.71
435.143	1383.93
435.518	1390.94
435.894	1418.28
436.269	1435
436.644	1468.9
437.02	1480.88
437.395	1472.29
437.77	1532.4
438.145	1517.49
438.52	1565.85
438.895	1575.34
439.271	1605.4
439.646	1626.86
440.021	1686.3
440.395	1661.44
440.77	1689.69
441.145	1707.99
441.52	1747.76
441.895	1773.3
442.27	1810.36
442.645	1802
443.019	1835.67
443.394	1843.81
443.769	1876.8
444.143	1865.28
444.518	1912.96
444.892	1852.62
445.267	1908.21
445.641	1935.33
446.016	1962.9
446.39	1926.52
446.764	2004.26
447.139	1989.79
447.513	2026.63
447.887	2007.42
448.262	2019.85
448.636	2039.96
449.01	2068.89
449.384	2079.28
449.758	2131.26
450.132	2124.03
450.506	2125.61
450.88	2147.98
451.254	2173.29
451.628	2190.01
452.002	2210.58
452.376	2217.81
452.75	2280.86
453.123	2267.07
453.497	2322.44
453.871	2327.18
454.244	2350.46
454.618	2365.15
454.992	2418.48
455.365	2398.14
455.739	2493.06
456.112	2471.59
456.486	2529.21
456.859	2524.24
457.232	2555.2
457.606	2569.44
457.979	2560.17
458.352	2666.84
458.725	2660.74
459.099	2686.72
459.472	2710.23
459.845	2770.11
460.218	2804.91
460.591	2804.46
460.964	2852.14
461.337	2901.41
461.71	2912.48
462.083	2985.25
462.456	2956.32
462.829	2974.4
463.201	3027.96
463.574	3044.91
463.947	3113.38
464.32	3141.17
464.692	3153.6
465.065	3145.47
465.438	3241.74
465.81	3306.82
466.183	3299.36
466.555	3350.66
466.928	3414.39
467.3	3371.45
467.672	3427.49
468.045	3566.25
468.417	3527.15
468.789	3568.73
469.161	3608.51
469.534	3674.04
469.906	3724.44
470.278	3753.59
470.65	3792.91
471.022	3803.98
471.394	3915.39
471.766	3946.35
472.138	3989.06
472.51	4050.53
472.882	4142.28
473.253	4133.46
473.625	4206.01
473.997	4239.22
474.369	4291.43
474.74	4340.46
475.112	4402.84
475.484	4468.15
475.855	4545.21
476.227	4573.68
476.598	4665.65
476.97	4756.5
477.341	4807.12
477.713	4832.66
478.084	4899.32
478.455	5030.16
478.827	5057.28
479.198	5177.51
479.569	5149.48
479.94	5290.72
480.311	5324.17
480.682	5439.65
481.053	5551.96
481.424	5553.77
481.795	5698.62
482.166	5692.07
482.537	5815.45
482.908	5957.82
483.279	5912.85
483.65	6093.64
484.021	6157.37
484.391	6228.32
484.762	6268.1
485.133	6289.57
485.503	6408.43
485.874	6512.39
486.244	6557.81
486.615	6645.72
486.985	6726.84
487.356	6789.44
487.726	6846.61
488.097	6977.91
488.467	7033.95
488.837	7123.22
489.207	7192.37
489.578	7298.13
489.948	7301.29
490.318	7442.3
490.688	7447.73
491.058	7555.97
491.428	7594.39
491.798	7689.3
492.168	7833.93
492.538	7885.23
492.908	7884.33
493.278	8026.47
493.648	7979.47
494.017	8043.64
494.387	8086.13
494.757	8124.77
495.126	8247.03
495.496	8248.84
495.866	8253.81
496.235	8363.64
496.605	8433.92
496.974	8462.84
497.344	8543.52
497.713	8563.86
498.082	8623.29
498.452	8737.19
498.821	8703.29
499.19	8693.57
499.559	8767.69
499.928	8812.44
500.298	8823.51
500.667	8901.93
501.036	8863.96
501.405	8894.47
501.774	8991.87
502.143	9020.34
502.512	9069.83
502.88	9051.53
503.249	9082.04
503.618	9029.61
503.987	9199.77
504.356	9140.34
504.724	9213.33
505.093	9220.11
505.462	9227.57
505.83	9265.31
506.199	9305.76
506.567	9399.99
506.936	9340.79
507.304	9477.73
507.672	9501.23
508.041	9524.28
508.409	9524.74
508.777	9589.14
509.145	9579.2
509.514	9617.16
509.882	9618.52
510.25	9632.98
510.618	9664.62
510.986	9673.66
511.354	9708.69
511.722	9705.75
512.09	9751.85
512.458	9736.93
512.826	9781.9
513.193	9814.22
513.561	9772.19
513.929	9891.05
514.297	9861.9
514.664	9893.09
515.032	9931.28
515.4	9966.31
515.767	9990.49
516.135	9899.64
516.502	9816.93
516.869	10015.12
517.237	10035.46
517.604	9914.78
517.972	10024.84
518.339	10048.79
518.706	9999.53
519.073	10008.11
519.44	10059.86
519.808	10120.2
520.175	10082.23
520.542	10056.25
520.909	10133.08
521.276	10113.87
521.643	10143.7
522.009	10082.46
522.376	10168.33
522.743	10214.43
523.11	10193.42
523.477	10285.17
523.843	10298.5
524.21	10345.28
524.577	10354.54
524.943	10275.9
525.31	10335.56
525.676	10369.91
526.043	10387.09
526.409	10340.99
526.776	10439.51
527.142	10379.18
527.508	10402
527.874	10418.5
528.241	10427.99
528.607	10319.97
528.973	10405.62
529.339	10368.33
529.705	10394.77
530.071	10452.39
530.437	10358.61
530.803	10444.94
531.169	10438.16
531.535	10420.98
531.901	10391.83
532.267	10334.88
532.632	10268.22
532.998	10370.59
533.364	10348.67
533.73	10315.45
534.095	10409.91
534.461	10343.47
534.826	10390.48
535.192	10274.55
535.557	10295.11
535.923	10323.36
536.288	10280.65
536.653	10194.55
537.019	10130.82
537.384	10200.2
537.749	10044.04
538.114	10111.39
538.479	9997.49
538.845	10080.43
539.21	10030.03
539.575	9947.1
539.94	9941.9
540.305	10020.09
540.67	9960.66
541.034	9918.62
541.399	9924.27
541.764	9902.58
542.129	9869.81
542.494	9888.12
542.858	9785.75
543.223	9735.35
543.587	9755.01
543.952	9735.35
544.316	9736.71
544.681	9647.67
545.045	9633.89
545.41	9729.7
545.774	9618.07
546.138	9565.64
546.503	9574.9
546.867	9481.8
547.231	9570.16
547.595	9482.7
547.959	9498.07
548.324	9436.38
548.688	9421.46
549.052	9367.45
549.416	9402.93
549.779	9310.5
550.143	9293.56
550.507	9279.54
550.871	9306.89
551.235	9171.75
551.599	9202.48
551.962	9259.43
552.326	9199.09
552.689	9239.55
553.053	9105.76
553.417	9086.33
553.78	9163.61
554.143	9094.69
554.507	9023.51
554.87	9064.18
555.234	9037.29
555.597	8962.72
555.96	8995.26
556.323	8951.42
556.686	8925.88
557.05	8912.55
557.413	8946.9
557.776	8950.29
558.139	8924.98
558.502	8890.4
558.865	8891.31
559.228	8915.94
559.59	8911.42
559.953	8856.05
560.316	8924.53
560.679	8898.99
561.041	8847.47
561.404	8982.83
561.767	8912.1
562.129	8831.42
562.492	8951.42
562.854	8896.28
563.217	8961.36
563.579	8914.13
563.941	9002.72
564.304	8932.43
564.666	8968.37
565.028	8951.87
565.39	8923.85
565.753	8979.44
566.115	8911.87
566.477	8949.16
566.839	8898.76
567.201	9015.6
567.563	8953.9
567.925	9054.92
568.287	9044.07
568.648	9000.46
569.01	9064.86
569.372	9029.61
569.734	9086.1
570.095	9069.61
570.457	9120.68
570.819	9075.26
571.18	9040.68
571.542	9125.2
571.903	9111.19
572.265	9135.82
572.626	9185.54
572.987	9140.11
573.349	9146.21
573.71	9190.28
574.071	9157.74
574.432	9209.49
574.794	9255.82
575.155	9211.52
575.516	9174.91
575.877	9232.77
576.238	9225.76
576.599	9346.44
576.96	9234.8
577.32	9238.42
577.681	9313.22
578.042	9294.23
578.403	9332.65
578.763	9339.2
579.124	9292.2
579.485	9284.52
579.845	9398.19
580.206	9405.42
580.566	9406.77
580.927	9330.62
581.287	9377.17
581.648	9370.62
582.008	9434.12
582.368	9430.05
582.728	9462.59
583.089	9412.42
583.449	9418.98
583.809	9484.74
584.169	9504.85
584.529	9420.33
584.889	9594.79
585.249	9490.16
585.609	9455.13
585.969	9542.36
586.329	9414
586.688	9485.87
587.048	9510.27
587.408	9517.96
587.768	9569.93
588.127	9524.28
588.487	9476.83
588.846	9591.63
589.206	9460.56
589.565	9500.1
589.925	9612.64
590.284	9513.66
590.643	9579.88
591.003	9564.28
591.362	9618.74
591.721	9612.19
592.08	9599.76
592.44	9623.04
592.799	9602.93
593.158	9641.79
593.517	9598.63
593.876	9577.39
594.235	9578.52
594.593	9650.61
594.952	9627.11
595.311	9608.58
595.67	9609.93
596.029	9646.54
596.387	9623.94
596.746	9648.8
597.104	9606.77
597.463	9562.25
597.822	9660.33
598.18	9592.08
598.538	9595.69
598.897	9674.11
599.255	9525.19
599.613	9673.88
599.972	9627.33
600.33	9721.34
600.688	9624.17
601.046	9618.97
601.404	9683.6
601.762	9685.18
602.12	9693.54
602.478	9687.67
602.836	9694
603.194	9634.11
603.552	9668.23
603.91	9551.63
604.268	9630.72
604.625	9600.44
604.983	9699.87
605.341	9596.6
605.698	9700.55
606.056	9719.08
606.413	9715.69
606.771	9774.22
607.128	9701.23
607.485	9633.43
607.843	9630.95
608.2	9690.83
608.557	9760.44
608.914	9688.8
609.272	9792.75
609.629	9763.15
609.986	9719.76
610.343	9710.27
610.7	9744.39
611.057	9796.37
611.414	9762.7
611.771	9733.32
612.127	9792.75
612.484	9800.66
612.841	9795.24
613.198	9814.9
613.554	9767.89
613.911	9883.14
614.267	9897.16
614.624	9851.28
614.98	9870.49
615.337	9928.11
615.693	9880.21
616.05	9851.28
616.406	9898.28
616.762	9923.6
617.118	9900.77
617.475	9877.49
617.831	9948.23
618.187	9911.17
618.543	9897.16
618.899	9978.06
619.255	10006.3
619.611	9971.28
619.967	9980.99
620.323	10013.08
620.678	9923.6
621.034	9917.27
621.39	9869.59
621.746	9931.05
622.101	10041.11
622.457	9989.36
622.812	9988.68
623.168	10015.12
623.523	9987.32
623.879	10017.38
624.234	9913.65
624.589	10020.77
624.945	9942.35
625.3	9990.49
625.655	9941
626.01	10023.93
626.365	9997.49
626.72	9944.39
627.075	9951.39
627.43	9976.47
627.785	9926.53
628.14	9981.9
628.495	9983.48
628.85	9960.66
629.205	9900.77
629.559	9892.18
629.914	9877.49
630.269	9888.79
630.623	9905.29
630.978	9835.69
631.332	9887.66
631.687	9974.89
632.041	9932.86
632.396	9848.12
632.75	9798.85
633.104	9855.35
633.459	9798.17
633.813	9819.87
634.167	9776.48
634.521	9727.67
634.875	9788.23
635.229	9708.69
635.583	9701.91
635.937	9715.92
636.291	9764.28
636.645	9714.11
636.999	9684.73
637.352	9684.51
637.706	9645.64
638.06	9634.56
638.413	9638.86
638.767	9660.33
639.121	9653.09
639.474	9665.07
639.828	9589.59
640.181	9610.61
640.534	9637.73
640.888	9586.2
641.241	9568.12
641.594	9546.88
641.947	9552.31
642.301	9551.18
642.654	9510.95
643.007	9489.71
643.36	9491.52
643.713	9454.45
644.066	9514.11
644.419	9542.14
644.771	9397.06
645.124	9351.63
645.477	9340.79
645.83	9395.7
646.182	9279.09
646.535	9159.1
646.888	9280.9
647.24	9142.6
647.593	9197.96
647.945	9206.33
648.298	9122.94
648.65	9159.55
649.002	9131.75
649.355	9180.11
649.707	9140.79
650.059	9254.01
650.411	9325.42
650.763	9339.88
651.115	9482.93
651.467	9418.3
651.819	9316.61
652.171	9391.18
652.523	9342.37
652.875	9417.17
653.227	9359.32
653.578	9435.92
653.93	9378.3
654.282	9416.49
654.633	9278.64
654.985	9370.84
655.337	9393.89
655.688	9335.59
656.039	9451.52
656.391	9317.96
656.742	9344.63
657.094	9355.7
657.445	9362.48
657.796	9387.79
658.147	9379.65
658.498	9390.5
658.849	9384.63
659.2	9399.09
659.551	9314.57
659.902	9388.47
660.253	9400.67
660.604	9385.53
660.955	9319.54
661.306	9457.17
661.656	9382.59
662.007	9422.14
662.358	9462.14
662.708	9427.11
663.059	9413.78
663.409	9382.59
663.76	9437.96
664.11	9412.42
664.461	9548.01
664.811	9449.03
665.161	9467.79
665.511	9392.76
665.862	9492.87
666.212	9506.43
666.562	9475.25
666.912	9475.25
667.262	9473.89
667.612	9497.62
667.962	9529.26
668.312	9458.07
668.662	9422.14
669.011	9413.78
669.361	9465.08
669.711	9390.73
670.06	9404.74
670.41	9435.7
670.76	9411.74
671.109	9464.85
671.459	9387.56
671.808	9348.69
672.157	9426.88
672.507	9358.86
672.856	9337.62
673.205	9379.65
673.554	9419.65
673.904	9313.67
674.253	9387.34
674.602	9308.92
674.951	9222.14
675.3	9204.29
675.649	9342.14
675.998	9317.96
676.346	9270.5
676.695	9354.8
677.044	9219.66
677.393	9231.41
677.741	9278.64
678.09	9251.52
678.438	9187.12
678.787	9264.18
679.135	9221.47
679.484	9181.69
679.832	9152.09
680.181	9180.34
680.529	9071.41
680.877	9089.49
681.225	9039.32
681.573	9157.51
681.922	9124.07
682.27	9031.42
682.618	9094.46
682.966	9014.69
683.314	9050.62
683.661	9013.79
684.009	8974.24
684.357	8947.35
684.705	8890.18
685.053	8962.04
685.4	8921.81
685.748	8871.65
686.095	8933.79
686.443	8818.54
686.79	8724.3
687.138	8811.76
687.485	8881.81
687.832	8843.4
688.18	8792.78
688.527	8691.31
688.874	8735.38
689.221	8692.21
689.568	8637.08
689.915	8657.41
690.262	8637.98
690.609	8620.13
690.956	8543.52
691.303	8515.04
691.65	8522.28
691.997	8484.31
692.344	8473.01
692.69	8481.83
693.037	8432.79
693.383	8339.46
693.73	8403.41
694.077	8276.41
694.423	8307.82
694.769	8213.81
695.116	8206.58
695.462	8169.29
695.808	8178.56
696.155	8232.57
696.501	8084.55
696.847	8101.95
697.193	8068.73
697.539	8019.69
697.885	8021.72
698.231	7956.87
698.577	7992.35
698.923	7958.45
699.269	7897.21
699.614	7920.03
699.96	7826.93
700.306	7858.34
700.651	7804.78
700.997	7783.31
701.342	7706.48
701.688	7720.72
702.033	7667.38
702.379	7701.05
702.724	7616.09
703.069	7643.2
703.415	7537.67
703.76	7537.44
704.105	7566.37
704.45	7448.86
704.795	7445.69
705.14	7437.11
705.485	7424
705.83	7419.03
706.175	7390.1
706.52	7352.82
706.865	7352.82
707.209	7324.34
707.554	7279.14
707.899	7263.78
708.243	7282.76
708.588	7220.62
708.932	7191.92
709.277	7217.23
709.621	7193.05
709.966	7116.89
710.31	7193.5
710.654	7074.63
710.998	7110.79
711.342	7070.79
711.687	7034.18
712.031	7037.57
712.375	7007.51
712.719	7025.59
713.063	7023.78
713.407	7013.84
713.75	6998.93
714.094	6979.27
714.438	6935.88
714.782	6920.96
715.125	6952.37
715.469	6950.11
715.812	6905.37
716.156	6870.79
716.499	6877.35
716.843	6861.98
717.186	6843.45
717.53	6883.22
717.873	6854.07
718.216	6825.82
718.559	6781.76
718.902	6743.79
719.246	6782.21
719.589	6800.97
719.932	6705.6
720.275	6729.55
720.617	6737.01
720.96	6718.71
721.303	6735.43
721.646	6713.96
721.989	6685.49
722.331	6723.91
722.674	6650.69
723.016	6750.57
723.359	6705.83
723.701	6660.18
724.044	6628.77
724.386	6626.05
724.729	6689.1
725.071	6667.18
725.413	6629.9
725.755	6651.82
726.097	6596.45
726.439	6582.21
726.782	6596.45
727.124	6622.66
727.465	6574.3
727.807	6625.38
728.149	6583.34
728.491	6611.14
728.833	6586.73
729.175	6599.84
729.516	6596.45
729.858	6583.8
730.199	6636.45
730.541	6558.71
730.882	6566.4
731.224	6619.73
731.565	6546.73
731.906	6545.38
732.248	6574.08
732.589	6549.22
732.93	6513.74
733.271	6571.59
733.612	6538.6
733.953	6567.07
734.294	6588.77
734.635	6540.18
734.976	6679.16
735.317	6560.07
735.658	6598.48
735.999	6564.36
736.339	6568.88
736.68	6591.48
737.021	6553.06
737.361	6521.88
737.702	6637.81
738.042	6576.56
738.383	6610.46
738.723	6613.85
739.063	6571.59
739.404	6636.68
739.744	6678.03
740.084	6638.48
740.424	6669.9
740.764	6680.06
741.104	6700.4
741.444	6661.31
741.784	6665.38
742.124	6727.52
742.464	6685.71
742.804	6737.01
743.143	6802.77
743.483	6776.56
743.823	6768.2
744.162	6798.03
744.502	6828.99
744.841	6837.57
745.181	6925.03
745.52	6916.22
745.86	6955.99
746.199	6998.93
746.538	6978.59
746.877	7078.92
747.216	7063.56
747.556	7146.72
747.895	7183.55
748.234	7180.39
748.573	7269.65
748.911	7259.71
749.25	7379.71
749.589	7409.31
749.928	7482.53
750.267	7544.67
750.605	7653.15
750.944	7652.92
751.283	7694.5
751.621	7801.39
751.96	7842.75
752.298	7958.22
752.636	8061.5
752.975	8151.44
753.313	8240.02
753.651	8320.7
753.989	8433.92
754.327	8474.14
754.666	8628.71
755.004	8776.51
755.342	8896.5
755.679	8990.06
756.017	9138.98
756.355	9249.04
756.693	9376.72
757.031	9516.37
757.368	9661.46
757.706	9846.31
758.044	9907.55
758.381	10115.68
758.719	10198.16
759.056	10423.92
759.394	10618.27
759.731	10735.1
760.068	10838.6
760.405	11034.98
760.743	11185.26
761.08	11379.6
761.417	11491.01
761.754	11772.59
762.091	11899.36
762.428	12046.03
762.765	12234.27
763.102	12453.47
763.438	12605.56
763.775	12744.76
764.112	12817.76
764.449	13133.91
764.785	13318.53
765.122	13358.53
765.458	13547.23
765.795	13650.5
766.131	13898.41
766.467	14039.87
766.804	14152.18
767.14	14422.91
767.476	14565.05
