Data from hue_180_FLMS001491_00021.txt Node
Date: Tue Feb 07 16:46:45 GMT 2017
User: dcchb
Spectrometer: FLMS00149
Trigger mode: 0
Integration Time (sec): 2.000000E-2
Scans to average: 10
Electric dark correction enabled: true
Nonlinearity correction enabled: false
Boxcar width: 0
XAxis mode: Wavelengths
Number of Pixels in Spectrum: 2048
>>>>>Begin Spectral Data<<<<<
341.393	11.27
341.776	11.27
342.16	11.27
342.543	-56.75
342.927	-54.26
343.31	-63.98
343.693	-48.61
344.077	-70.31
344.46	-74.83
344.843	-58.33
345.226	-53.13
345.61	-11.78
345.993	-25.11
346.376	-14.49
346.759	23.7
347.142	41.78
347.525	39.29
347.908	58.05
348.291	73.87
348.674	95.56
349.057	88.33
349.44	137.37
349.823	145.28
350.206	187.31
350.588	209.46
350.971	198.61
351.354	223.02
351.737	258.04
352.119	240.42
352.502	268.67
352.884	263.02
353.267	294.88
353.65	305.5
354.032	313.86
354.414	309.79
354.797	330.58
355.179	318.38
355.562	335.78
355.944	336.69
356.326	341.21
356.709	342.56
357.091	332.84
357.473	333.07
357.855	347.31
358.238	365.61
358.62	348.44
359.002	371.26
359.384	333.97
359.766	348.89
360.148	336.46
360.53	361.32
360.912	333.97
361.294	347.99
361.676	347.76
362.057	356.35
362.439	318.38
362.821	340.75
363.203	314.31
363.584	330.81
363.966	338.27
364.348	319.74
364.729	338.72
365.111	328.55
365.493	322.9
365.874	338.95
366.256	343.69
366.637	316.57
367.019	325.39
367.4	307.31
367.781	315.9
368.163	313.18
368.544	329
368.925	313.86
369.306	317.25
369.688	320.19
370.069	331.71
370.45	318.83
370.831	317.48
371.212	311.15
371.593	312.28
371.974	315.67
372.355	303.47
372.736	305.95
373.117	330.58
373.498	300.75
373.879	311.83
374.26	326.06
374.641	316.12
375.021	329.91
375.402	323.13
375.783	319.29
376.163	318.38
376.544	317.7
376.925	339.4
377.305	319.74
377.686	317.7
378.066	322.45
378.447	321.55
378.827	342.34
379.208	330.81
379.588	312.96
379.968	328.78
380.349	342.56
380.729	345.27
381.109	341.21
381.489	362.45
381.87	310.02
382.25	329
382.63	332.62
383.01	334.43
383.39	349.34
383.77	345.95
384.15	331.71
384.53	335.1
384.91	353.41
385.29	354.09
385.67	338.04
386.049	352.05
386.429	346.4
386.809	368.78
387.189	350.47
387.568	353.18
387.948	359.28
388.328	346.63
388.707	367.87
389.087	369.45
389.466	362.22
389.846	369.23
390.225	359.28
390.605	367.42
390.984	358.83
391.363	380.53
391.743	357.48
392.122	364.03
392.501	379.17
392.881	368.1
393.26	392.96
393.639	382.56
394.018	390.7
394.397	386.4
394.776	379.62
395.155	371.94
395.534	387.08
395.913	383.24
396.292	398.61
396.671	371.71
397.05	383.92
397.429	393.86
397.808	403.8
398.186	389.11
398.565	383.92
398.944	406.97
399.323	400.87
399.701	413.97
400.08	382.79
400.458	411.94
400.837	411.71
401.215	393.41
401.594	413.52
401.972	420.07
402.351	413.07
402.729	420.07
403.107	432.73
403.486	433.18
403.864	406.97
404.242	433.41
404.62	415.33
404.999	438.38
405.377	450.36
405.755	448.1
406.133	460.07
406.511	458.04
406.889	468.21
407.267	446.97
407.645	461.88
408.023	494.2
408.401	483.35
408.779	476.57
409.156	452.84
409.534	486.51
409.912	474.76
410.29	512.73
410.667	537.58
411.045	528.55
411.422	521.54
411.8	514.53
412.178	517.47
412.555	543.01
412.933	543.01
413.31	540.3
413.687	568.32
414.065	563.8
414.442	568.09
414.819	605.61
415.197	597.7
415.574	598.37
415.951	622.1
416.328	625.27
416.705	603.12
417.082	613.51
417.46	613.06
417.837	639.05
418.214	656.68
418.591	683.12
418.967	670.69
419.344	680.18
419.721	686.73
420.098	665.72
420.475	679.05
420.852	689.45
421.228	733.96
421.605	707.98
421.982	733.06
422.358	745.26
422.735	739.61
423.111	736
423.488	781.42
423.864	772.83
424.241	804.24
424.617	790.01
424.994	811.93
425.37	826.62
425.746	850.57
426.123	832.72
426.499	843.11
426.875	884.47
427.251	874.53
427.627	887.63
428.003	906.16
428.379	926.5
428.756	905.03
429.132	945.03
429.507	930.57
429.883	955.43
430.259	968.76
430.635	972.15
431.011	971.7
431.387	1025.26
431.763	1030.91
432.138	1016.67
432.514	1024.58
432.89	1048.08
433.265	1063.67
433.641	1078.59
434.016	1083.33
434.392	1092.37
434.767	1115.2
435.143	1174.18
435.518	1165.36
435.894	1162.65
436.269	1190.9
436.644	1222.09
437.02	1246.72
437.395	1235.65
437.77	1255.08
438.145	1285.14
438.52	1312.25
438.895	1331.01
439.271	1321.97
439.646	1372.59
440.021	1361.29
440.395	1393.61
440.77	1384.12
441.145	1456.2
441.52	1462.53
441.895	1454.62
442.27	1480.61
442.645	1458.24
443.019	1506.37
443.394	1509.54
443.769	1521.06
444.143	1527.16
444.518	1545.69
444.892	1559.48
445.267	1565.13
445.641	1587.73
446.016	1585.47
446.39	1600.38
446.764	1648.97
447.139	1640.15
447.513	1681.96
447.887	1639.48
448.262	1666.37
448.636	1691.45
449.01	1728.97
449.384	1735.52
449.758	1731.68
450.132	1754.95
450.506	1772.58
450.88	1776.87
451.254	1800.83
451.628	1802.41
452.002	1811
452.376	1854.84
452.75	1867.49
453.123	1915.4
453.497	1913.14
453.871	1942.07
454.244	1979.35
454.618	1978.22
454.992	1990.2
455.365	2015.74
455.739	2034.04
456.112	2054.16
456.486	2095.74
456.859	2100.26
457.232	2131.44
457.606	2190.65
457.979	2174.83
458.352	2226.13
458.725	2250.76
459.099	2258.44
459.472	2301.15
459.845	2340.25
460.218	2353.58
460.591	2357.65
460.964	2388.61
461.337	2429.74
461.71	2475.84
462.083	2500.7
462.456	2522.62
462.829	2540.47
463.201	2561.94
463.574	2622.95
463.947	2669.51
464.32	2707.92
464.692	2695.95
465.065	2753.12
465.438	2780.46
465.81	2843.29
466.183	2871.76
466.555	2905.43
466.928	2936.39
467.3	2952.21
467.672	3045.32
468.045	3074.24
468.417	3134.13
468.789	3084.18
469.161	3197.18
469.534	3237.17
469.906	3319.43
470.278	3325.99
470.65	3408.47
471.022	3474.68
471.394	3537.28
471.766	3578.18
472.138	3588.35
472.51	3664.06
472.882	3715.81
473.253	3768.46
473.625	3840.1
473.997	3957.38
474.369	4006.42
474.74	4052.97
475.112	4122.8
475.484	4154.44
475.855	4286.64
476.227	4352.4
476.598	4488.22
476.97	4483.92
477.341	4602.34
477.713	4640.3
478.084	4715.55
478.455	4900.18
478.827	4906.96
479.198	5052.72
479.569	5088.43
479.94	5225.37
480.311	5290.91
480.682	5414.74
481.053	5563.89
481.424	5647.51
481.795	5686.38
482.166	5832.36
482.537	5937.67
482.908	6052.69
483.279	6117.33
483.65	6240.94
484.021	6367.26
484.391	6458.56
484.762	6505.79
485.133	6618.78
485.503	6736.52
485.874	6875.95
486.244	6960.92
486.615	7134.25
486.985	7229.61
487.356	7391.42
487.726	7400.68
488.097	7579.21
488.467	7646.32
488.837	7762.48
489.207	7922.93
489.578	8062.13
489.948	8126.76
490.318	8271.84
490.688	8294.44
491.058	8434.33
491.428	8511.61
491.798	8602.68
492.168	8784.83
492.538	8795.67
492.908	8927.65
493.278	9114.08
493.648	9151.37
494.017	9225.94
494.387	9299.61
494.757	9385.04
495.126	9429.55
495.496	9464.36
495.866	9576.44
496.235	9640.17
496.605	9737.12
496.974	9795.19
497.344	9886.49
497.713	9914.29
498.082	10030.44
498.452	10102.3
498.821	10196.31
499.19	10178.91
499.559	10288.29
499.928	10426.36
500.298	10383.2
500.667	10508.85
501.036	10463.43
501.405	10558.56
501.774	10540.71
502.143	10613.48
502.512	10671.1
502.88	10742.29
503.249	10695.06
503.618	10838.33
503.987	10808.95
504.356	10875.17
504.724	10941.83
505.093	10991.77
505.462	10937.99
505.83	10982.28
506.199	11136.18
506.567	11196.29
506.936	11182.05
507.304	11211.2
507.672	11226.57
508.041	11354.7
508.409	11347.02
508.777	11455.94
509.145	11461.37
509.514	11423.85
509.882	11516.73
510.25	11446.9
510.618	11560.35
510.986	11605.54
511.354	11645.54
511.722	11676.95
512.09	11763.96
512.458	11644.19
512.826	11749.72
513.193	11760.34
513.561	11756.05
513.929	11833.11
514.297	11807.8
514.664	11854.8
515.032	11869.94
515.4	11894.8
515.767	11979.77
516.135	11960.34
516.502	11798.31
516.869	12050.05
517.237	12029.94
517.604	11951.3
517.972	12052.31
518.339	12071.52
518.706	12080.11
519.073	12009.83
519.44	12055.02
519.808	12068.81
520.175	12085.76
520.542	12157.39
520.909	12159.2
521.276	12036.72
521.643	12095.7
522.009	12216.83
522.376	12199.42
522.743	12223.15
523.11	12266.54
523.477	12288.24
523.843	12311.74
524.21	12376.14
524.577	12388.12
524.943	12331.62
525.31	12326.88
525.676	12425.63
526.043	12407.78
526.409	12422.24
526.776	12510.83
527.142	12400.55
527.508	12361.91
527.874	12410.49
528.241	12419.53
528.607	12393.09
528.973	12441.68
529.339	12375.92
529.705	12361.45
530.071	12371.4
530.437	12391.51
530.803	12445.75
531.169	12396.93
531.535	12313.55
531.901	12274.9
532.267	12287.33
532.632	12284.85
532.998	12246.43
533.364	12252.76
533.73	12310.61
534.095	12201.01
534.461	12179.54
534.826	12194.23
535.192	12185.87
535.557	12203.72
535.923	12139.31
536.288	12001.01
536.653	12035.81
537.019	11968.02
537.384	11889.15
537.749	11879.89
538.114	11818.19
538.479	11848.02
538.845	11823.62
539.21	11687.57
539.575	11687.57
539.94	11595.6
540.305	11729.61
540.67	11601.25
541.034	11518.76
541.399	11465.21
541.764	11479.9
542.129	11395.6
542.494	11413
542.858	11429.5
543.223	11316.06
543.587	11303.86
543.952	11245.1
544.316	11241.71
544.681	11186.34
545.045	11081.26
545.41	11114.93
545.774	11093.01
546.138	11048.95
546.503	10956.97
546.867	10946.35
547.231	10874.71
547.595	10902.28
547.959	10860.48
548.324	10800.14
548.688	10731.89
549.052	10687.15
549.416	10651.9
549.779	10631.78
550.143	10609.18
550.507	10574.83
550.871	10498
551.235	10400.15
551.599	10418
551.962	10432.69
552.326	10348.85
552.689	10324.22
553.053	10193.83
553.417	10223.66
553.78	10248.06
554.143	10196.54
554.507	10125.58
554.87	10090.78
555.234	10084
555.597	10053.04
555.96	9994.74
556.323	9993.38
556.686	10025.47
557.05	10007.17
557.413	9955.42
557.776	9905.93
558.139	9934.4
558.502	9890.11
558.865	9849.66
559.228	9879.71
559.59	9759.26
559.953	9759.04
560.316	9853.95
560.679	9829.09
561.041	9811.01
561.404	9788.19
561.767	9825.02
562.129	9812.6
562.492	9728.53
562.854	9688.76
563.217	9738.47
563.579	9721.52
563.941	9758.59
564.304	9744.57
564.666	9758.81
565.028	9691.24
565.39	9691.92
565.753	9738.25
566.115	9817.57
566.477	9792.03
566.839	9781.18
567.201	9725.37
567.563	9728.3
567.925	9792.48
568.287	9753.39
568.648	9746.38
569.01	9763.78
569.372	9787.51
569.734	9762.88
570.095	9760.39
570.457	9809.88
570.819	9751.81
571.18	9751.13
571.542	9719.26
571.903	9789.77
572.265	9811.92
572.626	9722.88
572.987	9741.18
573.349	9717.91
573.71	9798.81
574.071	9779.83
574.432	9782.09
574.794	9780.51
575.155	9771.92
575.516	9673.39
575.877	9769.66
576.238	9688.76
576.599	9818.47
576.96	9767.17
577.32	9743.67
577.681	9754.97
578.042	9806.04
578.403	9738.7
578.763	9773.5
579.124	9721.07
579.485	9782.99
579.845	9677.91
580.206	9735.53
580.566	9752.94
580.927	9800.17
581.287	9741.64
581.648	9716.33
582.008	9739.15
582.368	9657.12
582.728	9741.41
583.089	9737.34
583.449	9670.45
583.809	9719.49
584.169	9678.81
584.529	9663.9
584.889	9717.91
585.249	9572.83
585.609	9631.58
585.969	9612.83
586.329	9596.56
586.688	9606.05
587.048	9625.93
587.408	9517.01
587.768	9484.69
588.127	9496.67
588.487	9511.81
588.846	9554.3
589.206	9533.96
589.565	9484.92
589.925	9516.56
590.284	9465.03
590.643	9519.5
591.003	9526.95
591.362	9532.6
591.721	9424.13
592.08	9417.8
592.44	9433.62
592.799	9455.77
593.158	9372.15
593.517	9448.99
593.876	9432.72
594.235	9407.41
594.593	9379.39
594.952	9391.82
595.311	9357.92
595.67	9387.07
596.029	9440.18
596.387	9468.88
596.746	9484.02
597.104	9367.18
597.463	9451.25
597.822	9365.38
598.18	9345.94
598.538	9317.47
598.897	9369.67
599.255	9281.31
599.613	9403.57
599.972	9277.69
600.33	9332.16
600.688	9294.64
601.046	9229.11
601.404	9376.9
601.762	9366.51
602.12	9394.08
602.478	9319.05
602.836	9313.85
603.194	9345.04
603.552	9250.35
603.91	9277.92
604.268	9237.02
604.625	9314.3
604.983	9312.04
605.341	9274.76
605.698	9235.66
606.056	9254.42
606.413	9292.83
606.771	9271.82
607.128	9274.76
607.485	9230.24
607.843	9276.34
608.2	9294.42
608.557	9296.9
608.914	9288.54
609.272	9320.4
609.629	9274.76
609.986	9382.78
610.343	9270.69
610.7	9353.17
611.057	9324.7
611.414	9327.64
611.771	9379.39
612.127	9415.77
612.484	9401.08
612.841	9332.38
613.198	9309.33
613.554	9357.47
613.911	9434.53
614.267	9426.62
614.624	9373.74
614.98	9398.59
615.337	9416.9
615.693	9396.33
616.05	9424.58
616.406	9433.17
616.762	9404.02
617.118	9326.05
617.475	9395.43
617.831	9381.65
618.187	9389.56
618.543	9372.15
618.899	9442.21
619.255	9485.37
619.611	9467.29
619.967	9469.78
620.323	9521.76
620.678	9476.33
621.034	9420.06
621.39	9459.84
621.746	9415.77
622.101	9552.94
622.457	9479.5
622.812	9530.34
623.168	9518.59
623.523	9454.64
623.879	9540.29
624.234	9380.97
624.589	9429.78
624.945	9412.15
625.3	9524.47
625.655	9457.58
626.01	9435.88
626.365	9366.28
626.72	9493.06
627.075	9453.28
627.43	9484.69
627.785	9392.72
628.14	9458.93
628.495	9445.15
628.85	9396.33
629.205	9423.45
629.559	9431.59
629.914	9438.37
630.269	9395.2
630.623	9398.82
630.978	9315.43
631.332	9360.18
631.687	9372.38
632.041	9326.05
632.396	9323.12
632.75	9296.22
633.104	9278.15
633.459	9258.26
633.813	9317.47
634.167	9280.63
634.521	9262.33
634.875	9267.75
635.229	9305.04
635.583	9206.51
635.937	9188.2
636.291	9261.88
636.645	9221.88
636.999	9144.36
637.352	9179.39
637.706	9053.29
638.06	9161.99
638.413	9128.55
638.767	9121.54
639.121	9147.53
639.474	9100.07
639.828	9042.22
640.181	9080.41
640.534	9083.8
640.888	8985.05
641.241	9044.93
641.594	9038.38
641.947	9069.79
642.301	9047.87
642.654	9007.19
643.007	9026.18
643.36	9027.76
643.713	8996.35
644.066	9037.25
644.419	8998.61
644.771	8917.25
645.124	8844.71
645.477	8854.43
645.83	8838.61
646.182	8797.25
646.535	8789.35
646.888	8812.85
647.24	8734.66
647.593	8792.73
647.945	8680.65
648.298	8747.31
648.65	8711.83
649.002	8657.6
649.355	8732.17
649.707	8741.21
650.059	8725.84
650.411	8787.09
650.763	8827.54
651.115	8954.54
651.467	8896.01
651.819	8869.57
652.171	8877.7
652.523	8868.89
652.875	8895.11
653.227	8820.08
653.578	8916.35
653.93	8952.05
654.282	8909.57
654.633	8902.34
654.985	8897.14
655.337	8981.66
655.688	8971.26
656.039	8976.01
656.391	8933.07
656.742	8932.62
657.094	8879.96
657.445	8977.81
657.796	8988.66
658.147	8931.94
658.498	8969.68
658.849	8961.54
659.2	8898.72
659.551	9005.84
659.902	9006.74
660.253	8931.26
660.604	9036.8
660.955	8977.59
661.306	8966.97
661.656	8951.6
662.007	8955.67
662.358	8947.08
662.708	9020.98
663.059	8994.76
663.409	8975.78
663.76	8978.94
664.11	8997.48
664.461	8974.88
664.811	9021.43
665.161	9008.55
665.511	9004.03
665.862	8988.66
666.212	9027.08
666.562	9046.51
666.912	8959.51
667.262	9076.34
667.612	9006.74
667.962	9096.23
668.312	9036.8
668.662	9058.04
669.011	9095.33
669.361	9013.29
669.711	9003.8
670.06	8956.12
670.41	9019.17
670.76	9003.35
671.109	9047.64
671.459	9023.01
671.808	8953.41
672.157	8980.98
672.507	8909.12
672.856	8918.38
673.205	8937.36
673.554	9006.97
673.904	8867.54
674.253	8989.11
674.602	8923.35
674.951	8842.68
675.3	8761.78
675.649	8954.09
675.998	8919.74
676.346	8865.05
676.695	8900.08
677.044	8861.21
677.393	8861.21
677.741	8876.57
678.09	8798.38
678.438	8767.2
678.787	8835.22
679.135	8789.57
679.484	8715.9
679.832	8752.51
680.181	8700.31
680.529	8727.2
680.877	8717.26
681.225	8717.26
681.573	8730.82
681.922	8691.95
682.27	8681.33
682.618	8632.51
682.966	8564.27
683.314	8585.51
683.661	8613.3
684.009	8572.63
684.357	8560.88
684.705	8583.47
685.053	8505.74
685.4	8527.66
685.748	8464.38
686.095	8450.37
686.443	8452.86
686.79	8440.65
687.138	8392.75
687.485	8409.24
687.832	8418.96
688.18	8377.15
688.527	8261
688.874	8330.37
689.221	8284.5
689.568	8221.68
689.915	8249.47
690.262	8204.28
690.609	8214.67
690.956	8121.34
691.303	8113.43
691.65	8087.22
691.997	8141
692.344	8078.4
692.69	8037.73
693.037	8054.68
693.383	8043.38
693.73	7987.33
694.077	7945.3
694.423	7893.78
694.769	7865.3
695.116	7833.66
695.462	7831.18
695.808	7810.61
696.155	7782.82
696.501	7787.34
696.847	7667.57
697.193	7625.08
697.539	7656.72
697.885	7618.53
698.231	7566.55
698.577	7536.72
698.923	7551.86
699.269	7504.86
699.614	7440.45
699.96	7447.69
700.306	7423.73
700.651	7388.25
700.997	7418.76
701.342	7379.44
701.688	7343.06
702.033	7313.68
702.379	7263.51
702.724	7224.19
703.069	7251.53
703.415	7181.7
703.76	7151.2
704.105	7145.55
704.45	7163.4
704.795	7089.5
705.14	7048.83
705.485	7065.32
705.83	7016.51
706.175	6993.46
706.52	6992.1
706.865	6904.42
707.209	6931.77
707.554	6884.08
707.899	6881.82
708.243	6891.32
708.588	6860.36
708.932	6861.71
709.277	6790.75
709.621	6732.68
709.966	6747.59
710.31	6706.24
710.654	6749.85
710.998	6699.46
711.342	6691.55
711.687	6631.44
712.031	6699.23
712.375	6612
712.719	6668.72
713.063	6614.94
713.407	6618.78
713.75	6636.86
714.094	6562.51
714.438	6543.08
714.782	6554.15
715.125	6519.12
715.469	6512.79
715.812	6461.5
716.156	6466.02
716.499	6437.54
716.843	6448.84
717.186	6441.16
717.53	6445.23
717.873	6479.35
718.216	6389.86
718.559	6416.3
718.902	6375.17
719.246	6378.11
719.589	6401.84
719.932	6374.04
720.275	6344.44
720.617	6379.24
720.96	6307.6
721.303	6319.58
721.646	6336.08
721.989	6372.01
722.331	6359.13
722.674	6351.9
723.016	6299.47
723.359	6291.78
723.701	6306.02
724.044	6289.75
724.386	6306.25
724.729	6352.8
725.071	6327.49
725.413	6285.68
725.755	6230.09
726.097	6220.83
726.439	6224.67
726.782	6270.99
727.124	6222.18
727.465	6234.16
727.807	6247.72
728.149	6233.03
728.491	6261.95
728.833	6228.06
729.175	6238.23
729.516	6283.42
729.858	6262.63
730.199	6272.8
730.541	6273.03
730.882	6214.5
731.224	6240.49
731.565	6189.87
731.906	6238
732.248	6245.91
732.589	6225.57
732.93	6207.94
733.271	6230.09
733.612	6176.98
733.953	6209.07
734.294	6185.8
734.635	6262.86
734.976	6275.06
735.317	6228.73
735.658	6313.93
735.999	6267.15
736.339	6251.78
736.68	6313.25
737.021	6300.15
737.361	6257.21
737.702	6313.7
738.042	6268.28
738.383	6284.78
738.723	6296.98
739.063	6306.7
739.404	6332.46
739.744	6317.55
740.084	6318.9
740.424	6354.38
740.764	6379.01
741.104	6386.92
741.444	6376.53
741.784	6395.74
742.124	6434.6
742.464	6361.39
742.804	6476.19
743.143	6473.02
743.483	6490.87
743.823	6442.74
744.162	6533.81
744.502	6551.21
744.841	6573.36
745.181	6621.72
745.52	6667.59
745.86	6678.67
746.199	6727.93
746.538	6706.24
746.877	6806.35
747.216	6850.19
747.556	6912.33
747.895	6954.14
748.234	6967.47
748.573	7045.44
748.911	7087.24
749.25	7178.99
749.589	7179.22
749.928	7278.65
750.267	7360.23
750.605	7406.78
750.944	7491.98
751.283	7561.81
751.621	7556.61
751.96	7723.84
752.298	7752.08
752.636	7910.5
752.975	7990.95
753.313	8050.83
753.651	8202.69
753.989	8278.4
754.327	8423.93
754.666	8503.48
755.004	8698.05
755.342	8792.51
755.679	8864.15
756.017	9023.69
756.355	9201.76
756.693	9262.1
757.031	9469.1
757.368	9510.91
757.706	9777.79
758.044	9798.36
758.381	10016.43
758.719	10191.79
759.056	10362.41
759.394	10507.27
759.731	10668.62
760.068	10769.41
760.405	10887.82
760.743	11119.68
761.08	11241.94
761.417	11352.44
761.754	11664.98
762.091	11805.99
762.428	11944.29
762.765	12055.02
763.102	12341.79
763.438	12500.21
763.775	12619.07
764.112	12760.99
764.449	12970.25
764.785	13118.72
765.122	13209.57
765.458	13365.72
765.795	13467.87
766.131	13707.63
