Data from hue_70_FLMS001491_52.txt Node
Date: Mon Feb 06 15:21:06 GMT 2017
User: dcchb
Spectrometer: FLMS00149
Trigger mode: 0
Integration Time (sec): 2.000000E-2
Scans to average: 10
Electric dark correction enabled: true
Nonlinearity correction enabled: false
Boxcar width: 0
XAxis mode: Wavelengths
Number of Pixels in Spectrum: 2048
>>>>>Begin Spectral Data<<<<<
341.393	-17.13
341.776	-17.13
342.16	-17.13
342.543	-66.4
342.927	-63.68
343.31	-76.57
343.693	-56.68
344.077	-71.37
344.46	-71.37
344.843	-33.63
345.226	-36.79
345.61	-41.76
345.993	-29.56
346.376	-21.65
346.759	29.87
347.142	35.3
347.525	64.67
347.908	45.01
348.291	73.71
348.674	87.5
349.057	103.32
349.44	135.18
349.823	118.46
350.206	161.39
350.588	222.41
350.971	203.65
351.354	216.08
351.737	233.71
352.119	253.6
352.502	270.54
352.884	259.47
353.267	287.72
353.65	293.82
354.032	296.53
354.414	294.05
354.797	297.44
355.179	303.76
355.562	306.02
355.944	333.82
356.326	329.07
356.709	338.34
357.091	320.94
357.473	338.79
357.855	322.97
358.238	360.26
358.62	325.01
359.002	332.91
359.384	331.33
359.766	343.76
360.148	309.41
360.53	353.93
360.912	335.85
361.294	336.53
361.676	325.46
362.057	326.81
362.439	315.74
362.821	325.23
363.203	305.35
363.584	324.33
363.966	317.77
364.348	329.53
364.729	321.62
365.111	327.27
365.493	320.49
365.874	292.01
366.256	316.19
366.637	315.29
367.019	299.7
367.4	299.47
367.781	302.63
368.163	294.72
368.544	320.71
368.925	318
369.306	325.01
369.688	309.86
370.069	311.22
370.45	293.14
370.831	302.63
371.212	289.75
371.593	294.72
371.974	310.32
372.355	315.51
372.736	307.38
373.117	304.44
373.498	302.18
373.879	308.51
374.26	326.36
374.641	292.92
375.021	300.6
375.402	322.52
375.783	319.36
376.163	299.47
376.544	309.41
376.925	329.3
377.305	312.58
377.686	343.31
378.066	313.48
378.447	319.81
378.827	321.39
379.208	327.49
379.588	312.8
379.968	326.81
380.349	335.17
380.729	321.62
381.109	333.82
381.489	315.74
381.87	333.59
382.25	306.93
382.63	341.28
383.01	355.29
383.39	347.6
383.77	322.75
384.15	337.21
384.53	337.21
384.91	335.63
385.29	341.05
385.67	325.23
386.049	327.04
386.429	341.05
386.809	335.17
387.189	353.03
387.568	356.87
387.948	329.07
388.328	335.17
388.707	355.06
389.087	327.27
389.466	352.12
389.846	338.79
390.225	362.07
390.605	335.85
390.984	343.08
391.363	350.09
391.743	344.67
392.122	352.8
392.501	333.82
392.881	367.72
393.26	368.85
393.639	331.33
394.018	365.23
394.397	380.82
394.776	355.51
395.155	371.78
395.534	359.35
395.913	362.29
396.292	372.91
396.671	353.93
397.05	386.25
397.429	367.26
397.808	368.85
398.186	368.62
398.565	362.29
398.944	372.69
399.323	379.69
399.701	376.08
400.08	378.79
400.458	385.12
400.837	380.37
401.215	386.25
401.594	371.56
401.972	389.64
402.351	366.59
402.729	383.31
403.107	383.76
403.486	390.54
403.864	379.24
404.242	395.29
404.62	398.22
404.999	403.42
405.377	395.29
405.755	382.41
406.133	394.83
406.511	402.97
406.889	401.16
407.267	413.59
407.645	410.43
408.023	414.95
408.401	416.3
408.779	396.64
409.156	422.18
409.534	413.59
409.912	415.17
410.29	442.52
410.667	422.63
411.045	430.09
411.422	438.67
411.8	424.21
412.178	430.54
412.555	429.86
412.933	432.8
413.31	432.12
413.687	426.47
414.065	451.33
414.442	440.48
414.819	438.67
415.197	452.91
415.574	451.56
415.951	447.49
416.328	455.17
416.705	456.75
417.082	433.93
417.46	450.43
417.837	456.3
418.214	465.79
418.591	471.22
418.967	476.64
419.344	488.39
419.721	466.47
420.098	503.98
420.475	475.28
420.852	480.03
421.228	495.62
421.605	486.81
421.982	483.19
422.358	485.23
422.735	501.27
423.111	508.28
423.488	527.03
423.864	522.06
424.241	488.17
424.617	508.73
424.994	508.05
425.37	499.24
425.746	503.98
426.123	500.59
426.499	514.83
426.875	528.16
427.251	514.15
427.627	516.86
428.003	537.88
428.379	547.37
428.756	542.63
429.132	535.85
429.507	545.56
429.883	549.63
430.259	577.43
430.635	571.55
431.011	545.79
431.387	570.87
431.763	576.75
432.138	580.59
432.514	579.46
432.89	597.09
433.265	600.48
433.641	613.36
434.016	591.21
434.392	597.54
434.767	607.94
435.143	610.2
435.518	618.11
435.894	612
436.269	627.82
436.644	644.55
437.02	623.98
437.395	629.63
437.77	642.51
438.145	664.88
438.52	645.22
438.895	647.26
439.271	649.52
439.646	686.13
440.021	658.56
440.395	678.67
440.77	658.33
441.145	678.22
441.52	694.94
441.895	664.66
442.27	690.42
442.645	684.32
443.019	703.53
443.394	704.88
443.769	700.59
444.143	712.11
444.518	703.07
444.892	710.53
445.267	715.96
445.641	724.77
446.016	711.44
446.39	725.9
446.764	724.09
447.139	748.5
447.513	715.28
447.887	735.39
448.262	749.18
448.636	738.55
449.01	759.34
449.384	762.06
449.758	765.9
450.132	772.68
450.506	760.47
450.88	793.24
451.254	753.24
451.628	760.93
452.002	798.44
452.376	786.69
452.75	806.12
453.123	806.57
453.497	797.76
453.871	833.69
454.244	851.32
454.618	842.28
454.992	842.51
455.365	872.56
455.739	872.79
456.112	886.12
456.486	888.61
456.859	888.15
457.232	894.26
457.606	913.46
457.979	917.08
458.352	936.97
458.725	929.28
459.099	948.72
459.472	969.28
459.845	969.73
460.218	970.41
460.591	994.14
460.964	977.42
461.337	1021.26
461.71	1045.44
462.083	1059.68
462.456	1033.46
462.829	1026.91
463.201	1073.46
463.574	1035.72
463.947	1094.7
464.32	1095.61
464.692	1142.61
465.065	1114.82
465.438	1138.77
465.81	1127.92
466.183	1171.76
466.555	1157.53
466.928	1201.59
467.3	1198.88
467.672	1218.99
468.045	1264.64
468.417	1263.06
468.789	1259.9
469.161	1293.79
469.534	1319.33
469.906	1341.02
470.278	1369.72
470.65	1378.31
471.022	1435.71
471.394	1445.43
471.766	1466.9
472.138	1510.29
472.51	1534.24
472.882	1561.58
473.253	1597.29
473.625	1601.81
473.997	1661.02
474.369	1682.94
474.74	1688.59
475.112	1743.95
475.484	1806.77
475.855	1842.48
476.227	1878.86
476.598	1931.52
476.97	1942.14
477.341	2036.15
477.713	2103.94
478.084	2118.4
478.455	2206.76
478.827	2257.61
479.198	2325.86
479.569	2374.22
479.94	2444.05
480.311	2507.32
480.682	2578.05
481.053	2651.27
481.424	2743.93
481.795	2812.62
482.166	2892.4
482.537	2970.36
482.908	3054.2
483.279	3158.38
483.65	3233.18
484.021	3356.79
484.391	3413.74
484.762	3523.79
485.133	3576.9
485.503	3658.48
485.874	3828.64
486.244	3907.06
486.615	4014.4
486.985	4133.49
487.356	4260.04
487.726	4323.54
488.097	4506.14
488.467	4574.39
488.837	4726.47
489.207	4861.38
489.578	5018.67
489.948	5107.03
490.318	5239.23
490.688	5331.65
491.058	5471.08
491.428	5648.26
491.798	5745.43
492.168	5923.05
492.538	6052.99
492.908	6207.56
493.278	6324.62
493.648	6459.08
494.017	6613.2
494.387	6687.78
494.757	6885.29
495.126	7011.38
495.496	7065.85
495.866	7272.85
496.235	7409.57
496.605	7535.66
496.974	7643.68
497.344	7769.1
497.713	7949.44
498.082	8050.68
498.452	8233.27
498.821	8326.15
499.19	8457.22
499.559	8533.38
499.928	8743.77
500.298	8866.48
500.667	9043.87
501.036	9050.65
501.405	9185.79
501.774	9315.96
502.143	9447.03
502.512	9553.24
502.88	9708.94
503.249	9751.42
503.618	9960.46
503.987	10028.25
504.356	10131.08
504.724	10173.79
505.093	10312.09
505.462	10379.43
505.83	10589.59
506.199	10669.59
506.567	10922.47
506.936	10915.01
507.304	11079.98
507.672	11139.41
508.041	11263.25
508.409	11387.77
508.777	11516.12
509.145	11599.06
509.514	11665.27
509.882	11797.02
510.25	11892.84
510.618	11985.04
510.986	12094.64
511.354	12217.12
511.722	12332.6
512.09	12421.41
512.458	12510.67
512.826	12615.08
513.193	12678.81
513.561	12821.4
513.929	12964.9
514.297	13076.53
514.664	13170.77
515.032	13132.13
515.4	13285.79
515.767	13425
516.135	13387.71
516.502	13412.35
516.869	13710.87
517.237	13772.11
517.604	13664.99
517.972	13914.7
518.339	13989.96
518.706	14044.87
519.073	14163.29
519.44	14229.27
519.808	14432.88
520.175	14357.86
520.542	14518.53
520.909	14636.72
521.276	14574.57
521.643	14805.08
522.009	14864.96
522.376	14885.3
522.743	15091.4
523.11	15095.46
523.477	15333.2
523.843	15353.31
524.21	15511.05
524.577	15561.89
524.943	15625.39
525.31	15742
525.676	15870.59
526.043	15890.02
526.409	15978.15
526.776	16127.53
527.142	16165.27
527.508	16226.96
527.874	16359.84
528.241	16453.85
528.607	16500.63
528.973	16695.42
529.339	16626.5
529.705	16708.98
530.071	16738.81
530.437	16879.6
530.803	16901.74
531.169	16995.08
531.535	17057
531.901	17052.25
532.267	17049.99
532.632	17091.8
532.998	17305.58
533.364	17310.1
533.73	17393.26
534.095	17426.48
534.461	17433.26
534.826	17503.31
535.192	17532.91
535.557	17670.99
535.923	17576.76
536.288	17658.34
536.653	17725.23
537.019	17623.53
537.384	17679.35
537.749	17811.33
538.114	17786.47
538.479	17850.19
538.845	17916.86
539.21	17856.07
539.575	17890.65
539.94	17904.88
540.305	17920.93
540.67	17896.75
541.034	18053.35
541.399	17976.07
541.764	18044.09
542.129	18115.27
542.494	18127.93
542.858	18154.59
543.223	18097.19
543.587	18249.28
543.952	18175.38
544.316	18147.81
544.681	18138.1
545.045	18259.45
545.41	18342.16
545.774	18242.73
546.138	18385.55
546.503	18247.92
546.867	18270.75
547.231	18488.37
547.595	18484.98
547.959	18439.78
548.324	18439.78
548.688	18405.43
549.052	18501.7
549.416	18475.71
549.779	18489.73
550.143	18598.65
550.507	18671.42
550.871	18576.28
551.235	18633.9
551.599	18682.04
551.962	18737.4
552.326	18711.64
552.689	18791.64
553.053	18774.46
553.417	18756.39
553.78	18934.69
554.143	18805.2
554.507	18763.84
554.87	18880.68
555.234	19055.36
555.597	18954.57
555.96	18984.63
556.323	19024.63
556.686	19125.64
557.05	19056.94
557.413	19207.67
557.776	19075.7
558.139	19344.62
558.502	19172.65
558.865	19246.54
559.228	19404.96
559.59	19375.35
559.953	19429.14
560.316	19545.97
560.679	19529.47
561.041	19657.6
561.404	19745.74
561.767	19841.78
562.129	19776.47
562.492	19981.44
562.854	19929.01
563.217	19845.85
563.579	20070.7
563.941	20102.79
564.304	20178.72
564.666	20191.6
565.028	20255.1
565.39	20270.02
565.753	20331.71
566.115	20482.22
566.477	20527.86
566.839	20476.57
567.201	20680.18
567.563	20609.22
567.925	20693.06
568.287	20644.7
568.648	20731.93
569.01	20781.42
569.372	20931.24
569.734	20916.78
570.095	21002.65
570.457	21006.5
570.819	21086.72
571.18	21044.01
571.542	21177.34
571.903	21246.49
572.265	21298.47
572.626	21333.27
572.987	21295.53
573.349	21335.3
573.71	21515.63
574.071	21502.75
574.432	21588.63
574.794	21661.39
575.155	21664.78
575.516	21616.42
575.877	21701.39
576.238	21739.58
576.599	21897.32
576.96	21841.73
577.32	21740.26
577.681	21912.01
578.042	21907.26
578.403	21913.14
578.763	21996.07
579.124	21978.22
579.485	21948.17
579.845	22043.76
580.206	22037.66
580.566	22073.81
580.927	22077.65
581.287	22158.1
581.648	21985.9
582.008	22163.98
582.368	22138.67
582.728	22169.85
583.089	22151.78
583.449	22112
583.809	22118.78
584.169	22189.74
584.529	22103.87
584.889	22266.58
585.249	22007.6
585.609	21976.87
585.969	22160.59
586.329	22180.25
586.688	22062.06
587.048	22209.85
587.408	22071.33
587.768	22158.1
588.127	22163.53
588.487	22100.93
588.846	22242.4
589.206	22031.1
589.565	22055.06
589.925	22242.4
590.284	22011.44
590.643	22156.52
591.003	22209.85
591.362	22224.32
591.721	22195.84
592.08	22179.57
592.44	22200.81
592.799	22210.31
593.158	22092.34
593.517	22163.75
593.876	22181.15
594.235	22197.2
594.593	22256.18
594.952	22158.33
595.311	22155.62
595.67	22189.29
596.029	22323.07
596.387	22249.85
596.746	22307.25
597.104	22214.37
597.463	22260.25
597.822	22338.66
598.18	22296.41
598.538	22243.98
598.897	22349.96
599.255	22145.67
599.613	22547.47
599.972	22327.82
600.33	22408.72
600.688	22314.26
601.046	22452.56
601.404	22552.9
601.762	22341.6
602.12	22472.9
602.478	22449.17
602.836	22581.6
603.194	22431.32
603.552	22538.43
603.91	22427.02
604.268	22560.81
604.625	22485.55
604.983	22515.61
605.341	22403.3
605.698	22593.8
606.056	22579.34
606.413	22565.55
606.771	22644.19
607.128	22614.59
607.485	22576.17
607.843	22699.33
608.2	22737.75
608.557	22764.87
608.914	22797.86
609.272	22808.71
609.629	22901.14
609.986	22953.34
610.343	22857.29
610.7	23034.24
611.057	23060.45
611.414	22968.03
611.771	22961.92
612.127	22982.94
612.484	22953.34
612.841	23129.6
613.198	23121.24
613.554	23081.02
613.911	23238.98
614.267	23187
614.624	23268.58
614.98	23208.7
615.337	23349.03
615.693	23276.94
616.05	23299.32
616.406	23471.97
616.762	23332.54
617.118	23367.79
617.475	23415.47
617.831	23550.84
618.187	23537.5
618.543	23529.82
618.899	23630.38
619.255	23554.45
619.611	23518.29
619.967	23633.77
620.323	23631.96
620.678	23550.84
621.034	23508.8
621.39	23627.44
621.746	23573.89
622.101	23852.07
622.457	23742.92
622.812	23756.48
623.168	23805.97
623.523	23826.76
623.879	23801.9
624.234	23731.62
624.589	23805.74
624.945	23830.38
625.3	23933.65
625.655	23861.34
626.01	23851.17
626.365	23863.6
626.72	23887.1
627.075	23796.48
627.43	23864.73
627.785	23727.33
628.14	23763.03
628.495	23818.4
628.85	23791.96
629.205	23736.59
629.559	23767.33
629.914	23763.94
630.269	23706.09
630.623	23634
630.978	23679.65
631.332	23687.1
631.687	23775.24
632.041	23643.26
632.396	23768
632.75	23616.82
633.104	23618.18
633.459	23539.99
633.813	23579.76
634.167	23653.43
634.521	23549.48
634.875	23650.72
635.229	23532.08
635.583	23441.23
635.937	23503.38
636.291	23377.51
636.645	23497.96
636.999	23361.24
637.352	23479.88
637.706	23262.93
638.06	23471.97
638.413	23415.25
638.767	23242.37
639.121	23322.59
639.474	23157.4
639.828	23239.66
640.181	23170.73
640.534	23256.38
640.888	23205.31
641.241	23090.06
641.594	23169.38
641.947	23154.46
642.301	23174.8
642.654	23154.91
643.007	23152.88
643.36	23137.97
643.713	23071.75
644.066	23261.13
644.419	22979.78
644.771	22958.53
645.124	22628.15
645.477	22624.31
645.83	22497.76
646.182	22399.23
646.535	22295.05
646.888	22340.25
647.24	22286.01
647.593	22396.52
647.945	22230.19
648.298	22269.06
648.65	22284.43
649.002	22213.24
649.355	22187.03
649.707	22366.91
650.059	22255.73
650.411	22630.63
650.763	22625.89
651.115	22938.2
651.467	22830.4
651.819	22841.02
652.171	22734.59
652.523	22670.63
652.875	22671.08
653.227	22577.08
653.578	22874.47
653.93	22787.24
654.282	22561.71
654.633	22620.01
654.985	22749.27
655.337	22547.7
655.688	22611.88
656.039	22677.86
656.391	22592.22
656.742	22556.74
657.094	22654.81
657.445	22652.55
657.796	22699.78
658.147	22597.41
658.498	22657.75
658.849	22636.06
659.2	22649.16
659.551	22545.21
659.902	22713.57
660.253	22588.37
660.604	22627.92
660.955	22596.96
661.306	22598.09
661.656	22587.7
662.007	22508.6
662.358	22634.7
662.708	22566.45
663.059	22481.94
663.409	22427.25
663.76	22511.77
664.11	22604.65
664.461	22637.87
664.811	22616.17
665.161	22582.05
665.511	22636.74
665.862	22650.07
666.212	22690.52
666.562	22599.45
666.912	22511.09
667.262	22556.06
667.612	22527.36
667.962	22561.26
668.312	22589.05
668.662	22552.9
669.011	22590.63
669.361	22519.9
669.711	22557.64
670.06	22518.09
670.41	22495.5
670.76	22556.06
671.109	22556.96
671.459	22418.66
671.808	22516.51
672.157	22452.11
672.507	22349.96
672.856	22403.3
673.205	22429.28
673.554	22492.33
673.904	22463.41
674.253	22474.03
674.602	22409.85
674.951	22059.12
675.3	22016.64
675.649	22306.57
675.998	22248.72
676.346	22290.08
676.695	22323.75
677.044	22150.65
677.393	22266.12
677.741	22272.45
678.09	22185.9
678.438	22145.9
678.787	22222.51
679.135	22190.42
679.484	22022.06
679.832	22114.04
680.181	21954.95
680.529	22045.56
680.877	22010.76
681.225	22002.4
681.573	22117.65
681.922	21880.82
682.27	21812.35
682.618	21900.03
682.966	21752.92
683.314	21848.06
683.661	21737.32
684.009	21653.48
684.357	21609.64
684.705	21531.91
685.053	21648.96
685.4	21613.94
685.748	21415.75
686.095	21483.09
686.443	21481.96
686.79	21366.03
687.138	21300.5
687.485	21363.32
687.832	21201.52
688.18	21252.14
688.527	21162.88
688.874	21190.22
689.221	21123.55
689.568	21122.65
689.915	20950
690.262	20997.46
690.609	20922.2
690.956	20819.61
691.303	20809.66
691.65	20745.49
691.997	20748.88
692.344	20543.23
692.69	20460.75
693.037	20526.51
693.383	20369
693.73	20368.55
694.077	20333.29
694.423	20295.33
694.769	20228.89
695.116	20112.96
695.462	20108.21
695.808	20059.4
696.155	20130.59
696.501	19961.33
696.847	19940.31
697.193	19769.24
697.539	19827.77
697.885	19672.07
698.231	19496.93
698.577	19520.43
698.923	19519.98
699.269	19400.89
699.614	19324.73
699.96	19369.02
700.306	19386.88
700.651	19076.83
700.997	19209.48
701.342	19144.62
701.688	19110.05
702.033	18940.79
702.379	18978.3
702.724	18892.2
703.069	18929.04
703.415	18731.53
703.76	18659.66
704.105	18691.3
704.45	18707.35
704.795	18421.7
705.14	18527.01
705.485	18429.84
705.83	18360.24
706.175	18359.11
706.52	18273.01
706.865	18225.1
707.209	18284.99
707.554	18165.21
707.899	18235.27
708.243	18098.1
708.588	18050.42
708.932	17924.32
709.277	17911.89
709.621	17889.29
709.966	17806.81
710.31	17909.4
710.654	17738.11
710.998	17687.94
711.342	17721.61
711.687	17658.56
712.031	17633.93
712.375	17488.4
712.719	17449.98
713.063	17486.36
713.407	17609.3
713.75	17414.27
714.094	17304.22
714.438	17316.88
714.782	17296.99
715.125	17289.08
715.469	17216.76
715.812	17183.77
716.156	17073.27
716.499	17119.82
716.843	17155.07
717.186	17060.38
717.53	17124.79
717.873	17102.87
718.216	17030.1
718.559	16958.01
718.902	16840.73
719.246	16847.28
719.589	16911.24
719.932	16908.75
720.275	16798.24
720.617	16878.69
720.96	16802.31
721.303	16728.87
721.646	16755.99
721.989	16599.61
722.331	16657.23
722.674	16633.28
723.016	16597.57
723.359	16628.76
723.701	16614.29
724.044	16525.71
724.386	16504.47
724.729	16511.7
725.071	16383.57
725.413	16446.62
725.755	16456.33
726.097	16351.02
726.439	16308.54
726.782	16381.08
727.124	16283.91
727.465	16245.04
727.807	16284.36
728.149	16276
728.491	16301.99
728.833	16306.05
729.175	16248.2
729.516	16160.97
729.858	16281.2
730.199	16238.26
730.541	16210.69
730.882	16181.54
731.224	16209.56
731.565	16173.4
731.906	16125.04
732.248	16009.34
732.589	16117.13
732.93	16117.36
733.271	16061.99
733.612	16040.52
733.953	15963.46
734.294	16047.08
734.635	15967.53
734.976	15993.75
735.317	15911.26
735.658	15927.31
735.999	15898.16
736.339	15941.54
736.68	15944.03
737.021	15901.77
737.361	15890.02
737.702	16018.83
738.042	15796.01
738.383	15872.17
738.723	15926.86
739.063	15882.56
739.404	15994.88
739.744	15869.23
740.084	15809.8
740.424	15839.85
740.764	15835.11
741.104	15930.92
741.444	15822.9
741.784	15796.01
742.124	15824.71
742.464	15773.41
742.804	15809.8
743.143	15813.64
743.483	15897.93
743.823	15853.86
744.162	15890.47
744.502	15859.29
744.841	15809.57
745.181	15926.86
745.52	15796.01
745.86	15900.19
746.199	15861.32
746.538	15994.65
746.877	16015.44
747.216	16057.47
747.556	16031.94
747.895	16079.85
748.234	16117.13
748.573	16091.14
748.911	16101.77
749.25	16173.18
749.589	16186.51
749.928	16197.13
750.267	16334.08
750.605	16334.53
750.944	16352.15
751.283	16352.61
751.621	16383.11
751.96	16375.66
752.298	16473.96
752.636	16534.75
752.975	16653.84
753.313	16628.31
753.651	16685.48
753.989	16675.31
754.327	16722.99
754.666	16807.51
755.004	16954.17
755.342	16996.66
755.679	17017.22
756.017	17034.85
756.355	17108.75
756.693	17230.55
757.031	17253.6
