Data from hue_110_FLMS001491_00050.txt Node
Date: Tue Feb 07 17:01:23 GMT 2017
User: dcchb
Spectrometer: FLMS00149
Trigger mode: 0
Integration Time (sec): 2.000000E-2
Scans to average: 10
Electric dark correction enabled: true
Nonlinearity correction enabled: false
Boxcar width: 0
XAxis mode: Wavelengths
Number of Pixels in Spectrum: 2048
>>>>>Begin Spectral Data<<<<<
341.393	1.12
341.776	1.12
342.16	1.12
342.543	-39.79
342.927	-70.07
343.31	-53.57
343.693	-59.67
344.077	-57.19
344.46	-63.97
344.843	-67.58
345.226	-31.65
345.61	-25.32
345.993	-24.42
346.376	-12.22
346.759	-4.99
347.142	25.07
347.525	43.15
347.908	60.1
348.291	58.52
348.674	91.73
349.057	122.02
349.44	143.48
349.823	153.2
350.206	175.8
350.588	209.47
350.971	231.17
351.354	226.87
351.737	241.11
352.119	263.93
352.502	251.5
352.884	265.74
353.267	275.46
353.65	302.58
354.032	306.19
354.414	308.45
354.797	330.82
355.179	336.25
355.562	336.93
355.944	344.61
356.326	350.71
356.709	339.41
357.091	330.15
357.473	365.63
357.855	338.96
358.238	333.08
358.62	359.3
359.002	355.23
359.384	359.52
359.766	368.34
360.148	343.48
360.53	356.36
360.912	355.46
361.294	342.35
361.676	340.54
362.057	342.58
362.439	353.65
362.821	346.64
363.203	351.39
363.584	355
363.966	335.34
364.348	333.31
364.729	337.15
365.111	315.23
365.493	332.18
365.874	330.37
366.256	323.59
366.637	307.1
367.019	307.77
367.4	325.85
367.781	327.43
368.163	341.22
368.544	342.12
368.925	341.67
369.306	330.6
369.688	331.95
370.069	324.5
370.45	332.41
370.831	316.81
371.212	315.68
371.593	324.72
371.974	308.68
372.355	342.58
372.736	322.24
373.117	324.27
373.498	324.27
373.879	327.89
374.26	339.41
374.641	312.52
375.021	310.71
375.402	327.21
375.783	312.75
376.163	343.93
376.544	325.4
376.925	321.79
377.305	346.87
377.686	336.47
378.066	343.25
378.447	343.03
378.827	355.23
379.208	343.25
379.588	354.55
379.968	331.73
380.349	339.86
380.729	350.49
381.109	335.12
381.489	347.32
381.87	343.71
382.25	358.17
382.63	372.63
383.01	356.13
383.39	348.9
383.77	340.32
384.15	364.04
384.53	358.62
384.91	357.04
385.29	368.79
385.67	356.36
386.049	359.98
386.429	348.23
386.809	369.92
387.189	376.25
387.568	380.99
387.948	392.07
388.328	381.9
388.707	369.02
389.087	391.39
389.466	389.35
389.846	378.96
390.225	382.35
390.605	380.09
390.984	370.15
391.363	357.26
391.743	396.13
392.122	390.26
392.501	402.91
392.881	379.41
393.26	368.79
393.639	381.22
394.018	403.59
394.397	409.69
394.776	407.43
395.155	381.44
395.534	404.04
395.913	402.01
396.292	394.55
396.671	439.52
397.05	431.84
397.429	424.61
397.808	421.9
398.186	416.25
398.565	398.62
398.944	414.66
399.323	416.02
399.701	407.88
400.08	419.18
400.458	449.92
400.837	418.51
401.215	435.68
401.594	439.52
401.972	444.27
402.351	440.43
402.729	437.26
403.107	426.64
403.486	431.61
403.864	458.05
404.242	445.17
404.62	441.1
404.999	445.4
405.377	442.91
405.755	440.43
406.133	452.4
406.511	448.11
406.889	438.62
407.267	456.92
407.645	464.38
408.023	461.22
408.401	454.66
408.779	452.4
409.156	468.9
409.534	482.01
409.912	473.19
410.29	492.63
410.667	488.33
411.045	481.78
411.422	508
411.8	495.57
412.178	504.38
412.555	507.09
412.933	542.34
413.31	520.2
413.687	536.92
414.065	524.49
414.442	529.01
414.819	539.41
415.197	545.96
415.574	556.81
415.951	557.26
416.328	589.8
416.705	549.12
417.082	554.77
417.46	555.9
417.837	562.46
418.214	557.71
418.591	563.81
418.967	563.13
419.344	566.3
419.721	562.68
420.098	588.9
420.475	588.9
420.852	586.19
421.228	595.45
421.605	604.26
421.982	597.94
422.358	604.04
422.735	611.27
423.111	627.54
423.488	621.21
423.864	630.7
424.241	635.68
424.617	614.21
424.994	646.3
425.37	646.07
425.746	644.94
426.123	670.02
426.499	651.49
426.875	661.44
427.251	667.76
427.627	655.34
428.003	689.46
428.379	692.4
428.756	692.85
429.132	710.93
429.507	698.05
429.883	703.7
430.259	715
430.635	703.7
431.011	701.66
431.387	719.74
431.763	748.44
432.138	733.53
432.514	743.92
432.89	756.8
433.265	773.07
433.641	764.26
434.016	763.36
434.392	800.64
434.767	805.39
435.143	796.58
435.518	799.06
435.894	835.44
436.269	821.21
436.644	836.35
437.02	831.15
437.395	852.17
437.77	857.14
438.145	842.45
438.52	864.14
438.895	847.65
439.271	864.37
439.646	878.38
440.021	898.04
440.395	901.43
440.77	889.23
441.145	903.69
441.52	908.66
441.895	905.72
442.27	939.4
442.645	905.27
443.019	939.62
443.394	979.17
443.769	971.94
444.143	943.92
444.518	973.29
444.892	961.09
445.267	983.24
445.641	982.78
446.016	974.88
446.39	977.59
446.764	987.76
447.139	986.17
447.513	1001.77
447.887	1020.75
448.262	1027.08
448.636	1045.83
449.01	1053.07
449.384	1063.69
449.758	1057.13
450.132	1073.18
450.506	1067.08
450.88	1094.42
451.254	1064.82
451.628	1089.22
452.002	1101.65
452.376	1115.66
452.75	1142.1
453.123	1148.43
453.497	1162.44
453.871	1160.63
454.244	1204.25
454.618	1164.02
454.992	1232.5
455.365	1208.09
455.739	1254.87
456.112	1259.61
456.486	1261.2
456.859	1267.52
457.232	1266.62
457.606	1273.17
457.979	1304.81
458.352	1320.86
458.725	1357.92
459.099	1357.01
459.472	1377.8
459.845	1409.67
460.218	1403.34
460.591	1417.58
460.964	1436.78
461.337	1479.95
461.71	1500.29
462.083	1484.24
462.456	1545.48
462.829	1557.23
463.201	1567.85
463.574	1560.4
463.947	1590
464.32	1605.82
464.692	1644.46
465.065	1664.57
465.438	1710.9
465.81	1709.09
466.183	1736.66
466.555	1764.46
466.928	1806.72
467.3	1783.22
467.672	1789.32
468.045	1900.27
468.417	1912.93
468.789	1919.03
469.161	1945.25
469.534	1993.38
469.906	2049.2
470.278	2096.65
470.65	2110.21
471.022	2162.19
471.394	2204.67
471.766	2239.93
472.138	2298.91
472.51	2325.35
472.882	2392.69
473.253	2436.08
473.625	2456.64
473.997	2532.35
474.369	2610.31
474.74	2617.54
475.112	2709.52
475.484	2741.16
475.855	2831.1
476.227	2872.23
476.598	3004.65
476.97	3041.71
477.341	3118.32
477.713	3217.53
478.084	3278.09
478.455	3308.83
478.827	3458.2
479.198	3564.19
479.569	3600.8
479.94	3762.6
480.311	3812.54
480.682	3920.33
481.053	4074.91
481.424	4171.4
481.795	4257.73
482.166	4336.6
482.537	4532.97
482.908	4624.5
483.279	4746.53
483.65	4900.42
484.021	4988.1
484.391	5150.58
484.762	5254.54
485.133	5327.76
485.503	5533.17
485.874	5672.61
486.244	5780.62
486.615	6009.55
486.985	6056.1
487.356	6314.4
487.726	6374.06
488.097	6588.97
488.467	6662.18
488.837	6897.43
489.207	7020.37
489.578	7232.34
489.948	7386.68
490.318	7517.98
490.688	7640.46
491.058	7883.39
491.428	8026.89
491.798	8227.11
492.168	8434.79
492.538	8468.92
492.908	8756.14
493.278	8924.27
493.648	8940.54
494.017	9182.12
494.387	9296.46
494.757	9519.74
495.126	9622.56
495.496	9789.56
495.866	9852.61
496.235	10166.05
496.605	10252.15
496.974	10413.72
497.344	10578.92
497.713	10649.42
498.082	10804.45
498.452	11004.89
498.821	11127.83
499.19	11186.13
499.559	11360.59
499.928	11520.59
500.298	11533.24
500.667	11747.47
501.036	11793.8
501.405	12047.13
501.774	12052.78
502.143	12241.25
502.512	12281.47
502.88	12520.11
503.249	12516.94
503.618	12694.34
503.987	12706.77
504.356	12847.33
504.724	13013.65
505.093	13052.07
505.462	13099.08
505.83	13224.5
506.199	13425.4
506.567	13508.56
506.936	13509.01
507.304	13758.49
507.672	13734.31
508.041	13889.34
508.409	14008.66
508.777	14127.07
509.145	14121.87
509.514	14210.23
509.882	14323.45
510.25	14345.82
510.618	14453.17
510.986	14490.9
511.354	14560.51
511.722	14735.19
512.09	14907.62
512.458	14905.81
512.826	14970.21
513.193	15071.68
513.561	15111
513.929	15212.02
514.297	15280.04
514.664	15374.95
515.032	15381.5
515.4	15443.65
515.767	15572.68
516.135	15613.81
516.502	15531.55
516.869	15631.67
517.237	15771.1
517.604	15725.67
517.972	15947.82
518.339	15793.24
518.706	15974.93
519.073	15895.84
519.44	16104.42
519.808	16168.15
520.175	16121.6
520.542	16245.43
520.909	16283.4
521.276	16288.82
521.643	16358.88
522.009	16415.83
522.376	16487.24
522.743	16471.42
523.11	16620.57
523.477	16649.49
523.843	16758.64
524.21	16879.54
524.577	16933.1
524.943	16977.84
525.31	17021.46
525.676	17122.47
526.043	17055.13
526.409	17180.1
526.776	17201.57
527.142	17219.42
527.508	17233.21
527.874	17301.45
528.241	17431.62
528.607	17357.27
528.973	17420.54
529.339	17464.84
529.705	17536.7
530.071	17490.6
530.437	17377.16
530.803	17560.65
531.169	17588.68
531.535	17564.27
531.901	17502.12
532.267	17499.19
532.632	17582.12
532.998	17545.29
533.364	17485.18
533.73	17543.93
534.095	17612.18
534.461	17671.39
534.826	17623.48
535.192	17566.76
535.557	17610.14
535.923	17604.95
536.288	17665.28
536.653	17527.89
537.019	17533.31
537.384	17453.76
537.749	17440.88
538.114	17461.22
538.479	17408.79
538.845	17312.98
539.21	17356.82
539.575	17324.73
539.94	17308.68
540.305	17319.76
540.67	17240.89
541.034	17155.02
541.399	17325.18
541.764	17213.32
542.129	17096.03
542.494	17208.12
542.858	17147.56
543.223	17062.36
543.587	17100.78
543.952	17099.65
544.316	16964.06
544.681	16934.68
545.045	17045.19
545.41	16955.92
545.774	16946.66
546.138	16778.08
546.503	16884.29
546.867	16820.79
547.231	16788.25
547.595	16835.7
547.959	16702.15
548.324	16722.26
548.688	16654.24
549.052	16619.66
549.416	16552.32
549.779	16546.9
550.143	16455.37
550.507	16497.63
550.871	16458.99
551.235	16411.08
551.599	16411.98
551.962	16452.43
552.326	16461.7
552.689	16365.88
553.053	16328.82
553.417	16258.99
553.78	16484.75
554.143	16267.58
554.507	16273.68
554.87	16268.26
555.234	16350.06
555.597	16185.55
555.96	16272.78
556.323	16234.59
556.686	16167.02
557.05	16215.38
557.413	16273.46
557.776	16076.17
558.139	16179.22
558.502	16078.66
558.865	16021.03
559.228	16174.02
559.59	16119.56
559.953	16162.5
560.316	16355.71
560.679	16281.59
561.041	16277.3
561.404	16240.24
561.767	16260.35
562.129	16180.13
562.492	16323.85
562.854	16230.52
563.217	16218.09
563.579	16169.05
563.941	16419.89
564.304	16224.87
564.666	16315.94
565.028	16362.95
565.39	16374.7
565.753	16381.48
566.115	16397.29
566.477	16416.28
566.839	16411.31
567.201	16515.48
567.563	16471.19
567.925	16425.32
568.287	16540.12
568.648	16527.69
569.01	16485.43
569.372	16608.14
569.734	16431.64
570.095	16642.71
570.457	16575.37
570.819	16578.53
571.18	16525.2
571.542	16667.34
571.903	16567.23
572.265	16673.45
572.626	16623.28
572.987	16686.1
573.349	16712.54
573.71	16712.77
574.071	16773.33
574.432	16736.72
574.794	16859.2
575.155	16835.48
575.516	16800.22
575.877	16871.86
576.238	16873.89
576.599	16842.03
576.96	16790.96
577.32	16833.22
577.681	16841.35
578.042	16941.01
578.403	16872.54
578.763	16885.42
579.124	16861.01
579.485	16872.99
579.845	16976.71
580.206	16957.73
580.566	16834.12
580.927	16917.51
581.287	17009.03
581.648	16863.72
582.008	16903.04
582.368	16854.01
582.728	16905.3
583.089	16872.54
583.449	16850.39
583.809	16856.94
584.169	16760.22
584.529	16797.51
584.889	16979.43
585.249	16781.92
585.609	16663.73
585.969	16920.22
586.329	16722.26
586.688	16807.91
587.048	16717.74
587.408	16615.14
587.768	16715.48
588.127	16663.95
588.487	16652.2
588.846	16743.95
589.206	16621.7
589.565	16678.64
589.925	16768.81
590.284	16614.69
590.643	16611.07
591.003	16660.56
591.362	16676.61
591.721	16549.16
592.08	16636.16
592.44	16629.61
592.799	16678.42
593.158	16612.88
593.517	16499.44
593.876	16536.95
594.235	16507.57
594.593	16573.11
594.952	16621.92
595.311	16498.99
595.67	16539.44
596.029	16618.76
596.387	16552.77
596.746	16536.05
597.104	16453.56
597.463	16446.33
597.822	16513
598.18	16518.65
598.538	16521.81
598.897	16542.15
599.255	16360.23
599.613	16558.65
599.972	16456.95
600.33	16538.31
600.688	16542.83
601.046	16463.06
601.404	16601.13
601.762	16503.51
602.12	16528.36
602.478	16564.52
602.836	16607.91
603.194	16483.17
603.552	16575.6
603.91	16437.97
604.268	16551.87
604.625	16375.37
604.983	16493.79
605.341	16365.43
605.698	16480.46
606.056	16512.09
606.413	16493.11
606.771	16571.98
607.128	16559.32
607.485	16397.97
607.843	16491.08
608.2	16510.29
608.557	16622.83
608.914	16556.61
609.272	16593
609.629	16563.17
609.986	16513.22
610.343	16612.43
610.7	16706.44
611.057	16646.33
611.414	16603.17
611.771	16712.31
612.127	16679.32
612.484	16727.68
612.841	16810.62
613.198	16701.24
613.554	16761.81
613.911	16735.59
614.267	16755.48
614.624	16684.07
614.98	16681.36
615.337	16840.9
615.693	16736.72
616.05	16768.58
616.406	16862.59
616.762	16863.72
617.118	16769.26
617.475	16795.93
617.831	16756.16
618.187	16853.33
618.543	16832.99
618.899	16909.6
619.255	16885.19
619.611	16856.04
619.967	16905.3
620.323	16929.48
620.678	16989.6
621.034	16927.68
621.39	16872.54
621.746	16854.68
622.101	17087.9
622.457	16913.89
622.812	17031.85
623.168	16973.55
623.523	16917.28
623.879	17020.1
624.234	16937.39
624.589	17002.02
624.945	17052.42
625.3	16980.1
625.655	16988.01
626.01	16976.71
626.365	16975.36
626.72	17023.95
627.075	16985.08
627.43	16887.68
627.785	16899.65
628.14	16910.73
628.495	16849.03
628.85	16941.69
629.205	16913.89
629.559	17002.25
629.914	16835.93
630.269	16942.59
630.623	16851.07
630.978	16767.91
631.332	16845.42
631.687	16936.49
632.041	16878.64
632.396	16830.5
632.75	16753.67
633.104	16828.7
633.459	16718.64
633.813	16720.68
634.167	16631.64
634.521	16590.51
634.875	16695.82
635.229	16650.85
635.583	16524.75
635.937	16538.99
636.291	16533.11
636.645	16548.25
636.999	16518.42
637.352	16574.92
637.706	16458.76
638.06	16494.69
638.413	16421.93
638.767	16391.19
639.121	16372.89
639.474	16309.61
639.828	16304.64
640.181	16406.33
640.534	16382.15
640.888	16302.61
641.241	16333.34
641.594	16228.71
641.947	16313.23
642.301	16285.89
642.654	16311.87
643.007	16260.12
643.36	16322.95
643.713	16318.65
644.066	16385.77
644.419	16165.89
644.771	16164.31
645.124	15906.23
645.477	15952.11
645.83	15855.16
646.182	15821.72
646.535	15691.1
646.888	15767.03
647.24	15654.94
647.593	15735.84
647.945	15645.68
648.298	15595.28
648.65	15627.37
649.002	15583.53
649.355	15799.12
649.707	15725
650.059	15813.81
650.411	15935.39
650.763	15917.08
651.115	16121.14
651.467	16134.7
651.819	16075.5
652.171	16065.33
652.523	16053.12
652.875	16048.38
653.227	15952.11
653.578	16040.69
653.93	16110.3
654.282	15986.23
654.633	15862.17
654.985	16064.2
655.337	16060.58
655.688	16040.02
656.039	16192.1
656.391	15966.12
656.742	15971.32
657.094	15987.81
657.445	16002.28
657.796	16053.58
658.147	16029.17
658.498	16017.19
658.849	15985.55
659.2	15995.95
659.551	15968.61
659.902	16105.55
660.253	16019.23
660.604	16073.24
660.955	16106.91
661.306	16137.64
661.656	16091.77
662.007	16131.31
662.358	16101.71
662.708	16084.99
663.059	16077.98
663.409	15975.39
663.76	16079.56
664.11	16169.05
664.461	16132.9
664.811	16195.27
665.161	16104.87
665.511	16010.86
665.862	16068.94
666.212	16174.48
666.562	16214.47
666.912	16175.15
667.262	16115.04
667.612	16106.46
667.962	16132.67
668.312	16070.3
668.662	16260.8
669.011	16129.73
669.361	16183.97
669.711	16070.98
670.06	16122.73
670.41	16101.26
670.76	16056.51
671.109	16056.74
671.459	16061.03
671.808	15982.16
672.157	16082.5
672.507	16015.38
672.856	15919.57
673.205	15998.66
673.554	15963.63
673.904	15906.01
674.253	15973.58
674.602	16000.47
674.951	15647.71
675.3	15647.48
675.649	15910.98
675.998	15877.08
676.346	15923.86
676.695	15882.73
677.044	15804.09
677.393	15831.43
677.741	15709.18
678.09	15698.1
678.438	15735.17
678.787	15694.04
679.135	15816.52
679.484	15666.69
679.832	15742.4
680.181	15574.72
680.529	15641.38
680.877	15639.57
681.225	15541.95
681.573	15592.34
681.922	15508.96
682.27	15529.3
682.618	15415.4
682.966	15382.41
683.314	15480.26
683.661	15415.85
684.009	15344.89
684.357	15280.71
684.705	15296.08
685.053	15355.29
685.4	15240.72
685.748	15159.14
686.095	15179.7
686.443	15135.63
686.79	15055.86
687.138	14971.12
687.485	15111.45
687.832	15111.9
688.18	15014.28
688.527	14885.24
688.874	14961.63
689.221	14916.43
689.568	14812.25
689.915	14782.87
690.262	14805.7
690.609	14707.4
690.956	14664.69
691.303	14667.17
691.65	14596.66
691.997	14558.93
692.344	14472.83
692.69	14389.21
693.037	14425.14
693.383	14206.17
693.73	14342.89
694.077	14146.73
694.423	14286.84
694.769	14129.11
695.116	14147.18
695.462	14029
695.808	14018.37
696.155	14087.07
696.501	13919.39
696.847	13914.87
697.193	13774.76
697.539	13739.51
697.885	13760.53
698.231	13671.04
698.577	13692.06
698.923	13591.27
699.269	13586.52
699.614	13486.18
699.96	13427.88
700.306	13464.94
700.651	13352.4
700.997	13279.64
701.342	13261.33
701.688	13212.75
702.033	13137.49
702.379	13131.84
702.724	13088.46
703.069	13107.66
703.415	12938.85
703.76	12949.25
704.105	12878.07
704.45	12950.15
704.795	12739.54
705.14	12810.95
705.485	12726.2
705.83	12677.39
706.175	12713.32
706.52	12671.07
706.865	12600.33
707.209	12543.61
707.554	12491.18
707.899	12510.39
708.243	12446.21
708.588	12387.91
708.932	12268.82
709.277	12326.44
709.621	12337.51
709.966	12191.08
710.31	12264.07
710.654	12133
710.998	12228.36
711.342	12185.43
711.687	12142.49
712.031	12076.05
712.375	12001.48
712.719	12016.62
713.063	12017.97
713.407	12071.76
713.75	11998.77
714.094	11965.32
714.438	11839
714.782	11939.78
715.125	11823.86
715.469	11851.43
715.812	11779.34
716.156	11716.97
716.499	11741.82
716.843	11727.14
717.186	11653.24
717.53	11711.77
717.873	11654.82
718.216	11729.62
718.559	11544.32
718.902	11544.54
719.246	11590.64
719.589	11499.34
719.932	11484.88
720.275	11481.94
720.617	11484.66
720.96	11484.2
721.303	11484.2
721.646	11486.01
721.989	11413.47
722.331	11430.42
722.674	11436.52
723.016	11440.81
723.359	11439.23
723.701	11421.83
724.044	11336.86
724.386	11309.29
724.729	11357.43
725.071	11376.18
725.413	11329.86
725.755	11353.36
726.097	11255.96
726.439	11240.37
726.782	11259.12
727.124	11267.26
727.465	11253.02
727.807	11229.75
728.149	11213.02
728.491	11221.16
728.833	11259.8
729.175	11201.05
729.516	11183.65
729.858	11168.05
730.199	11280.82
730.541	11111.33
730.882	11196.75
731.224	11245.11
731.565	11128.73
731.906	11132.12
732.248	11234.72
732.589	11131.44
732.93	11039.47
733.271	11135.06
733.612	11157.66
733.953	11163.53
734.294	11125.8
734.635	11138.22
734.976	11133.25
735.317	11126.02
735.658	11122.41
735.999	11147.04
736.339	11117.21
736.68	11260.03
737.021	11160.37
737.361	11097.1
737.702	11221.16
738.042	11176.64
738.383	11093.71
738.723	11193.36
739.063	11128.96
739.404	11241.72
739.744	11283.76
740.084	11195.62
740.424	11270.2
740.764	11215.74
741.104	11248.96
741.444	11235.17
741.784	11291.21
742.124	11295.96
742.464	11345.22
742.804	11326.47
743.143	11337.99
743.483	11422.28
743.823	11453.02
744.162	11434.49
744.502	11439.46
744.841	11505.9
745.181	11568.95
745.52	11609.62
745.86	11617.99
746.199	11636.52
746.538	11675.84
746.877	11769.39
747.216	11749.28
747.556	11832.67
747.895	11981.59
748.234	12000.8
748.573	12037.18
748.911	12170.74
749.25	12196.28
749.589	12269.95
749.928	12375.03
750.267	12447.12
750.605	12502.26
750.944	12600.56
751.283	12639.2
751.621	12816.6
751.96	12835.81
752.298	13018.4
752.636	13101.34
752.975	13153.31
753.313	13198.73
753.651	13489.57
753.989	13554.21
754.327	13616.35
754.666	13918.49
755.004	13972.5
755.342	14069.45
755.679	14199.61
756.017	14364.13
