Data from hue_320_FLMS001491_87.txt Node
Date: Mon Feb 06 15:47:50 GMT 2017
User: dcchb
Spectrometer: FLMS00149
Trigger mode: 0
Integration Time (sec): 2.000000E-2
Scans to average: 10
Electric dark correction enabled: true
Nonlinearity correction enabled: false
Boxcar width: 0
XAxis mode: Wavelengths
Number of Pixels in Spectrum: 2048
>>>>>Begin Spectral Data<<<<<
341.393	-5.96
341.776	-5.96
342.16	-5.96
342.543	-60.87
342.927	-76.69
343.31	-79.18
343.693	-82.12
344.077	-73.3
344.46	-51.16
344.843	-54.32
345.226	-47.77
345.61	-12.74
345.993	-18.62
346.376	10.08
346.759	5.79
347.142	21.38
347.525	34.49
347.908	65
348.291	85.56
348.674	96.64
349.057	100.25
349.44	124.43
349.823	143.64
350.206	137.31
350.588	199.68
350.971	230.42
351.354	230.64
351.737	234.03
352.119	249.63
352.502	267.48
352.884	269.06
353.267	273.35
353.65	269.74
354.032	297.99
354.414	313.81
354.797	305.67
355.179	315.16
355.562	327.59
355.944	320.13
356.326	334.14
356.709	320.13
357.091	309.51
357.473	356.29
357.855	341.38
358.238	338.66
358.62	326.01
359.002	340.25
359.384	347.25
359.766	335.73
360.148	320.58
360.53	333.92
360.912	346.12
361.294	341.6
361.676	337.99
362.057	333.24
362.439	326.01
362.821	349.28
363.203	334.82
363.584	310.64
363.966	323.52
364.348	325.56
364.729	321.49
365.111	323.07
365.493	318.55
365.874	297.99
366.256	301.6
366.637	313.58
367.019	318.32
367.4	318.55
367.781	316.07
368.163	340.7
368.544	294.6
368.925	301.83
369.306	310.64
369.688	331.21
370.069	301.15
370.45	309.96
370.831	308.61
371.212	324.65
371.593	304.09
371.974	337.31
372.355	288.5
372.736	322.17
373.117	312
373.498	308.83
373.879	328.04
374.26	308.83
374.641	315.39
375.021	316.07
375.402	320.13
375.783	326.69
376.163	340.25
376.544	322.17
376.925	325.1
377.305	320.36
377.686	325.33
378.066	309.74
378.447	341.15
378.827	300.92
379.208	328.72
379.588	333.24
379.968	336.4
380.349	347.02
380.729	324.65
381.109	339.12
381.489	335.5
381.87	329.62
382.25	331.43
382.63	336.86
383.01	339.79
383.39	349.28
383.77	325.56
384.15	329.62
384.53	335.73
384.91	336.18
385.29	358.32
385.67	361.26
386.049	343.64
386.429	355.39
386.809	336.86
387.189	340.02
387.568	353.58
387.948	344.31
388.328	376.4
388.707	343.41
389.087	362.62
389.466	341.38
389.846	352.45
390.225	379.34
390.605	355.39
390.984	342.28
391.363	348.83
391.743	355.16
392.122	372.56
392.501	382.73
392.881	367.59
393.26	378.21
393.639	376.85
394.018	379.57
394.397	380.47
394.776	378.21
395.155	383.86
395.534	390.19
395.913	380.7
396.292	387.7
396.671	374.14
397.05	394.93
397.429	380.92
397.808	394.48
398.186	389.28
398.565	380.7
398.944	397.42
399.323	399
399.701	405.33
400.08	402.16
400.458	400.58
400.837	410.98
401.215	396.29
401.594	389.96
401.972	415.05
402.351	426.57
402.729	408.72
403.107	393.8
403.486	427.93
403.864	432.9
404.242	418.89
404.62	429.28
404.999	433.8
405.377	424.76
405.755	444.42
406.133	441.71
406.511	443.75
406.889	466.34
407.267	440.58
407.645	435.16
408.023	454.14
408.401	474.93
408.779	469.51
409.156	454.14
409.534	474.25
409.912	453.69
410.29	466.12
410.667	463.41
411.045	502.5
411.422	477.87
411.8	517.64
412.178	511.54
412.555	526.91
412.933	537.53
413.31	550.64
413.687	525.78
414.065	515.16
414.442	537.3
414.819	550.18
415.197	568.94
415.574	579.79
415.951	568.71
416.328	565.1
416.705	557.87
417.082	570.07
417.46	575.49
417.837	603.29
418.214	580.92
418.591	612.33
418.967	599.45
419.344	610.29
419.721	628.37
420.098	658.2
420.475	629.28
420.852	668.37
421.228	642.38
421.605	660.69
421.982	656.17
422.358	666.56
422.735	689.16
423.111	676.28
423.488	680.8
423.864	719.22
424.241	721.48
424.617	718.99
424.994	716.28
425.37	728.71
425.746	721.03
426.123	727.58
426.499	724.64
426.875	761.48
427.251	742.04
427.627	754.92
428.003	780.01
428.379	798.76
428.756	764.87
429.132	818.42
429.507	791.98
429.883	799.44
430.259	801.02
430.635	860.91
431.011	848.03
431.387	851.87
431.763	870.85
432.138	876.28
432.514	887.8
432.89	898.42
433.265	884.41
433.641	907.24
434.016	905.65
434.392	904.98
434.767	952.43
435.143	910.63
435.518	939.33
435.894	930.74
436.269	970.06
436.644	991.53
437.02	974.13
437.395	993.11
437.77	1003.5
438.145	1002.37
438.52	1011.87
438.895	1026.78
439.271	1043.05
439.646	1044.41
440.021	1054.12
440.395	1052.09
440.77	1034.01
441.145	1082.6
441.52	1062.26
441.895	1064.07
442.27	1076.27
442.645	1089.6
443.019	1111.98
443.394	1093.9
443.769	1120.56
444.143	1100.23
444.518	1101.36
444.892	1114.46
445.267	1129.6
445.641	1120.56
446.016	1126.21
446.39	1169.15
446.764	1135.7
447.139	1157.4
447.513	1144.07
447.887	1142.26
448.262	1145.2
448.636	1157.17
449.01	1172.54
449.384	1178.42
449.758	1191.75
450.132	1203.05
450.506	1215.02
450.88	1214.8
451.254	1207.79
451.628	1215.48
452.002	1222.93
452.376	1252.99
452.75	1231.07
453.123	1235.14
453.497	1244.85
453.871	1239.66
454.244	1273.33
454.618	1263.16
454.992	1315.13
455.365	1302.71
455.739	1308.81
456.112	1303.84
456.486	1324.85
456.859	1325.3
457.232	1332.99
457.606	1347.22
457.979	1394.23
458.352	1392.87
458.725	1396.71
459.099	1373.21
459.472	1424.51
459.845	1445.07
460.218	1435.58
460.591	1433.78
460.964	1447.11
461.337	1492.98
461.71	1456.83
462.083	1544.96
462.456	1506.32
462.829	1488.24
463.201	1531.4
463.574	1542.25
463.947	1536.82
464.32	1583.83
464.692	1561.23
465.065	1571.4
465.438	1602.13
465.81	1617.95
466.183	1616.14
466.555	1641.91
466.928	1664.96
467.3	1647.78
467.672	1680.1
468.045	1699.08
468.417	1708.57
468.789	1716.48
469.161	1738.17
469.534	1747.89
469.906	1765.52
470.278	1788.79
470.65	1802.35
471.022	1820.88
471.394	1887.55
471.766	1841.22
472.138	1854.78
472.51	1933.2
472.882	1917.83
473.253	1961.45
473.625	1970.94
473.997	1980.88
474.369	2006.42
474.74	2000.54
475.112	2049.8
475.484	2071.05
475.855	2092.06
476.227	2119.18
476.598	2167.99
476.97	2179.74
477.341	2207.77
477.713	2231.95
478.084	2235.79
478.455	2274.88
478.827	2313.07
479.198	2337.93
479.569	2328.44
479.94	2421.77
480.311	2391.04
480.682	2424.48
481.053	2487.08
481.424	2541.54
481.795	2561.66
482.166	2558.94
482.537	2575.21
482.908	2639.39
483.279	2656.57
483.65	2641.43
484.021	2707.64
484.391	2765.94
484.762	2734.76
485.133	2777.92
485.503	2825.38
485.874	2849.11
486.244	2878.26
486.615	2921.42
486.985	2914.19
487.356	2985.83
487.726	3010.91
488.097	3047.07
488.467	3069.67
488.837	3129.32
489.207	3139.72
489.578	3179.72
489.948	3171.81
490.318	3220.4
490.688	3226.5
491.058	3274.63
491.428	3268.76
491.798	3330
492.168	3399.37
492.538	3339.71
492.908	3400.96
493.278	3405.02
493.648	3441.63
494.017	3480.28
494.387	3498.35
494.757	3563.21
495.126	3568.41
495.496	3589.2
495.866	3639.37
496.235	3616.77
496.605	3668.07
496.974	3675.98
497.344	3753.71
497.713	3706.03
498.082	3742.87
498.452	3756.65
498.821	3788.74
499.19	3769.31
499.559	3809.76
499.928	3826.48
500.298	3862.19
500.667	3894.73
501.036	3902.86
501.405	3921.62
501.774	3895.86
502.143	3930.66
502.512	3951
502.88	3966.59
503.249	3995.97
503.618	4009.53
503.987	3999.81
504.356	4031.22
504.724	4061.73
505.093	4038.45
505.462	4070.09
505.83	4040.71
506.199	4129.3
506.567	4140.37
506.936	4168.17
507.304	4201.39
507.672	4204.1
508.041	4186.02
508.409	4214.04
508.777	4256.3
509.145	4292.01
509.514	4255.17
509.882	4274.61
510.25	4261.5
510.618	4315.06
510.986	4318.45
511.354	4372.68
511.722	4405.68
512.09	4426.47
512.458	4410.87
512.826	4386.24
513.193	4440.48
513.561	4478.22
513.929	4465.79
514.297	4523.86
514.664	4497.88
515.032	4509.85
515.4	4566.12
515.767	4558.21
516.135	4548.5
516.502	4539.68
516.869	4619.45
517.237	4593.69
517.604	4618.32
517.972	4616.74
518.339	4658.32
518.706	4656.97
519.073	4656.74
519.44	4661.26
519.808	4724.76
520.175	4701.49
520.542	4710.75
520.909	4762.5
521.276	4807.25
521.643	4793.69
522.009	4834.36
522.376	4831.43
522.743	4864.42
523.11	4898.77
523.477	4931.31
523.843	4971.08
524.21	5003.17
524.577	5041.14
524.943	5012.66
525.31	5058.54
525.676	5074.81
526.043	5068.03
526.409	5154.36
526.776	5207.46
527.142	5201.13
527.508	5186.67
527.874	5195.94
528.241	5265.99
528.607	5233.68
528.973	5330.4
529.339	5286.78
529.705	5368.36
530.071	5347.8
530.437	5429.38
530.803	5460.11
531.169	5494.46
531.535	5482.93
531.901	5467.12
532.267	5469.83
532.632	5534.46
532.998	5565.64
533.364	5631.41
533.73	5568.13
534.095	5651.29
534.461	5630.73
534.826	5709.14
535.192	5775.58
535.557	5758.86
535.923	5771.97
536.288	5784.17
536.653	5830.5
537.019	5788.24
537.384	5864.39
537.749	5816.94
538.114	5899.87
538.479	5912.98
538.845	5949.82
539.21	5902.58
539.575	5958.63
539.94	6009.25
540.305	6065.74
540.67	6038.4
541.034	6036.14
541.399	6126.31
541.764	6143.93
542.129	6146.19
542.494	6151.62
542.858	6191.16
543.223	6173.99
543.587	6296.25
543.952	6235.46
544.316	6287.43
544.681	6307.55
545.045	6336.7
545.41	6382.57
545.774	6402.68
546.138	6392.29
546.503	6403.36
546.867	6405.85
547.231	6493.08
547.595	6446.53
547.959	6532.17
548.324	6526.52
548.688	6515
549.052	6604.04
549.416	6553.19
549.779	6594.54
550.143	6631.61
550.507	6655.79
550.871	6697.14
551.235	6650.59
551.599	6718.16
551.962	6753.41
552.326	6809
552.689	6809
553.053	6774.65
553.417	6827.31
553.78	6891.03
554.143	6884.48
554.507	6922.45
554.87	6923.35
555.234	7011.03
555.597	6871.6
555.96	6959.28
556.323	6986.62
556.686	7030.24
557.05	7124.93
557.413	7157.92
557.776	7134.42
558.139	7124.02
558.502	7117.24
558.865	7210.35
559.228	7199.05
559.59	7270.46
559.953	7252.61
560.316	7334.41
560.679	7216.67
561.041	7299.38
561.404	7399.95
561.767	7427.97
562.129	7342.77
562.492	7452.37
562.854	7391.36
563.217	7431.36
563.579	7508.42
563.941	7565.82
564.304	7492.83
564.666	7616.66
565.028	7639.94
565.39	7662.31
565.753	7684.23
566.115	7722.42
566.477	7750.45
566.839	7752.25
567.201	7749.09
567.563	7772.14
567.925	7836.09
568.287	7899.37
568.648	7895.07
569.01	7924.23
569.372	7983.21
569.734	7986.6
570.095	8061.85
570.457	8102.98
570.819	8035.64
571.18	8100.27
571.542	8189.76
571.903	8142.3
572.265	8263.88
572.626	8255.97
572.987	8297.32
573.349	8339.36
573.71	8395.17
574.071	8423.65
574.432	8486.25
574.794	8563.31
575.155	8564.44
575.516	8629.07
575.877	8631.1
576.238	8749.06
576.599	8798.55
576.96	8879.91
577.32	9006.68
577.681	9026.12
578.042	9166.23
578.403	9184.53
578.763	9276.51
579.124	9326.9
579.485	9435.83
579.845	9577.74
580.206	9615.71
580.566	9712.65
580.927	9817.28
581.287	9978.64
581.648	10036.94
582.008	10250.49
582.368	10278.74
582.728	10488.9
583.089	10573.65
583.449	10660.65
583.809	10909.23
584.169	11066.74
584.529	11151.03
584.889	11425.6
585.249	11485.04
585.609	11688.65
585.969	11913.73
586.329	12087.73
586.688	12365.47
587.048	12479.59
587.408	12645.23
587.768	12948.73
588.127	13047.93
588.487	13272.79
588.846	13571.31
589.206	13712.32
589.565	14023.95
589.925	14274.34
590.284	14502.81
590.643	14759.98
591.003	15073.19
591.362	15337.14
591.721	15564.03
592.08	15886.73
592.44	16100.96
592.799	16437
593.158	16647.16
593.517	16917.89
593.876	17311.32
594.235	17628.83
594.593	17758.54
594.952	18110.4
595.311	18328.47
595.67	18688.24
596.029	19016.82
596.387	19330.93
596.746	19645.05
597.104	19880.75
597.463	20037.13
597.822	20460.85
598.18	20654.06
598.538	20895.64
598.897	21279.36
599.255	21392.12
599.613	21962.5
599.972	22087.7
600.33	22512.54
600.688	22603.16
601.046	23016.71
601.404	23343.03
601.762	23501.67
602.12	23933.07
602.478	24187.98
602.836	24370.57
603.194	24470.01
603.552	24832.93
603.91	25057.34
604.268	25363.99
604.625	25539.81
604.983	25890.31
605.341	26074.26
605.698	26437.86
606.056	26750.62
606.413	26863.39
606.771	27222.93
607.128	27424.5
607.485	27512.86
607.843	27811.16
608.2	28158.5
608.557	28457.02
608.914	28577.24
609.272	28865.6
609.629	29139.71
609.986	29400.72
610.343	29391.68
610.7	29925
611.057	29981.27
611.414	30149.86
611.771	30306.01
612.127	30658.32
612.484	30735.15
612.841	31029.83
613.198	31091.98
613.554	31231.41
613.911	31644.73
614.267	31688.8
614.624	31928.34
614.98	32091.05
615.337	32395.67
615.693	32490.81
616.05	32530.81
616.406	32769.45
616.762	32970.12
617.118	33053.51
617.475	33298.93
617.831	33451.01
618.187	33450.11
618.543	33736.88
618.899	34139.58
619.255	34011.22
619.611	34134.38
619.967	34446.69
620.323	34500.03
620.678	34518.33
621.034	34625.45
621.39	34677.2
621.746	34864.54
622.101	35116.28
622.457	34934.82
622.812	35230.63
623.168	35231.76
623.523	35379.78
623.879	35725.3
624.234	35331.19
624.589	35664.51
624.945	35759.43
625.3	35809.14
625.655	35954.45
626.01	36000.32
626.365	36093.66
626.72	36098.4
627.075	36091.17
627.43	36299.07
627.785	36221.34
628.14	36294.1
628.495	36526.41
628.85	36501.1
629.205	36380.2
629.559	36612.06
629.914	36515.34
630.269	36602.12
630.623	36597.15
630.978	36619.52
631.332	36846.86
631.687	36854.99
632.041	36656.35
632.396	36908.55
632.75	36739.29
633.104	36939.06
633.459	36727.54
633.813	36813.18
634.167	36748.33
634.521	36966.63
634.875	36903.13
635.229	36863.13
635.583	36787.42
635.937	36824.03
636.291	36817.7
636.645	36833.07
636.999	36798.95
637.352	36824.26
637.706	36753.75
638.06	36911.71
638.413	36834.43
638.767	36880.75
639.121	36923.24
639.474	36755.56
639.828	36784.03
640.181	36809.34
640.534	36865.16
640.888	36782.68
641.241	36657.48
641.594	36689.57
641.947	36880.53
642.301	36711.49
642.654	36825.84
643.007	36762.56
643.36	36783.13
643.713	36744.94
644.066	36850.47
644.419	36661.78
644.771	36502.46
645.124	36128.23
645.477	36160.77
645.83	35874.23
646.182	35803.27
646.535	35625.42
646.888	35697.06
647.24	35730.95
647.593	35760.56
647.945	35556.27
648.298	35532.99
648.65	35491.19
649.002	35408.48
649.355	35600.79
649.707	35558.75
650.059	35735.47
650.411	36131.85
650.763	36189.02
651.115	36671.04
651.467	36527.99
651.819	36371.39
652.171	36462.69
652.523	36208.23
652.875	36333.65
653.227	36113.32
653.578	36409.58
653.93	36252.75
654.282	36101.56
654.633	36020.89
654.985	36185.86
655.337	36151.51
655.688	36181.11
656.039	36422.23
656.391	36066.54
656.742	36050.72
657.094	36210.71
657.445	36275.12
657.796	36227.21
658.147	36071.06
658.498	36065.86
658.849	36142.92
659.2	36132.3
659.551	36057.27
659.902	36187.21
660.253	35955.58
660.604	36107.44
660.955	36023.6
661.306	36039.65
661.656	35997.84
662.007	35977.5
662.358	36145.63
662.708	36074.22
663.059	36016.14
663.409	35832.19
663.76	36050.72
664.11	35945.41
664.461	35921.68
664.811	35985.18
665.161	35909.93
665.511	35944.28
665.862	36032.19
666.212	36059.31
666.562	36003.49
666.912	35952.42
667.262	35892.08
667.612	36010.49
667.962	36005.52
668.312	35903.38
668.662	36017.27
669.011	35996.48
669.361	35890.95
669.711	35887.11
670.06	35824.96
670.41	35825.64
670.76	35800.56
671.109	35934.79
671.459	35717.17
671.808	35742.25
672.157	35748.81
672.507	35562.14
672.856	35613.89
673.205	35716.26
673.554	35755.13
673.904	35563.73
674.253	35854.11
674.602	35712.42
674.951	35319.44
675.3	34999.22
675.649	35628.36
675.998	35605.98
676.346	35612.76
676.695	35692.31
677.044	35303.85
677.393	35528.7
677.741	35573.22
678.09	35443.5
678.438	35377.52
678.787	35409.83
679.135	35408.48
679.484	35315.37
679.832	35467.91
680.181	35179.78
680.529	35238.99
680.877	35116.96
681.225	35108.37
681.573	35277.86
681.922	34958.32
682.27	35029.05
682.618	34971.2
682.966	34964.87
683.314	34995.38
683.661	34856.17
684.009	34823.41
684.357	34666.57
684.705	34632.22
685.053	34636.07
685.4	34537.76
685.748	34444.89
686.095	34403.53
686.443	34326.7
686.79	34289.64
687.138	34453.7
687.485	34273.36
687.832	34181.39
688.18	34283.99
688.527	34035.18
688.874	34068.4
689.221	33893.94
689.568	33790.44
689.915	33791.57
690.262	33732.36
690.609	33628.86
690.956	33699.37
691.303	33507.28
691.65	33448.3
691.997	33457.11
692.344	33165.14
692.69	33187.74
693.037	33149.1
693.383	32923.34
693.73	33067.07
694.077	32943.91
694.423	32923.8
694.769	32858.03
695.116	32706.63
695.462	32688.77
695.808	32514.31
696.155	32589.11
696.501	32336.47
696.847	32376.24
697.193	32131.5
697.539	32292.85
697.885	32030.26
698.231	32048.34
698.577	31993.88
698.923	31945.06
699.269	31802.02
699.614	31557.28
699.96	31549.14
700.306	31529.48
700.651	31437.28
700.997	31330.84
701.342	31391.86
701.688	31296.95
702.033	31183.05
702.379	31196.84
702.724	31092.66
703.069	31110.74
703.415	30752.55
703.76	30854.02
704.105	30847.01
704.45	30660.35
704.795	30526.57
705.14	30458.78
705.485	30434.82
705.83	30224.88
706.175	30232.34
706.52	30318.67
706.865	30204.54
707.209	30115.51
707.554	29984.89
707.899	29994.38
708.243	29871.22
708.588	29795.06
708.932	29606.37
709.277	29722.98
709.621	29649.53
709.966	29365.47
710.31	29526.6
710.654	29211.58
710.998	29297.45
711.342	29312.82
711.687	29200.5
712.031	29042.99
712.375	29026.5
712.719	28967.52
713.063	28952.6
713.407	28962.77
713.75	28848.2
714.094	28840.96
714.438	28612.27
714.782	28805.03
715.125	28669.44
715.469	28638.03
715.812	28490.47
716.156	28336.12
716.499	28399.17
716.843	28454.08
717.186	28312.17
717.53	28454.99
717.873	28419.96
718.216	28255.67
718.559	28058.84
718.902	27890.03
719.246	28049.35
719.589	28104.71
719.932	27850.03
720.275	27862.69
720.617	27767.09
720.96	27799.64
721.303	27705.63
721.646	27730.94
721.989	27589.7
722.331	27688.23
722.674	27546.31
723.016	27552.86
723.359	27492.3
723.701	27540.43
724.044	27342.02
724.386	27184.74
724.729	27335.92
725.071	27224.96
725.413	27185.64
725.755	27265.41
726.097	27085.76
726.439	27016.61
726.782	27021.58
727.124	27064.97
727.465	26906.33
727.807	26907
728.149	26802.6
728.491	26752.21
728.833	26853.9
729.175	26756.5
729.516	26650.97
729.858	26704.75
730.199	26676.28
730.541	26662.27
730.882	26575.04
731.224	26569.39
731.565	26458.43
731.906	26486.45
732.248	26556.96
732.589	26189.28
732.93	26282.84
733.271	26261.6
733.612	26247.13
733.953	26290.07
734.294	26025.45
734.635	26179.79
734.976	26157.19
735.317	25978.44
735.658	25986.58
735.999	26020.7
736.339	25960.36
736.68	26056.41
737.021	25928.05
737.361	25739.58
737.702	25954.94
738.042	25862.06
738.383	25749.52
738.723	25701.84
739.063	25641.05
739.404	25685.34
739.744	25549.53
740.084	25579.36
740.424	25596.98
740.764	25519.24
741.104	25483.31
741.444	25363.54
741.784	25296.43
742.124	25404.22
742.464	25364.45
742.804	25189.99
743.143	25193.38
743.483	25295.75
743.823	25137.56
744.162	25144.11
744.502	25190.89
744.841	25128.75
745.181	25167.16
745.52	24934.63
745.86	24928.3
746.199	25027.28
746.538	24875.42
746.877	25000.61
747.216	24968.98
747.556	24867.51
747.895	24840.84
748.234	24754.29
748.573	24674.07
748.911	24693.5
749.25	24702.77
749.589	24547.74
749.928	24626.39
750.267	24542.55
750.605	24420.06
750.944	24521.53
751.283	24463.23
751.621	24356.56
751.96	24304.59
752.298	24286.73
752.636	24213.29
752.975	24157.25
753.313	23960.42
753.651	24152.95
753.989	24113.86
754.327	24046.97
754.666	23757.71
755.004	23873.64
755.342	23857.37
755.679	23903.69
756.017	23697.15
756.355	23748.67
756.693	23623.02
757.031	23653.98
757.368	23489.47
757.706	23539.64
758.044	23425.29
758.381	23493.31
758.719	23326.76
759.056	23364.27
759.394	23247.89
759.731	23112.98
