Data from hue_40_FLMS001491_90.txt Node
Date: Mon Feb 06 15:08:41 GMT 2017
User: dcchb
Spectrometer: FLMS00149
Trigger mode: 0
Integration Time (sec): 2.000000E-2
Scans to average: 10
Electric dark correction enabled: true
Nonlinearity correction enabled: false
Boxcar width: 0
XAxis mode: Wavelengths
Number of Pixels in Spectrum: 2048
>>>>>Begin Spectral Data<<<<<
341.393	0.25
341.776	0.25
342.16	0.25
342.543	-86.07
342.927	-64.38
343.31	-79.07
343.693	-79.07
344.077	-76.81
344.46	-56.47
344.843	-62.12
345.226	-42.91
345.61	-17.6
345.993	-4.04
346.376	-17.15
346.759	-5.4
347.142	25.11
347.525	61.95
347.908	66.02
348.291	74.15
348.674	93.36
349.057	120.03
349.44	122.28
349.823	163.19
350.206	153.92
350.588	203.64
350.971	243.86
351.354	230.53
351.737	237.99
352.119	255.39
352.502	261.72
352.884	273.69
353.267	294.26
353.65	276.41
354.032	284.09
354.414	286.12
354.797	329.74
355.179	299.91
355.562	325.44
355.944	304.43
356.326	332.9
356.709	330.87
357.091	341.71
357.473	341.26
357.855	330.42
358.238	334.93
358.62	352.79
359.002	336.97
359.384	336.74
359.766	353.47
360.148	339.68
360.53	351.21
360.912	336.52
361.294	346.01
361.676	328.38
362.057	318.21
362.439	307.14
362.821	348.72
363.203	328.38
363.584	336.97
363.966	338.32
364.348	322.51
364.729	334.71
365.111	338.32
365.493	306.46
365.874	317.76
366.256	333.8
366.637	322.05
367.019	302.85
367.4	323.64
367.781	303.98
368.163	320.02
368.544	322.05
368.925	307.14
369.306	318.66
369.688	313.01
370.069	300.59
370.45	330.42
370.831	322.51
371.212	306.23
371.593	324.09
371.974	308.49
372.355	329.74
372.736	321.6
373.117	337.87
373.498	320.25
373.879	335.84
374.26	325.9
374.641	296.29
375.021	300.59
375.402	331.54
375.783	346.69
376.163	349.62
376.544	343.3
376.925	308.72
377.305	319.34
377.686	349.17
378.066	348.72
378.447	314.14
378.827	346.91
379.208	332.9
379.588	342.62
379.968	315.27
380.349	333.35
380.729	342.84
381.109	320.92
381.489	337.42
381.87	341.94
382.25	342.17
382.63	364.31
383.01	346.46
383.39	356.86
383.77	355.73
384.15	327.7
384.53	334.03
384.91	354.6
385.29	346.01
385.67	345.56
386.049	356.86
386.429	367.48
386.809	355.27
387.189	363.18
387.568	368.61
387.948	376.29
388.328	350.08
388.707	351.43
389.087	361.6
389.466	363.41
389.846	369.06
390.225	361.83
390.605	381.71
390.984	366.57
391.363	370.87
391.743	384.65
392.122	361.37
392.501	371.54
392.881	399.57
393.26	373.35
393.639	387.36
394.018	360.7
394.397	385.33
394.776	371.09
395.155	388.27
395.534	401.15
395.913	377.42
396.292	386.91
396.671	385.33
397.05	400.7
397.429	386.46
397.808	369.28
398.186	395.72
398.565	384.2
398.944	380.13
399.323	402.73
399.701	372.22
400.08	409.96
400.458	414.03
400.837	397.76
401.215	398.89
401.594	420.36
401.972	414.25
402.351	414.25
402.729	423.52
403.107	416.97
403.486	411.09
403.864	415.61
404.242	420.13
404.62	447.25
404.999	407.02
405.377	404.09
405.755	427.81
406.133	422.16
406.511	424.65
406.889	424.2
407.267	440.47
407.645	445.21
408.023	436.17
408.401	444.08
408.779	449.51
409.156	462.39
409.534	434.82
409.912	436.85
410.29	447.02
410.667	477.53
411.045	452.22
411.422	478.43
411.8	482.05
412.178	457.87
412.555	454.93
412.933	478.43
413.31	465.33
413.687	493.57
414.065	490.18
414.442	501.26
414.819	494.03
415.197	506.46
415.574	513.01
415.951	510.3
416.328	497.19
416.705	497.42
417.082	511.2
417.46	527.7
417.837	501.71
418.214	520.47
418.591	495.61
418.967	527.47
419.344	543.52
419.721	533.8
420.098	515.04
420.475	561.37
420.852	518.66
421.228	526.34
421.605	545.1
421.982	546
422.358	548.49
422.735	549.62
423.111	553.01
423.488	581.03
423.864	562.5
424.241	567.47
424.617	575.38
424.994	571.76
425.37	562.95
425.746	570.86
426.123	584.42
426.499	584.87
426.875	590.97
427.251	607.24
427.627	602.72
428.003	619.22
428.379	627.81
428.756	626.9
429.132	614.7
429.507	636.17
429.883	632.1
430.259	636.85
430.635	640.69
431.011	661.48
431.387	658.99
431.763	646.11
432.138	665.77
432.514	650.63
432.89	669.39
433.265	672.55
433.641	689.5
434.016	695.83
434.392	691.76
434.767	702.83
435.143	725.43
435.518	718.2
435.894	699.67
436.269	730.86
436.644	726.34
437.02	709.61
437.395	742.83
437.77	715.04
438.145	767.01
438.52	736.51
438.895	757.75
439.271	769.95
439.646	770.4
440.021	787.13
440.395	785.54
440.77	767.92
441.145	783.74
441.52	793
441.895	811.08
442.27	806.33
442.645	800.91
443.019	831.64
443.394	821.7
443.769	830.74
444.143	798.88
444.518	805.2
444.892	807.46
445.267	827.8
445.641	821.7
446.016	842.27
446.39	863.51
446.764	843.62
447.139	882.26
447.513	852.89
447.887	877.07
448.262	882.49
448.636	877.29
449.01	882.72
449.384	884.52
449.758	900.8
450.132	918.42
450.506	881.59
450.88	908.93
451.254	940.12
451.628	912.77
452.002	950.74
452.376	930.63
452.75	939.66
453.123	937.86
453.497	977.86
453.871	985.31
454.244	975.14
454.618	985.09
454.992	1011.08
455.365	999.78
455.739	1012.88
456.112	1044.75
456.486	1041.36
456.859	1065.08
457.232	1077.51
457.606	1051.3
457.979	1073.22
458.352	1100.34
458.725	1115.03
459.099	1107.12
459.472	1118.87
459.845	1143.28
460.218	1151.64
460.591	1178.53
460.964	1167.91
461.337	1187.79
461.71	1179.21
462.083	1208.36
462.456	1215.82
462.829	1231.41
463.201	1249.03
463.574	1257.4
463.947	1275.93
464.32	1325.19
464.692	1305.98
465.065	1350.05
465.438	1369.48
465.81	1342.59
466.183	1374.68
466.555	1422.36
466.928	1422.59
467.3	1420.78
467.672	1434.79
468.045	1470.72
468.417	1501.91
468.789	1516.15
469.161	1510.5
469.534	1533.32
469.906	1544.85
470.278	1585.52
470.65	1619.65
471.022	1656.93
471.394	1712.3
471.766	1700.55
472.138	1712.53
472.51	1784.39
472.882	1802.01
473.253	1828
473.625	1812.64
473.997	1878.62
474.369	1901.9
474.74	1943.25
475.112	1988
475.484	2023.7
475.855	2089.01
476.227	2154.55
476.598	2169.46
476.97	2211.27
477.341	2284.49
477.713	2309.12
478.084	2337.14
478.455	2439.51
478.827	2481.09
479.198	2531.26
479.569	2550.02
479.94	2695.32
480.311	2708.88
480.682	2827.07
481.053	2861.87
481.424	3001.98
481.795	2947.75
482.166	3071.13
482.537	3148.87
482.908	3213.28
483.279	3299.6
483.65	3361.3
484.021	3486.94
484.391	3517.68
484.762	3583.66
485.133	3676.77
485.503	3769.42
485.874	3854.16
486.244	3920.38
486.615	4047.61
486.985	4140.03
487.356	4258.9
487.726	4344.32
488.097	4490.08
488.467	4534.82
488.837	4624.31
489.207	4746.12
489.578	4777.76
489.948	4923.97
490.318	5060.01
490.688	5091.19
491.058	5257.74
491.428	5348.59
491.798	5375.03
492.168	5613.89
492.538	5584.06
492.908	5775.92
493.278	5872.19
493.648	5927.33
494.017	6100.21
494.387	6154.67
494.757	6290.94
495.126	6351.95
495.496	6463.81
495.866	6511.5
496.235	6654.32
496.605	6757.36
496.974	6829.23
497.344	6934.99
497.713	7066.51
498.082	7058.6
498.452	7220.18
498.821	7310.12
499.19	7386.05
499.559	7527.97
499.928	7560.73
500.298	7729.77
500.667	7735.64
501.036	7839.6
501.405	7936.54
501.774	7987.61
502.143	8082.53
502.512	8197.1
502.88	8288.17
503.249	8301.05
503.618	8477.77
503.987	8433.03
504.356	8589.41
504.724	8695.39
505.093	8713.25
505.462	8777.88
505.83	8884.09
506.199	8961.15
506.567	9028.27
506.936	9151.65
507.304	9244.08
507.672	9323.4
508.041	9367.01
508.409	9512.55
508.777	9562.71
509.145	9684.07
509.514	9704.63
509.882	9771.52
510.25	9786.89
510.618	9938.3
510.986	9891.07
511.354	10042.7
511.722	10229.14
512.09	10224.39
512.458	10217.39
512.826	10370.83
513.193	10436.14
513.561	10514.33
513.929	10525.4
514.297	10639.75
514.664	10793.64
515.032	10801.78
515.4	10913.41
515.767	10940.98
516.135	11035.67
516.502	10997.93
516.869	11201.09
517.237	11225.04
517.604	11194.08
517.972	11364.48
518.339	11370.12
518.706	11406.06
519.073	11548.2
519.44	11545.26
519.808	11712.71
520.175	11756.56
520.542	11899.83
520.909	11935.53
521.276	11965.82
521.643	12084.91
522.009	12186.6
522.376	12294.85
522.743	12354.73
523.11	12425.01
523.477	12552.01
523.843	12567.16
524.21	12716.08
524.577	12803.53
524.943	12806.47
525.31	12939.58
525.676	13050.76
526.043	13045.56
526.409	13192.68
526.776	13328.72
527.142	13295.95
527.508	13415.72
527.874	13513.8
528.241	13604.87
528.607	13574.36
528.973	13754.02
529.339	13779.78
529.705	13924.18
530.071	14027.68
530.437	14005.31
530.803	14118.3
531.169	14236.04
531.535	14280.56
531.901	14357.84
532.267	14368.24
532.632	14403.27
532.998	14612.98
533.364	14617.5
533.73	14666.08
534.095	14766.42
534.461	14831.05
534.826	14870.37
535.192	14988.79
535.557	15051.84
535.923	15063.59
536.288	15188.78
536.653	15076.02
537.019	15175.22
537.384	15309.23
537.749	15354.43
538.114	15389.45
538.479	15417.25
538.845	15561.2
539.21	15485.95
539.575	15646.85
539.94	15685.27
540.305	15769.56
540.67	15720.74
541.034	15824.24
541.399	16024.92
541.764	15960.74
542.129	16034.86
542.494	16047.52
542.858	16193.73
543.223	16293.61
543.587	16233.27
543.952	16273.5
544.316	16365.25
544.681	16378.81
545.045	16405.7
545.41	16567.28
545.774	16613.15
546.138	16712.13
546.503	16755.97
546.867	16715.52
547.231	16903.09
547.595	16929.98
547.959	17002.07
548.324	16996.64
548.688	17037.77
549.052	17123.19
549.416	17189.41
549.779	17228.28
550.143	17259.91
550.507	17431.21
550.871	17459.46
551.235	17531.32
551.599	17524.77
551.962	17644.31
552.326	17647.93
552.689	17659.45
553.053	17664.65
553.417	17798.66
553.78	18026.67
554.143	17930.63
554.507	18012.66
554.87	18034.81
555.234	18255.37
555.597	18207.23
555.96	18187.35
556.323	18417.4
556.686	18334.91
557.05	18440.9
557.413	18591.18
557.776	18623.72
558.139	18710.04
558.502	18694.45
558.865	18830.27
559.228	18867.78
559.59	19023.93
559.953	18850.38
560.316	19172.18
560.679	19204.27
561.041	19225.96
561.404	19303.48
561.767	19425.05
562.129	19415.11
562.492	19641.09
562.854	19703.24
563.217	19557.93
563.579	19747.76
563.941	19860.3
564.304	19875.66
564.666	20006.28
565.028	20016.45
565.39	20141.42
565.753	20195.88
566.115	20296.44
566.477	20335.76
566.839	20494.63
567.201	20604.01
567.563	20614.4
567.925	20790.44
568.287	20772.82
568.648	20785.7
569.01	20872.02
569.372	20983.88
569.734	20919.25
570.095	21133.48
570.457	21172.58
570.819	21213.93
571.18	21349.75
571.542	21495.28
571.903	21488.73
572.265	21599.23
572.626	21643.98
572.987	21753.58
573.349	21813.01
573.71	21965.55
574.071	21990.86
574.432	21996.06
574.794	22390.63
575.155	22307.24
575.516	22387.24
575.877	22502.94
576.238	22567.57
576.599	22702.93
576.96	22834.23
577.32	22858.86
577.681	22992.87
578.042	23184.96
578.403	23355.35
578.763	23331.62
579.124	23405.06
579.485	23604.61
579.845	23754.21
580.206	23864.94
580.566	23970.7
580.927	24135.66
581.287	24343.12
581.648	24405.71
582.008	24586.27
582.368	24653.62
582.728	24955.3
583.089	24961.41
583.449	25145.13
583.809	25300.61
584.169	25378.57
584.529	25487.72
584.889	25854.94
585.249	25952.34
585.609	26103.3
585.969	26372.44
586.329	26475.26
586.688	26739.66
587.048	26840.23
587.408	26787.57
587.768	27128.13
588.127	27297.39
588.487	27374.45
588.846	27799.3
589.206	27602.69
589.565	27850.14
589.925	28332.16
590.284	28290.58
590.643	28669.33
591.003	28755.2
591.362	29067.29
591.721	29070.22
592.08	29208.98
592.44	29544.34
592.799	29643.09
593.158	29847.38
593.517	29959.69
593.876	30210.53
594.235	30278.78
594.593	30445.56
594.952	30854.58
595.311	30806.68
595.67	30984.07
596.029	31336.61
596.387	31487.56
596.746	31676.26
597.104	31818.85
597.463	31951.73
597.822	32132.74
598.18	32202.35
598.538	32320.08
598.897	32634.88
599.255	32591.26
599.613	33099.95
599.972	33024.02
600.33	33172.49
600.688	33166.16
601.046	33436.44
601.404	33677.11
601.762	33803.43
602.12	34078.68
602.478	34079.36
602.836	34305.79
603.194	34161.16
603.552	34418.11
603.91	34362.51
604.268	34709.62
604.625	34755.27
604.983	34885.21
605.341	35020.8
605.698	35058.32
606.056	35425.09
606.413	35530.62
606.771	35642.71
607.128	35802.48
607.485	35732.87
607.843	35816.71
608.2	36116.82
608.557	36239.98
608.914	36187.55
609.272	36581.67
609.629	36656.47
609.986	36874.76
610.343	36752.28
610.7	37071.14
611.057	37114.98
611.414	37177.36
611.771	37271.36
612.127	37401.53
612.484	37488.08
612.841	37626.16
613.198	37652.82
613.554	37679.49
613.911	37887.39
614.267	37968.97
614.624	37951.35
614.98	37973.95
615.337	38377.32
615.693	38298.46
616.05	38378.68
616.406	38518.11
616.762	38385.01
617.118	38574.38
617.475	38529.64
617.831	38759.24
618.187	38858.67
618.543	39013.24
618.899	39200.81
619.255	39158.32
619.611	39054.59
619.967	39342.95
620.323	39412.33
620.678	39352.44
621.034	39275.15
621.39	39287.13
621.746	39331.2
622.101	39829.94
622.457	39401.93
622.812	39694.8
623.168	39796.5
623.523	39806.67
623.879	39989.03
624.234	39774.8
624.589	39956.94
624.945	39996.49
625.3	40003.04
625.655	40053.44
626.01	39994.68
626.365	40020.44
626.72	40055.7
627.075	40032.65
627.43	40126.88
627.785	40034.68
628.14	40159.2
628.495	40189.03
628.85	40177.28
629.205	40113.55
629.559	40307.44
629.914	39981.35
630.269	40244.62
630.623	40092.99
630.978	40059.31
631.332	40367.78
631.687	40383.83
632.041	40195.36
632.396	40205.52
632.75	40145.87
633.104	40229.7
633.459	40027
633.813	40097.28
634.167	40106.09
634.521	40044.4
634.875	40192.19
635.229	39972.31
635.583	39761.24
635.937	39853.22
636.291	39889.15
636.645	39948.81
636.999	39862.71
637.352	39962.14
637.706	39788.36
638.06	39936.38
638.413	39835.82
638.767	39672.66
639.121	39867
639.474	39653.67
639.828	39798.98
640.181	39794.91
640.534	39675.82
640.888	39595.15
641.241	39423.4
641.594	39480.12
641.947	39742.71
642.301	39661.36
642.654	39554.47
643.007	39582.04
643.36	39551.08
643.713	39441.03
644.066	39599.21
644.419	39389.05
644.771	39297.3
645.124	38828.84
645.477	38565.12
645.83	38603.53
646.182	38433.82
646.535	38114.51
646.888	38365.57
647.24	38138.01
647.593	38369.64
647.945	38207.84
648.298	38027.28
648.65	38035.86
649.002	37947.28
649.355	37946.38
649.707	38088.52
650.059	38110.21
650.411	38615.06
650.763	38638.11
651.115	38958.78
651.467	38955.16
651.819	38832.23
652.171	38733.93
652.523	38746.35
652.875	38821.61
653.227	38688.05
653.578	38827.71
653.93	38806.01
654.282	38628.84
654.633	38437.89
654.985	38592.01
655.337	38620.03
655.688	38513.59
656.039	38716.07
656.391	38294.61
656.742	38407.15
657.094	38546.59
657.445	38532.8
657.796	38482.18
658.147	38518.34
658.498	38448.06
658.849	38608.28
659.2	38467.27
659.551	38319.92
659.902	38504.33
660.253	38391.56
660.604	38481.28
660.955	38294.16
661.306	38396.53
661.656	38341.17
662.007	38367.16
662.358	38266.14
662.708	38322.18
663.059	38258.01
663.409	38014.85
663.76	38443.31
664.11	38270.43
664.461	38328.96
664.811	38403.31
665.161	38242.41
665.511	38167.39
665.862	38351.56
666.212	38320.38
666.562	38303.88
666.912	38194.05
667.262	38106.14
667.612	38153.83
667.962	38192.47
668.312	38183.66
668.662	38320.15
669.011	38171
669.361	38059.82
669.711	38039.25
670.06	37982.31
670.41	37892.59
670.76	37928.97
671.109	38094.62
671.459	38121.74
671.808	37925.36
672.157	37998.8
672.507	37718.36
672.856	37876.77
673.205	37891.91
673.554	37978.24
673.904	37782.99
674.253	38108.63
674.602	38051.91
674.951	37330.8
675.3	37232.27
675.649	37705.7
675.998	37566.95
676.346	37737.57
676.695	37774.4
677.044	37623.67
677.393	37612.6
677.741	37707.96
678.09	37673.39
678.438	37570.34
678.787	37484.69
679.135	37475.43
679.484	37337.13
679.832	37457.8
680.181	37342.78
680.529	37304.81
680.877	37358.14
681.225	37152.27
681.573	37346.39
681.922	37148.88
682.27	36998.15
682.618	37028.66
682.966	36901.43
683.314	36953.41
683.661	36880.87
684.009	36781.21
684.357	36676.8
684.705	36671.61
685.053	36606.07
685.4	36587.77
685.748	36387.55
686.095	36373.31
686.443	36185.97
686.79	36292.18
687.138	36297.15
687.485	36359.3
687.832	36164.95
688.18	36207.89
688.527	36005.41
688.874	35995.01
689.221	35975.35
689.568	35846.09
689.915	35676.6
690.262	35909.37
690.609	35684.51
690.956	35634.12
691.303	35417.18
691.65	35353
691.997	35306.9
692.344	35179.89
692.69	35192.78
693.037	35214.7
693.383	34850.64
693.73	34929.05
694.077	34840.02
694.423	34770.41
694.769	34804.08
695.116	34616.07
695.462	34483.19
695.808	34367.49
696.155	34532.68
696.501	34175.63
696.847	34274.83
697.193	33967.5
697.539	34132.92
697.885	33907.16
698.231	33776.32
698.577	33748.52
698.923	33574.96
699.269	33529.09
699.614	33276.67
699.96	33315.54
700.306	33276.44
700.651	33200.29
700.997	32900.86
701.342	33092.94
701.688	33041.19
702.033	32916.22
702.379	32927.52
702.724	32759.84
703.069	32758.04
703.415	32379.97
703.76	32512.62
704.105	32500.87
704.45	32505.16
704.795	32184.04
705.14	32154.66
705.485	32170.03
705.83	32083.48
706.175	32104.49
706.52	31923.93
706.865	31813.2
707.209	31810.49
707.554	31682.59
707.899	31743.15
708.243	31486.43
708.588	31520.1
708.932	31240.11
709.277	31344.06
709.621	31442.59
709.966	31068.36
710.31	31338.87
710.654	30902.04
710.998	30995.82
711.342	31030.85
711.687	30777.3
712.031	30670.63
712.375	30630.41
712.719	30751.08
713.063	30576.85
713.407	30705.66
713.75	30466.8
714.094	30475.61
714.438	30322.62
714.782	30362.62
715.125	30193.36
715.469	30149.97
715.812	30094.38
716.156	29951.33
716.499	29943.42
716.843	29913.59
717.186	29788.62
717.53	30051.44
717.873	29810.32
718.216	29909.52
718.559	29596.09
718.902	29533.26
719.246	29521.29
719.589	29451.46
719.932	29319.26
720.275	29323.33
720.617	29230.9
720.96	29235.42
721.303	29185.02
721.646	29278.58
721.989	28965.59
722.331	29107.06
722.674	29040.62
723.016	28968.53
723.359	28971.92
723.701	29036.55
724.044	28757.92
724.386	28669.33
724.729	28744.36
725.071	28618.71
725.413	28656.45
725.755	28634.76
726.097	28529.9
726.439	28439.28
726.782	28366.97
727.124	28554.08
727.465	28361.32
727.807	28288.32
728.149	28220.98
728.491	28199.06
728.833	28314.99
729.175	28202.22
729.516	28151.83
729.858	28107.76
730.199	28033.19
730.541	28039.07
730.882	27998.61
731.224	28032.06
731.565	27891.95
731.906	27884.94
732.248	27847.43
732.589	27863.48
732.93	27780.09
733.271	27696.48
733.612	27780.09
733.953	27789.58
734.294	27425.3
734.635	27485.41
734.976	27464.62
735.317	27481.11
735.658	27304.4
735.999	27468.91
736.339	27273.21
736.68	27373.32
737.021	27258.97
737.361	27087.68
737.702	27359.08
738.042	27163.61
738.383	27214.23
738.723	27104.85
739.063	26976.95
739.404	26948.47
739.744	26928.59
740.084	26860.56
740.424	26806.33
740.764	26808.14
741.104	26840.9
741.444	26571.76
741.784	26589.84
742.124	26702.38
742.464	26684.3
742.804	26643.4
743.143	26484.76
743.483	26506.9
743.823	26416.28
744.162	26427.81
744.502	26449.05
744.841	26209.06
745.181	26518.65
745.52	26272.11
745.86	26368.83
746.199	26175.61
746.538	26178.55
746.877	26268.94
747.216	26250.41
747.556	26071.66
747.895	26119.57
748.234	25935.62
748.573	26050.87
748.911	25860.82
749.25	25966.58
749.589	25839.8
749.928	25749.18
750.267	25881.83
750.605	25694.72
750.944	25586.25
751.283	25565.01
751.621	25632.12
751.96	25383.09
752.298	25482.3
752.636	25439.59
752.975	25332.24
753.313	25288.4
753.651	25334.28
753.989	25191.46
754.327	25167.05
754.666	25116.66
755.004	25028.97
755.342	24925.02
755.679	25014.06
756.017	24895.42
756.355	24917.79
756.693	24801.64
757.031	24822.2
