Data from hue_22_FLMS001491_00087.txt Node
Date: Tue Feb 07 17:10:46 GMT 2017
User: dcchb
Spectrometer: FLMS00149
Trigger mode: 0
Integration Time (sec): 2.000000E-2
Scans to average: 10
Electric dark correction enabled: true
Nonlinearity correction enabled: false
Boxcar width: 0
XAxis mode: Wavelengths
Number of Pixels in Spectrum: 2048
>>>>>Begin Spectral Data<<<<<
341.393	-15.41
341.776	-15.41
342.16	-15.41
342.543	-43.66
342.927	-66.48
343.31	-64
343.693	-87.05
344.077	-76.42
344.46	-56.09
344.843	-57.22
345.226	-27.84
345.61	-35.75
345.993	-7.5
346.376	15.78
346.759	-17.44
347.142	21.88
347.525	42.67
347.908	67.07
348.291	77.7
348.674	104.36
349.057	99.84
349.44	124.93
349.823	146.62
350.206	172.16
350.588	202.66
350.971	205.15
351.354	220.74
351.737	237.69
352.119	251.93
352.502	272.72
352.884	287.86
353.267	278.59
353.65	289.22
354.032	316.11
354.414	297.58
354.797	310.01
355.179	308.2
355.562	317.01
355.944	336.22
356.326	323.79
356.709	322.66
357.091	338.93
357.473	337.12
357.855	324.92
358.238	335.77
358.62	329.67
359.002	332.83
359.384	338.03
359.766	338.48
360.148	343.9
360.53	341.19
360.912	332.38
361.294	332.38
361.676	341.42
362.057	329.89
362.439	333.96
362.821	322.44
363.203	338.71
363.584	328.08
363.966	331.47
364.348	317.01
364.729	323.11
365.111	326.73
365.493	332.38
365.874	328.99
366.256	317.46
366.637	329.21
367.019	303.23
367.4	319.5
367.781	311.14
368.163	320.85
368.544	304.13
368.925	307.07
369.306	324.02
369.688	318.59
370.069	325.82
370.45	333.06
370.831	319.05
371.212	321.98
371.593	300.06
371.974	321.08
372.355	321.08
372.736	341.42
373.117	342.77
373.498	324.92
373.879	320.63
374.26	326.95
374.641	323.56
375.021	333.73
375.402	312.49
375.783	345.71
376.163	338.71
376.544	337.8
376.925	345.94
377.305	338.71
377.686	316.11
378.066	342.32
378.447	317.69
378.827	333.28
379.208	335.99
379.588	361.08
379.968	346.84
380.349	343
380.729	359.04
381.109	366.05
381.489	347.29
381.87	331.25
382.25	364.92
382.63	354.07
383.01	360.85
383.39	354.52
383.77	354.07
384.15	379.83
384.53	365.82
384.91	336.9
385.29	365.15
385.67	382.55
386.049	373.06
386.429	360.85
386.809	362.43
387.189	358.14
387.568	387.52
387.948	367.63
388.328	353.62
388.707	368.76
389.087	381.87
389.466	362.43
389.846	383.68
390.225	386.39
390.605	388.2
390.984	357.24
391.363	390
391.743	383.9
392.122	376.67
392.501	391.13
392.881	384.81
393.26	403.34
393.639	368.76
394.018	403.79
394.397	392.04
394.776	394.07
395.155	399.5
395.534	403.79
395.913	380.29
396.292	424.35
396.671	401.53
397.05	390.91
397.429	405.37
397.808	400.85
398.186	400.17
398.565	407.4
398.944	395.65
399.323	415.77
399.701	407.4
400.08	407.63
400.458	429.55
400.837	404.01
401.215	395.2
401.594	421.42
401.972	432.94
402.351	432.71
402.729	425.94
403.107	417.35
403.486	440.62
403.864	450.79
404.242	453.73
404.62	438.59
404.999	418.25
405.377	435.65
405.755	448.99
406.133	427.52
406.511	439.27
406.889	466.84
407.267	457.35
407.645	446.95
408.023	459.83
408.401	469.55
408.779	459.61
409.156	474.52
409.534	472.26
409.912	459.38
410.29	475.65
410.667	475.2
411.045	505.03
411.422	464.13
411.8	473.62
412.178	500.96
412.555	509.32
412.933	484.01
413.31	505.03
413.687	503.67
414.065	532.6
414.442	522.88
414.819	530.34
415.197	527.85
415.574	520.4
415.951	539.38
416.328	537.8
416.705	535.76
417.082	530.34
417.46	522.43
417.837	547.06
418.214	535.99
418.591	540.96
418.967	536.89
419.344	546.61
419.721	550.9
420.098	558.14
420.475	563.78
420.852	551.13
421.228	552.94
421.605	573.28
421.982	562.2
422.358	573.95
422.735	571.69
423.111	592.26
423.488	593.39
423.864	594.29
424.241	604.01
424.617	590.45
424.994	623.9
425.37	603.11
425.746	619.83
426.123	637
426.499	611.02
426.875	619.38
427.251	627.29
427.627	645.36
428.003	633.84
428.379	647.85
428.756	655.08
429.132	635.42
429.507	649.88
429.883	676.32
430.259	654.4
430.635	684.23
431.011	675.65
431.387	681.97
431.763	680.39
432.138	680.39
432.514	706.15
432.89	724.46
433.265	710
433.641	720.16
434.016	719.26
434.392	744.57
434.767	762.42
435.143	765.81
435.518	757.45
435.894	744.12
436.269	792.03
436.644	779.15
437.02	787.73
437.395	778.24
437.77	781.41
438.145	799.71
438.52	789.77
438.895	825.02
439.271	799.03
439.646	828.18
440.021	835.19
440.395	829.31
440.77	830.22
441.145	867.73
441.52	839.71
441.895	850.78
442.27	829.31
442.645	855.98
443.019	863.21
443.394	839.03
443.769	868.18
444.143	860.5
444.518	885.58
444.892	877.45
445.267	870.44
445.641	898.01
446.016	905.47
446.39	903.44
446.764	911.57
447.139	905.7
447.513	914.28
447.887	925.81
448.262	928.29
448.636	912.7
449.01	935.98
449.384	975.98
449.758	953.38
450.132	969.88
450.506	956.09
450.88	987.73
451.254	970.78
451.628	1000.16
452.002	1019.37
452.376	1008.07
452.75	995.41
453.123	1013.72
453.497	1042.87
453.871	1011
454.244	1048.74
454.618	1040.16
454.992	1074.05
455.365	1080.16
455.739	1101.62
456.112	1106.37
456.486	1120.15
456.859	1127.61
457.232	1128.52
457.606	1131.68
457.979	1152.24
458.352	1154.96
458.725	1198.34
459.099	1176.65
459.472	1219.59
459.845	1228.4
460.218	1232.69
460.591	1228.85
460.964	1266.37
461.337	1260.49
461.71	1282.41
462.083	1305.23
462.456	1283.54
462.829	1321.73
463.201	1316.99
463.574	1317.44
463.947	1347.94
464.32	1377.1
464.692	1387.94
465.065	1420.94
465.438	1413.03
465.81	1428.17
466.183	1442.18
466.555	1478.79
466.928	1477.43
467.3	1498
467.672	1519.69
468.045	1541.61
468.417	1566.7
468.789	1556.98
469.161	1584.77
469.534	1601.27
469.906	1661.83
470.278	1655.73
470.65	1677.43
471.022	1693.25
471.394	1729.4
471.766	1744.32
472.138	1772.79
472.51	1817.08
472.882	1837.88
473.253	1856.63
473.625	1890.98
473.997	1899.79
474.369	1914.26
474.74	1964.65
475.112	1987.48
475.484	2012.11
475.855	2060.47
476.227	2070.19
476.598	2157.42
476.97	2178.88
477.341	2231.76
477.713	2260.69
478.084	2268.15
478.455	2361.25
478.827	2365.55
479.198	2417.52
479.569	2458.42
479.94	2528.93
480.311	2547.01
480.682	2590.85
481.053	2607.57
481.424	2694.58
481.795	2737.96
482.166	2766.21
482.537	2768.7
482.908	2876.04
483.279	2896.38
483.65	2992.42
484.021	3058.63
484.391	3080.33
484.762	3128.91
485.133	3128.69
485.503	3213.43
485.874	3292.07
486.244	3315.58
486.615	3372.52
486.985	3418.85
487.356	3486.42
487.726	3513.76
488.097	3565.51
488.467	3641.44
488.837	3680.99
489.207	3740.2
489.578	3833.98
489.948	3871.04
490.318	3957.14
490.688	3915.56
491.058	3993.52
491.428	4074.2
491.798	4114.43
492.168	4203.46
492.538	4217.93
492.908	4259.96
493.278	4331.37
493.648	4365.04
494.017	4386.06
494.387	4480.74
494.757	4537.92
495.126	4550.35
495.496	4563.23
495.866	4622.21
496.235	4633.06
496.605	4697.91
496.974	4800.51
497.344	4803.9
497.713	4855.2
498.082	4895.2
498.452	4948.75
498.821	4964.35
499.19	5017.9
499.559	5081.18
499.928	5038.7
500.298	5115.76
500.667	5139.03
501.036	5104.23
501.405	5224
501.774	5209.31
502.143	5271.91
502.512	5284.34
502.88	5344.45
503.249	5358.01
503.618	5424.9
503.987	5461.96
504.356	5484.33
504.724	5507.84
505.093	5478.68
505.462	5558.46
505.83	5578.79
506.199	5584.44
506.567	5707.38
506.936	5687.49
507.304	5825.34
507.672	5763.65
508.041	5710.09
508.409	5814.04
508.777	5800.26
509.145	5932.23
509.514	5939.69
509.882	5947.82
510.25	5925
510.618	5995.28
510.986	5974.26
511.354	6019.23
511.722	6112.11
512.09	6159.57
512.458	6142.17
512.826	6192.34
513.193	6255.84
513.561	6240.02
513.929	6318.66
514.297	6337.19
514.664	6325.22
515.032	6414.7
515.4	6410.86
515.767	6453.12
516.135	6434.82
516.502	6432.1
516.869	6556.85
517.237	6592.33
517.604	6536.06
517.972	6631.65
518.339	6610.63
518.706	6641.36
519.073	6657.41
519.44	6709.84
519.808	6784.41
520.175	6720.91
520.542	6925.65
520.909	6844.52
521.276	6839.78
521.643	6962.03
522.009	6982.82
522.376	7007.01
522.743	6980.57
523.11	7075.03
523.477	7134.01
523.843	7179.66
524.21	7231.41
524.577	7274.12
524.943	7347.56
525.31	7322.25
525.676	7391.63
526.043	7438.41
526.409	7453.32
526.776	7563.83
527.142	7551.62
527.508	7591.62
527.874	7668
528.241	7684.28
528.607	7701.45
528.973	7752.3
529.339	7784.84
529.705	7852.86
530.071	7875.68
530.437	7965.62
530.803	8013.53
531.169	8038.84
531.535	8017.15
531.901	8034.1
532.267	8088.56
532.632	8160.42
532.998	8182.79
533.364	8305.95
533.73	8281.1
534.095	8351.6
534.461	8399.06
534.826	8431.15
535.192	8428.66
535.557	8492.16
535.923	8477.02
536.288	8554.31
536.653	8519.28
537.019	8571.03
537.384	8632.5
537.749	8696
538.114	8662.1
538.479	8677.02
538.845	8829.1
539.21	8725.83
539.575	8774.19
539.94	8795.66
540.305	8854.19
540.67	8828.43
541.034	8896.22
541.399	8921.53
541.764	8972.6
542.129	9041.08
542.494	9047.63
542.858	9100.96
543.223	9107.51
543.587	9159.72
543.952	9184.35
544.316	9249.66
544.681	9248.3
545.045	9347.28
545.41	9377.11
545.774	9356.32
546.138	9416.21
546.503	9397.68
546.867	9466.38
547.231	9537.56
547.595	9608.52
547.959	9621.63
548.324	9589.08
548.688	9587.28
549.052	9695.07
549.416	9641.96
549.779	9667.73
550.143	9764.67
550.507	9778.91
550.871	9892.8
551.235	9874.73
551.599	9980.49
551.962	9952.24
552.326	9949.07
552.689	9972.8
553.053	9963.09
553.417	10012.12
553.78	10193.36
554.143	10070.65
554.507	10163.76
554.87	10202.18
555.234	10293.92
555.597	10233.81
555.96	10312.45
556.323	10333.02
556.686	10312.68
557.05	10514.03
557.413	10467.25
557.776	10520.58
558.139	10563.97
558.502	10486.24
558.865	10598.32
559.228	10615.72
559.59	10640.81
559.953	10685.78
560.316	10767.13
560.679	10794.48
561.041	10816.62
561.404	10831.31
561.767	10868.6
562.129	10938.2
562.492	11007.13
562.854	11000.8
563.217	11057.52
563.579	11090.97
563.941	11136.61
564.304	11112.43
564.666	11283.73
565.028	11298.87
565.39	11269.94
565.753	11296.16
566.115	11369.6
566.477	11490.95
566.839	11465.64
567.201	11583.83
567.563	11547
567.925	11638.07
568.287	11698.86
568.648	11719.65
569.01	11747.9
569.372	11779.76
569.734	11743.15
570.095	11914.9
570.457	12002.58
570.819	11995.12
571.18	11942.47
571.542	12100.88
571.903	12146.08
572.265	12148.79
572.626	12205.29
572.987	12272.86
573.349	12304.72
573.71	12361.21
574.071	12392.4
574.432	12534.54
574.794	12551.27
575.155	12552.62
575.516	12621.77
575.877	12770.24
576.238	12844.37
576.599	12906.06
576.96	12957.13
577.32	13071.48
577.681	13161.42
578.042	13230.8
578.403	13305.14
578.763	13447.29
579.124	13505.82
579.485	13636.66
579.845	13752.59
580.206	13756.43
580.566	13932.02
580.927	13963.43
581.287	14234.84
581.648	14346.93
582.008	14475.06
582.368	14606.13
582.728	14820.36
583.089	14919.34
583.449	15113.91
583.809	15282.27
584.169	15433.22
584.529	15579.89
584.889	15760.9
585.249	15874.79
585.609	16115.01
585.969	16395.91
586.329	16516.81
586.688	16765.62
587.048	16915.67
587.408	17185.95
587.768	17437.69
588.127	17594.98
588.487	17753.62
588.846	18179.82
589.206	18344.79
589.565	18550.2
589.925	18937.54
590.284	19184.99
590.643	19428.6
591.003	19781.81
591.362	20047.79
591.721	20288.92
592.08	20563.26
592.44	20921.67
592.799	21185.16
593.158	21388.55
593.517	21766.84
593.876	22036.67
594.235	22345.13
594.593	22595.52
594.952	23000.26
595.311	23282.96
595.67	23642.95
596.029	24027.12
596.387	24406.77
596.746	24778.29
597.104	24840.66
597.463	25122.01
597.822	25634.54
598.18	25837.7
598.538	26144.35
598.897	26625.92
599.255	26758.8
599.613	27367.83
599.972	27481.95
600.33	27853.24
600.688	28038.32
601.046	28407.57
601.404	28863.15
601.762	29063.37
602.12	29441.9
602.478	29845.95
602.836	30008.89
603.194	30319.39
603.552	30602.09
603.91	30778.58
604.268	31208.18
604.625	31429.87
604.983	31791.89
605.341	32024.43
605.698	32387.35
606.056	32611.76
606.413	32915.93
606.771	33238.86
607.128	33563.14
607.485	33663.93
607.843	33935.56
608.2	34396.34
608.557	34600.18
608.914	34762.66
609.272	35231.57
609.629	35352.47
609.986	35683.54
610.343	35862.52
610.7	36246.91
611.057	36421.6
611.414	36686.68
611.771	36810.97
612.127	37014.58
612.484	37405.98
612.841	37638.06
613.198	37734.33
613.554	37879.64
613.911	38161.89
614.267	38400.3
614.624	38444.82
614.98	38772.05
615.337	39106.05
615.693	39186.27
616.05	39202.54
616.406	39832.13
616.762	39726.6
617.118	39904.67
617.475	39915.74
617.831	40165.68
618.187	40381.49
618.543	40603.41
618.899	40877.75
619.255	40930.41
619.611	40999.78
619.967	41236.61
620.323	41310.96
620.678	41505.53
621.034	41489.04
621.39	41651.52
621.746	41747.33
622.101	42302.12
622.457	41990.72
622.812	42188
623.168	42449.91
623.523	42483.36
623.879	42659.17
624.234	42551.61
624.589	42699.4
624.945	42830.47
625.3	42930.58
625.655	42863.01
626.01	43160.18
626.365	43179.39
626.72	43128.77
627.075	43260.29
627.43	43143.46
627.785	43199.5
628.14	43498.7
628.495	43598.13
628.85	43573.5
629.205	43506.61
629.559	43731.92
629.914	43617.57
630.269	43729.88
630.623	43703.89
630.978	43867.96
631.332	44083.54
631.687	44115.86
632.041	43828.64
632.396	44066.82
632.75	43886.49
633.104	44095.52
633.459	43988.18
633.813	44105.92
634.167	44073.83
634.521	44027.5
634.875	44098.23
635.229	44110.44
635.583	43928.29
635.937	43930.55
636.291	44012.13
636.645	43983.89
636.999	43966.26
637.352	44184.33
637.706	43828.41
638.06	44129.19
638.413	43956.54
638.767	44022.53
639.121	44015.52
639.474	43771.01
639.828	43907.28
640.181	43999.93
640.534	44138.46
640.888	43815.75
641.241	43810.11
641.594	43915.19
641.947	43984.11
642.301	43839.93
642.654	43907.73
643.007	44041.51
643.36	43900.27
643.713	43853.49
644.066	44112.24
644.419	43723.33
644.771	43541.64
645.124	43205.38
645.477	43068.43
645.83	43008.09
646.182	42807.19
646.535	42716.12
646.888	42848.55
647.24	42451.72
647.593	42870.02
647.945	42844.48
648.298	42563.58
648.65	42526.3
649.002	42462.34
649.355	42523.36
649.707	42624.83
650.059	42838.38
650.411	43133.29
650.763	43243.79
651.115	43590.22
651.467	43399.27
651.819	43480.4
652.171	43421.19
652.523	43487.4
652.875	43392.71
653.227	43151.14
653.578	43452.37
653.93	43367.18
654.282	43222.32
654.633	43118.6
654.985	43269.33
655.337	43248.54
655.688	43286.28
656.039	43425.26
656.391	43159.5
656.742	43229.56
657.094	43210.8
657.445	43399.27
657.796	43252.38
658.147	43126.96
658.498	43061.88
658.849	43151.82
659.2	43131.48
659.551	43079.95
659.902	43137.58
660.253	43179.61
660.604	43190.46
660.955	42840.41
661.306	43208.77
661.656	43018.49
662.007	43169.9
662.358	43141.87
662.708	43134.64
663.059	43067.07
663.409	42783.69
663.76	43170.57
664.11	43223.45
664.461	43218.71
664.811	43140.07
665.161	43053.29
665.511	42891.94
665.862	42968.77
666.212	43047.41
666.562	43041.54
666.912	42993.4
667.262	42900.75
667.612	42858.49
667.962	43050.13
668.312	43081.76
668.662	43100.75
669.011	42905.95
669.361	42952.95
669.711	43055.77
670.06	42900.75
670.41	42775.1
670.76	42773.07
671.109	42924.03
671.459	42852.16
671.808	42741.66
672.157	42944.82
672.507	42702.56
672.856	42719.74
673.205	42781.43
673.554	42865.95
673.904	42625.05
674.253	42941.88
674.602	42738.27
674.951	42221.22
675.3	41916.37
675.649	42592.28
675.998	42499.18
676.346	42619.63
676.695	42821.66
677.044	42411.27
677.393	42556.13
677.741	42627.54
678.09	42466.19
678.438	42266.87
678.787	42504.6
679.135	42485.17
679.484	42251.05
679.832	42427.54
680.181	42206.53
680.529	42307.09
680.877	42149.81
681.225	42133.99
681.573	42142.13
681.922	41982.36
682.27	41844.73
682.618	41896.26
682.966	41779.42
683.314	41945.3
683.661	41778.52
684.009	41608.58
684.357	41516.15
684.705	41522.48
685.053	41428.02
685.4	41430.28
685.748	41235.03
686.095	41382.6
686.443	41200
686.79	41157.07
687.138	41161.14
687.485	41161.81
687.832	41090.85
688.18	41134.47
688.527	40758.66
688.874	40816.51
689.221	40710.98
689.568	40697.64
689.915	40564.54
690.262	40436.63
690.609	40441.15
690.956	40438.22
691.303	40145.79
691.65	40141.05
691.997	40153.48
692.344	39857.89
692.69	39895.41
693.037	39826.93
693.383	39562.08
693.73	39664.45
694.077	39474.17
694.423	39467.85
694.769	39346.95
695.116	39278.47
695.462	39164.13
695.808	39096.56
696.155	39168.42
696.501	38802.33
696.847	38813.63
697.193	38579.96
697.539	38754.64
697.885	38456.57
698.231	38355.11
698.577	38388.1
698.923	38280.08
699.269	38193.53
699.614	37900.66
699.96	37966.64
700.306	37936.14
700.651	37749.47
700.997	37765.29
701.342	37626.31
701.688	37535.69
702.033	37617.95
702.379	37308.36
702.724	37339.77
703.069	37361.91
703.415	36948.36
703.76	37083.28
704.105	37027.68
704.45	36944.3
704.795	36838.54
705.14	36664.3
705.485	36704.3
705.83	36462.73
706.175	36488.26
706.52	36363.3
706.865	36304.54
707.209	36307.7
707.554	36084.43
707.899	36107.93
708.243	35884.66
708.588	35904.1
708.932	35638.34
709.277	35730.77
709.621	35706.36
709.966	35497.33
710.31	35501.85
710.654	35231.12
710.998	35322.87
711.342	35270.44
711.687	35203.55
712.031	35047.4
712.375	34830.68
712.719	35066.38
713.063	34938.93
713.407	34941.86
713.75	34842.43
714.094	34783.22
714.438	34604.02
714.782	34631.82
715.125	34474.76
715.469	34699.38
715.812	34402.44
716.156	34245.16
716.499	34200.87
716.843	34314.99
717.186	34067.31
717.53	34197.7
717.873	34225.95
718.216	34151.83
718.559	34012.4
718.902	33799.97
719.246	33779.18
719.589	33790.71
719.932	33531.51
720.275	33551.17
720.617	33493.54
720.96	33508.91
721.303	33401.57
721.646	33563.82
721.989	33163.38
722.331	33250.83
722.674	33162.48
723.016	33262.59
723.359	33150.27
723.701	33221.46
724.044	33054.68
724.386	32862.82
724.729	32995.25
725.071	32808.81
725.413	33012.2
725.755	32851.75
726.097	32695.37
726.439	32524.3
726.782	32752.09
727.124	32610.17
727.465	32587.35
727.807	32473.68
728.149	32532.44
728.491	32380.35
728.833	32402.95
729.175	32154.59
729.516	32263.52
729.858	32106.23
730.199	32157.53
730.541	31980.13
730.882	32124.31
731.224	32085.89
731.565	31802.29
731.906	31738.56
732.248	31906.01
732.589	31815.39
732.93	31621.73
733.271	31595.96
733.612	31669.86
733.953	31639.35
734.294	31628.5
734.635	31564.33
734.976	31561.61
735.317	31365.69
735.658	31436.19
735.999	31469.64
736.339	31293.15
736.68	31442.07
737.021	31202.3
737.361	31096.99
737.702	31315.74
738.042	31214.28
738.383	31082.3
738.723	31153.94
739.063	31041.85
739.404	31043.66
739.744	30960.27
740.084	30812.03
740.424	30891.8
740.764	30780.84
741.104	30880.28
741.444	30781.75
741.784	30516.9
742.124	30595.76
742.464	30648.87
742.804	30426.73
743.143	30473.73
743.483	30503.11
743.823	30283
744.162	30298.6
744.502	30247.3
744.841	30293.62
745.181	30457.46
745.52	30190.8
745.86	30279.39
746.199	30164.36
746.538	30118.49
746.877	30179.96
747.216	30144.7
747.556	30021.77
747.895	30181.99
748.234	29831.72
748.573	29978.6
748.911	29968.89
749.25	29800.08
749.589	29650.25
749.928	29857.03
750.267	29748.78
750.605	29621.55
750.944	29545.4
751.283	29417.72
751.621	29542.68
751.96	29342.24
752.298	29400.31
752.636	29296.36
752.975	29137.5
753.313	29268.79
753.651	29176.59
753.989	29125.75
754.327	29046.2
754.666	28886.43
755.004	28881.68
755.342	28921.68
755.679	28776.15
756.017	28657.28
756.355	28774.79
756.693	28658.41
757.031	28796.94
757.368	28455.25
757.706	28496.38
758.044	28402.37
758.381	28457.97
758.719	28268.59
759.056	28260.91
759.394	28179.1
