Data from hue_290_FLMS001491_00083.txt Node
Date: Tue Feb 07 15:53:23 GMT 2017
User: dcchb
Spectrometer: FLMS00149
Trigger mode: 0
Integration Time (sec): 2.000000E-2
Scans to average: 10
Electric dark correction enabled: true
Nonlinearity correction enabled: false
Boxcar width: 0
XAxis mode: Wavelengths
Number of Pixels in Spectrum: 2048
>>>>>Begin Spectral Data<<<<<
341.393	-29.18
341.776	-29.18
342.16	-29.18
342.543	-49.07
342.927	-55.85
343.31	-65.79
343.693	-96.52
344.077	-75.51
344.46	-53.81
344.843	-27.37
345.226	-28.05
345.61	-30.08
345.993	-10.42
346.376	-18.78
346.759	10.14
347.142	47.88
347.525	41.1
347.908	41.1
348.291	64.83
348.674	89.46
349.057	111.83
349.44	120.19
349.823	139.18
350.206	155.9
350.588	204.03
350.971	221.89
351.354	219.4
351.737	209.68
352.119	244.94
352.502	245.16
352.884	265.05
353.267	271.6
353.65	290.13
354.032	295.33
354.414	289.46
354.797	324.26
355.179	306.86
355.562	313.64
355.944	317.93
356.326	327.42
356.709	307.99
357.091	334.88
357.473	347.31
357.855	338.72
358.238	339.85
358.62	354.54
359.002	345.95
359.384	325.39
359.766	335.56
360.148	335.56
360.53	324.48
360.912	337.14
361.294	340.53
361.676	331.71
362.057	318.83
362.439	324.93
362.821	323.81
363.203	344.6
363.584	310.25
363.966	328.78
364.348	314.99
364.729	312.96
365.111	320.19
365.493	317.93
365.874	318.61
366.256	332.62
366.637	317.7
367.019	314.54
367.4	319.96
367.781	306.86
368.163	301.43
368.544	317.7
368.925	311.38
369.306	323.35
369.688	324.48
370.069	311.38
370.45	315.67
370.831	333.3
371.212	304.37
371.593	300.98
371.974	305.73
372.355	307.76
372.736	312.05
373.117	337.14
373.498	324.48
373.879	308.89
374.26	308.89
374.641	298.95
375.021	323.35
375.402	318.61
375.783	348.89
376.163	312.73
376.544	337.59
376.925	296.01
377.305	328.55
377.686	344.6
378.066	320.42
378.447	301.88
378.827	329.45
379.208	328.78
379.588	332.84
379.968	316.12
380.349	322.22
380.729	337.82
381.109	334.2
381.489	340.98
381.87	342.56
382.25	314.09
382.63	332.84
383.01	336.91
383.39	327.65
383.77	342.79
384.15	334.2
384.53	353.18
384.91	362.45
385.29	360.64
385.67	330.81
386.049	358.61
386.429	359.74
386.809	353.86
387.189	353.63
387.568	350.92
387.948	350.47
388.328	353.63
388.707	368.1
389.087	354.76
389.466	360.64
389.846	347.31
390.225	372.17
390.605	384.82
390.984	376.91
391.363	352.28
391.743	358.83
392.122	382.33
392.501	387.76
392.881	374.43
393.26	393.86
393.639	362.22
394.018	367.65
394.397	378.49
394.776	391.37
395.155	396.8
395.534	371.49
395.913	413.29
396.292	376.23
396.671	390.02
397.05	407.19
397.429	409.23
397.808	406.51
398.186	414.42
398.565	400.19
398.944	399.28
399.323	412.39
399.701	406.29
400.08	411.03
400.458	408.1
400.837	433.63
401.215	429.11
401.594	417.81
401.972	431.37
402.351	405.38
402.729	444.71
403.107	417.81
403.486	444.93
403.864	425.95
404.242	448.1
404.62	456.23
404.999	455.55
405.377	456.68
405.755	460.52
406.133	459.39
406.511	470.47
406.889	452.84
407.267	460.98
407.645	449.45
408.023	480.64
408.401	485.83
408.779	485.61
409.156	495.55
409.534	488.09
409.912	513.18
410.29	496.23
410.667	534.87
411.045	550.24
411.422	528.77
411.8	521.31
412.178	528.09
412.555	561.76
412.933	541.43
413.31	553.86
413.687	556.79
414.065	579.62
414.442	601.76
414.819	606.74
415.197	627.3
415.574	629.79
415.951	642.89
416.328	625.72
416.705	619.62
417.082	620.52
417.46	647.19
417.837	663.46
418.214	671.59
418.591	686.28
418.967	663.23
419.344	696.45
419.721	702.78
420.098	690.12
420.475	714.98
420.852	724.47
421.228	720.18
421.605	758.37
421.982	730.35
422.358	764.02
422.735	755.66
423.111	755.43
423.488	771.7
423.864	787.3
424.241	790.91
424.617	804.7
424.994	800.18
425.37	810.12
425.746	822.77
426.123	832.49
426.499	836.56
426.875	845.37
427.251	856.22
427.627	874.07
428.003	881.98
428.379	919.5
428.756	900.29
429.132	895.77
429.507	954.75
429.883	966.27
430.259	997.91
430.635	968.08
431.011	964.92
431.387	975.54
431.763	986.61
432.138	997.91
432.514	1013.05
432.89	1026.39
433.265	1054.63
433.641	1065.48
434.016	1060.73
434.392	1091.24
434.767	1099.83
435.143	1087.4
435.518	1111.58
435.894	1139.38
436.269	1162.43
436.644	1166.95
437.02	1179.6
437.395	1198.36
437.77	1199.04
438.145	1188.64
438.52	1221.18
438.895	1226.38
439.271	1247.4
439.646	1240.84
440.021	1293.5
440.395	1267.74
440.77	1258.7
441.145	1274.06
441.52	1320.39
441.895	1309.32
442.27	1331.46
442.645	1341.41
443.019	1361.29
443.394	1333.72
443.769	1365.36
444.143	1381.86
444.518	1384.79
444.892	1385.47
445.267	1377.56
445.641	1413.49
446.016	1387.96
446.39	1395.64
446.764	1380.95
447.139	1437.9
447.513	1385.25
447.887	1427.5
448.262	1414.85
448.636	1459.37
449.01	1469.99
449.384	1471.12
449.758	1466.37
450.132	1475.64
450.506	1495.53
450.88	1465.02
451.254	1492.81
451.628	1522.19
452.002	1513.15
452.376	1492.59
452.75	1533.94
453.123	1516.54
453.497	1568.97
453.871	1577.11
454.244	1623.21
454.618	1597.67
454.992	1617.56
455.365	1587.95
455.739	1626.14
456.112	1636.99
456.486	1669.98
456.859	1664.56
457.232	1716.08
457.606	1698.23
457.979	1719.02
458.352	1729.87
458.725	1736.88
459.099	1731
459.472	1767.61
459.845	1788.85
460.218	1766.03
460.591	1814.39
460.964	1839.02
461.337	1866.36
461.71	1847.61
462.083	1870.43
462.456	1872.92
462.829	1891.22
463.201	1919.7
463.574	1938.45
463.947	1954.72
464.32	1980.48
464.692	1978.45
465.065	1973.71
465.438	1996.3
465.81	2019.13
466.183	2011.9
466.555	2086.02
466.928	2085.11
467.3	2072.46
467.672	2109.07
468.045	2133.25
468.417	2129.41
468.789	2150.65
469.161	2194.26
469.534	2171.21
469.906	2227.03
470.278	2241.04
470.65	2279.91
471.022	2316.97
471.394	2313.13
471.766	2341.61
472.138	2325.56
472.51	2365.79
472.882	2437.65
473.253	2408.5
473.625	2465.9
473.997	2529.17
474.369	2509.51
474.74	2518.1
475.112	2579.34
475.484	2599.68
475.855	2639.9
476.227	2649.17
476.598	2702.27
476.97	2737.53
477.341	2772.33
477.713	2803.29
478.084	2792.21
478.455	2847.13
478.827	2862.5
479.198	2897.07
479.569	2922.61
479.94	3040.57
480.311	3015.94
480.682	3046.45
481.053	3093.45
481.424	3154.47
481.795	3156.27
482.166	3205.09
482.537	3233.11
482.908	3271.07
483.279	3289.38
483.65	3319.43
484.021	3373.22
484.391	3433.78
484.762	3435.81
485.133	3424.97
485.503	3489.82
485.874	3532.31
486.244	3580.44
486.615	3641.68
486.985	3626.54
487.356	3678.52
487.726	3682.59
488.097	3793.32
488.467	3730.5
488.837	3874.22
489.207	3818.18
489.578	3891.17
489.948	3911.28
490.318	3951.96
490.688	3962.81
491.058	4007.55
491.428	4078.28
491.798	4111.95
492.168	4183.82
492.538	4167.32
492.908	4208
493.278	4231.5
493.648	4222.69
494.017	4270.37
494.387	4289.12
494.757	4346.98
495.126	4331.84
495.496	4367.77
495.866	4427.2
496.235	4419.29
496.605	4422
496.974	4447.76
497.344	4534.09
497.713	4519.85
498.082	4594.2
498.452	4623.13
498.821	4569.57
499.19	4606.4
499.559	4675.78
499.928	4666.06
500.298	4727.53
500.667	4737.93
501.036	4710.58
501.405	4731.82
501.774	4738.15
502.143	4779.06
502.512	4756.23
502.88	4845.04
503.249	4828.32
503.618	4869
503.987	4866.96
504.356	4891.82
504.724	4857.7
505.093	4941.99
505.462	4920.97
505.83	4962.33
506.199	4972.95
506.567	4980.63
506.936	5021.31
507.304	5046.62
507.672	5026.05
508.041	5078.93
508.409	5113.96
508.777	5134.98
509.145	5098.82
509.514	5120.97
509.882	5159.84
510.25	5160.74
510.618	5164.13
510.986	5191.93
511.354	5252.71
511.722	5246.61
512.09	5298.14
512.458	5280.51
512.826	5288.42
513.193	5316.89
513.561	5313.96
513.929	5379.04
514.297	5378.14
514.664	5431.69
515.032	5440.51
515.4	5452.48
515.767	5492.48
516.135	5476.66
516.502	5461.98
516.869	5494.97
517.237	5468.75
517.604	5541.75
517.972	5525.7
518.339	5532.48
518.706	5561.63
519.073	5592.14
519.44	5635.76
519.808	5640.73
520.175	5568.64
520.542	5702.65
520.909	5645.25
521.276	5675.98
521.643	5716.88
522.009	5706.71
522.376	5783.1
522.743	5803.89
523.11	5847.95
523.477	5836.88
523.843	5883.43
524.21	5964.11
524.577	5992.58
524.943	5866.26
525.31	5922.75
525.676	5987.38
526.043	5985.8
526.409	6105.12
526.776	6172.01
527.142	6074.84
527.508	6125.23
527.874	6203.65
528.241	6224.44
528.607	6193.71
528.973	6246.14
529.339	6215.18
529.705	6320.03
530.071	6330.65
530.437	6360.48
530.803	6390.54
531.169	6386.92
531.535	6385.34
531.901	6427.83
532.267	6463.98
532.632	6401.84
532.998	6445.9
533.364	6535.62
533.73	6576.75
534.095	6583.08
534.461	6618.33
534.826	6607.93
535.192	6655.62
535.557	6689.29
535.923	6710.76
536.288	6718.44
536.653	6720.02
537.019	6710.76
537.384	6713.24
537.749	6728.16
538.114	6775.84
538.479	6755.27
538.845	6778.55
539.21	6774.71
539.575	6873.92
539.94	6819.91
540.305	6877.76
540.67	6860.13
541.034	6898.77
541.399	6941.94
541.764	6952.11
542.129	6964.99
542.494	6991.43
542.858	7013.12
543.223	7048.6
543.587	7051.09
543.952	7080.69
544.316	7094.47
544.681	7117.52
545.045	7101.25
545.41	7090.18
545.774	7147.35
546.138	7110.75
546.503	7205.21
546.867	7192.78
547.231	7248.37
547.595	7310.74
547.959	7252.44
548.324	7304.64
548.688	7289.95
549.052	7300.34
549.416	7338.99
549.779	7374.92
550.143	7343.28
550.507	7433.22
550.871	7436.61
551.235	7315.03
551.599	7420.79
551.962	7439.55
552.326	7487.46
552.689	7532.43
553.053	7511.86
553.417	7507.34
553.78	7640
554.143	7605.65
554.507	7548.93
554.87	7588.7
555.234	7679.09
555.597	7599.55
555.96	7637.74
556.323	7678.64
556.686	7654.46
557.05	7710.05
557.413	7742.14
557.776	7713.67
558.139	7773.33
558.502	7792.99
558.865	7774.91
559.228	7792.54
559.59	7844.51
559.953	7842.25
560.316	7889.71
560.679	7903.04
561.041	7926.54
561.404	7923.38
561.767	8008.8
562.129	7948.92
562.492	8016.03
562.854	8061
563.217	8059.19
563.579	8064.84
563.941	8127.44
564.304	8130.83
564.666	8132.87
565.028	8185.07
565.39	8217.38
565.753	8268.68
566.115	8241.11
566.477	8295.57
566.839	8271.17
567.201	8343.03
567.563	8326.98
567.925	8439.07
568.287	8372.18
568.648	8412.63
569.01	8478.17
569.372	8551.84
569.734	8477.49
570.095	8614.66
570.457	8560.65
570.819	8617.37
571.18	8728.33
571.542	8662.34
571.903	8703.92
572.265	8754.77
572.626	8771.94
572.987	8793.64
573.349	8790.93
573.71	8859.17
574.071	8901.88
574.432	8955.67
574.794	9077.93
575.155	9058.04
575.516	9036.8
575.877	9059.85
576.238	9138.94
576.599	9226.17
576.96	9300.74
577.32	9284.47
577.681	9365.83
578.042	9447.86
578.403	9438.14
578.763	9580.96
579.124	9564.69
579.485	9670.68
579.845	9712.94
580.206	9731.02
580.566	9767.62
580.927	9934.85
581.287	10003.78
581.648	10034.96
582.008	10123.77
582.368	10214.62
582.728	10288.97
583.089	10355.18
583.449	10423.88
583.809	10613.03
584.169	10620.26
584.529	10740.48
584.889	10890.53
585.249	10942.96
585.609	11021.6
585.969	11173.24
586.329	11203.74
586.688	11353.35
587.048	11506.79
587.408	11495.04
587.768	11656.61
588.127	11883.95
588.487	11965.53
588.846	12175.47
589.206	12158.07
589.565	12274.68
589.925	12484.62
590.284	12566.65
590.643	12687.1
591.003	12763.93
591.362	12992.62
591.721	13068.1
592.08	13294.31
592.44	13409.11
592.799	13502.89
593.158	13607.75
593.517	13854.52
593.876	13939.72
594.235	14074.18
594.593	14136.55
594.952	14348.52
595.311	14403.89
595.67	14614.28
596.029	14715.74
596.387	14936.08
596.746	15048.16
597.104	15100.37
597.463	15221.27
597.822	15365.9
598.18	15405.22
598.538	15570.86
598.897	15769.95
599.255	15755.72
599.613	16070.51
599.972	16095.59
600.33	16279.09
600.688	16277.06
601.046	16438.64
601.404	16574.23
601.762	16720.66
602.12	16873.2
602.478	16882.24
602.836	17058.28
603.194	17103.93
603.552	17198.62
603.91	17230.93
604.268	17324.04
604.625	17474.31
604.983	17559.28
605.341	17628.43
605.698	17802.89
606.056	17904.36
606.413	17939.16
606.771	18141.42
607.128	18169.66
607.485	18238.36
607.843	18351.35
608.2	18466.38
608.557	18558.13
608.914	18480.84
609.272	18728.52
609.629	18784.79
609.986	18911.79
610.343	18819.14
610.7	19070.2
611.057	19132.35
611.414	19199.47
611.771	19209.86
612.127	19309.75
612.484	19249.64
612.841	19423.87
613.198	19384.09
613.554	19429.97
613.911	19595.16
614.267	19580.25
614.624	19683.52
614.98	19720.58
615.337	19900.92
615.693	19905.66
616.05	19904.76
616.406	20024.53
616.762	20003.74
617.118	20043.74
617.475	20100.01
617.831	20184.53
618.187	20271.3
618.543	20364.86
618.899	20361.47
619.255	20501.35
619.611	20377.74
619.967	20512.2
620.323	20640.78
620.678	20541.13
621.034	20620.67
621.39	20619.54
621.746	20621.35
622.101	20886.2
622.457	20724.4
622.812	20795.58
623.168	20846.66
623.523	20923.49
623.879	20908.12
624.234	20846.2
624.589	20899.76
624.945	21015.24
625.3	20975.69
625.655	20968.01
626.01	21025.63
626.365	21039.42
626.72	21062.69
627.075	20942.7
627.43	21061.34
627.785	21014.79
628.14	21103.82
628.495	21135.46
628.85	21209.36
629.205	21082.36
629.559	21213.65
629.914	21156.25
630.269	21065.18
630.623	21082.58
630.978	21082.58
631.332	21104.73
631.687	21186.31
632.041	21042.13
632.396	21105.18
632.75	21024.5
633.104	21036.93
633.459	21037.16
633.813	21041.68
634.167	21060.66
634.521	20962.81
634.875	21032.41
635.229	21017.95
635.583	20791.29
635.937	20923.94
636.291	20890.72
636.645	20946.09
636.999	20880.55
637.352	20978.86
637.706	20826.32
638.06	21015.01
638.413	20851.85
638.767	20871.74
639.121	20871.97
639.474	20759.43
639.828	20803.72
640.181	20817.96
640.534	20847.33
640.888	20757.62
641.241	20622.93
641.594	20776.37
641.947	20792.87
642.301	20716.49
642.654	20857.5
643.007	20800.55
643.36	20840.78
643.713	20706.32
644.066	20832.19
644.419	20632.88
644.771	20493.9
645.124	20277.86
645.477	20384.97
645.83	20254.13
646.182	20157.18
646.535	20182.72
646.888	20191.76
647.24	20022.72
647.593	20153.79
647.945	20208.03
648.298	20140.69
648.65	20053.23
649.002	20031.31
649.355	20140.91
649.707	20085.32
650.059	20183.85
650.411	20377.06
650.763	20440.56
651.115	20658.86
651.467	20572.76
651.819	20532.31
652.171	20584.74
652.523	20574.8
652.875	20581.8
653.227	20586.78
653.578	20607.57
653.93	20547.68
654.282	20510.84
654.633	20498.42
654.985	20496.83
655.337	20523.27
655.688	20581.13
656.039	20562.59
656.391	20463.39
656.742	20560.34
657.094	20498.19
657.445	20573.89
657.796	20612.09
658.147	20491.86
658.498	20558.53
658.849	20572.54
659.2	20532.77
659.551	20542.71
659.902	20545.42
660.253	20602.14
660.604	20536.61
660.955	20474.24
661.306	20516.72
661.656	20547.45
662.007	20494.35
662.358	20549.26
662.708	20685.76
663.059	20554.23
663.409	20411.19
663.76	20605.31
664.11	20550.17
664.461	20672.42
664.811	20661.8
665.161	20602.59
665.511	20588.13
665.862	20614.12
666.212	20617.73
666.562	20773.89
666.912	20722.82
667.262	20596.49
667.612	20597.4
667.962	20620.67
668.312	20615.7
668.662	20705.19
669.011	20671.52
669.361	20676.04
669.711	20589.94
670.06	20616.38
670.41	20505.2
670.76	20536.15
671.109	20707
671.459	20556.72
671.808	20499.32
672.157	20570.73
672.507	20494.8
672.856	20439.21
673.205	20409.15
673.554	20494.12
673.904	20496.38
674.253	20563.5
674.602	20468.81
674.951	20225.88
675.3	20069.27
675.649	20330.74
675.998	20403.28
676.346	20406.89
676.695	20429.49
677.044	20267.24
677.393	20337.52
677.741	20405.31
678.09	20312.66
678.438	20262.49
678.787	20410.51
679.135	20210.97
679.484	20166.9
679.832	20266.78
680.181	20116.05
680.529	20227.24
680.877	20174.13
681.225	20073.34
681.573	20115.38
681.922	19949.5
682.27	19862.95
682.618	20003.74
682.966	19838.77
683.314	20007.36
683.661	19952.22
684.009	19792.45
684.357	19699.57
684.705	19670.87
685.053	19717.19
685.4	19653.01
685.748	19540.02
686.095	19564.2
686.443	19496.18
686.79	19500.02
687.138	19459.57
687.485	19506.8
687.832	19363.53
688.18	19381.38
688.527	19354.49
688.874	19362.4
689.221	19221.84
689.568	19120.37
689.915	19075.4
690.262	19138.45
690.609	19025.46
690.956	19044.67
691.303	18867.72
691.65	18863.43
691.997	18768.29
692.344	18674.51
692.69	18661.4
693.037	18723.55
693.383	18507.28
693.73	18589.09
694.077	18417.11
694.423	18465.7
694.769	18397.91
695.116	18275.88
695.462	18216.44
695.808	18259.38
696.155	18262.09
696.501	18058.93
696.847	18145.94
697.193	17898.26
697.539	17909.56
697.885	17777.36
698.231	17829.11
698.577	17751.37
698.923	17746.4
699.269	17627.3
699.614	17580.3
699.96	17437.03
700.306	17463.47
700.651	17464.37
700.997	17333.75
701.342	17310.25
701.688	17360.42
702.033	17128.56
702.379	17154.32
702.724	17127.43
703.069	17245.85
703.415	16946.64
703.76	16918.62
704.105	16913.2
704.45	16843.82
704.795	16667.1
705.14	16673.21
705.485	16614.45
705.83	16678.86
706.175	16681.12
706.52	16539.42
706.865	16497.39
707.209	16401.57
707.554	16437.73
707.899	16416.49
708.243	16295.36
708.588	16237.51
708.932	16136.95
709.277	16171.3
709.621	16136.5
709.966	16037.52
710.31	16066.22
710.654	15877.75
710.998	15849.72
711.342	15880.68
711.687	15903.28
712.031	15822.15
712.375	15778.77
712.719	15755.49
713.063	15751.2
713.407	15810.18
713.75	15597.53
714.094	15624.87
714.438	15633.23
714.782	15648.15
715.125	15510.98
715.469	15496.06
715.812	15449.06
716.156	15398.89
716.499	15360.7
716.843	15324.54
717.186	15270.76
717.53	15353.24
717.873	15404.09
718.216	15332.68
718.559	15278.89
718.902	15184.88
719.246	15181.72
719.589	15192.34
719.932	15185.34
720.275	15188.72
720.617	15172.45
720.96	15172.68
721.303	15002.29
721.646	15066.92
721.989	14986.02
722.331	15125
722.674	15052.68
723.016	15084.55
723.359	15063.76
723.701	14989.86
724.044	14995.51
724.386	14776.76
724.729	14850.43
725.071	14903.76
725.413	14844.33
725.755	14817.21
726.097	14822.41
726.439	14766.59
726.782	14696.08
727.124	14736.53
727.465	14717.78
727.807	14781.73
728.149	14651.79
728.491	14755.29
728.833	14723.88
729.175	14640.26
729.516	14760.26
729.858	14718
730.199	14643.88
730.541	14675.29
730.882	14651.11
731.224	14723.2
731.565	14571.34
731.906	14615.18
732.248	14600.04
732.589	14625.58
732.93	14483.43
733.271	14543.09
733.612	14539.25
733.953	14581.74
734.294	14496.31
734.635	14462.42
734.976	14595.29
735.317	14484.79
735.658	14531.34
735.999	14526.14
736.339	14642.3
736.68	14501.06
737.021	14444.79
737.361	14471
737.702	14487.27
738.042	14439.82
738.383	14478.69
738.723	14523.21
739.063	14511.68
739.404	14572.92
739.744	14459.93
740.084	14492.25
740.424	14631.23
740.764	14499.03
741.104	14572.7
741.444	14525.01
741.784	14534.96
742.124	14649.98
742.464	14670.77
742.804	14600.94
743.143	14581.96
743.483	14582.19
743.823	14615.41
744.162	14631
744.502	14677.55
744.841	14616.99
745.181	14808.85
745.52	14875.51
745.86	14814.95
746.199	14880.71
746.538	14896.3
746.877	14911.44
747.216	14905.79
747.556	14959.13
747.895	14993.02
748.234	15136.52
748.573	15205.9
748.911	15219.91
749.25	15259.46
749.589	15233.02
749.928	15292.45
750.267	15415.61
750.605	15514.82
750.944	15533.12
751.283	15568.83
751.621	15666.23
751.96	15694.93
752.298	15784.64
752.636	15888.14
752.975	15964.75
753.313	16034.8
753.651	16066.44
753.989	16203.84
754.327	16281.35
754.666	16296.72
755.004	16355.7
755.342	16535.81
755.679	16667.33
756.017	16635.01
756.355	16890.83
756.693	16942.8
757.031	17045.85
757.368	17094.89
757.706	17206.07
758.044	17247.65
758.381	17456.46
758.719	17395.22
759.056	17662.78
759.394	17709.34
