Data from hue_30_FLMS001491_67.txt Node
Date: Mon Feb 06 15:05:46 GMT 2017
User: dcchb
Spectrometer: FLMS00149
Trigger mode: 0
Integration Time (sec): 2.000000E-2
Scans to average: 10
Electric dark correction enabled: true
Nonlinearity correction enabled: false
Boxcar width: 0
XAxis mode: Wavelengths
Number of Pixels in Spectrum: 2048
>>>>>Begin Spectral Data<<<<<
341.393	-15.99
341.776	-15.99
342.16	-15.99
342.543	-56.44
342.927	-71.58
343.31	-79.72
343.693	-52.6
344.077	-59.6
344.46	-64.8
344.843	-61.41
345.226	-49.21
345.61	-33.61
345.993	-16.44
346.376	20.39
346.759	17.23
347.142	17.23
347.525	57.46
347.908	52.03
348.291	59.72
348.674	80.96
349.057	112.37
349.44	122.09
349.823	156.89
350.206	164.35
350.588	197.11
350.971	218.36
351.354	229.43
351.737	252.93
352.119	256.77
352.502	277.11
352.884	305.36
353.267	275.3
353.65	286.38
354.032	300.39
354.414	305.13
354.797	324.34
355.179	302.87
355.562	319.14
355.944	330.67
356.326	320.27
356.709	351.01
357.091	322.99
357.473	355.3
357.855	348.75
358.238	352.82
358.62	353.27
359.002	322.53
359.384	338.8
359.766	309.43
360.148	335.87
360.53	339.71
360.912	339.03
361.294	354.17
361.676	335.64
362.057	316.43
362.439	312.59
362.821	342.42
363.203	344.23
363.584	328.18
363.966	341.97
364.348	346.04
364.729	311.01
365.111	331.35
365.493	313.95
365.874	325.92
366.256	329.31
366.637	314.85
367.019	311.01
367.4	332.03
367.781	326.15
368.163	318.92
368.544	336.77
368.925	334.74
369.306	328.18
369.688	325.02
370.069	317.56
370.45	313.49
370.831	305.36
371.212	309.43
371.593	322.76
371.974	329.09
372.355	318.47
372.736	333.83
373.117	309.88
373.498	328.64
373.879	314.4
374.26	313.49
374.641	302.87
375.021	332.48
375.402	333.83
375.783	331.57
376.163	347.39
376.544	344
376.925	333.61
377.305	321.18
377.686	325.47
378.066	329.31
378.447	329.77
378.827	349.43
379.208	341.74
379.588	351.91
379.968	334.96
380.349	354.85
380.729	316.66
381.109	343.1
381.489	339.03
381.87	353.04
382.25	332.48
382.63	335.19
383.01	348.75
383.39	340.61
383.77	357.79
384.15	355.75
384.53	353.27
384.91	346.71
385.29	349.43
385.67	357.34
386.049	354.62
386.429	362.98
386.809	365.47
387.189	346.49
387.568	370.22
387.948	366.37
388.328	364.57
388.707	353.27
389.087	362.76
389.466	365.47
389.846	364.11
390.225	354.85
390.605	385.13
390.984	367.96
391.363	380.16
391.743	385.36
392.122	382.65
392.501	392.81
392.881	377.67
393.26	383.78
393.639	373.61
394.018	368.18
394.397	400.05
394.776	393.49
395.155	385.36
395.534	403.44
395.913	388.07
396.292	399.82
396.671	379.03
397.05	408.18
397.429	389.88
397.808	402.53
398.186	385.36
398.565	393.72
398.944	400.5
399.323	406.83
399.701	418.8
400.08	394.62
400.458	411.35
400.837	406.15
401.215	418.8
401.594	416.32
401.972	420.38
402.351	403.44
402.729	426.49
403.107	436.88
403.486	426.03
403.864	423.1
404.242	431.01
404.62	426.94
404.999	410.67
405.377	438.01
405.755	426.94
406.133	426.49
406.511	438.92
406.889	420.38
407.267	430.78
407.645	447.5
408.023	438.46
408.401	470.33
408.779	461.29
409.156	462.19
409.534	450.67
409.912	476.65
410.29	471
410.667	472.13
411.045	469.2
411.422	462.42
411.8	478.46
412.178	490.89
412.555	468.97
412.933	507.39
413.31	479.14
413.687	493.15
414.065	496.54
414.442	475.3
414.819	500.16
415.197	494.51
415.574	503.55
415.951	522.75
416.328	553.49
416.705	536.99
417.082	494.05
417.46	513.94
417.837	535.18
418.214	513.26
418.591	515.3
418.967	539.25
419.344	555.97
419.721	534.96
420.098	513.26
420.475	545.35
420.852	539.7
421.228	535.41
421.605	540.38
421.982	558.23
422.358	560.27
422.735	554.17
423.111	564.56
423.488	573.6
423.864	542.87
424.241	585.13
424.617	575.41
424.994	571.11
425.37	600.72
425.746	558.23
426.123	586.93
426.499	588.52
426.875	608.18
427.251	618.57
427.627	602.07
428.003	634.62
428.379	610.21
428.756	623.32
429.132	645.01
429.507	641.17
429.883	646.59
430.259	648.4
430.635	638.46
431.011	653.6
431.387	659.7
431.763	665.8
432.138	666.48
432.514	684.33
432.89	684.56
433.265	684.78
433.641	692.02
434.016	707.61
434.392	694.05
434.767	692.24
435.143	716.42
435.518	720.26
435.894	727.04
436.269	731.34
436.644	761.17
437.02	755.06
437.395	724.33
437.77	750.32
438.145	764.78
438.52	763.88
438.895	770.88
439.271	786.48
439.646	765.91
440.021	789.19
440.395	791.45
440.77	783.76
441.145	796.42
441.52	788.74
441.895	804.33
442.27	811.56
442.645	827.15
443.019	809.98
443.394	825.35
443.769	803.43
444.143	837.32
444.518	826.02
444.892	819.02
445.267	823.76
445.641	849.3
446.016	843.65
446.39	867.83
446.764	866.02
447.139	872.8
447.513	879.81
447.887	865.57
448.262	865.57
448.636	896.98
449.01	875.51
449.384	895.63
449.758	863.99
450.132	916.64
450.506	898.11
450.88	908.28
451.254	898.11
451.628	934.27
452.002	928.85
452.376	933.37
452.75	941.05
453.123	944.66
453.497	957.09
453.871	979.92
454.244	999.35
454.618	1000.71
454.992	990.54
455.365	1005.23
455.739	1021.05
456.112	1019.92
456.486	1051.1
456.859	1058.33
457.232	1058.33
457.606	1083.87
457.979	1085
458.352	1080.93
458.725	1098.33
459.099	1107.15
459.472	1132
459.845	1135.17
460.218	1172.46
460.591	1162.29
460.964	1129.29
461.337	1192.57
461.71	1224.88
462.083	1216.52
462.456	1223.75
462.829	1198.22
463.201	1250.19
463.574	1225.56
463.947	1281.6
464.32	1284.32
464.692	1289.51
465.065	1278.67
465.438	1323.64
465.81	1337.87
466.183	1346.69
466.555	1405.9
466.928	1390.08
467.3	1390.53
467.672	1436.63
468.045	1449.06
468.417	1431.43
468.789	1471.88
469.161	1470.07
469.534	1503.75
469.906	1527.7
470.278	1543.29
470.65	1564.99
471.022	1583.52
471.394	1634.82
471.766	1660.35
472.138	1639.34
472.51	1681.37
472.882	1714.36
473.253	1769.05
473.625	1765.21
473.997	1803.17
474.369	1849.05
474.74	1838.43
475.112	1867.58
475.484	1899.44
475.855	1961.81
476.227	1987.35
476.598	2028.48
476.97	2064.86
477.341	2126.55
477.713	2136.27
478.084	2145.54
478.455	2222.14
478.827	2273.9
479.198	2332.2
479.569	2323.16
479.94	2423.72
480.311	2456.49
480.682	2490.61
481.053	2560.44
481.424	2615.81
481.795	2646.31
482.166	2688.35
482.537	2767.22
482.908	2806.99
483.279	2848.34
483.65	2913.43
484.021	2999.07
484.391	3018.96
484.762	3047.21
485.133	3127.88
485.503	3218.28
485.874	3280.42
486.244	3310.25
486.615	3404.71
486.985	3472.06
487.356	3484.48
487.726	3583.24
488.097	3654.2
488.467	3675.67
488.837	3765.38
489.207	3848.54
489.578	3900.07
489.948	3985.04
490.318	4024.13
490.688	4065.71
491.058	4156.78
491.428	4220.74
491.798	4263
492.168	4419.6
492.538	4439.71
492.908	4511.35
493.278	4612.59
493.648	4606.26
494.017	4679.03
494.387	4735.75
494.757	4814.85
495.126	4847.16
495.496	4901.62
495.866	4976.42
496.235	5016.65
496.605	5083.09
496.974	5129.64
497.344	5181.16
497.713	5234.72
498.082	5247.15
498.452	5343.19
498.821	5396.98
499.19	5399.01
499.559	5478.1
499.928	5497.31
500.298	5526.69
500.667	5630.64
501.036	5659.57
501.405	5666.12
501.774	5714.71
502.143	5770.53
502.512	5776.18
502.88	5879.22
503.249	5920.58
503.618	5963.97
503.987	6007.58
504.356	6015.04
504.724	6047.36
505.093	6102.27
505.462	6161.02
505.83	6167.13
506.199	6234.69
506.567	6292.77
506.936	6336.84
507.304	6391.98
507.672	6411.19
508.041	6495.48
508.409	6474.46
508.777	6546.33
509.145	6528.92
509.514	6605.98
509.882	6646.44
510.25	6652.08
510.618	6758.3
510.986	6763.95
511.354	6847.11
511.722	6864.51
512.09	6865.64
512.458	6905.41
512.826	6958.07
513.193	6999.65
513.561	7017.5
513.929	7045.52
514.297	7130.49
514.664	7130.72
515.032	7201.68
515.4	7268.79
515.767	7238.06
516.135	7262.92
516.502	7300.2
516.869	7313.99
517.237	7393.08
517.604	7429.24
517.972	7473.76
518.339	7487.32
518.706	7517.37
519.073	7496.58
519.44	7527.54
519.808	7664.26
520.175	7675.56
520.542	7762.34
520.909	7807.08
521.276	7767.99
521.643	7847.76
522.009	7862.45
522.376	7894.09
522.743	7909.91
523.11	8085.72
523.477	8085.95
523.843	8170.69
524.21	8158.03
524.577	8197.36
524.943	8215.66
525.31	8369.33
525.676	8342.89
526.043	8417.46
526.409	8372.27
526.776	8560.96
527.142	8559.83
527.508	8550.57
527.874	8631.47
528.241	8664.01
528.607	8709.88
528.973	8804.57
529.339	8776.32
529.705	8928.86
530.071	8965.7
530.437	8975.87
530.803	8944.91
531.169	9040.04
531.535	9050.21
531.901	9099.25
532.267	9183.32
532.632	9224.22
532.998	9290.66
533.364	9297.89
533.73	9314.39
534.095	9493.14
534.461	9488.62
534.826	9453.37
535.192	9528.17
535.557	9607.04
535.923	9583.76
536.288	9671.21
536.653	9653.14
537.019	9674.6
537.384	9732.68
537.749	9773.36
538.114	9748.5
538.479	9780.59
538.845	9863.3
539.21	9871.89
539.575	9901.27
539.94	9963.18
540.305	10049.74
540.67	10043.86
541.034	10070.75
541.399	10187.81
541.764	10189.62
542.129	10274.36
542.494	10286.11
542.858	10279.56
543.223	10284.98
543.587	10376.96
543.952	10409.73
544.316	10412.89
544.681	10461.02
545.045	10501.7
545.41	10549.61
545.774	10597.97
546.138	10667.8
546.503	10698.76
546.867	10747.12
547.231	10759.32
547.595	10814.91
547.959	10793.22
548.324	10828.25
548.688	10893.78
549.052	11020.11
549.416	10945.76
549.779	10984.63
550.143	11028.47
550.507	11179.42
550.871	11194.11
551.235	11134.23
551.599	11288.12
551.962	11252.87
552.326	11285.86
552.689	11370.38
553.053	11280.66
553.417	11323.6
553.78	11445.41
554.143	11456.93
554.507	11474.33
554.87	11581.9
555.234	11623.25
555.597	11618.06
555.96	11624.84
556.323	11656.7
556.686	11709.13
557.05	11809.69
557.413	11877.03
557.776	11801.1
558.139	11905.73
558.502	11906.41
558.865	11936.92
559.228	12032.06
559.59	12021.44
559.953	12074.54
560.316	12213.97
560.679	12244.48
561.041	12240.19
561.404	12293.52
561.767	12384.14
562.129	12289.22
562.492	12469.33
562.854	12450.12
563.217	12422.55
563.579	12517.02
563.941	12600.63
564.304	12678.37
564.666	12731.47
565.028	12744.35
565.39	12769.89
565.753	12822.32
566.115	12901.41
566.477	12860.51
566.839	12859.83
567.201	12942.99
567.563	13002.65
567.925	13076.32
568.287	13111.12
568.648	13133.27
569.01	13229.54
569.372	13318.35
569.734	13301.18
570.095	13388.63
570.457	13389.31
570.819	13490.1
571.18	13526.71
571.542	13648.06
571.903	13671.34
572.265	13758.11
572.626	13768.28
572.987	13819.13
573.349	13917.43
573.71	14022.06
574.071	14103.19
574.432	14065.22
574.794	14272.45
575.155	14328.04
575.516	14305.22
575.877	14429.73
576.238	14504.76
576.599	14620.91
576.96	14709.05
577.32	14800.12
577.681	14905.43
578.042	15032.2
578.403	15083.28
578.763	15195.82
579.124	15336.15
579.485	15528.69
579.845	15561.91
580.206	15643.71
580.566	15837.15
580.927	15921.22
581.287	16172.74
581.648	16250.02
582.008	16419.96
582.368	16550.36
582.728	16712.61
583.089	16925.26
583.449	17008.2
583.809	17335.87
584.169	17533.83
584.529	17554.4
584.889	17939.7
585.249	18007.72
585.609	18226.02
585.969	18522.73
586.329	18749.39
586.688	18997.98
587.048	19129.05
587.408	19422.82
587.768	19574.91
588.127	19793.89
588.487	19987.33
588.846	20451.27
589.206	20405.85
589.565	20790.92
589.925	21205.37
590.284	21350
590.643	21505.48
591.003	21971.68
591.362	22175.07
591.721	22393.82
592.08	22790.42
592.44	22973.92
592.799	23091.2
593.158	23542.49
593.517	23695.48
593.876	24133.43
594.235	24250.49
594.593	24598.05
594.952	24867.65
595.311	25167.08
595.67	25470.12
596.029	25918.7
596.387	26053.38
596.746	26440.72
597.104	26491.79
597.463	26983.98
597.822	27340.35
598.18	27334.7
598.538	27683.62
598.897	28035.48
599.255	28155.7
599.613	28836.36
599.972	28821.9
600.33	29147.76
600.688	29405.61
601.046	29683.57
601.404	29931.02
601.762	30161.75
602.12	30591.34
602.478	30664.79
602.836	31016.19
603.194	31020.48
603.552	31402.17
603.91	31529.62
604.268	31848.48
604.625	32001.47
604.983	32351.52
605.341	32436.94
605.698	32751.74
606.056	32935.46
606.413	33285.73
606.771	33542.9
607.128	33782.22
607.485	33830.13
607.843	33945.6
608.2	34452.26
608.557	34640.5
608.914	34592.59
609.272	35111.68
609.629	35170.43
609.986	35697.65
610.343	35398.45
610.7	35987.81
611.057	36055.61
611.414	36112.55
611.771	36285.43
612.127	36508.25
612.484	36721.58
612.841	36872.31
613.198	36890.61
613.554	37134.22
613.911	37377.38
614.267	37561.33
614.624	37592.74
614.98	37916.8
615.337	38124.25
615.693	38008.77
616.05	38237.7
616.406	38575.54
616.762	38435.66
617.118	38565.14
617.475	38675.65
617.831	38969.65
618.187	39004.68
618.543	39204.9
618.899	39532.8
619.255	39597.89
619.611	39602.18
619.967	39752.23
620.323	39997.65
620.678	39900.93
621.034	40009.17
621.39	40100.47
621.746	40032
622.101	40603.06
622.457	40230.41
622.812	40440.12
623.168	40591.08
623.523	40682.83
623.879	40716.5
624.234	40712.66
624.589	40840.11
624.945	40908.36
625.3	41101.35
625.655	41146.09
626.01	41185.41
626.365	41248.92
626.72	41260.67
627.075	41315.13
627.43	41380.89
627.785	41278.97
628.14	41523.48
628.495	41498.85
628.85	41519.42
629.205	41339.99
629.559	41681.45
629.914	41504.28
630.269	41624.27
630.623	41459.98
630.978	41549.7
631.332	41785.4
631.687	41687.1
632.041	41812.97
632.396	41769.58
632.75	41624.27
633.104	41737.04
633.459	41694.1
633.813	41605.97
634.167	41679.41
634.521	41681.67
634.875	41782.23
635.229	41651.16
635.583	41669.47
635.937	41625.4
636.291	41558.96
636.645	41650.26
636.999	41577.04
637.352	41579.75
637.706	41472.41
638.06	41784.49
638.413	41582.47
638.767	41515.8
639.121	41615.23
639.474	41348.12
639.828	41414.56
640.181	41545.4
640.534	41719.41
640.888	41467.21
641.241	41342.02
641.594	41528.91
641.947	41536.59
642.301	41267.22
642.654	41371.4
643.007	41399.65
643.36	41408.46
643.713	41342.92
644.066	41542.69
644.419	41288.01
644.771	41062.71
645.124	40613.45
645.477	40676.95
645.83	40359.9
646.182	40269.96
646.535	40100.92
646.888	40102.5
647.24	40038.33
647.593	40300.69
647.945	40256.63
648.298	40009.85
648.65	40027.48
649.002	39848.73
649.355	40100.25
649.707	40025.22
650.059	40230.86
650.411	40655.26
650.763	40778.42
651.115	40896.61
651.467	40846.67
651.819	40935.93
652.171	40833.79
652.523	40706.56
652.875	40693.45
653.227	40695.26
653.578	40973.22
653.93	40796.95
654.282	40591.08
654.633	40517.41
654.985	40621.36
655.337	40638.76
655.688	40580.91
656.039	40677.63
656.391	40368.71
656.742	40512.44
657.094	40600.34
657.445	40569.16
657.796	40518.77
658.147	40512.21
658.498	40598.31
658.849	40568.26
659.2	40575.71
659.551	40466.79
659.902	40481.93
660.253	40422.72
660.604	40544.08
660.955	40306.79
661.306	40478.77
661.656	40516.73
662.007	40402.16
662.358	40257.98
662.708	40252.11
663.059	40359.67
663.409	40223.63
663.76	40455.04
664.11	40387.7
664.461	40404.42
664.811	40285.78
665.161	40400.8
665.511	40312.44
665.862	40330.07
666.212	40418.88
666.562	40451.87
666.912	40314.02
667.262	40198.55
667.612	40296.62
667.962	40310.86
668.312	40278.09
668.662	40360.13
669.011	40257.3
669.361	40402.16
669.711	40206.23
670.06	40068.61
670.41	40085.33
670.76	40152
671.109	40244.65
671.459	40189.96
671.808	40105.89
672.157	39978.44
672.507	39942.51
672.856	39901.61
673.205	39960.59
673.554	40086.01
673.904	39886.69
674.253	40107.02
674.602	40138.66
674.951	39531.22
675.3	39202.19
675.649	39926.92
675.998	39696.41
676.346	39828.61
676.695	39907.71
677.044	39698.45
677.393	39983.64
677.741	39736.86
678.09	39741.61
678.438	39687.83
678.787	39781.16
679.135	39751.33
679.484	39488.51
679.832	39623.65
680.181	39376.65
680.529	39490.77
680.877	39518.57
681.225	39465.69
681.573	39576.19
681.922	39380.94
682.27	39305.24
682.618	39226.14
682.966	39114.73
683.314	39202.64
683.661	39048.52
684.009	38819.6
684.357	38775.53
684.705	38719.94
685.053	38762.65
685.4	38672.71
685.748	38504.81
686.095	38592.94
686.443	38524.92
686.79	38439.72
687.138	38426.39
687.485	38497.12
687.832	38126.74
688.18	38250.58
688.527	38068.66
688.874	38098.72
689.221	38086.06
689.568	37870.25
689.915	37833.41
690.262	37877.48
690.609	37794.99
690.956	37604.27
691.303	37672.51
691.65	37564.94
691.997	37417.6
692.344	37192.07
692.69	37260.32
693.037	37326.08
693.383	36918.18
693.73	37014.22
694.077	36954.34
694.423	36828.24
694.769	36585.31
695.116	36552.32
695.462	36730.39
695.808	36367.69
696.155	36416.95
696.501	36192.33
696.847	36240.69
697.193	35881.37
697.539	36112.78
697.885	35837.31
698.231	35684.99
698.577	35779.23
698.923	35605
699.269	35597.09
699.614	35362.52
699.96	35338.56
700.306	35430.76
700.651	35275.06
700.997	35068.74
701.342	35064.45
701.688	34975.41
702.033	34821.97
702.379	34867.16
702.724	34746.26
703.069	34784.23
703.415	34396.89
703.76	34521.18
704.105	34360.28
704.45	34217.24
704.795	34192.83
705.14	34098.37
705.485	34035.77
705.83	33873.06
706.175	34006.17
706.52	33932.05
706.865	33746.06
707.209	33723.24
707.554	33566.63
707.899	33581.32
708.243	33499.74
708.588	33453.87
708.932	33186.53
709.277	33185.85
709.621	33128
709.966	32955.12
710.31	33090.03
710.654	32636.49
710.998	32788.8
711.342	32848.68
711.687	32768.23
712.031	32564.17
712.375	32565.53
712.719	32641.01
713.063	32393.33
713.407	32535.7
713.75	32334.35
714.094	32358.53
714.438	32178.87
714.782	32248.47
715.125	32095.94
715.469	32118.99
715.812	31939.1
716.156	31742.95
716.499	31857.3
716.843	31812.1
717.186	31667.7
717.53	31859.78
717.873	31767.13
718.216	31625.89
718.559	31616.17
718.902	31370.76
719.246	31364.66
719.589	31440.36
719.932	31202.4
720.275	31278.78
720.617	31243.75
720.96	30990.2
721.303	31001.73
721.646	31056.64
721.989	30817.33
722.331	30867.72
722.674	30880.37
723.016	30939.81
723.359	30714.73
723.701	30830.66
724.044	30529.2
724.386	30423.44
724.729	30583.66
725.071	30558.35
725.413	30381.18
725.755	30348.19
726.097	30409.88
726.439	30225.48
726.782	30276.55
727.124	30413.04
727.465	30208.08
727.807	30142.31
728.149	30057.8
728.491	30057.12
728.833	30107.06
729.175	30022.54
729.516	29896.67
729.858	29939.16
730.199	29919.95
730.541	29785.26
730.882	29731.7
731.224	29711.59
731.565	29597.92
731.906	29658.49
732.248	29546.85
732.589	29357.02
732.93	29223.69
733.271	29341.43
733.612	29407.19
733.953	29493.97
734.294	29191.15
734.635	29238.38
734.976	29276.12
735.317	29091.04
735.658	29200.87
735.999	29054.89
736.339	29040.87
736.68	29171.04
737.021	29105.96
737.361	28885.62
737.702	28963.59
738.042	28885.62
738.383	28807.21
738.723	28782.35
739.063	28693.09
739.404	28657.61
739.744	28722.47
740.084	28589.36
740.424	28649.47
740.764	28630.26
741.104	28761.56
741.444	28464.17
741.784	28429.14
742.124	28597.72
742.464	28395.47
742.804	28443.6
743.143	28254.91
743.483	28336.49
743.823	28130.16
744.162	28080.45
744.502	28271.18
744.841	28110.05
745.181	28239.09
745.52	28019.66
745.86	28082.93
746.199	28043.39
746.538	27985.54
746.877	27915.48
747.216	27943.28
747.556	27891.3
747.895	27952.09
748.234	27712.55
748.573	27684.07
748.911	27636.62
749.25	27653.34
749.589	27542.84
749.928	27689.05
750.267	27505.1
750.605	27507.13
750.944	27349.39
751.283	27390.52
751.621	27382.61
751.96	27150.08
752.298	27315.5
752.636	27229.4
752.975	27105.78
753.313	26958.22
753.651	27173.35
753.989	26946.69
754.327	27020.81
754.666	26737.43
755.004	26922.29
755.342	26909.86
755.679	26703.54
756.017	26562.97
756.355	26816.75
756.693	26575.85
757.031	26653.37
757.368	26556.42
757.706	26397.78
758.044	26330.44
758.381	26349.19
