Data from hue_330_FLMS001491_27.txt Node
Date: Mon Feb 06 15:45:10 GMT 2017
User: dcchb
Spectrometer: FLMS00149
Trigger mode: 0
Integration Time (sec): 2.000000E-2
Scans to average: 10
Electric dark correction enabled: true
Nonlinearity correction enabled: false
Boxcar width: 0
XAxis mode: Wavelengths
Number of Pixels in Spectrum: 2048
>>>>>Begin Spectral Data<<<<<
341.393	-25.28
341.776	-25.28
342.16	-25.28
342.543	-41.55
342.927	-65.96
343.31	-67.77
343.693	-69.8
344.077	-57.37
344.46	-70.03
344.843	-41.33
345.226	-53.98
345.61	-18.05
345.993	-14.21
346.376	4.32
346.759	-12.17
347.142	27.37
347.525	32.12
347.908	54.26
348.291	80.03
348.674	101.95
349.057	104.66
349.44	117.54
349.823	124.54
350.206	163.64
350.588	195.28
350.971	193.02
351.354	231.43
351.737	230.53
352.119	253.81
352.502	267.59
352.884	256.74
353.267	286.57
353.65	292.68
354.032	310.98
354.414	296.97
354.797	302.85
355.179	326.35
355.562	312.34
355.944	321.6
356.326	324.99
356.709	332.9
357.091	333.8
357.473	359.57
357.855	336.29
358.238	349.85
358.62	380.81
359.002	347.59
359.384	332.45
359.766	340.81
360.148	347.14
360.53	354.6
360.912	348.04
361.294	327.25
361.676	341.49
362.057	325.22
362.439	317.31
362.821	331.32
363.203	329.29
363.584	331.32
363.966	323.64
364.348	311.21
364.729	314.6
365.111	312.11
365.493	325.44
365.874	332.9
366.256	299.46
366.637	323.86
367.019	305.1
367.4	315.5
367.781	323.41
368.163	302.17
368.544	312.79
368.925	321.83
369.306	310.53
369.688	299.68
370.069	317.31
370.45	298.55
370.831	302.39
371.212	317.08
371.593	315.05
371.974	315.05
372.355	297.87
372.736	315.05
373.117	315.5
373.498	323.41
373.879	331.54
374.26	322.05
374.641	318.66
375.021	322.05
375.402	333.8
375.783	327.03
376.163	334.93
376.544	330.19
376.925	326.8
377.305	325.22
377.686	334.71
378.066	334.48
378.447	306.91
378.827	319.34
379.208	331.32
379.588	303.98
379.968	324.77
380.349	316.4
380.729	327.93
381.109	325.9
381.489	338.55
381.87	341.94
382.25	327.48
382.63	328.83
383.01	345.56
383.39	334.93
383.77	337.19
384.15	325.22
384.53	343.3
384.91	347.14
385.29	340.58
385.67	330.64
386.049	328.16
386.429	336.29
386.809	357.31
387.189	364.76
387.568	329.06
387.948	372.67
388.328	355.73
388.707	334.03
389.087	344.88
389.466	351.43
389.846	358.44
390.225	353.92
390.605	346.01
390.984	351.43
391.363	332.22
391.743	361.83
392.122	334.26
392.501	382.39
392.881	365.44
393.26	358.44
393.639	358.89
394.018	370.19
394.397	367.02
394.776	370.87
395.155	397.76
395.534	363.86
395.913	375.61
396.292	366.57
396.671	351.66
397.05	380.13
397.429	380.36
397.808	394.37
398.186	380.58
398.565	389.17
398.944	395.5
399.323	377.65
399.701	393.69
400.08	384.2
400.458	397.76
400.837	387.36
401.215	386.46
401.594	406.57
401.972	404.09
402.351	410.64
402.729	397.76
403.107	398.89
403.486	386.01
403.864	393.69
404.242	416.06
404.62	410.86
404.999	388.72
405.377	423.52
405.755	418.77
406.133	430.98
406.511	431.66
406.889	426.01
407.267	446.34
407.645	416.51
408.023	423.52
408.401	456.06
408.779	432.33
409.156	459.68
409.534	447.02
409.912	455.84
410.29	446.12
410.667	455.38
411.045	478.89
411.422	458.55
411.8	515.04
412.178	484.54
412.555	493.12
412.933	510.75
413.31	509.85
413.687	498.32
414.065	514.14
414.442	506.91
414.819	510.3
415.197	521.14
415.574	536.06
415.951	530.86
416.328	561.6
416.705	533.12
417.082	560.92
417.46	542.39
417.837	588.04
418.214	598.88
418.591	587.58
418.967	580.13
419.344	580.8
419.721	591.43
420.098	594.36
420.475	602.72
420.852	619
421.228	619.9
421.605	610.63
421.982	650.18
422.358	637.53
422.735	652.89
423.111	657.41
423.488	654.25
423.864	656.96
424.241	658.32
424.617	680.01
424.994	670.97
425.37	678.2
425.746	703.96
426.123	669.62
426.499	691.99
426.875	706.9
427.251	722.04
427.627	734.47
428.003	722.5
428.379	723.85
428.756	743.29
429.132	749.84
429.507	736.96
429.883	770.4
430.259	773.34
430.635	789.61
431.011	760.91
431.387	801.82
431.763	818.54
432.138	804.07
432.514	816.73
432.89	822.61
433.265	843.85
433.641	842.04
434.016	848.37
434.392	844.3
434.767	876.62
435.143	865.77
435.518	912.09
435.894	875.03
436.269	908.25
436.644	922.94
437.02	916.84
437.395	914.58
437.77	934.69
438.145	955.48
438.52	934.69
438.895	960.23
439.271	959.1
439.646	964.52
440.021	966.33
440.395	986.44
440.77	980.34
441.145	990.74
441.52	1024.63
441.895	1012.43
442.27	1028.25
442.645	1016.05
443.019	1003.17
443.394	1003.62
443.769	1037.74
444.143	1028.02
444.518	1035.93
444.892	1047.68
445.267	1042.94
445.641	1048.59
446.016	1095.59
446.39	1065.08
446.764	1061.47
447.139	1072.77
447.513	1041.81
447.887	1070.73
448.262	1069.15
448.636	1057.85
449.01	1107.34
449.384	1096.5
449.758	1093.11
450.132	1099.66
450.506	1115.93
450.88	1119.55
451.254	1134.69
451.628	1155.03
452.002	1115.93
452.376	1143.95
452.75	1152.77
453.123	1177.4
453.497	1155.7
453.871	1196.38
454.244	1164.29
454.618	1200.45
454.992	1209.26
455.365	1209.71
455.739	1232.31
456.112	1250.39
456.486	1252.42
456.859	1265.76
457.232	1241.13
457.606	1235.48
457.979	1250.62
458.352	1307.56
458.725	1315.25
459.099	1321.35
459.472	1304.63
459.845	1335.81
460.218	1322.93
460.591	1357.05
460.964	1345.08
461.337	1386.21
461.71	1371.29
462.083	1423.49
462.456	1408.35
462.829	1393.44
463.201	1440.67
463.574	1439.31
463.947	1436.15
464.32	1461.68
464.692	1482.25
465.065	1481.12
465.438	1495.36
465.81	1512.98
466.183	1528.8
466.555	1528.58
466.928	1548.69
467.3	1562.25
467.672	1570.38
468.045	1599.31
468.417	1600.21
468.789	1644.73
469.161	1632.3
469.534	1642.02
469.906	1668.01
470.278	1701.45
470.65	1684.5
471.022	1736.03
471.394	1735.12
471.766	1766.54
472.138	1763.82
472.51	1817.61
472.882	1830.49
473.253	1851.5
473.625	1842.01
473.997	1869.81
474.369	1902.13
474.74	1903.48
475.112	1932.18
475.484	1953.88
475.855	1999.3
476.227	1990.94
476.598	2058.73
476.97	2053.99
477.341	2102.57
477.713	2135.34
478.084	2111.39
478.455	2154.1
478.827	2178.5
479.198	2257.82
479.569	2208.11
479.94	2307.99
480.311	2298.5
480.682	2341.89
481.053	2385.73
481.424	2420.76
481.795	2413.52
482.166	2478.16
482.537	2503.47
482.908	2518.38
483.279	2536.01
483.65	2588.66
484.021	2593.86
484.391	2672.5
484.762	2674.76
485.133	2668.88
485.503	2683.35
485.874	2761.31
486.244	2780.07
486.615	2839.28
486.985	2847.19
487.356	2937.8
487.726	2926.28
488.097	2980.51
488.467	3014.19
488.837	3033.17
489.207	3053.51
489.578	3072.26
489.948	3117.01
490.318	3167.63
490.688	3188.19
491.058	3237.46
491.428	3223.45
491.798	3237.23
492.168	3325.59
492.538	3345.48
492.908	3331.24
493.278	3400.62
493.648	3402.88
494.017	3448.3
494.387	3426.38
494.757	3463.44
495.126	3522.65
495.496	3533.04
495.866	3522.42
496.235	3558.8
496.605	3626.6
496.974	3582.53
497.344	3642.19
497.713	3667.5
498.082	3677.9
498.452	3695.07
498.821	3709.54
499.19	3732.59
499.559	3733.94
499.928	3756.54
500.298	3723.77
500.667	3809.19
501.036	3813.26
501.405	3842.64
501.774	3844.9
502.143	3866.14
502.512	3882.41
502.88	3902.3
503.249	3941.39
503.618	3963.77
503.987	3977.1
504.356	3987.72
504.724	3980.94
505.093	4009.41
505.462	4003.31
505.83	4035.85
506.199	4053.71
506.567	4124.67
506.936	4088.96
507.304	4114.27
507.672	4092.58
508.041	4125.57
508.409	4156.08
508.777	4198.11
509.145	4187.71
509.514	4226.81
509.882	4234.04
510.25	4236.3
510.618	4293.25
510.986	4239.92
511.354	4311.1
511.722	4328.95
512.09	4312.91
512.458	4324.66
512.826	4300.03
513.193	4345
513.561	4347.71
513.929	4434.94
514.297	4397.65
514.664	4440.36
515.032	4431.78
515.4	4464.09
515.767	4466.8
516.135	4501.15
516.502	4417.77
516.869	4510.87
517.237	4551.1
517.604	4526.24
517.972	4538.89
518.339	4531.66
518.706	4555.39
519.073	4553.58
519.44	4575.5
519.808	4615.05
520.175	4668.15
520.542	4653.01
520.909	4670.19
521.276	4669.74
521.643	4741.15
522.009	4683.52
522.376	4702.5
522.743	4754.71
523.11	4776.4
523.477	4852.78
523.843	4815.49
524.21	4886.45
524.577	4915.83
524.943	4864.76
525.31	4951.99
525.676	4933.68
526.043	4976.62
526.409	4983.4
526.776	5052.32
527.142	5017.98
527.508	5057.97
527.874	5082.38
528.241	5079.44
528.607	5133.23
528.973	5171.87
529.339	5172.55
529.705	5193.11
530.071	5198.76
530.437	5254.81
530.803	5260.91
531.169	5323.5
531.535	5314.46
531.901	5343.39
532.267	5378.19
532.632	5382.26
532.998	5382.94
533.364	5430.39
533.73	5428.36
534.095	5490.73
534.461	5530.96
534.826	5563.05
535.192	5526.89
535.557	5616.15
535.923	5569.83
536.288	5588.13
536.653	5634.46
537.019	5648.24
537.384	5656.83
537.749	5669.26
538.114	5693.21
538.479	5735.02
538.845	5744.96
539.21	5738.18
539.575	5806.43
539.94	5831.97
540.305	5855.69
540.67	5811.85
541.034	5865.41
541.399	5878.07
541.764	5927.56
542.129	5945.41
542.494	5988.8
542.858	5991.28
543.223	5999.42
543.587	6022.69
543.952	6015.69
544.316	6082.81
544.681	6115.8
545.045	6160.54
545.41	6111.51
545.774	6163.03
546.138	6186.76
546.503	6223.59
546.867	6223.82
547.231	6291.61
547.595	6290.94
547.959	6300.65
548.324	6348.79
548.688	6337.04
549.052	6342.91
549.416	6387.43
549.779	6426.07
550.143	6431.95
550.507	6409.35
550.871	6491.16
551.235	6484.15
551.599	6541.33
551.962	6530.48
552.326	6617.93
552.689	6628.55
553.053	6579.97
553.417	6596.24
553.78	6729.57
554.143	6677.82
554.507	6673.3
554.87	6708.78
555.234	6749.68
555.597	6685.05
555.96	6778.61
556.323	6765.73
556.686	6758.27
557.05	6819.51
557.413	6817.25
557.776	6866.29
558.139	6891.6
558.502	6935.67
558.865	6877.14
559.228	6978.6
559.59	6969.79
559.953	6984.25
560.316	7050.69
560.679	7000.97
561.041	7063.12
561.404	7104.47
561.767	7127.75
562.129	7117.36
562.492	7172.95
562.854	7127.52
563.217	7186.73
563.579	7218.82
563.941	7241.65
564.304	7244.36
564.666	7316.9
565.028	7360.06
565.39	7343.56
565.753	7296.56
566.115	7412.04
566.477	7438.02
566.839	7384.24
567.201	7450.91
567.563	7498.36
567.925	7557.8
568.287	7529.55
568.648	7576.78
569.01	7550.79
569.372	7671.24
569.734	7638.47
570.095	7678.47
570.457	7739.26
570.819	7793.04
571.18	7815.19
571.542	7831.01
571.903	7899.26
572.265	7925.02
572.626	7955.07
572.987	7958.24
573.349	8052.92
573.71	8120.04
574.071	8147.16
574.432	8206.37
574.794	8281.84
575.155	8257.44
575.516	8322.75
575.877	8376.31
576.238	8425.12
576.599	8470.54
576.96	8551.44
577.32	8627.37
577.681	8749.4
578.042	8811.32
578.403	8865.11
578.763	8958.44
579.124	9049.96
579.485	9153.23
579.845	9290.18
580.206	9367.01
580.566	9503.73
580.927	9586.89
581.287	9735.82
581.648	9778.3
582.008	9963.16
582.368	10061.46
582.728	10282.7
583.089	10469.36
583.449	10565.85
583.809	10665.06
584.169	10926.29
584.529	11001.77
584.889	11308.43
585.249	11393.4
585.609	11591.14
585.969	11799.04
586.329	11973.05
586.688	12243.55
587.048	12393.83
587.408	12653.03
587.768	12810.99
588.127	13010.08
588.487	13216.18
588.846	13479.22
589.206	13741.59
589.565	14045.53
589.925	14253.89
590.284	14476.71
590.643	14814.55
591.003	14999.86
591.362	15370.47
591.721	15577.47
592.08	15837.8
592.44	16162.99
592.799	16407.05
593.158	16694.5
593.517	16957.32
593.876	17273.92
594.235	17466.91
594.593	17829.39
594.952	18053.34
595.311	18355.93
595.67	18668.69
596.029	19028.45
596.387	19265.06
596.746	19654.88
597.104	19715.89
597.463	20110.69
597.822	20408.08
598.18	20591.35
598.538	20890.1
598.897	21334.83
599.255	21407.15
599.613	21993.12
599.972	22100.69
600.33	22480.12
600.688	22634.69
601.046	23076.26
601.404	23351.5
601.762	23456.59
602.12	23988.55
602.478	24174.53
602.836	24390.57
603.194	24602.32
603.552	24853.61
603.91	25092.48
604.268	25479.81
604.625	25587.6
604.983	25936.97
605.341	25943.75
605.698	26424.87
606.056	26660.57
606.413	27003.39
606.771	27140.78
607.128	27358.4
607.485	27534.45
607.843	27794.33
608.2	28126.75
608.557	28373.29
608.914	28501.2
609.272	28797.92
609.629	29035.87
609.986	29256.89
610.343	29416.66
610.7	29669.53
611.057	29820.26
611.414	30015.28
611.771	30215.28
612.127	30529.17
612.484	30744.53
612.841	30962.15
613.198	30916.5
613.554	31003.28
613.911	31452.76
614.267	31632.87
614.624	31763.26
614.98	31889.81
615.337	32022.69
615.693	32188.56
616.05	32384.26
616.406	32715.55
616.762	32576.8
617.118	32794.65
617.475	32906.28
617.831	33302.2
618.187	33308.53
618.543	33428.3
618.899	33744
619.255	33689.31
619.611	33821.74
619.967	34104.67
620.323	34091.56
620.678	34127.27
621.034	34164.1
621.39	34209.98
621.746	34402.06
622.101	34854.25
622.457	34654.71
622.812	34807.25
623.168	34909.17
623.523	35138.09
623.879	35277.74
624.234	35070.29
624.589	35326.11
624.945	35458.08
625.3	35500.11
625.655	35510.51
626.01	35587.79
626.365	35826.88
626.72	35779.2
627.075	35867.33
627.43	35954.56
627.785	35864.85
628.14	35977.39
628.495	36183.94
628.85	36086.09
629.205	36022.13
629.559	36426.64
629.914	36220.54
630.269	36306.42
630.623	36311.16
630.978	36342.8
631.332	36514.55
631.687	36668.89
632.041	36407.43
632.396	36701.44
632.75	36444.27
633.104	36580.31
633.459	36521.1
633.813	36441.1
634.167	36568.11
634.521	36580.08
634.875	36720.64
635.229	36559.74
635.583	36554.32
635.937	36406.53
636.291	36554.77
636.645	36677.71
636.999	36540.08
637.352	36747.08
637.706	36586.41
638.06	36856.91
638.413	36600.42
638.767	36553.87
639.121	36564.26
639.474	36503.7
639.828	36348.45
640.181	36486.53
640.534	36671.61
640.888	36438.62
641.241	36425.74
641.594	36465.96
641.947	36615.11
642.301	36420.99
642.654	36440.88
643.007	36532.63
643.36	36538.73
643.713	36389.13
644.066	36512.51
644.419	36375.57
644.771	36251.05
645.124	35850.16
645.477	35673.21
645.83	35698.07
646.182	35460.56
646.535	35341.02
646.888	35398.19
647.24	35242.94
647.593	35453.79
647.945	35416.05
648.298	35228.25
648.65	35136.96
649.002	35289.72
649.355	35339.66
649.707	35238.2
650.059	35489.49
650.411	35911.17
650.763	35979.42
651.115	36201.34
651.467	36152.52
651.819	36180.09
652.171	36140.55
652.523	35970.38
652.875	36037.27
653.227	35860.78
653.578	36142.13
653.93	36131.51
654.282	36011.74
654.633	35786.43
654.985	36003.38
655.337	36089.25
655.688	36067.55
656.039	36084.73
656.391	35793.44
656.742	35871.4
657.094	36008.8
657.445	36071.85
657.796	35863.94
658.147	35794.57
658.498	35860.78
658.849	35955.24
659.2	35638.87
659.551	35750.05
659.902	35903.94
660.253	35861.23
660.604	35851.29
660.955	35572.88
661.306	35821.46
661.656	35599.32
662.007	35791.18
662.358	35704.4
662.708	35603.39
663.059	35670.73
663.409	35409.72
663.76	35821.01
664.11	35710.05
664.461	35759.54
664.811	35728.35
665.161	35741.01
665.511	35641.8
665.862	35761.35
666.212	35783.49
666.562	35842.25
666.912	35862.36
667.262	35672.76
667.612	35634.12
667.962	35723.38
668.312	35679.09
668.662	35691.07
669.011	35738.3
669.361	35597.51
669.711	35610.39
670.06	35487.46
670.41	35666.89
670.76	35494.01
671.109	35540.79
671.459	35550.96
671.808	35482.03
672.157	35569.26
672.507	35369.95
672.856	35567.23
673.205	35324.52
673.554	35527.23
673.904	35465.76
674.253	35603.39
674.602	35462.82
674.951	34942.39
675.3	34633.02
675.649	35357.52
675.998	35358.65
676.346	35310.29
676.695	35485.65
677.044	35140.12
677.393	35326.33
677.741	35308.03
678.09	35191.19
678.438	34995.94
678.787	35129.5
679.135	35199.78
679.484	34934.48
679.832	35055.83
680.181	34882.95
680.529	35093.57
680.877	34894.25
681.225	34824.88
681.573	35161.36
681.922	34768.83
682.27	34687.7
682.618	34739
682.966	34564.54
683.314	34699.68
683.661	34644.54
684.009	34544.43
684.357	34501.95
684.705	34421.5
685.053	34386.69
685.4	34492.23
685.748	34302.4
686.095	34134.72
686.443	34129.3
686.79	34114.84
687.138	34113.93
687.485	34068.74
687.832	33957.55
688.18	33919.59
688.527	33764.79
688.874	33734.96
689.221	33652.93
689.568	33643.21
689.915	33551.46
690.262	33593.5
690.609	33389.88
690.956	33443.89
691.303	33341.52
691.65	33222.43
691.997	33194.41
692.344	32996.45
692.69	33163.45
693.037	32934.98
693.383	32755.55
693.73	32886.17
694.077	32676.68
694.423	32712.84
694.769	32560.98
695.116	32563.69
695.462	32464.26
695.808	32284.83
696.155	32366.86
696.501	32178.39
696.847	32192.18
697.193	31988.34
697.539	32092.74
697.885	31891.39
698.231	31727.78
698.577	31778.18
698.923	31755.8
699.269	31523.49
699.614	31382.25
699.96	31394.68
700.306	31393.33
700.651	31332.54
700.997	31165.76
701.342	31214.35
701.688	31076.05
702.033	30977.07
702.379	30884.41
702.724	30865.21
703.069	31014.35
703.415	30569.62
703.76	30644.42
704.105	30562.61
704.45	30589.51
704.795	30318.55
705.14	30340.7
705.485	30303.19
705.83	30052.35
706.175	30182.29
706.52	29956.3
706.865	29963.53
707.209	29970.31
707.554	29897.55
707.899	29860.03
708.243	29684.22
708.588	29745.46
708.932	29601.96
709.277	29411.91
709.621	29540.27
709.966	29282.42
710.31	29385.7
710.654	29044.01
710.998	29163.78
711.342	29164.69
711.687	29122.65
712.031	28933.05
712.375	28925.82
712.719	28951.13
713.063	28776.9
713.407	28947.97
713.75	28702.32
714.094	28643.57
714.438	28595.21
714.782	28581.42
715.125	28390.69
715.469	28470.69
715.812	28455.78
716.156	28397.25
716.499	28295.78
716.843	28216.46
717.186	28105.05
717.53	28254.2
717.873	28235.22
718.216	28152.51
718.559	27993.19
718.902	27903.48
719.246	27937.37
719.589	27685.4
719.932	27722.46
720.275	27783.03
720.617	27605.86
720.96	27643.6
721.303	27622.58
721.646	27702.8
721.989	27465.75
722.331	27532.19
722.674	27477.95
723.016	27518.17
723.359	27461.91
723.701	27420.55
724.044	27226.88
724.386	27110.95
724.729	27322.47
725.071	27114.34
725.413	27105.98
725.755	27137.39
726.097	26965.87
726.439	26916.38
726.782	26962.48
727.124	26960.22
727.465	26842.49
727.807	26949.15
728.149	26738.76
728.491	26698.31
728.833	26795.71
729.175	26704.18
729.516	26465.1
729.858	26536.28
730.199	26554.13
730.541	26626.67
730.882	26415.38
731.224	26499.22
731.565	26348.94
731.906	26244.08
732.248	26317.08
732.589	26166.57
732.93	26150.75
733.271	26175.84
733.612	26089.51
733.953	26106.69
734.294	25954.6
734.635	25900.14
734.976	25956.63
735.317	25874.83
735.658	25854.72
735.999	25889.52
736.339	25797.99
736.68	25862.63
737.021	25652.69
737.361	25680.26
737.702	25727.26
738.042	25741.05
738.383	25583.31
738.723	25564.78
739.063	25566.14
739.404	25513.03
739.744	25540.15
740.084	25355.07
740.424	25466.7
740.764	25408.85
741.104	25478.91
741.444	25346.93
741.784	25202.3
742.124	25256.31
742.464	25247.27
742.804	25162.98
743.143	24992.14
743.483	25178.8
743.823	24986.04
744.162	24926.6
744.502	24998.69
744.841	24924.8
745.181	24909.88
745.52	24936.1
745.86	24932.48
746.199	24860.62
746.538	24817
746.877	24800.51
747.216	24730
747.556	24728.87
747.895	24602.55
748.234	24519.38
748.573	24582.88
748.911	24533.62
749.25	24446.84
749.589	24438.48
749.928	24498.14
750.267	24416.11
750.605	24209.79
750.944	24220.18
751.283	24193.52
751.621	24242.55
751.96	24081.88
752.298	24014.09
752.636	24075.78
752.975	23889.8
753.313	23908.1
753.651	23989.45
753.989	23843.7
754.327	23788.33
754.666	23706.98
755.004	23609.8
755.342	23816.8
755.679	23685.73
756.017	23579.97
756.355	23582.01
756.693	23409.81
757.031	23441.45
757.368	23440.99
757.706	23403.25
758.044	23273.54
758.381	23296.59
758.719	23192.41
759.056	23179.31
759.394	22982.93
759.731	22993.77
760.068	22937.28
