Data from hue_120_FLMS001491_00045.txt Node
Date: Tue Feb 07 16:59:26 GMT 2017
User: dcchb
Spectrometer: FLMS00149
Trigger mode: 0
Integration Time (sec): 2.000000E-2
Scans to average: 10
Electric dark correction enabled: true
Nonlinearity correction enabled: false
Boxcar width: 0
XAxis mode: Wavelengths
Number of Pixels in Spectrum: 2048
>>>>>Begin Spectral Data<<<<<
341.393	-16.45
341.776	-16.45
342.16	-16.45
342.543	-60.3
342.927	-51.93
343.31	-63.68
343.693	-78.15
344.077	-78.83
344.46	-76.79
344.843	-64.59
345.226	-52.61
345.61	-18.71
345.993	-20.52
346.376	3.21
346.759	20.83
347.142	36.88
347.525	12.92
347.908	56.99
348.291	96.99
348.674	104.45
349.057	121.62
349.44	152.58
349.823	143.99
350.206	141.06
350.588	200.49
350.971	192.35
351.354	230.32
351.737	238.45
352.119	231.45
352.502	256.76
352.884	284.1
353.267	295.4
353.65	282.29
354.032	301.96
354.414	318.68
354.797	296.08
355.179	325.01
355.562	331.11
355.944	315.97
356.326	329.75
356.709	345.57
357.091	312.8
357.473	341.05
357.855	341.05
358.238	367.49
358.62	327.49
359.002	355.97
359.384	333.82
359.766	349.86
360.148	342.41
360.53	359.81
360.912	332.69
361.294	349.64
361.676	347.15
362.057	344.89
362.439	339.02
362.821	348.51
363.203	329.98
363.584	347.38
363.966	328.17
364.348	316.19
364.729	325.91
365.111	322.97
365.493	310.32
365.874	308.06
366.256	320.26
366.637	315.74
367.019	303.54
367.4	313.48
367.781	323.2
368.163	306.93
368.544	312.58
368.925	327.72
369.306	323.88
369.688	320.71
370.069	318.9
370.45	335.17
370.831	330.88
371.212	318.45
371.593	331.11
371.974	305.57
372.355	318
372.736	324.55
373.117	333.59
373.498	302.86
373.879	327.49
374.26	315.06
374.641	319.81
375.021	338.79
375.402	328.4
375.783	336.53
376.163	331.79
376.544	337.66
376.925	327.94
377.305	334.27
377.686	330.43
378.066	332.46
378.447	347.15
378.827	318
379.208	339.92
379.588	325.68
379.968	352.35
380.349	344.21
380.729	318
381.109	332.69
381.489	339.24
381.87	333.59
382.25	357.1
382.63	345.57
383.01	328.62
383.39	360.03
383.77	344.44
384.15	363.2
384.53	324.1
384.91	353.48
385.29	349.19
385.67	347.15
386.049	372.24
386.429	346.02
386.809	362.52
387.189	353.48
387.568	367.94
387.948	368.39
388.328	365.91
388.707	362.97
389.087	370.88
389.466	364.33
389.846	390.77
390.225	378.79
390.605	391.67
390.984	398
391.363	383.08
391.743	383.76
392.122	393.25
392.501	385.57
392.881	375.63
393.26	389.86
393.639	394.83
394.018	396.64
394.397	407.72
394.776	416.53
395.155	401.16
395.534	393.25
395.913	406.36
396.292	440.48
396.671	423.53
397.05	415.17
397.429	419.47
397.808	395.06
398.186	409.52
398.565	408.17
398.944	397.77
399.323	410.2
399.701	404.1
400.08	429.86
400.458	414.95
400.837	411.78
401.215	428.73
401.594	428.51
401.972	431.22
402.351	438.9
402.729	425.79
403.107	447.71
403.486	450.43
403.864	437.77
404.242	462.4
404.62	454.04
404.999	440.93
405.377	459.24
405.755	449.75
406.133	470.31
406.511	464.66
406.889	478.9
407.267	490.2
407.645	485.91
408.023	472.12
408.401	486.13
408.779	469.63
409.156	491.55
409.534	499.46
409.912	482.97
410.29	479.35
410.667	503.08
411.045	504.66
411.422	490.88
411.8	511.67
412.178	504.89
412.555	515.28
412.933	518.67
413.31	555.28
413.687	525.9
414.065	539.24
414.442	534.04
414.819	541.27
415.197	558.67
415.574	541.27
415.951	556.64
416.328	554.83
416.705	570.65
417.082	561.16
417.46	547.6
417.837	570.87
418.214	578.56
418.591	576.07
418.967	581.5
419.344	581.95
419.721	586.69
420.098	589.18
420.475	593.93
420.852	595.96
421.228	596.18
421.605	606.13
421.982	601.61
422.358	617.88
422.735	649.29
423.111	620.82
423.488	614.04
423.864	627.14
424.241	637.09
424.617	656.75
424.994	668.73
425.37	675.5
425.746	673.7
426.123	679.8
426.499	670.76
426.875	680.48
427.251	676.63
427.627	673.47
428.003	701.94
428.379	692.23
428.756	715.05
429.132	719.12
429.507	712.34
429.883	722.06
430.259	756.63
430.635	717.09
431.011	729.06
431.387	741.72
431.763	755.73
432.138	761.83
432.514	803.86
432.89	773.36
433.265	787.14
433.641	764.09
434.016	789.17
434.392	806.35
434.767	825.78
435.143	814.71
435.518	857.19
435.894	842.73
436.269	840.25
436.644	838.89
437.02	872.56
437.395	840.02
437.77	873.69
438.145	877.76
438.52	877.53
438.895	889.96
439.271	921.15
439.646	924.99
440.021	922.5
440.395	914.82
440.77	915.27
441.145	904.65
441.52	955.72
441.895	960.24
442.27	958.44
442.645	960.02
443.019	989.85
443.394	1005.21
443.769	996.63
444.143	998.89
444.518	1029.62
444.892	1009.28
445.267	1009.96
445.641	1000.24
446.016	1041.14
446.39	1017.42
446.764	1035.72
447.139	1056.06
447.513	1042.05
447.887	1053.35
448.262	1056.51
448.636	1066.91
449.01	1073.46
449.384	1082.95
449.758	1097.87
450.132	1079.79
450.506	1106.23
450.88	1126.79
451.254	1098.32
451.628	1131.76
452.002	1136.96
452.376	1140.58
452.75	1161.82
453.123	1169.96
453.497	1214.47
453.871	1223.29
454.244	1228.03
454.618	1209.5
454.992	1252.89
455.365	1253.12
455.739	1286.34
456.112	1273.46
456.486	1308.26
456.859	1331.76
457.232	1341.93
457.606	1333.34
457.979	1374.02
458.352	1376.5
458.725	1398.88
459.099	1390.51
459.472	1444.3
459.845	1432.32
460.218	1440.91
460.591	1479.33
460.964	1475.26
461.337	1499.44
461.71	1550.74
462.083	1595.71
462.456	1609.04
462.829	1570.85
463.201	1597.29
463.574	1586.89
463.947	1651.75
464.32	1679.09
464.692	1680.22
465.065	1717.96
465.438	1773.56
465.81	1754.12
466.183	1812.42
466.555	1857.17
466.928	1845.64
467.3	1863.5
467.672	1875.47
468.045	1964.96
468.417	1941.69
468.789	1978.75
469.161	1997.05
469.534	2071.4
469.906	2078.41
470.278	2153.66
470.65	2133.77
471.022	2213.32
471.394	2255.35
471.766	2299.87
472.138	2337.38
472.51	2338.29
472.882	2418.06
473.253	2450.6
473.625	2493.76
473.997	2600.2
474.369	2599.97
474.74	2617.15
475.112	2715
475.484	2815.11
475.855	2867.31
476.227	2890.14
476.598	3009
476.97	3047.19
477.341	3155.89
477.713	3193.4
478.084	3261.88
478.455	3383.46
478.827	3444.25
479.198	3568.76
479.569	3617.8
479.94	3717.46
480.311	3812.82
480.682	3941.63
481.053	4031.12
481.424	4122.87
481.795	4225.24
482.166	4356.76
482.537	4412.58
482.908	4597.21
483.279	4671.33
483.65	4812.35
484.021	4937.77
484.391	5068.84
484.762	5166.69
485.133	5228.15
485.503	5395.83
485.874	5538.65
486.244	5656.62
486.615	5781.59
486.985	5943.16
487.356	6099.54
487.726	6183.83
488.097	6367.33
488.467	6517.61
488.837	6670.15
489.207	6885.51
489.578	7010.71
489.948	7088.67
490.318	7298.83
490.688	7362.33
491.058	7604.14
491.428	7797.13
491.798	7881.42
492.168	8150.34
492.538	8238.47
492.908	8417.67
493.278	8545.35
493.648	8608.63
494.017	8828.06
494.387	8993.03
494.757	9154.15
495.126	9302.17
495.496	9378.1
495.866	9530.87
496.235	9704.65
496.605	9839.56
496.974	9908.71
497.344	10148.02
497.713	10210.62
498.082	10360.67
498.452	10524.51
498.821	10552.76
499.19	10706.65
499.559	10831.4
499.928	10984.61
500.298	11028
500.667	11218.28
501.036	11258.96
501.405	11413.75
501.774	11442.68
502.143	11614.43
502.512	11695.1
502.88	11844.48
503.249	11921.76
503.618	11953.4
503.987	12068.88
504.356	12148.88
504.724	12264.8
505.093	12433.84
505.462	12540.5
505.83	12493.05
506.199	12673.83
506.567	12775.53
506.936	12851
507.304	13014.39
507.672	13108.62
508.041	13132.35
508.409	13207.15
508.777	13296.64
509.145	13421.38
509.514	13386.36
509.882	13533.7
510.25	13596.97
510.618	13616.86
510.986	13763.07
511.354	13880.13
511.722	13910.19
512.09	14000.58
512.458	14001.93
512.826	14187.47
513.193	14132.55
513.561	14269.95
513.929	14285.54
514.297	14388.14
514.664	14457.29
515.032	14558.98
515.4	14499.1
515.767	14611.86
516.135	14701.12
516.502	14588.13
516.869	14804.4
517.237	14866.09
517.604	14761.24
517.972	14949.71
518.339	15004.39
518.706	14977.95
519.073	15034.22
519.44	15045.97
519.808	15176.37
520.175	15130.49
520.542	15318.06
520.909	15338.4
521.276	15289.36
521.643	15444.83
522.009	15491.84
522.376	15450.03
522.743	15509.69
523.11	15678.95
523.477	15762.79
523.843	15737.26
524.21	15864.03
524.577	15974.99
524.943	15953.75
525.31	15920.75
525.676	16054.08
526.043	16038.94
526.409	16165.72
526.776	16220.63
527.142	16153.97
527.508	16261.54
527.874	16320.74
528.241	16374.98
528.607	16295.89
528.973	16468.31
529.339	16344.92
529.705	16462.43
530.071	16473.73
530.437	16475.54
530.803	16534.3
531.169	16534.97
531.535	16497.01
531.901	16471.02
532.267	16492.26
532.632	16591.24
532.998	16468.99
533.364	16586.72
533.73	16526.39
534.095	16556.44
534.461	16562.54
534.826	16629.21
535.192	16587.63
535.557	16638.02
535.923	16607.06
536.288	16568.42
536.653	16630.34
537.019	16517.12
537.384	16429.44
537.749	16502.21
538.114	16468.08
538.479	16485.71
538.845	16440.06
539.21	16328.2
539.575	16374.3
539.94	16408.42
540.305	16453.85
540.67	16320.52
541.034	16305.6
541.399	16394.41
541.764	16375.21
542.129	16345.83
542.494	16226.06
542.858	16257.24
543.223	16191.48
543.587	16214.08
543.952	16185.61
544.316	16250.91
544.681	16162.56
545.045	16138.6
545.41	16099.05
545.774	16151.93
546.138	16019.06
546.503	16058.38
546.867	15985.16
547.231	15989.23
547.595	16018.15
547.959	15900.87
548.324	15937.48
548.688	15905.84
549.052	15883.01
549.416	15854.54
549.779	15865.61
550.143	15820.42
550.507	15857.7
550.871	15800.53
551.235	15746.97
551.599	15804.37
551.962	15727.99
552.326	15811.6
552.689	15810.47
553.053	15715.56
553.417	15591.72
553.78	15878.49
554.143	15625.85
554.507	15679.4
554.87	15720.98
555.234	15771.61
555.597	15538.39
555.96	15629.91
556.323	15566.19
556.686	15537.71
557.05	15619.52
557.413	15607.77
557.776	15614.77
558.139	15608.67
558.502	15691.61
558.865	15593.98
559.228	15740.65
559.59	15677.14
559.953	15659.74
560.316	15771.61
560.679	15747.42
561.041	15788.55
561.404	15773.64
561.767	15834.65
562.129	15776.35
562.492	15820.87
562.854	15812.06
563.217	15745.62
563.579	15871.49
563.941	15886.18
564.304	15844.15
564.666	15989.68
565.028	15826.29
565.39	15885.05
565.753	15991.03
566.115	15973.63
566.477	16076
566.839	16076.23
567.201	16046.4
567.563	16064.03
567.925	16166.85
568.287	16126.17
568.648	16126.17
569.01	16180.63
569.372	16240.52
569.734	16198.71
570.095	16239.39
570.457	16252.72
570.819	16261.08
571.18	16250.24
571.542	16355.09
571.903	16386.28
572.265	16351.93
572.626	16397.35
572.987	16388.31
573.349	16440.74
573.71	16507.86
574.071	16483.9
574.432	16444.81
574.794	16625.59
575.155	16558.48
575.516	16448.42
575.877	16527.07
576.238	16537.46
576.599	16630.57
576.96	16603.45
577.32	16625.82
577.681	16690.22
578.042	16579.72
578.403	16687.74
578.763	16653.39
579.124	16625.82
579.485	16751.69
579.845	16732.48
580.206	16727.06
580.566	16617.46
580.927	16701.52
581.287	16800.5
581.648	16667.63
582.008	16717.34
582.368	16742.43
582.728	16628.31
583.089	16690.9
583.449	16703.11
583.809	16642.54
584.169	16667.63
584.529	16531.81
584.889	16750.11
585.249	16648.19
585.609	16542.66
585.969	16633.28
586.329	16595.99
586.688	16645.48
587.048	16556.22
587.408	16608.42
587.768	16597.35
588.127	16548.08
588.487	16545.82
588.846	16650
589.206	16546.5
589.565	16394.87
589.925	16493.85
590.284	16542.43
590.643	16460.85
591.003	16498.59
591.362	16578.82
591.721	16509.44
592.08	16510.34
592.44	16547.18
592.799	16512.83
593.158	16479.84
593.517	16587.85
593.876	16471.02
594.235	16523.45
594.593	16495.43
594.952	16502.66
595.311	16455.2
595.67	16451.59
596.029	16581.08
596.387	16517.57
596.746	16617.01
597.104	16425.37
597.463	16324.36
597.822	16388.31
598.18	16392.61
598.538	16389.44
598.897	16449.33
599.255	16376.11
599.613	16526.61
599.972	16393.51
600.33	16492.49
600.688	16428.08
601.046	16456.56
601.404	16483.9
601.762	16514.41
602.12	16506.73
602.478	16522.55
602.836	16476.67
603.194	16360.97
603.552	16478.93
603.91	16318.26
604.268	16410.23
604.625	16361.42
604.983	16508.53
605.341	16468.31
605.698	16477.12
606.056	16491.36
606.413	16417.01
606.771	16550.34
607.128	16488.65
607.485	16463.34
607.843	16456.11
608.2	16588.08
608.557	16545.37
608.914	16552.38
609.272	16602.32
609.629	16656.1
609.986	16619.04
610.343	16564.58
610.7	16765.25
611.057	16734.52
611.414	16690.22
611.771	16650.45
612.127	16727.06
612.484	16747.4
612.841	16752.37
613.198	16812.71
613.554	16652.49
613.911	16758.7
614.267	16697.91
614.624	16770.9
614.98	16790.34
615.337	16862.42
615.693	16741.3
616.05	16743.78
616.406	16901.29
616.762	16775.87
617.118	16788.75
617.475	16868.53
617.831	16880.95
618.187	16923.89
618.543	16932.93
618.899	16935.64
619.255	16914.17
619.611	16933.16
619.967	16963.66
620.323	17083.43
620.678	16937.45
621.034	16954.62
621.39	16983.32
621.746	16901.07
622.101	17109.42
622.457	16954.4
622.812	17083.21
623.168	17032.59
623.523	16987.62
623.879	17064.68
624.234	16964.34
624.589	16994.4
624.945	17024.23
625.3	16943.33
625.655	17001.18
626.01	17050.22
626.365	16942.42
626.72	16933.16
627.075	16946.49
627.43	16960.05
627.785	17044.79
628.14	17103.32
628.495	17035.07
628.85	16875.76
629.205	16856.55
629.559	16950.56
629.914	16882.31
630.269	16882.08
630.623	16953.49
630.978	16801.18
631.332	16978.13
631.687	17046.15
632.041	16855.87
632.396	16872.14
632.75	16813.61
633.104	16795.53
633.459	16710.34
633.813	16741.75
634.167	16770.45
634.521	16792.37
634.875	16682.09
635.229	16691.81
635.583	16583.79
635.937	16629.44
636.291	16611.81
636.645	16689.1
636.999	16525.03
637.352	16598.25
637.706	16475.99
638.06	16536.56
638.413	16557.35
638.767	16521.64
639.121	16574.52
639.474	16375.43
639.828	16378.59
640.181	16378.37
640.534	16375.66
640.888	16377.46
641.241	16352.83
641.594	16343.34
641.947	16391.48
642.301	16328.2
642.654	16316.22
643.007	16294.08
643.36	16287.52
643.713	16341.31
644.066	16304.02
644.419	16277.35
644.771	16090.69
645.124	16046.85
645.477	15934.54
645.83	15877.14
646.182	15843.69
646.535	15754.88
646.888	15890.47
647.24	15619.52
647.593	15746.52
647.945	15716.92
648.298	15730.25
648.65	15666.98
649.002	15603.25
649.355	15736.58
649.707	15619.74
650.059	15837.82
650.411	15955.56
650.763	15976.12
651.115	16092.95
651.467	16119.84
651.819	16074.87
652.171	16001.88
652.523	16005.5
652.875	15980.87
653.227	15949.45
653.578	15975.67
653.93	16041.2
654.282	15981.09
654.633	15980.64
654.985	16005.27
655.337	15971.6
655.688	16007.98
656.039	16100.64
656.391	15937.48
656.742	16013.18
657.094	15985.38
657.445	15961.66
657.796	15991.26
658.147	16018.15
658.498	16003.24
658.849	16080.07
659.2	16009.11
659.551	16069.22
659.902	16071.94
660.253	16007.08
660.604	15953.3
660.955	15961.43
661.306	16058.6
661.656	16076
662.007	16050.47
662.358	16042.33
662.708	16058.83
663.059	16084.37
663.409	15983.8
663.76	16178.83
664.11	16104.03
664.461	16025.38
664.811	16053.63
665.161	16142.44
665.511	16006.85
665.862	16018.6
666.212	16073.97
666.562	16123.01
666.912	16069
667.262	15972.73
667.612	16037.81
667.962	16041.2
668.312	15950.81
668.662	16096.34
669.011	16036.46
669.361	15883.92
669.711	15939.28
670.06	15986.29
670.41	15877.37
670.76	15908.55
671.109	15948.55
671.459	15981.09
671.808	15903.8
672.157	15991.71
672.507	15854.31
672.856	15848.89
673.205	15858.38
673.554	15928.66
673.904	15844.6
674.253	15897.7
674.602	15895.22
674.951	15680.76
675.3	15566.19
675.649	15883.01
675.998	15841.43
676.346	15850.02
676.695	15850.93
677.044	15668.56
677.393	15751.49
677.741	15745.84
678.09	15745.17
678.438	15758.05
678.787	15702.68
679.135	15710.82
679.484	15610.03
679.832	15540.42
680.181	15625.39
680.529	15515.57
680.877	15481.9
681.225	15511.05
681.573	15639.41
681.922	15426.3
682.27	15424.95
682.618	15429.24
682.966	15392.63
683.314	15447.09
683.661	15265.18
684.009	15233.31
684.357	15242.81
684.705	15262.92
685.053	15272.18
685.4	15172.98
685.748	15092.98
686.095	15114.22
686.443	15030.16
686.79	14966.2
687.138	14984.06
687.485	15036.26
687.832	14918.29
688.18	14925.07
688.527	14814.12
688.874	14828.35
689.221	14744.74
689.568	14786.32
689.915	14710.16
690.262	14722.14
690.609	14699.32
690.956	14636.27
691.303	14525.08
691.65	14469.27
691.997	14470.4
692.344	14316.73
692.69	14352.43
693.037	14321.47
693.383	14279.67
693.73	14210.29
694.077	14230.85
694.423	14191.31
694.769	14085.77
695.116	14079.67
695.462	13996.28
695.808	14025.44
696.155	14062.05
696.501	13919.9
696.847	13908.15
697.193	13807.14
697.539	13799.45
697.885	13753.13
698.231	13661.15
698.577	13633.13
698.923	13752.68
699.269	13574.15
699.614	13422.74
699.96	13478.33
700.306	13396.3
700.651	13345.68
700.997	13208.51
701.342	13190.66
701.688	13204.67
702.033	13118.34
702.379	13161.73
702.724	13150.43
703.069	13141.84
703.415	12914.51
703.76	12965.35
704.105	13020.04
704.45	12864.79
704.795	12820.72
705.14	12807.39
705.485	12785.47
705.83	12739.37
706.175	12705.92
706.52	12690.56
706.865	12640.61
707.209	12645.59
707.554	12549.09
707.899	12586.38
708.243	12523.1
708.588	12574.85
708.932	12413.95
709.277	12434.29
709.621	12337.8
709.966	12334.86
710.31	12339.38
710.654	12225.03
710.998	12196.11
711.342	12271.36
711.687	12124.02
712.031	12109.78
712.375	12145.03
712.719	12039.5
713.063	12085.15
713.407	12086.28
713.75	12106.84
714.094	12107.07
714.438	11939.62
714.782	11992.5
715.125	11998.6
715.469	11945.27
715.812	11883.35
716.156	11805.61
716.499	11774.2
716.843	11737.13
717.186	11738.94
717.53	11843.12
717.873	11833.63
718.216	11712.73
718.559	11718.38
718.902	11604.26
719.246	11595.67
719.589	11624.37
719.932	11508.44
720.275	11548.89
720.617	11592.96
720.96	11594.99
721.303	11585.5
721.646	11555.44
721.989	11485.84
722.331	11560.64
722.674	11469.35
723.016	11445.17
723.359	11409.01
723.701	11418.73
724.044	11348.44
724.386	11352.06
724.729	11397.26
725.071	11392.29
725.413	11347.99
725.755	11359.52
726.097	11286.3
726.439	11280.2
726.782	11270.03
727.124	11281.78
727.465	11327.43
727.807	11266.19
728.149	11191.61
728.491	11258.05
728.833	11326.52
729.175	11202.69
729.516	11213.31
729.858	11208.56
730.199	11220.99
730.541	11261.44
730.882	11188
731.224	11153.87
731.565	11121.78
731.906	11179.64
732.248	11202.46
732.589	11082.01
732.93	11175.12
733.271	11120.65
733.612	11178.05
733.953	11113.2
734.294	11086.08
734.635	11111.39
734.976	11130.15
735.317	11026.19
735.658	11060.09
735.999	11099.86
736.339	11126.08
736.68	11224.15
737.021	11122.24
737.361	11039.53
737.702	11149.58
738.042	11177.15
738.383	11066.42
738.723	11133.31
739.063	11115.46
739.404	11150.94
739.744	11148.68
740.084	11080.65
740.424	11131.28
740.764	11133.08
741.104	11201.1
741.444	11137.15
741.784	11151.84
742.124	11202.01
742.464	11171.27
742.804	11205.17
743.143	11227.77
743.483	11230.26
743.823	11275.9
744.162	11253.76
744.502	11264.38
744.841	11270.25
745.181	11410.59
745.52	11384.15
745.86	11480.87
746.199	11483.81
746.538	11456.01
746.877	11530.36
747.216	11601.77
747.556	11678.15
747.895	11708.66
748.234	11688.32
748.573	11841.09
748.911	11914.08
749.25	11892.16
749.589	11900.07
749.928	11983.46
750.267	12137.35
750.605	12224.13
750.944	12226.16
751.283	12257.35
751.621	12316.1
751.96	12380.73
752.298	12489.21
752.636	12622.76
752.975	12706.37
753.313	12798.12
753.651	12958.57
753.989	12985.69
754.327	13117.44
754.666	13166.02
755.004	13246.25
755.342	13414.38
755.679	13604.2
