Data from hue_90_FLMS001491_77.txt Node
Date: Mon Feb 06 15:25:38 GMT 2017
User: dcchb
Spectrometer: FLMS00149
Trigger mode: 0
Integration Time (sec): 2.000000E-2
Scans to average: 10
Electric dark correction enabled: true
Nonlinearity correction enabled: false
Boxcar width: 0
XAxis mode: Wavelengths
Number of Pixels in Spectrum: 2048
>>>>>Begin Spectral Data<<<<<
341.393	-6.33
341.776	-6.33
342.16	-6.33
342.543	-64.18
342.927	-50.39
343.31	-81.13
343.693	-66.44
344.077	-66.89
344.46	-58.08
344.843	-66.66
345.226	-33.9
345.61	-13.33
345.993	-18.76
346.376	-25.76
346.759	0.45
347.142	37.29
347.525	47
347.908	47.23
348.291	87
348.674	86.1
349.057	125.87
349.44	124.97
349.823	127.45
350.206	169.49
350.588	171.52
350.971	206.32
351.354	218.98
351.737	229.82
352.119	255.13
352.502	277.51
352.884	257.39
353.267	279.77
353.65	283.16
354.032	300.33
354.414	316.6
354.797	308.47
355.179	298.3
355.562	330.61
355.944	307.11
356.326	318.64
356.709	327
357.091	315.47
357.473	347.79
357.855	333.78
358.238	323.61
358.62	345.3
359.002	326.55
359.384	336.71
359.766	331.74
360.148	316.6
360.53	335.58
360.912	338.97
361.294	309.82
361.676	328.13
362.057	324.06
362.439	319.77
362.821	338.97
363.203	338.75
363.584	314.12
363.966	330.16
364.348	306.66
364.729	311.63
365.111	324.74
365.493	326.32
365.874	319.09
366.256	324.74
366.637	322.48
367.019	333.1
367.4	303.49
367.781	308.01
368.163	320.67
368.544	292.65
368.925	308.69
369.306	312.99
369.688	326.09
370.069	314.57
370.45	305.3
370.831	300.78
371.212	315.25
371.593	295.59
371.974	285.19
372.355	305.08
372.736	327.9
373.117	325.42
373.498	306.21
373.879	317.28
374.26	317.73
374.641	312.53
375.021	295.13
375.402	320.67
375.783	301.69
376.163	321.57
376.544	320.9
376.925	320.22
377.305	334.45
377.686	311.63
378.066	327.9
378.447	330.16
378.827	309.37
379.208	322.48
379.588	313.66
379.968	336.71
380.349	348.47
380.729	342.59
381.109	338.52
381.489	343.27
381.87	322.7
382.25	339.43
382.63	338.3
383.01	327
383.39	355.92
383.77	328.58
384.15	327.45
384.53	324.51
384.91	336.71
385.29	341.46
385.67	350.73
386.049	332.65
386.429	333.32
386.809	352.53
387.189	351.4
387.568	334.23
387.948	362.48
388.328	357.5
388.707	341.69
389.087	359.99
389.466	359.99
389.846	328.58
390.225	358.63
390.605	345.98
390.984	367.67
391.363	374.68
391.743	346.66
392.122	366.09
392.501	338.75
392.881	360.67
393.26	377.17
393.639	392.08
394.018	376.26
394.397	363.15
394.776	373.55
395.155	363.15
395.534	387.33
395.913	371.74
396.292	384.4
396.671	367.9
397.05	368.8
397.429	380.55
397.808	372.87
398.186	400.22
398.565	392.98
398.944	386.2
399.323	383.72
399.701	412.64
400.08	416.71
400.458	383.72
400.837	390.5
401.215	404.74
401.594	399.09
401.972	424.62
402.351	400.89
402.729	404.28
403.107	398.41
403.486	410.61
403.864	411.74
404.242	403.83
404.62	421.46
404.999	417.84
405.377	413.1
405.755	415.36
406.133	418.75
406.511	420.78
406.889	417.16
407.267	404.51
407.645	441.12
408.023	431.63
408.401	441.57
408.779	427.33
409.156	430.05
409.534	464.17
409.912	434.56
410.29	480.44
410.667	443.83
411.045	457.39
411.422	449.93
411.8	432.08
412.178	472.3
412.555	459.42
412.933	451.29
413.31	467.33
413.687	467.33
414.065	453.32
414.442	454
414.819	468.46
415.197	466.65
415.574	476.37
415.951	468.91
416.328	500.55
416.705	497.84
417.082	476.37
417.46	493.55
417.837	513.21
418.214	508.69
418.591	504.39
418.967	513.66
419.344	517.95
419.721	519.31
420.098	524.96
420.475	526.31
420.852	531.29
421.228	506.2
421.605	533.55
421.982	541
422.358	549.59
422.735	547.78
423.111	524.28
423.488	561.79
423.864	548.69
424.241	545.75
424.617	549.82
424.994	563.6
425.37	541.91
425.746	541.91
426.123	569.7
426.499	569.02
426.875	607.67
427.251	583.71
427.627	592.98
428.003	603.15
428.379	597.27
428.756	583.49
429.132	617.84
429.507	587.56
429.883	618.06
430.259	610.61
430.635	614
431.011	630.94
431.387	630.27
431.763	648.34
432.138	643.82
432.514	639.98
432.89	671.17
433.265	648.34
433.641	694.22
434.016	668.01
434.392	678.4
434.767	700.77
435.143	687.44
435.518	715.24
435.894	700.32
436.269	707.1
436.644	709.81
437.02	703.48
437.395	713.2
437.77	745.29
438.145	742.58
438.52	732.86
438.895	732.64
439.271	720.43
439.646	740.77
440.021	760.43
440.395	765.63
440.77	783.26
441.145	745.74
441.52	765.86
441.895	776.25
442.27	794.78
442.645	788.68
443.019	805.85
443.394	793.88
443.769	815.35
444.143	792.97
444.518	813.54
444.892	831.39
445.267	814.22
445.641	814.44
446.016	820.77
446.39	838.4
446.764	844.72
447.139	867.1
447.513	848.57
447.887	828
448.262	854.21
448.636	863.93
449.01	888.79
449.384	884.95
449.758	892.18
450.132	883.59
450.506	910.26
450.88	888.56
451.254	904.83
451.628	919.52
452.002	916.81
452.376	932.4
452.75	940.09
453.123	965.85
453.497	983.7
453.871	937.6
454.244	984.38
454.618	990.71
454.992	991.39
455.365	981.22
455.739	989.8
456.112	1020.31
456.486	1037.71
456.859	1076.36
457.232	1072.97
457.606	1065.51
457.979	1048.56
458.352	1077.94
458.725	1106.19
459.099	1113.87
459.472	1137.82
459.845	1133.08
460.218	1143.02
460.591	1158.16
460.964	1185.96
461.337	1211.72
461.71	1222.11
462.083	1218.5
462.456	1202.91
462.829	1246.52
463.201	1294.2
463.574	1271.15
463.947	1300.98
464.32	1329
464.692	1339.4
465.065	1373.52
465.438	1361.32
465.81	1405.61
466.183	1409.68
466.555	1444.26
466.928	1450.13
467.3	1474.76
467.672	1474.76
468.045	1491.03
468.417	1505.5
468.789	1511.6
469.161	1563.57
469.534	1599.73
469.906	1639.73
470.278	1664.81
470.65	1660.97
471.022	1709.11
471.394	1764.47
471.766	1771.03
472.138	1763.57
472.51	1804.47
472.882	1870.91
473.253	1924.92
473.625	1958.82
473.997	2031.58
474.369	2024.58
474.74	2071.36
475.112	2087.63
475.484	2178.7
475.855	2223.22
476.227	2237.23
476.598	2321.07
476.97	2317.68
477.341	2401.29
477.713	2458.69
478.084	2524.23
478.455	2599.48
478.827	2606.49
479.198	2739.81
479.569	2760.61
479.94	2898.45
480.311	2921.51
480.682	3021.39
481.053	3135.06
481.424	3163.08
481.795	3235.62
482.166	3318.33
482.537	3395.62
482.908	3499.34
483.279	3606.91
483.65	3696.4
484.021	3778.21
484.391	3831.99
484.762	3913.34
485.133	4017.75
485.503	4153.79
485.874	4290.06
486.244	4375.25
486.615	4504.29
486.985	4562.82
487.356	4709.71
487.726	4823.83
488.097	4948.8
488.467	5002.13
488.837	5193.31
489.207	5296.13
489.578	5376.13
489.948	5517.37
490.318	5593.53
490.688	5733.18
491.058	5878.72
491.428	5964.14
491.798	6078.48
492.168	6250.91
492.538	6373.84
492.908	6481.86
493.278	6632.82
493.648	6666.27
494.017	6881.63
494.387	6945.58
494.757	7086.37
495.126	7220.6
495.496	7271.45
495.866	7369.07
496.235	7524.1
496.605	7575.62
496.974	7728.61
497.344	7891.77
497.713	7904.42
498.082	7998.66
498.452	8239.11
498.821	8292.89
499.19	8331.53
499.559	8406.33
499.928	8447.01
500.298	8625.76
500.667	8807
501.036	8719.77
501.405	8837.96
501.774	8927
502.143	9021.23
502.512	9133.55
502.88	9221
503.249	9261
503.618	9345.52
503.987	9402.24
504.356	9493.54
504.724	9583.25
505.093	9658.96
505.462	9716.81
505.83	9783.7
506.199	9841.55
506.567	10019.62
506.936	10033.18
507.304	10114.99
507.672	10192.05
508.041	10216
508.409	10294.19
508.777	10396.11
509.145	10463.45
509.514	10458.03
509.882	10660.96
510.25	10568.54
510.618	10609.21
510.986	10765.37
511.354	10735.54
511.722	10820.73
512.09	11020.5
512.458	10879.71
512.826	11056.66
513.193	11020.05
513.561	11055.75
513.929	11140.05
514.297	11171.91
514.664	11303.43
515.032	11306.14
515.4	11417.78
515.767	11359.25
516.135	11420.72
516.502	11376.88
516.869	11575.29
517.237	11556.76
517.604	11491.68
517.972	11695.29
518.339	11661.61
518.706	11712.69
519.073	11677.66
519.44	11806.7
519.808	11902.29
520.175	11788.16
520.542	11922.62
520.909	11934.83
521.276	11923.53
521.643	12056.63
522.009	12049.4
522.376	12050.53
522.743	12107.48
523.11	12250.07
523.477	12309.05
523.843	12335.04
524.21	12406
524.577	12415.49
524.943	12422.5
525.31	12412.1
525.676	12523.74
526.043	12532.1
526.409	12530.97
526.776	12618.65
527.142	12641.25
527.508	12727.12
527.874	12738.2
528.241	12663.62
528.607	12710.63
528.973	12808.02
529.339	12791.08
529.705	12768.93
530.071	12873.79
530.437	12803.96
530.803	12823.62
531.169	12851.87
531.535	12833.33
531.901	12787.46
532.267	12817.06
532.632	12810.06
532.998	12853.9
533.364	12866.55
533.73	12830.85
534.095	12877.85
534.461	12921.92
534.826	12830.17
535.192	12849.38
535.557	12963.95
535.923	12860.68
536.288	12783.39
536.653	12888.25
537.019	12674.92
537.384	12835.14
537.749	12846.44
538.114	12751.3
538.479	12749.95
538.845	12690.51
539.21	12718.31
539.575	12698.65
539.94	12711.3
540.305	12649.38
540.67	12637.41
541.034	12619.56
541.399	12645.09
541.764	12649.84
542.129	12643.96
542.494	12514.93
542.858	12615.71
543.223	12548.6
543.587	12478.09
543.952	12526.22
544.316	12487.13
544.681	12451.65
545.045	12476.73
545.41	12495.04
545.774	12452.55
546.138	12356.51
546.503	12307.92
546.867	12327.59
547.231	12385.44
547.595	12212.56
547.959	12338.88
548.324	12260.02
548.688	12236.51
549.052	12173.01
549.416	12235.61
549.779	12157.87
550.143	12124.65
550.507	12169.85
550.871	12100.02
551.235	12107.03
551.599	12135.73
551.962	12176.18
552.326	12106.12
552.689	12064.32
553.053	11963.53
553.417	11989.74
553.78	12024.77
554.143	11980.93
554.507	11955.62
554.87	11992.45
555.234	12013.47
555.597	11985.45
555.96	12019.34
556.323	11963.53
556.686	11928.95
557.05	11914.94
557.413	11926.24
557.776	11931.66
558.139	11934.38
558.502	11899.8
558.865	11914.49
559.228	11948.39
559.59	11989.29
559.953	11896.18
560.316	11985.9
560.679	11963.3
561.041	11980.25
561.404	12016.41
561.767	12041.27
562.129	11992
562.492	12056.63
562.854	12084.65
563.217	11962.85
563.579	11956.97
563.941	12032.23
564.304	12109.96
564.666	12060.47
565.028	12085.78
565.39	12052.11
565.753	12151.77
566.115	12159
566.477	12122.62
566.839	12159
567.201	12185.67
567.563	12132.79
567.925	12181.37
568.287	12209.62
568.648	12189.06
569.01	12276.51
569.372	12241.03
569.734	12292.11
570.095	12295.95
570.457	12304.99
570.819	12368.26
571.18	12362.61
571.542	12400.58
571.903	12416.17
572.265	12382.05
572.626	12417.53
572.987	12448.49
573.349	12428.83
573.71	12448.71
574.071	12458.66
574.432	12491.2
574.794	12524.19
575.155	12464.53
575.516	12433.12
575.877	12507.24
576.238	12491.65
576.599	12532.55
576.96	12529.84
577.32	12500.46
577.681	12533.68
578.042	12626.33
578.403	12568.26
578.763	12604.87
579.124	12624.75
579.485	12570.06
579.845	12518.77
580.206	12513.8
580.566	12469.28
580.927	12482.38
581.287	12600.8
581.648	12512.44
582.008	12545.66
582.368	12611.42
582.728	12624.53
583.089	12510.63
583.449	12523.51
583.809	12602.61
584.169	12559.9
584.529	12506.56
584.889	12613.68
585.249	12589.05
585.609	12433.57
585.969	12598.99
586.329	12597.86
586.688	12512.67
587.048	12583.17
587.408	12477.19
587.768	12473.8
588.127	12477.41
588.487	12413.01
588.846	12526.68
589.206	12384.31
589.565	12481.48
589.925	12451.42
590.284	12501.82
590.643	12439.22
591.003	12496.39
591.362	12490.97
591.721	12411.88
592.08	12464.98
592.44	12503.17
592.799	12386.57
593.158	12391.09
593.517	12425.44
593.876	12438.99
594.235	12391.99
594.593	12486.68
594.952	12346.12
595.311	12372.33
595.67	12344.31
596.029	12442.84
596.387	12344.31
596.746	12358.77
597.104	12383.63
597.463	12249.17
597.822	12424.98
598.18	12283.74
598.538	12285.33
598.897	12424.53
599.255	12300.92
599.613	12435.38
599.972	12354.03
600.33	12379.11
600.688	12327.13
601.046	12338.21
601.404	12494.81
601.762	12355.16
602.12	12391.76
602.478	12386.11
602.836	12323.74
603.194	12345.44
603.552	12369.17
603.91	12287.81
604.268	12269.73
604.625	12243.97
604.983	12333.01
605.341	12295.27
605.698	12307.47
606.056	12382.73
606.413	12341.6
606.771	12423.85
607.128	12351.99
607.485	12394.02
607.843	12362.39
608.2	12440.12
608.557	12421.82
608.914	12384.99
609.272	12422.5
609.629	12401.71
609.986	12391.99
610.343	12429.96
610.7	12547.92
611.057	12456.62
611.414	12451.65
611.771	12562.83
612.127	12569.16
612.484	12487.13
612.841	12591.99
613.198	12530.74
613.554	12568.71
613.911	12617.3
614.267	12579.56
614.624	12611.19
614.98	12566.22
615.337	12638.99
615.693	12640.35
616.05	12581.59
616.406	12656.39
616.762	12575.71
617.118	12620.01
617.475	12630.63
617.831	12562.83
618.187	12622.49
618.543	12645.09
618.899	12697.29
619.255	12769.61
619.611	12588.37
619.967	12795.37
620.323	12752.21
620.678	12741.36
621.034	12721.7
621.39	12648.25
621.746	12674.24
622.101	12729.83
622.457	12695.49
622.812	12793.11
623.168	12733.68
623.523	12781.13
623.879	12755.14
624.234	12696.62
624.589	12754.24
624.945	12737.52
625.3	12753.34
625.655	12718.76
626.01	12678.99
626.365	12764.64
626.72	12683.96
627.075	12697.52
627.43	12702.94
627.785	12641.7
628.14	12702.94
628.495	12754.01
628.85	12759.66
629.205	12652.1
629.559	12723.28
629.914	12672.44
630.269	12657.29
630.623	12606
630.978	12686.67
631.332	12703.39
631.687	12641.7
632.041	12549.05
632.396	12645.54
632.75	12556.73
633.104	12593.12
633.459	12485.55
633.813	12465.66
634.167	12543.17
634.521	12506.11
634.875	12510.18
635.229	12446.68
635.583	12462.5
635.937	12430.63
636.291	12416.17
636.645	12394.93
636.999	12359.9
637.352	12465.43
637.706	12342.05
638.06	12412.78
638.413	12356.74
638.767	12329.17
639.121	12358.32
639.474	12283.29
639.828	12337.75
640.181	12264.31
640.534	12333.01
640.888	12297.08
641.241	12200.13
641.594	12170.08
641.947	12253.69
642.301	12207.59
642.654	12260.02
643.007	12231.99
643.36	12173.69
643.713	12210.98
644.066	12226.12
644.419	12118.55
644.771	12068.38
645.124	11971.44
645.477	11937.99
645.83	11870.65
646.182	11794.04
646.535	11733.02
646.888	11696.42
647.24	11700.03
647.593	11757.66
647.945	11746.81
648.298	11727.83
648.65	11649.64
649.002	11700.26
649.355	11692.8
649.707	11707.49
650.059	11890.31
650.411	11906.81
650.763	11930.31
651.115	12031.1
651.467	12028.16
651.819	12048.27
652.171	12012.11
652.523	12026.35
652.875	11928.73
653.227	11948.16
653.578	11996.97
653.93	12062.51
654.282	11984.32
654.633	11888.05
654.985	11988.16
655.337	12004.2
655.688	11903.87
656.039	12007.37
656.391	11975.96
656.742	11973.24
657.094	12006.01
657.445	12003.98
657.796	11959.01
658.147	11934.6
658.498	11908.61
658.849	11985.67
659.2	11929.18
659.551	11945.22
659.902	11970.08
660.253	11973.7
660.604	12023.64
660.955	11926.92
661.306	12049.17
661.656	12074.48
662.007	12015.28
662.358	12064.54
662.708	12020.93
663.059	11917.2
663.409	11926.69
663.76	11993.36
664.11	12040.36
664.461	12010.08
664.811	12016.18
665.161	12126.01
665.511	12010.53
665.862	12027.93
666.212	12064.54
666.562	12018.44
666.912	12064.09
667.262	11994.94
667.612	11987.03
667.962	12028.16
668.312	11927.37
668.662	12062.51
669.011	12029.74
669.361	11984.77
669.711	12038.1
670.06	11926.24
670.41	11996.07
670.76	11923.53
671.109	11999.46
671.459	11981.83
671.808	11827.03
672.157	11956.75
672.507	11816.19
672.856	11885.34
673.205	11865.22
673.554	11956.07
673.904	11868.84
674.253	11893.02
674.602	11894.6
674.951	11674.5
675.3	11669.75
675.649	11816.64
675.998	11780.93
676.346	11812.8
676.695	11845.11
677.044	11705.23
677.393	11810.54
677.741	11806.02
678.09	11714.72
678.438	11725.79
678.787	11731.44
679.135	11700.94
679.484	11647.6
679.832	11732.57
680.181	11638.56
680.529	11713.36
680.877	11617.32
681.225	11632.69
681.573	11634.04
681.922	11575.29
682.27	11612.58
682.618	11529.41
682.966	11514.95
683.314	11513.82
683.661	11490.32
684.009	11453.71
684.357	11463.43
684.705	11421.62
685.053	11432.24
685.4	11390.43
685.748	11316.09
686.095	11310.44
686.443	11346.82
686.79	11246.71
687.138	11269.08
687.485	11239.03
687.832	11244.22
688.18	11193.38
688.527	11182.76
688.874	11140.72
689.221	11049.65
689.568	11022.31
689.915	11027.51
690.262	10956.1
690.609	10948.86
690.956	10913.61
691.303	10964.68
691.65	10817.79
691.997	10910
692.344	10752.49
692.69	10741.86
693.037	10777.12
693.383	10785.25
693.73	10741.41
694.077	10632.49
694.423	10680.85
694.769	10617.12
695.116	10569.67
695.462	10570.57
695.808	10566.5
696.155	10517.24
696.501	10495.77
696.847	10444.7
697.193	10398.6
697.539	10382.55
697.885	10294.64
698.231	10235.21
698.577	10261.2
698.923	10273.4
699.269	10097.14
699.614	10073.63
699.96	10059.4
700.306	10063.69
700.651	10017.59
700.997	9970.81
701.342	9944.37
701.688	9919.06
702.033	9825.05
702.379	9855.79
702.724	9818.27
703.069	9820.53
703.415	9716.13
703.76	9756.81
704.105	9696.92
704.45	9669.35
704.795	9651.27
705.14	9569.92
705.485	9590.03
705.83	9533.31
706.175	9519.3
706.52	9518.62
706.865	9471.84
707.209	9419.19
707.554	9402.24
707.899	9430.94
708.243	9381.22
708.588	9354.1
708.932	9349.13
709.277	9233.43
709.621	9277.5
709.966	9226.65
710.31	9247.44
710.654	9128.57
710.998	9169.7
711.342	9130.83
711.687	9094.9
712.031	9047.45
712.375	9017.62
712.719	8973.55
713.063	9037.5
713.407	9057.16
713.75	8978.52
714.094	8987.11
714.438	8891.29
714.782	8978.75
715.125	8913.21
715.469	8899.65
715.812	8867.34
716.156	8841.35
716.499	8832.99
716.843	8926.54
717.186	8791.63
717.53	8829.82
717.873	8839.77
718.216	8808.81
718.559	8754.35
718.902	8747.57
719.246	8708.92
719.589	8772.65
719.932	8704.4
720.275	8684.52
720.617	8639.09
720.96	8647.91
721.303	8672.54
721.646	8612.2
721.989	8578.08
722.331	8618.08
722.674	8573.79
723.016	8624.41
723.359	8555.26
723.701	8628.25
724.044	8555.71
724.386	8479.1
724.729	8511.19
725.071	8522.49
725.413	8494.47
725.755	8560
726.097	8495.37
726.439	8418.54
726.782	8436.61
727.124	8458.53
727.465	8462.15
727.807	8523.39
728.149	8483.39
728.491	8423.96
728.833	8423.28
729.175	8470.29
729.516	8435.94
729.858	8320.69
730.199	8427.58
730.541	8383.06
730.882	8422.6
731.224	8432.32
731.565	8375.6
731.906	8440
732.248	8433.45
732.589	8362.72
732.93	8339.89
733.271	8375.6
733.612	8389.16
733.953	8381.02
734.294	8349.38
734.635	8342.83
734.976	8333.34
735.317	8330.85
735.658	8394.13
735.999	8356.39
736.339	8391.64
736.68	8421.7
737.021	8343.74
737.361	8313.23
737.702	8463.96
738.042	8399.1
738.383	8366.33
738.723	8414.24
739.063	8322.49
739.404	8448.14
739.744	8402.04
740.084	8372.21
740.424	8454.01
740.764	8447.01
741.104	8443.17
741.444	8434.81
741.784	8384.64
742.124	8467.57
742.464	8413.79
742.804	8491.3
743.143	8492.88
743.483	8522.94
743.823	8464.86
744.162	8517.52
744.502	8582.15
744.841	8503.73
745.181	8693.56
745.52	8581.47
745.86	8614.91
746.199	8671.64
746.538	8709.83
746.877	8694.23
747.216	8791.41
747.556	8759.77
747.895	8834.8
748.234	8870.28
748.573	8914.79
748.911	8949.37
749.25	8974
749.589	9012.42
749.928	9181.23
750.267	9224.84
750.605	9181.91
750.944	9224.16
751.283	9329.47
751.621	9465.97
751.96	9436.81
752.298	9562.46
752.636	9654.44
752.975	9734.89
753.313	9743.7
753.651	9906.63
753.989	9946.18
754.327	9945.95
754.666	10045.16
755.004	10216.23
755.342	10314.98
755.679	10430.91
756.017	10494.41
756.355	10595.88
756.693	10741.41
757.031	10849.21
757.368	10912.03
757.706	11053.95
758.044	11064.34
758.381	11320.61
758.719	11436.54
759.056	11554.05
759.394	11673.82
759.731	11684.66
760.068	11938.9
760.405	11973.47
760.743	12134.14
