Data from hue_330_FLMS001491_26.txt Node
Date: Mon Feb 06 15:45:10 GMT 2017
User: dcchb
Spectrometer: FLMS00149
Trigger mode: 0
Integration Time (sec): 2.000000E-2
Scans to average: 10
Electric dark correction enabled: true
Nonlinearity correction enabled: false
Boxcar width: 0
XAxis mode: Wavelengths
Number of Pixels in Spectrum: 2048
>>>>>Begin Spectral Data<<<<<
341.393	-15.61
341.776	-15.61
342.16	-15.61
342.543	-48.83
342.927	-54.93
343.31	-77.3
343.693	-63.74
344.077	-58.54
344.46	-75.49
344.843	-74.14
345.226	-46.34
345.61	-19.22
345.993	-13.8
346.376	-4.53
346.759	13.54
347.142	32.08
347.525	49.02
347.908	46.09
348.291	73.88
348.674	102.36
349.057	116.14
349.44	135.58
349.823	143.71
350.206	151.39
350.588	162.92
350.971	193.2
351.354	204.95
351.737	247.44
352.119	247.21
352.502	263.93
352.884	263.03
353.267	276.14
353.65	273.88
354.032	292.63
354.414	293.09
354.797	324.72
355.179	296.7
355.562	323.37
355.944	326.98
356.326	322.69
356.709	329.24
357.091	325.85
357.473	329.47
357.855	338.28
358.238	325.18
358.62	340.77
359.002	313.88
359.384	340.54
359.766	341.9
360.148	319.53
360.53	313.42
360.912	326.98
361.294	325.63
361.676	319.07
362.057	345.74
362.439	329.69
362.821	315.68
363.203	323.82
363.584	343.03
363.966	329.92
364.348	315.46
364.729	312.52
365.111	298.74
365.493	314.78
365.874	294.67
366.256	298.28
366.637	316.14
367.019	296.02
367.4	303.71
367.781	292.86
368.163	317.94
368.544	322.46
368.925	318.17
369.306	310.49
369.688	306.64
370.069	289.92
370.45	287.66
370.831	311.84
371.212	306.19
371.593	303.93
371.974	291.73
372.355	291.73
372.736	308
373.117	305.74
373.498	303.71
373.879	292.63
374.26	305.29
374.641	312.75
375.021	303.71
375.402	329.47
375.783	321.79
376.163	328.79
376.544	323.37
376.925	307.1
377.305	319.07
377.686	324.27
378.066	322.24
378.447	326.08
378.827	322.01
379.208	321.11
379.588	337.15
379.968	334.44
380.349	326.53
380.729	315.01
381.109	316.36
381.489	316.81
381.87	343.71
382.25	327.21
382.63	316.36
383.01	324.95
383.39	330.15
383.77	336.47
384.15	330.82
384.53	344.16
384.91	346.87
385.29	328.34
385.67	331.05
386.049	369.69
386.429	334.21
386.809	344.16
387.189	339.41
387.568	346.42
387.948	355.91
388.328	345.51
388.707	337.6
389.087	368.34
389.466	344.84
389.846	345.97
390.225	364.95
390.605	359.75
390.984	342.58
391.363	341.45
391.743	339.64
392.122	372.63
392.501	367.89
392.881	363.37
393.26	380.99
393.639	378.96
394.018	352.97
394.397	371.73
394.776	343.93
395.155	385.51
395.534	365.63
395.913	388.68
396.292	371.05
396.671	376.7
397.05	364.95
397.429	365.85
397.808	377.15
398.186	401.11
398.565	375.34
398.944	374.21
399.323	385.74
399.701	371.05
400.08	386.19
400.458	379.86
400.837	399.75
401.215	369.92
401.594	405.62
401.972	413.31
402.351	397.26
402.729	387.09
403.107	387.55
403.486	401.33
403.864	399.3
404.242	399.98
404.62	405.85
404.999	431.39
405.377	411.5
405.755	408.79
406.133	424.38
406.511	441.1
406.889	450.14
407.267	439.52
407.645	438.39
408.023	437.26
408.401	450.37
408.779	439.75
409.156	425.06
409.534	451.05
409.912	456.47
410.29	463.7
410.667	447.21
411.045	471.84
411.422	492.63
411.8	491.72
412.178	479.52
412.555	498.73
412.933	496.7
413.31	497.15
413.687	496.02
414.065	531.72
414.442	515.9
414.819	533.53
415.197	553.42
415.574	547.99
415.951	550.48
416.328	543.02
416.705	555
417.082	541.89
417.46	555.9
417.837	587.77
418.214	574.89
418.591	601.78
418.967	574.21
419.344	593.87
419.721	582.57
420.098	607.65
420.475	612.85
420.852	597.71
421.228	636.81
421.605	606.98
421.982	633.19
422.358	641.1
422.735	642.45
423.111	630.03
423.488	650.36
423.864	659.4
424.241	650.59
424.617	687.88
424.994	684.04
425.37	670.25
425.746	675.45
426.123	698.05
426.499	698.72
426.875	685.84
427.251	707.31
427.627	725.84
428.003	724.26
428.379	736.24
428.756	747.54
429.132	731.04
429.507	728.33
429.883	764.71
430.259	755.9
430.635	775.33
431.011	763.13
431.387	776.46
431.763	803.35
432.138	796.12
432.514	825.95
432.89	805.39
433.265	844.48
433.641	833.64
434.016	850.81
434.392	847.42
434.767	850.13
435.143	870.47
435.518	878.83
435.894	870.92
436.269	901.66
436.644	903.92
437.02	910.24
437.395	913.41
437.77	947.08
438.145	924.26
438.52	950.02
438.895	961.32
439.271	956.57
439.646	980.53
440.021	963.58
440.395	973.07
440.77	961.99
441.145	983.69
441.52	1020.07
441.895	1014.2
442.27	1004.03
442.645	1046.06
443.019	1016.68
443.394	1017.13
443.769	1020.75
444.143	1010.58
444.518	1044.48
444.892	1053.74
445.267	1053.07
445.641	1056.68
446.016	1040.64
446.39	1057.13
446.764	1059.39
447.139	1057.81
447.513	1056.46
447.887	1080.86
448.262	1095.1
448.636	1089.9
449.01	1089.22
449.384	1101.2
449.758	1075.66
450.132	1086.28
450.506	1102.33
450.88	1101.65
451.254	1115.21
451.628	1129
452.002	1130.8
452.376	1140.07
452.75	1143.23
453.123	1165.15
453.497	1163.35
453.871	1184.14
454.244	1204.93
454.618	1199.5
454.992	1179.16
455.365	1215.77
455.739	1215.1
456.112	1205.15
456.486	1272.04
456.859	1263.23
457.232	1267.52
457.606	1269.33
457.979	1260.29
458.352	1282.44
458.725	1300.97
459.099	1295.09
459.472	1334.19
459.845	1320.18
460.218	1321.31
460.591	1324.24
460.964	1325.83
461.337	1360.4
461.71	1353.85
462.083	1407.63
462.456	1389.33
462.829	1385.26
463.201	1400.63
463.574	1411.93
463.947	1439.72
464.32	1454.64
464.692	1452.83
465.065	1483.56
465.438	1482.43
465.81	1499.16
466.183	1493.96
466.555	1536.22
466.928	1551.13
467.3	1576.44
467.672	1583
468.045	1589.77
468.417	1614.41
468.789	1619.83
469.161	1632.26
469.534	1656.67
469.906	1689.66
470.278	1699.38
470.65	1705.7
471.022	1691.92
471.394	1757
471.766	1748.19
472.138	1752.48
472.51	1768.3
472.882	1854.17
473.253	1821.41
473.625	1865.02
473.997	1898.92
474.369	1871.12
474.74	1888.3
475.112	1927.62
475.484	1950.9
475.855	1996.09
476.227	1954.06
476.598	2048.75
476.97	2042.64
477.341	2070.44
477.713	2141.17
478.084	2093.72
478.455	2156.99
478.827	2178.69
479.198	2213.26
479.569	2226.14
479.94	2281.96
480.311	2297.78
480.682	2341.62
481.053	2368.96
481.424	2426.81
481.795	2421.17
482.166	2449.64
482.537	2456.42
482.908	2526.7
483.279	2499.13
483.65	2589.97
484.021	2608.5
484.391	2656.87
484.762	2658.22
485.133	2705
485.503	2724.66
485.874	2775.28
486.244	2759.24
486.615	2800.59
486.985	2857.76
487.356	2916.29
487.726	2932.34
488.097	2983.18
488.467	3002.84
488.837	3022.05
489.207	3066.8
489.578	3079.9
489.948	3086.46
490.318	3140.02
490.688	3147.7
491.058	3218.66
491.428	3241.71
491.798	3252.56
492.168	3334.59
492.538	3342.27
492.908	3358.09
493.278	3355.15
493.648	3406.9
494.017	3413.68
494.387	3458.88
494.757	3499.1
495.126	3519.22
495.496	3518.76
495.866	3506.11
496.235	3558.99
496.605	3577.07
496.974	3651.64
497.344	3647.35
497.713	3695.93
498.082	3703.17
498.452	3729.61
498.821	3722.83
499.19	3728.93
499.559	3756.27
499.928	3771.64
500.298	3779.55
500.667	3830.62
501.036	3807.57
501.405	3849.15
501.774	3861.13
502.143	3894.57
502.512	3888.92
502.88	3918.07
503.249	3922.82
503.618	3946.32
503.987	3940.9
504.356	3995.81
504.724	3981.35
505.093	3988.13
505.462	4006.89
505.83	3999.43
506.199	4054.12
506.567	4080.33
506.936	4097.28
507.304	4154.9
507.672	4101.12
508.041	4152.19
508.409	4145.41
508.777	4173.21
509.145	4190.38
509.514	4166.2
509.882	4220.67
510.25	4231.96
510.618	4258.86
510.986	4243.94
511.354	4307.44
511.722	4290.04
512.09	4321.91
512.458	4355.35
512.826	4370.27
513.193	4335.92
513.561	4370.27
513.929	4401.23
514.297	4421.56
514.664	4375.69
515.032	4450.72
515.4	4466.31
515.767	4482.13
516.135	4485.97
516.502	4499.3
516.869	4518.06
517.237	4506.76
517.604	4514.67
517.972	4577.94
518.339	4594.22
518.706	4553.54
519.073	4598.96
519.44	4552.18
519.808	4596.48
520.175	4649.13
520.542	4648.45
520.909	4711.5
521.276	4648
521.643	4748.34
522.009	4749.47
522.376	4766.19
522.743	4718.51
523.11	4819.52
523.477	4859.97
523.843	4813.64
524.21	4832.4
524.577	4911.95
524.943	4868.33
525.31	4913.75
525.676	4929.57
526.043	4963.7
526.409	4959.18
526.776	5023.58
527.142	4992.17
527.508	5047.54
527.874	5072.85
528.241	5119.85
528.607	5095.9
528.973	5173.86
529.339	5130.02
529.705	5231.49
530.071	5271.26
530.437	5231.71
530.803	5254.54
531.169	5311.48
531.535	5296.8
531.901	5287.76
532.267	5355.55
532.632	5365.72
532.998	5415.89
533.364	5430.35
533.73	5391.48
534.095	5481.88
534.461	5477.58
534.826	5508.54
535.192	5564.13
535.557	5548.54
535.923	5584.47
536.288	5613.17
536.653	5657.69
537.019	5603.68
537.384	5634.87
537.749	5618.82
538.114	5712.6
538.479	5683.9
538.845	5715.09
539.21	5694.3
539.575	5790.12
539.94	5792.6
540.305	5859.49
540.67	5858.59
541.034	5857.68
541.399	5879.83
541.764	5913.05
542.129	5965.48
542.494	5943.56
542.858	5970.9
543.223	6011.58
543.587	6054.06
543.952	6067.62
544.316	6077.79
544.681	6075.53
545.045	6099.03
545.41	6134.51
545.774	6170.67
546.138	6167.06
546.503	6237.79
546.867	6172.48
547.231	6268.07
547.595	6280.95
547.959	6333.6
548.324	6343.55
548.688	6359.82
549.052	6372.7
549.416	6408.4
549.779	6414.05
550.143	6428.97
550.507	6457.22
550.871	6527.72
551.235	6486.14
551.599	6579.47
551.962	6559.36
552.326	6592.58
552.689	6608.85
553.053	6555.52
553.417	6604.33
553.78	6652.69
554.143	6599.36
554.507	6653.14
554.87	6687.72
555.234	6747.15
555.597	6754.84
555.96	6790.99
556.323	6816.53
556.686	6741.28
557.05	6886.36
557.413	6839.81
557.776	6897.88
558.139	6863.31
558.502	6931.78
558.865	6918.45
559.228	6997.54
559.59	7013.36
559.953	7034.83
560.316	7037.31
560.679	7036.19
561.041	7102.85
561.404	7087.71
561.767	7155.05
562.129	7118.44
562.492	7158.22
562.854	7155.28
563.217	7144.2
563.579	7198.44
563.941	7273.24
564.304	7268.27
564.666	7317.31
565.028	7302.84
565.39	7332.9
565.753	7383.97
566.115	7429.4
566.477	7413.8
566.839	7403.86
567.201	7444.31
567.563	7448.15
567.925	7545.78
568.287	7579.45
568.648	7592.78
569.01	7618.99
569.372	7662.38
569.734	7623.29
570.095	7731.08
570.457	7779.22
570.819	7750.52
571.18	7786
571.542	7846.11
571.903	7851.98
572.265	7964.75
572.626	7962.26
572.987	7926.33
573.349	8043.62
573.71	8081.36
574.071	8140.34
574.432	8150.28
574.794	8301.24
575.155	8262.82
575.516	8282.25
575.877	8380.33
576.238	8406.09
576.599	8574.68
576.96	8586.43
577.32	8618.29
577.681	8744.84
578.042	8845.4
578.403	8810.83
578.763	8951.84
579.124	8984.83
579.485	9164.04
579.845	9317.93
580.206	9389.34
580.566	9407.65
580.927	9548.44
581.287	9720.63
581.648	9843.57
582.008	9982.77
582.368	10061.64
582.728	10203.79
583.089	10384.8
583.449	10452.14
583.809	10739.14
584.169	10896.87
584.529	10966.03
584.889	11246.7
585.249	11434.49
585.609	11473.36
585.969	11823.86
586.329	11981.14
586.688	12156.5
587.048	12452.31
587.408	12640.78
587.768	12907.22
588.127	13026.54
588.487	13257.49
588.846	13611.83
589.206	13665.16
589.565	14061.76
589.925	14324.58
590.284	14469.89
590.643	14730.9
591.003	15054.73
591.362	15389.41
591.721	15525.68
592.08	15835.5
592.44	16184.42
592.799	16460.12
593.158	16612.66
593.517	16957.96
593.876	17254.22
594.235	17476.81
594.593	17794.09
594.952	18054.43
595.311	18306.62
595.67	18695.54
596.029	19049.65
596.387	19317.67
596.746	19616.65
597.104	19737.32
597.463	20057.09
597.822	20353.35
598.18	20678.99
598.538	20920.34
598.897	21305.41
599.255	21507.44
599.613	22082.34
599.972	22149.23
600.33	22354.2
600.688	22587.64
601.046	22993.96
601.404	23429.2
601.762	23568.63
602.12	23975.85
602.478	24150.76
602.836	24395.5
603.194	24604.08
603.552	24908.48
603.91	24981.48
604.268	25461.46
604.625	25509.37
604.983	25958.85
605.341	25960.89
605.698	26412.4
606.056	26731.26
606.413	26789.34
606.771	27169.67
607.128	27394.97
607.485	27499.83
607.843	27741.18
608.2	28009.87
608.557	28491.89
608.914	28514.49
609.272	28733.47
609.629	28940.92
609.986	29432.66
610.343	29273.57
610.7	29813.21
611.057	29778.64
611.414	30029.25
611.771	30098.4
612.127	30536.58
612.484	30660.2
612.841	30871.72
613.198	30918.04
613.554	31168.43
613.911	31468.09
614.267	31591.47
614.624	31786.04
614.98	31795.99
615.337	32209.31
615.693	32179.7
616.05	32321.17
616.406	32592.58
616.762	32677.54
617.118	32912.57
617.475	32963.41
617.831	33113.01
618.187	33375.83
618.543	33369.5
618.899	33777.4
619.255	33670.51
619.611	33802.03
619.967	34124.74
620.323	34203.83
620.678	34196.15
621.034	34232.31
621.39	34379.87
621.746	34424.17
622.101	34844.27
622.457	34651.5
622.812	34815.12
623.168	35017.82
623.523	35091.04
623.879	35256.46
624.234	35082.91
624.589	35414.42
624.945	35399.96
625.3	35524.7
625.655	35555.44
626.01	35665.04
626.365	36004.24
626.72	35779.84
627.075	35803.34
627.43	36009.43
627.785	35919.72
628.14	35961.98
628.495	36139.6
628.85	36034.74
629.205	36072.03
629.559	36279.48
629.914	36193.38
630.269	36295.08
630.623	36264.8
630.978	36324
631.332	36496.88
631.687	36653.71
632.041	36573.49
632.396	36608.97
632.75	36450.33
633.104	36477.44
633.459	36460.5
633.813	36471.57
634.167	36403.1
634.521	36508.18
634.875	36593.83
635.229	36554.28
635.583	36477.44
635.937	36554.5
636.291	36582.98
636.645	36699.81
636.999	36580.49
637.352	36780.71
637.706	36425.24
638.06	36680.38
638.413	36492.36
638.767	36579.82
639.121	36628.4
639.474	36428.18
639.828	36498.91
640.181	36552.25
640.534	36569.87
640.888	36447.16
641.241	36360.39
641.594	36403.55
641.947	36568.74
642.301	36401.06
642.654	36525.35
643.007	36453.49
643.36	36602.41
643.713	36475.41
644.066	36682.64
644.419	36303.66
644.771	36178.24
645.124	35851.92
645.477	35956.78
645.83	35596.34
646.182	35425.04
646.535	35379.39
646.888	35513.18
647.24	35269.57
647.593	35501.43
647.945	35548.66
648.298	35202
648.65	35190.25
649.002	35079.97
649.355	35342.79
649.707	35218.49
650.059	35303.92
650.411	35815.32
650.763	35887.86
651.115	36273.16
651.467	36133.05
651.819	36164.46
652.171	36132.37
652.523	35944.58
652.875	35956.1
653.227	35883.11
653.578	36221.18
653.93	36142.54
654.282	35931.47
654.633	35919.95
654.985	36019.38
655.337	35958.81
655.688	36029.55
656.039	36034.97
656.391	35724.92
656.742	35821.42
657.094	35843.79
657.445	35885.37
657.796	35917.01
658.147	35790.91
658.498	35749.1
658.849	35811.25
659.2	35712.95
659.551	35439.96
659.902	35862.32
660.253	35705.71
660.604	35826.39
660.955	35590.24
661.306	35804.69
661.656	35678.82
662.007	35719.72
662.358	35786.84
662.708	35693.28
663.059	35693.74
663.409	35440.64
663.76	35763.79
664.11	35618.71
664.461	35859.16
664.811	35790.68
665.161	35683.12
665.511	35518.37
665.862	35705.71
666.212	35682.89
666.562	35813.28
666.912	35729.89
667.262	35618.48
667.612	35712.04
667.962	35636.56
668.312	35555.21
668.662	35754.98
669.011	35668.65
669.361	35686.51
669.711	35490.8
670.06	35552.72
670.41	35400.64
670.76	35510.69
671.109	35484.7
671.459	35420.07
671.808	35423.24
672.157	35531.71
672.507	35243.58
672.856	35473.18
673.205	35379.85
673.554	35492.84
673.904	35487.19
674.253	35618.71
674.602	35493.52
674.951	34933.08
675.3	34705.97
675.649	35291.94
675.998	35344.14
676.346	35283.13
676.695	35406.96
677.044	35149.57
677.393	35254.43
677.741	35312.28
678.09	35207.87
678.438	35041.32
678.787	35154.54
679.135	35254.2
679.484	35007.2
679.832	35092.85
680.181	34897.83
680.529	35015.34
680.877	34895.34
681.225	34863.02
681.573	35136.24
681.922	34813.31
682.27	34723.37
682.618	34740.32
682.966	34604.05
683.314	34706.42
683.661	34708.45
684.009	34609.7
684.357	34407.89
684.705	34342.36
685.053	34388.01
685.4	34383.04
685.748	34173.1
686.095	34231.18
686.443	33922.71
686.79	34045.42
687.138	33978.53
687.485	34264.17
687.832	33922.94
688.18	34019.88
688.527	33783.05
688.874	33774.01
689.221	33703.73
689.568	33588.93
689.915	33549.39
690.262	33466.68
690.609	33418.77
690.956	33311.88
691.303	33299.22
691.65	33173.12
691.997	33182.16
692.344	32985.79
692.69	33056.52
693.037	33101.04
693.383	32760.03
693.73	32915.28
694.077	32543.99
694.423	32807.03
694.769	32492.24
695.116	32508.28
695.462	32525.23
695.808	32402.52
696.155	32390.77
696.501	32254.73
696.847	32178.8
697.193	32002.53
697.539	32165.92
697.885	31849.32
698.231	31779.26
698.577	31784.23
698.923	31686.16
699.269	31631.92
699.614	31330.24
699.96	31299.73
700.306	31434.19
700.651	31217.02
700.997	31137.92
701.342	31173.18
701.688	31226.06
702.033	30967.31
702.379	30951.49
702.724	30933.41
703.069	30931.38
703.415	30570.71
703.76	30756.24
704.105	30632.63
704.45	30468.34
704.795	30316.02
705.14	30277.38
705.485	30353.54
705.83	30085.52
706.175	30232.19
706.52	30060.66
706.865	29886.21
707.209	29881.91
707.554	29892.53
707.899	29888.24
708.243	29687.57
708.588	29673.78
708.932	29483.73
709.277	29560.34
709.621	29508.14
709.966	29266.33
710.31	29370.29
710.654	29137.52
710.998	29164.64
711.342	29215.04
711.687	29133.68
712.031	29008.71
712.375	28896.85
712.719	29002.61
713.063	28861.6
713.407	28928.49
713.75	28844.43
714.094	28686.24
714.438	28598.1
714.782	28556.52
715.125	28551.55
715.469	28570.31
715.812	28254.61
716.156	28258.68
716.499	28217.55
716.843	28336.19
717.186	28141.39
717.53	28293.93
717.873	28220.49
718.216	28024.11
718.559	28099.13
718.902	27704.34
719.246	27936.65
719.589	27752.93
719.932	27671.12
720.275	27597.45
720.617	27692.59
720.96	27694.17
721.303	27700.95
721.646	27561.3
721.989	27342.09
722.331	27472.26
722.674	27422.09
723.016	27409.21
723.359	27348.42
723.701	27404.01
724.044	27278.14
724.386	27183.23
724.729	27265.48
725.071	27204.69
725.413	27094.87
725.755	27124.02
726.097	26982.33
726.439	26933.51
726.782	26975.77
727.124	26940.75
727.465	26847.87
727.807	26817.13
728.149	26718.61
728.491	26632.51
728.833	26733.29
729.175	26607.42
729.516	26573.3
729.858	26604.94
730.199	26546.18
730.541	26506.18
730.882	26442.68
731.224	26389.8
731.565	26372.17
731.906	26190.26
732.248	26269.8
732.589	26185.29
732.93	26165.85
733.271	26112.29
733.612	26162.46
733.953	26114.1
734.294	26005.18
734.635	26013.77
734.976	26052.86
735.317	25832.53
735.658	25952.52
735.999	25874.33
736.339	25778.52
736.68	25790.49
737.021	25717.73
737.361	25625.07
737.702	25742.81
738.042	25726.09
738.383	25673.89
738.723	25660.33
739.063	25535.36
739.404	25669.59
739.744	25496.04
740.084	25416.94
740.424	25432.99
740.764	25534.91
741.104	25537.62
741.444	25378.08
741.784	25168.59
742.124	25267.57
742.464	25322.48
742.804	25181.24
743.143	25130.4
743.483	25159.1
743.823	24927.92
744.162	25062.15
744.502	25102.83
744.841	24930.18
745.181	25076.61
745.52	24906.68
745.86	24933.12
746.199	24855.15
746.538	24797.53
746.877	24806.79
747.216	24777.41
747.556	24700.81
747.895	24719.56
748.234	24625.78
748.573	24618.55
748.911	24501.71
749.25	24569.51
749.589	24333.58
749.928	24417.87
750.267	24345.56
750.605	24308.27
750.944	24367.48
751.283	24239.12
751.621	24186.47
751.96	24113.02
752.298	24158.9
752.636	24064.44
752.975	23949.19
753.313	23945.8
753.651	24016.98
753.989	23862.18
754.327	23869.41
754.666	23641.4
755.004	23612.47
755.342	23648.18
755.679	23684.56
756.017	23518.46
756.355	23561.4
756.693	23444.12
757.031	23400.73
757.368	23406.15
757.706	23311.69
758.044	23208.42
758.381	23332.03
758.719	23113.28
759.056	23198.7
759.394	22977.46
759.731	22955.09
760.068	22980.17
