Data from hue_210_FLMS001491_00091.txt Node
Date: Tue Feb 07 16:42:00 GMT 2017
User: dcchb
Spectrometer: FLMS00149
Trigger mode: 0
Integration Time (sec): 2.000000E-2
Scans to average: 10
Electric dark correction enabled: true
Nonlinearity correction enabled: false
Boxcar width: 0
XAxis mode: Wavelengths
Number of Pixels in Spectrum: 2048
>>>>>Begin Spectral Data<<<<<
341.393	-4.76
341.776	-4.76
342.16	-4.76
342.543	-68.49
342.927	-60.35
343.31	-57.41
343.693	-80.46
344.077	-67.58
344.46	-49.73
344.843	-44.08
345.226	-51.76
345.61	-34.14
345.993	-8.15
346.376	-6.79
346.759	17.61
347.142	34.56
347.525	36.14
347.908	48.57
348.291	83.15
348.674	82.24
349.057	97.84
349.44	132.86
349.823	137.61
350.206	142.58
350.588	193.2
350.971	193.65
351.354	211.28
351.737	234.1
352.119	259.87
352.502	248.34
352.884	279.07
353.267	268
353.65	279.07
354.032	299.19
354.414	297.38
354.797	299.19
355.179	315.46
355.562	319.07
355.944	316.14
356.326	318.62
356.709	331.73
357.091	327.43
357.473	332.86
357.855	324.72
358.238	329.47
358.62	322.92
359.002	324.5
359.384	363.14
359.766	344.61
360.148	355.23
360.53	340.32
360.912	349.58
361.294	336.7
361.676	326.98
362.057	336.93
362.439	318.17
362.821	317.49
363.203	344.38
363.584	331.5
363.966	317.94
364.348	316.36
364.729	322.46
365.111	329.69
365.493	304.84
365.874	306.42
366.256	306.87
366.637	310.94
367.019	318.85
367.4	316.81
367.781	320.88
368.163	310.26
368.544	294.44
368.925	307.77
369.306	308.9
369.688	320.66
370.069	305.06
370.45	291.73
370.831	296.25
371.212	312.07
371.593	296.48
371.974	308.23
372.355	293.09
372.736	313.88
373.117	294.44
373.498	313.42
373.879	310.94
374.26	307.32
374.641	321.33
375.021	321.79
375.402	312.75
375.783	305.74
376.163	334.21
376.544	336.02
376.925	324.05
377.305	336.93
377.686	321.11
378.066	324.72
378.447	320.66
378.827	301.67
379.208	336.93
379.588	343.03
379.968	325.85
380.349	331.28
380.729	331.05
381.109	322.24
381.489	332.63
381.87	329.69
382.25	351.16
382.63	319.53
383.01	336.25
383.39	336.02
383.77	327.43
384.15	338.96
384.53	338.06
384.91	353.42
385.29	336.25
385.67	332.86
386.049	372.18
386.429	350.26
386.809	341.9
387.189	342.35
387.568	327.89
387.948	366.08
388.328	358.39
388.707	363.37
389.087	343.03
389.466	349.58
389.846	361.33
390.225	374.44
390.605	367.21
390.984	349.58
391.363	366.08
391.743	376.93
392.122	357.04
392.501	338.73
392.881	374.67
393.26	371.95
393.639	359.98
394.018	380.54
394.397	370.15
394.776	368.11
395.155	371.73
395.534	388.9
395.913	367.43
396.292	404.5
396.671	397.26
397.05	402.69
397.429	378.96
397.808	375.57
398.186	395.46
398.565	400.88
398.944	392.97
399.323	420.54
399.701	399.07
400.08	411.27
400.458	390.48
400.837	418.05
401.215	406.98
401.594	411.95
401.972	434.55
402.351	428.22
402.729	438.62
403.107	453.08
403.486	427.09
403.864	434.32
404.242	451.05
404.62	446.98
404.999	426.64
405.377	443.59
405.755	454.66
406.133	469.8
406.511	454.44
406.889	475.45
407.267	479.97
407.645	470.93
408.023	489.69
408.401	495.34
408.779	479.52
409.156	489.24
409.534	506.64
409.912	518.84
410.29	529.69
410.667	546.19
411.045	533.08
411.422	524.94
411.8	560.88
412.178	555
412.555	558.62
412.933	575.11
413.31	557.49
413.687	558.62
414.065	621.21
414.442	606.07
414.819	634.77
415.197	635.68
415.574	627.31
415.951	639.07
416.328	661.66
416.705	645.62
417.082	672.28
417.46	672.74
417.837	698.5
418.214	687.2
418.591	704.15
418.967	726.29
419.344	750.25
419.721	751.6
420.098	757.03
420.475	766.52
420.852	771.94
421.228	804.94
421.605	807.2
421.982	806.97
422.358	814.2
422.735	832.96
423.111	837.93
423.488	858.04
423.864	853.07
424.241	881.32
424.617	902.11
424.994	909.79
425.37	942.79
425.746	940.98
426.123	930.81
426.499	976.46
426.875	976.68
427.251	981.65
427.627	1018.72
428.003	1011.71
428.379	1048.32
428.756	1029.79
429.132	1050.58
429.507	1074.53
429.883	1106.62
430.259	1089.22
430.635	1101.43
431.011	1149.56
431.387	1138.04
431.763	1160.86
432.138	1189.56
432.514	1183.01
432.89	1216.23
433.265	1259.61
433.641	1272.49
434.016	1275.66
434.392	1300.74
434.767	1336.9
435.143	1339.39
435.518	1346.39
435.894	1399.27
436.269	1418.25
436.644	1440.85
437.02	1438.59
437.395	1467.74
437.77	1530.12
438.145	1543.22
438.52	1528.08
438.895	1599.49
439.271	1571.7
439.646	1641.3
440.021	1628.87
440.395	1667.29
440.77	1663.67
441.145	1677.68
441.52	1714.97
441.895	1742.99
442.27	1750.45
442.645	1762.88
443.019	1792.48
443.394	1789.09
443.769	1829.32
444.143	1806.72
444.518	1858.02
444.892	1844.68
445.267	1876.77
445.641	1866.15
446.016	1913.61
446.39	1919.94
446.764	1942.53
447.139	1975.08
447.513	1982.08
447.887	1962.87
448.262	2008.75
448.636	2022.08
449.01	2004.45
449.384	2064.34
449.758	2070.44
450.132	2070.44
450.506	2091
450.88	2152.92
451.254	2116.54
451.628	2165.8
452.002	2190.89
452.376	2223.66
452.75	2204.22
453.123	2252.36
453.497	2294.84
453.871	2283.99
454.244	2332.13
454.618	2347.95
454.992	2359.47
455.365	2343.65
455.739	2422.97
456.112	2454.84
456.486	2501.16
456.859	2532.8
457.232	2519.02
457.606	2529.41
457.979	2587.26
458.352	2564.66
458.725	2616.19
459.099	2672.91
459.472	2709.29
459.845	2713.59
460.218	2767.6
460.591	2773.02
460.964	2794.71
461.337	2846.69
461.71	2893.47
462.083	2940.02
462.456	2944.99
462.829	2954.48
463.201	3022.51
463.574	2978.89
463.947	3063.63
464.32	3111.09
464.692	3153.35
465.065	3193.8
465.438	3187.47
465.81	3211.65
466.183	3293.46
466.555	3382.27
466.928	3364.19
467.3	3362.16
467.672	3411.2
468.045	3481.02
468.417	3495.49
468.789	3522.38
469.161	3570.51
469.534	3620.46
469.906	3724.63
470.278	3717.4
470.65	3764.41
471.022	3837.85
471.394	3866.55
471.766	3894.8
472.138	3941.58
472.51	3973.44
472.882	4070.61
473.253	4124.4
473.625	4178.18
473.997	4224.73
474.369	4237.16
474.74	4316.48
475.112	4390.83
475.484	4460.21
475.855	4536.14
476.227	4556.25
476.598	4675.8
476.97	4672.18
477.341	4854.32
477.713	4804.83
478.084	4920.99
478.455	4998.05
478.827	5029.46
479.198	5138.38
479.569	5114.2
479.94	5290.24
480.311	5358.94
480.682	5440.75
481.053	5575.21
481.424	5550.12
481.795	5697.69
482.166	5752.83
482.537	5799.16
482.908	5891.13
483.279	5988.08
483.65	6034.18
484.021	6151.46
484.391	6244.57
484.762	6249.54
485.133	6298.35
485.503	6412.92
485.874	6484.34
486.244	6534.5
486.615	6689.75
486.985	6687.49
487.356	6875.96
487.726	6875.96
488.097	7001.16
488.467	7056.75
488.837	7175.39
489.207	7179.91
489.578	7347.36
489.948	7380.58
490.318	7383.07
490.688	7470.75
491.058	7544.42
491.428	7724.53
491.798	7738.77
492.168	7879.78
492.538	7883.17
492.908	7959.55
493.278	8057.85
493.648	8035.03
494.017	8176.95
494.387	8175.59
494.757	8204.52
495.126	8328.81
495.496	8308.02
495.866	8425.75
496.235	8404.51
496.605	8501.23
496.974	8562.92
497.344	8627.1
497.713	8581.23
498.082	8699.19
498.452	8743.71
498.821	8790.94
499.19	8803.82
499.559	8846.31
499.928	8933.31
500.298	8927.89
500.667	8984.38
501.036	8994.55
501.405	9001.56
501.774	9061.22
502.143	9071.16
502.512	9133.31
502.88	9166.98
503.249	9202.23
503.618	9301.66
503.987	9191.61
504.356	9241.32
504.724	9300.53
505.093	9375.11
505.462	9336.69
505.83	9430.92
506.199	9457.82
506.567	9565.16
506.936	9476.57
507.304	9492.62
507.672	9557.47
508.041	9587.76
508.409	9706.85
508.777	9703.69
509.145	9779.16
509.514	9621.2
509.882	9699.39
510.25	9741.2
510.618	9849.22
510.986	9820.52
511.354	9796.11
511.722	9859.16
512.09	9904.36
512.458	9917.92
512.826	9970.8
513.193	9975.54
513.561	9987.29
513.929	9970.35
514.297	10029.33
514.664	10068.87
515.032	10098.48
515.4	10107.52
515.767	10097.57
516.135	10141.87
516.502	10082.21
516.869	10146.16
517.237	10176.89
517.604	10169.21
517.972	10180.96
518.339	10206.05
518.706	10147.97
519.073	10206.5
519.44	10237.46
519.808	10358.81
520.175	10240.17
520.542	10315.19
520.909	10282.43
521.276	10305.25
521.643	10377.57
522.009	10374.18
522.376	10408.98
522.743	10378.47
523.11	10481.52
523.477	10449.65
523.843	10498.24
524.21	10507.05
524.577	10469.54
524.943	10495.98
525.31	10566.04
525.676	10657.78
526.043	10573.95
526.409	10647.84
526.776	10640.84
527.142	10602.19
527.508	10669.54
527.874	10664.56
528.241	10626.6
528.607	10672.93
528.973	10704.56
529.339	10607.39
529.705	10696.88
530.071	10626.37
530.437	10662.76
530.803	10692.36
531.169	10668.18
531.535	10664.79
531.901	10604.68
532.267	10652.81
532.632	10645.81
532.998	10682.87
533.364	10623.89
533.73	10621.63
534.095	10717.44
534.461	10672.02
534.826	10658.69
535.192	10670.44
535.557	10578.92
535.923	10574.62
536.288	10549.99
536.653	10566.94
537.019	10482.87
537.384	10527.62
537.749	10496.21
538.114	10406.72
538.479	10441.29
538.845	10398.58
539.21	10340.05
539.575	10350.9
539.94	10369.66
540.305	10307.74
540.67	10229.1
541.034	10224.58
541.399	10243.11
541.764	10239.26
542.129	10237.91
542.494	10194.52
542.858	10127.86
543.223	10060.06
543.587	10075.43
543.952	10014.41
544.316	10096.44
544.681	9995.66
545.045	10020.74
545.41	10021.87
545.774	9968.09
546.138	9893.51
546.503	9914.08
546.867	9921.31
547.231	9858.71
547.595	9851.7
547.959	9816.9
548.324	9767.86
548.688	9700.07
549.052	9668.66
549.416	9679.96
549.779	9651.71
550.143	9634.08
550.507	9654.42
550.871	9555.44
551.235	9568.1
551.599	9592.95
551.962	9591.37
552.326	9559.51
552.689	9469.57
553.053	9458.04
553.417	9401.55
553.78	9520.87
554.143	9426.18
554.507	9444.26
554.87	9333.98
555.234	9407.87
555.597	9284.94
555.96	9412.39
556.323	9298.05
556.686	9314.09
557.05	9261.89
557.413	9307.76
557.776	9293.53
558.139	9370.59
558.502	9305.05
558.865	9221.21
559.228	9250.14
559.59	9214.88
559.953	9223.7
560.316	9257.82
560.679	9231.61
561.041	9344.6
561.404	9276.58
561.767	9369.23
562.129	9191.16
562.492	9262.57
562.854	9196.58
563.217	9191.61
563.579	9232.29
563.941	9219.63
564.304	9204.49
564.666	9225.51
565.028	9230.25
565.39	9196.13
565.753	9275.22
566.115	9220.08
566.477	9289.91
566.839	9289.01
567.201	9241.78
567.563	9282.91
567.925	9385.5
568.287	9369.01
568.648	9303.47
569.01	9346.63
569.372	9370.13
569.734	9342.57
570.095	9353.86
570.457	9424.6
570.819	9338.27
571.18	9345.5
571.542	9407.87
571.903	9423.69
572.265	9395.9
572.626	9492.84
572.987	9438.83
573.349	9395.45
573.71	9469.34
574.071	9469.12
574.432	9521.54
574.794	9550.02
575.155	9532.16
575.516	9532.39
575.877	9560.41
576.238	9559.51
576.599	9544.59
576.96	9541.66
577.32	9607.87
577.681	9600.64
578.042	9619.85
578.403	9597.02
578.763	9580.3
579.124	9545.95
579.485	9629.79
579.845	9611.26
580.206	9623.24
580.566	9619.39
580.927	9687.41
581.287	9759.96
581.648	9648.32
582.008	9707.98
582.368	9742.78
582.728	9665.27
583.089	9724.48
583.449	9631.6
583.809	9768.99
584.169	9743.46
584.529	9674.53
584.889	9742.55
585.249	9749.56
585.609	9723.8
585.969	9700.3
586.329	9761.31
586.688	9798.37
587.048	9778.26
587.408	9750.24
587.768	9718.6
588.127	9727.41
588.487	9753.63
588.846	9790.91
589.206	9716.34
589.565	9781.2
589.925	9795.43
590.284	9829.11
590.643	9804.02
591.003	9823.91
591.362	9825.94
591.721	9799.05
592.08	9772.61
592.44	9867.52
592.799	9891.7
593.158	9850.12
593.517	9820.97
593.876	9828.88
594.235	9796.11
594.593	9788.43
594.952	9780.52
595.311	9766.51
595.67	9891.7
596.029	9903.45
596.387	9859.61
596.746	9903.23
597.104	9811.25
597.463	9806.06
597.822	9879.73
598.18	9871.36
598.538	9789.56
598.897	9896.45
599.255	9835.89
599.613	9947.97
599.972	9884.47
600.33	9864.36
600.688	9862.1
601.046	9921.53
601.404	9957.46
601.762	9883.34
602.12	9943.23
602.478	9901.42
602.836	9907.75
603.194	9824.81
603.552	9920.18
603.91	9880.18
604.268	9872.04
604.625	9864.13
604.983	9877.47
605.341	9870.01
605.698	9885.15
606.056	9940.29
606.413	9911.14
606.771	9951.14
607.128	9964.92
607.485	9894.41
607.843	9907.07
608.2	10016.67
608.557	9980.97
608.914	9943.91
609.272	9962.44
609.629	9965.6
609.986	9954.75
610.343	9926.28
610.7	10032.04
611.057	10055.09
611.414	10028.2
611.771	9963.34
612.127	10094.64
612.484	10089.89
612.841	10062.32
613.198	10056.67
613.554	10075.2
613.911	10124.69
614.267	10090.79
614.624	10121.53
614.98	10078.82
615.337	10079.95
615.693	10054.41
616.05	10075.65
616.406	10168.31
616.762	10106.84
617.118	10115.2
617.475	10159.94
617.831	10122.88
618.187	10174.41
618.543	10168.08
618.899	10156.78
619.255	10210.34
619.611	10233.16
619.967	10213.05
620.323	10223.45
620.678	10263.44
621.034	10197.46
621.39	10093.28
621.746	10140.51
622.101	10259.15
622.457	10162.88
622.812	10232.94
623.168	10226.84
623.523	10187.29
623.879	10250.34
624.234	10195.42
624.589	10137.8
624.945	10228.42
625.3	10188.64
625.655	10157.01
626.01	10207.85
626.365	10122.88
626.72	10117.01
627.075	10221.19
627.43	10120.62
627.785	10125.37
628.14	10123.34
628.495	10151.36
628.85	10100.96
629.205	10103
629.559	10139.61
629.914	10105.48
630.269	10077.24
630.623	10110
630.978	10079.27
631.332	10098.03
631.687	10045.37
632.041	10085.14
632.396	10074.75
632.75	10052.15
633.104	10109.78
633.459	9978.48
633.813	10062.55
634.167	9990.68
634.521	9923.34
634.875	10031.81
635.229	9989.1
635.583	9936.9
635.937	10025.94
636.291	9922.21
636.645	9877.01
636.999	9839.5
637.352	9917.24
637.706	9857.13
638.06	9797.92
638.413	9785.04
638.767	9801.99
639.121	9789.33
639.474	9752.27
639.828	9792.04
640.181	9830.24
640.534	9754.98
640.888	9747.98
641.241	9740.97
641.594	9680.41
641.947	9781.42
642.301	9670.47
642.654	9680.41
643.007	9735.32
643.36	9805.6
643.713	9679.51
644.066	9698.94
644.419	9645.83
644.771	9657.13
645.124	9555.67
645.477	9519.06
645.83	9434.09
646.182	9432.05
646.535	9359.06
646.888	9364.03
647.24	9367.88
647.593	9351.83
647.945	9430.7
648.298	9368.55
648.65	9296.46
649.002	9304.6
649.355	9410.59
649.707	9414.65
650.059	9433.18
650.411	9545.27
650.763	9515.44
651.115	9672.27
651.467	9599.06
651.819	9570.36
652.171	9627.76
652.523	9580.3
652.875	9573.29
653.227	9507.98
653.578	9591.6
653.93	9555.44
654.282	9492.39
654.633	9557.93
654.985	9571.49
655.337	9636.57
655.688	9577.14
656.039	9616
656.391	9554.54
656.742	9503.69
657.094	9516.35
657.445	9598.38
657.796	9535.55
658.147	9545.27
658.498	9538.49
658.849	9622.11
659.2	9632.95
659.551	9595.21
659.902	9572.62
660.253	9597.47
660.604	9657.59
660.955	9574.2
661.306	9591.37
661.656	9653.52
662.007	9604.71
662.358	9629.11
662.708	9642.22
663.059	9579.17
663.409	9583.01
663.76	9592.5
664.11	9656.68
664.461	9641.31
664.811	9691.93
665.161	9648.77
665.511	9608.77
665.862	9680.86
666.212	9681.99
666.562	9681.54
666.912	9683.12
667.262	9653.52
667.612	9650.81
667.962	9699.62
668.312	9634.31
668.662	9686.06
669.011	9645.38
669.361	9626.17
669.711	9617.36
670.06	9634.53
670.41	9545.27
670.76	9551.83
671.109	9587.76
671.459	9599.51
671.808	9554.54
672.157	9539.85
672.507	9548.89
672.856	9558.6
673.205	9613.97
673.554	9559.51
673.904	9597.93
674.253	9612.16
674.602	9550.24
674.951	9402
675.3	9343.69
675.649	9533.75
675.998	9535.1
676.346	9507.76
676.695	9530.81
677.044	9447.65
677.393	9482
677.741	9480.19
678.09	9457.59
678.438	9369.01
678.787	9413.98
679.135	9395.67
679.484	9377.59
679.832	9413.75
680.181	9349.57
680.529	9408.78
680.877	9397.48
681.225	9282.45
681.573	9329.23
681.922	9324.26
682.27	9249.91
682.618	9202
682.966	9260.53
683.314	9235.45
683.661	9159.97
684.009	9142.12
684.357	9111.61
684.705	9178.05
685.053	9158.84
685.4	9108.67
685.748	9039.97
686.095	9066.64
686.443	9046.53
686.79	9008.79
687.138	9020.99
687.485	9049.69
687.832	8947.77
688.18	8963.14
688.527	8912.07
688.874	8877.94
689.221	8862.8
689.568	8832.52
689.915	8823.93
690.262	8844.95
690.609	8756.59
690.956	8730.38
691.303	8754.33
691.65	8656.26
691.997	8725.86
692.344	8583.94
692.69	8604.73
693.037	8627.56
693.383	8552.98
693.73	8529.25
694.077	8510.5
694.423	8525.64
694.769	8436.6
695.116	8469.59
695.462	8424.4
695.808	8329.03
696.155	8332.87
696.501	8309.82
696.847	8283.38
697.193	8263.95
697.539	8248.81
697.885	8182.37
698.231	8147.34
698.577	8141.92
698.923	8115.93
699.269	8118.87
699.614	8001.36
699.96	8067.8
700.306	8031.64
700.651	7963.62
700.997	7921.13
701.342	7935.82
701.688	7918.2
702.033	7803.17
702.379	7826.45
702.724	7816.28
703.069	7823.28
703.415	7711.65
703.76	7668.48
704.105	7743.96
704.45	7611.76
704.795	7654.93
705.14	7567.92
705.485	7596.17
705.83	7524.53
706.175	7547.36
706.52	7462.16
706.865	7445.44
707.209	7454.93
707.554	7421.26
707.899	7404.76
708.243	7322.28
708.588	7369.28
708.932	7302.17
709.277	7327.7
709.621	7307.14
709.966	7288.61
710.31	7266.24
710.654	7234.15
710.998	7218.1
711.342	7216.75
711.687	7191.21
712.031	7158.89
712.375	7136.75
712.719	7151.89
713.063	7095.84
713.407	7127.03
713.75	7059.24
714.094	7077.77
714.438	7091.55
714.782	7081.38
715.125	7007.26
715.469	7020.14
715.812	7014.49
716.156	6943.31
716.499	6985.79
716.843	6984.43
717.186	6984.66
717.53	6990.76
717.873	6943.31
718.216	6924.55
718.559	6899.01
718.902	6865.34
719.246	6884.55
719.589	6851.56
719.932	6830.77
720.275	6866.92
720.617	6866.7
720.96	6825.12
721.303	6824.44
721.646	6841.16
721.989	6813.82
722.331	6786.93
722.674	6786.93
723.016	6749.86
723.359	6782.41
723.701	6712.13
724.044	6752.12
724.386	6713.48
724.729	6780.37
725.071	6759.81
725.413	6755.29
725.755	6739.02
726.097	6713.71
726.439	6663.77
726.782	6694.05
727.124	6707.83
727.465	6680.94
727.807	6673.03
728.149	6729.3
728.491	6675.52
728.833	6677.1
729.175	6648.4
729.516	6687.49
729.858	6703.76
730.199	6667.61
730.541	6629.42
730.882	6606.14
731.224	6652.47
731.565	6702.41
731.906	6625.35
732.248	6702.41
732.589	6652.69
732.93	6631.22
733.271	6623.99
733.612	6671.67
733.953	6624.44
734.294	6597.33
734.635	6645.91
734.976	6658.12
735.317	6692.24
735.658	6606.82
735.999	6682.97
736.339	6663.09
736.68	6709.64
737.021	6685.01
737.361	6654.95
737.702	6668.29
738.042	6734.72
738.383	6697.44
738.723	6728.85
739.063	6668.29
739.404	6699.92
739.744	6685.01
740.084	6798.23
740.424	6763.88
740.764	6754.61
741.104	6833.48
741.444	6749.41
741.784	6794.61
742.124	6832.12
742.464	6788.51
742.804	6857.43
743.143	6855.85
743.483	6836.19
743.823	6832.35
744.162	6925
744.502	6930.88
744.841	6931.1
745.181	6967.94
745.52	7022.4
745.86	7059.91
746.199	7027.82
746.538	7050.42
746.877	7156.86
747.216	7209.97
747.556	7193.02
747.895	7262.17
748.234	7289.06
748.573	7360.02
748.911	7364.09
749.25	7526.57
749.589	7504.2
749.928	7642.27
750.267	7671.42
750.605	7747.13
750.944	7790.52
751.283	7850.63
751.621	8006.33
751.96	8026.89
752.298	8110.51
752.636	8235.02
752.975	8334.23
753.313	8397.73
753.651	8503.72
753.989	8580.78
754.327	8680.44
754.666	8711.85
755.004	8916.81
755.342	9046.3
755.679	9228.9
756.017	9300.98
756.355	9430.7
756.693	9509.34
757.031	9697.58
757.368	9777.81
757.706	9898.48
758.044	10102.32
758.381	10313.61
758.719	10402.42
759.056	10632.02
759.394	10744.79
759.731	10872.24
760.068	11014.16
760.405	11072.92
760.743	11287.82
761.08	11497.99
761.417	11590.19
761.754	11766
762.091	11976.62
762.428	12172.77
762.765	12316.5
763.102	12515.14
763.438	12673.78
763.775	12749.48
764.112	13071.73
764.449	13164.84
764.785	13276.25
765.122	13418.62
765.458	13565.73
765.795	13702.22
