Data from hue_38_FLMS001491_00030.txt Node
Date: Tue Feb 07 17:31:18 GMT 2017
User: dcchb
Spectrometer: FLMS00149
Trigger mode: 0
Integration Time (sec): 2.000000E-2
Scans to average: 10
Electric dark correction enabled: true
Nonlinearity correction enabled: false
Boxcar width: 0
XAxis mode: Wavelengths
Number of Pixels in Spectrum: 2048
>>>>>Begin Spectral Data<<<<<
341.393	-10.52
341.776	-10.52
342.16	-10.52
342.543	-76.06
342.927	-77.41
343.31	-70.63
343.693	-76.51
344.077	-59.56
344.46	-58.2
344.843	-59.33
345.226	-31.09
345.61	-17.75
345.993	-21.6
346.376	-24.31
346.759	-9.62
347.142	21.34
347.525	44.84
347.908	60.44
348.291	69.48
348.674	112.64
349.057	119.87
349.44	123.94
349.823	167.1
350.206	161
350.588	205.07
350.971	209.36
351.354	232.86
351.737	257.95
352.119	262.69
352.502	276.02
352.884	278.74
353.267	288.9
353.65	309.24
354.032	285.06
354.414	320.32
354.797	325.06
355.179	336.36
355.562	330.03
355.944	328.23
356.326	344.95
356.709	342.01
357.091	338.17
357.473	353.76
357.855	369.13
358.238	341.11
358.62	349.92
359.002	346.08
359.384	347.89
359.766	347.66
360.148	323.71
360.53	349.47
360.912	356.47
361.294	332.29
361.676	339.07
362.057	348.34
362.439	318.28
362.821	347.89
363.203	335.01
363.584	341.11
363.966	349.24
364.348	347.21
364.729	336.81
365.111	327.55
365.493	329.58
365.874	330.26
366.256	335.46
366.637	326.64
367.019	354.67
367.4	319.19
367.781	323.25
368.163	316.02
368.544	308.57
368.925	314.44
369.306	320.32
369.688	293.42
370.069	310.15
370.45	337.72
370.831	330.03
371.212	332.07
371.593	335.23
371.974	323.03
372.355	317.38
372.736	312.41
373.117	334.78
373.498	331.39
373.879	327.32
374.26	318.06
374.641	324.38
375.021	327.55
375.402	311.5
375.783	327.77
376.163	338.85
376.544	353.76
376.925	350.15
377.305	328.9
377.686	336.14
378.066	353.31
378.447	333.88
378.827	346.98
379.208	323.71
379.588	335.68
379.968	327.55
380.349	337.04
380.729	335.23
381.109	336.59
381.489	362.12
381.87	360.32
382.25	341.78
382.63	370.71
383.01	349.69
383.39	360.54
383.77	357.38
384.15	330.26
384.53	364.84
384.91	354.21
385.29	365.51
385.67	351.73
386.049	344.04
386.429	360.32
386.809	353.99
387.189	368.9
387.568	384.95
387.948	356.25
388.328	386.98
388.707	383.59
389.087	372.97
389.466	366.64
389.846	368.22
390.225	366.42
390.605	392.63
390.984	382.91
391.363	373.65
391.743	382.69
392.122	367.77
392.501	369.81
392.881	389.47
393.26	401.44
393.639	414.1
394.018	385.17
394.397	391.73
394.776	404.38
395.155	394.21
395.534	387.89
395.913	407.09
396.292	394.21
396.671	416.81
397.05	396.47
397.429	405.96
397.808	402.35
398.186	392.86
398.565	412.52
398.944	414.78
399.323	409.81
399.701	403.25
400.08	424.04
400.458	402.12
400.837	419.75
401.215	419.97
401.594	396.7
401.972	420.88
402.351	411.61
402.729	435.57
403.107	436.92
403.486	426.3
403.864	439.64
404.242	413.2
404.62	437.6
404.999	433.99
405.377	427.43
405.755	441.22
406.133	444.38
406.511	447.09
406.889	430.14
407.267	478.96
407.645	457.71
408.023	450.03
408.401	460.88
408.779	471.5
409.156	478.96
409.534	447.54
409.912	470.59
410.29	459.52
410.667	463.59
411.045	466.98
411.422	460.88
411.8	465.4
412.178	480.09
412.555	488
412.933	491.84
413.31	490.26
413.687	503.36
414.065	491.84
414.442	500.88
414.819	502.01
415.197	502.46
415.574	526.86
415.951	498.39
416.328	522.12
416.705	528.45
417.082	530.93
417.46	532.51
417.837	525.51
418.214	526.19
418.591	540.65
418.967	529.12
419.344	546.07
419.721	517.15
420.098	538.39
420.475	534.77
420.852	543.81
421.228	572.51
421.605	572.97
421.982	564.6
422.358	570.48
422.735	547.66
423.111	571.38
423.488	552.63
423.864	570.25
424.241	559.18
424.617	587.43
424.994	593.3
425.37	580.87
425.746	591.72
426.123	596.47
426.499	560.76
426.875	580.87
427.251	606.18
427.627	605.73
428.003	639.18
428.379	617.71
428.756	644.15
429.132	617.94
429.507	641.21
429.883	632.17
430.259	647.77
430.635	646.64
431.011	656.35
431.387	658.16
431.763	654.32
432.138	673.98
432.514	674.43
432.89	690.25
433.265	684.83
433.641	703.81
434.016	681.89
434.392	695.22
434.767	720.76
435.143	710.59
435.518	710.81
435.894	725.73
436.269	718.72
436.644	728.89
437.02	732.73
437.395	734.54
437.77	761.66
438.145	748.78
438.52	752.17
438.895	759.85
439.271	765.05
439.646	787.87
440.021	783.81
440.395	799.63
440.77	796.01
441.145	821.55
441.52	819.96
441.895	824.94
442.27	792.17
442.645	788.33
443.019	835.11
443.394	823.35
443.769	829.23
444.143	821.77
444.518	848.89
444.892	834.88
445.267	859.06
445.641	856.12
446.016	853.64
446.39	862.68
446.764	848.89
447.139	869.23
447.513	890.92
447.887	903.13
448.262	874.65
448.636	877.59
449.01	862
449.384	890.7
449.758	909.45
450.132	904.93
450.506	911.71
450.88	948.32
451.254	903.8
451.628	925.27
452.002	939.51
452.376	939.96
452.75	934.54
453.123	986.51
453.497	971.6
453.871	969.56
454.244	983.8
454.618	1001.65
454.992	1020.19
455.365	1017.25
455.739	1031.71
456.112	1031.94
456.486	1049.11
456.859	1057.02
457.232	1054.08
457.606	1090.47
457.979	1083.69
458.352	1090.69
458.725	1132.5
459.099	1117.81
459.472	1126.17
459.845	1134.98
460.218	1179.05
460.591	1166.17
460.964	1160.07
461.337	1196.9
461.71	1200.97
462.083	1229.67
462.456	1228.09
462.829	1259.05
463.201	1281.42
463.574	1247.52
463.947	1268.99
464.32	1313.06
464.692	1319.16
465.065	1332.95
465.438	1346.5
465.81	1379.27
466.183	1384.92
466.555	1421.53
466.928	1429.67
467.3	1444.81
467.672	1447.07
468.045	1483.68
468.417	1513.51
468.789	1507.63
469.161	1510.79
469.534	1547.85
469.906	1590.57
470.278	1597.35
470.65	1623.56
471.022	1654.07
471.394	1709.21
471.766	1706.27
472.138	1730.67
472.51	1784.01
472.882	1799.6
473.253	1842.54
473.625	1861.29
473.997	1910.56
474.369	1949.43
474.74	1980.61
475.112	2018.35
475.484	2058.58
475.855	2101.51
476.227	2145.81
476.598	2204.33
476.97	2232.81
477.341	2301.96
477.713	2348.51
478.084	2339.7
478.455	2440.49
478.827	2487.94
479.198	2558
479.569	2616.75
479.94	2672.57
480.311	2746.02
480.682	2771.78
481.053	2906.46
481.424	2976.97
481.795	2993.47
482.166	3077.31
482.537	3168.6
482.908	3242.05
483.279	3296.96
483.65	3399.11
484.021	3509.84
484.391	3543.51
484.762	3634.13
485.133	3694.69
485.503	3762.49
485.874	3896.49
486.244	3979.43
486.615	4048.58
486.985	4177.39
487.356	4275.24
487.726	4409.02
488.097	4472.52
488.467	4545.06
488.837	4625.06
489.207	4778.5
489.578	4820.31
489.948	4948.9
490.318	5056.69
490.688	5164.71
491.058	5279.96
491.428	5351.82
491.798	5423.69
492.168	5599.73
492.538	5696.9
492.908	5801.08
493.278	5926.27
493.648	5944.58
494.017	6098.24
494.387	6138.69
494.757	6306.83
495.126	6385.69
495.496	6432.7
495.866	6549.76
496.235	6629.98
496.605	6723.99
496.974	6790.88
497.344	6907.49
497.713	6957.66
498.082	7094.38
498.452	7235.39
498.821	7336.86
499.19	7375.5
499.559	7468.83
499.928	7566.45
500.298	7655.26
500.667	7789.05
501.036	7787.46
501.405	7966.67
501.774	8008.02
502.143	8049.83
502.512	8139.55
502.88	8210.73
503.249	8205.08
503.618	8385.19
503.987	8405.98
504.356	8564.17
504.724	8567.33
505.093	8671.74
505.462	8802.58
505.83	8772.3
506.199	8982.24
506.567	9075.34
506.936	9042.12
507.304	9203.02
507.672	9242.12
508.041	9354.43
508.409	9432.62
508.777	9443.69
509.145	9553.75
509.514	9627.42
509.882	9722.56
510.25	9779.05
510.618	9788.99
510.986	9845.94
511.354	9927.75
511.722	10024.47
512.09	10210.45
512.458	10140.17
512.826	10312.14
513.193	10309.43
513.561	10318.25
513.929	10458.35
514.297	10541.74
514.664	10610.67
515.032	10675.52
515.4	10768.86
515.767	10812.02
516.135	10921.39
516.502	10933.6
516.869	11048.4
517.237	11066.47
517.604	11113.03
517.972	11144.66
518.339	11295.85
518.706	11262.4
519.073	11343.98
519.44	11453.36
519.808	11588.95
520.175	11554.37
520.542	11703.75
520.909	11770.86
521.276	11727.25
521.643	11811.31
522.009	11987.35
522.376	12034.13
522.743	12073.45
523.11	12145.09
523.477	12387.34
523.843	12428.92
524.21	12439.55
524.577	12618.3
524.943	12571.07
525.31	12702.59
525.676	12809.25
526.043	12827.78
526.409	12916.14
526.776	13016.03
527.142	13050.15
527.508	13168.34
527.874	13298.96
528.241	13279.07
528.607	13330.37
528.973	13453.53
529.339	13534.88
529.705	13638.16
530.071	13704.15
530.437	13807.65
530.803	13908.43
531.169	13983.91
531.535	14055.1
531.901	14002.22
532.267	14119.28
532.632	14270.91
532.998	14265.71
533.364	14371.7
533.73	14438.82
534.095	14544.35
534.461	14573.95
534.826	14625.48
535.192	14629.77
535.557	14745.02
535.923	14739.6
536.288	14847.84
536.653	14931.01
537.019	14916.77
537.384	14936.66
537.749	15063.21
538.114	15055.3
538.479	15212.13
538.845	15273.37
539.21	15324.89
539.575	15301.62
539.94	15317.89
540.305	15430.43
540.67	15492.8
541.034	15678.33
541.399	15595.85
541.764	15706.58
542.129	15674.94
542.494	15788.38
542.858	15801.72
543.223	15875.39
543.587	15976.85
543.952	15966.01
544.316	16136.4
544.681	16103.4
545.045	16141.6
545.41	16212.33
545.774	16238.99
546.138	16329.39
546.503	16363.74
546.867	16438.08
547.231	16495.26
547.595	16514.92
547.959	16655.25
548.324	16652.54
548.688	16680.79
549.052	16827.9
549.416	16807.79
549.779	16968.24
550.143	16915.59
550.507	17112.87
550.871	17164.17
551.235	17159.65
551.599	17332.98
551.962	17322.36
552.326	17321.45
552.689	17390.38
553.053	17295.69
553.417	17399.87
553.78	17718.96
554.143	17542.01
554.507	17672.85
554.87	17809.12
555.234	17918.72
555.597	17812.29
555.96	17923.92
556.323	17966.63
556.686	17967.54
557.05	18150.58
557.413	18098.83
557.776	18182.22
558.139	18284.82
558.502	18345.83
558.865	18374.53
559.228	18489.1
559.59	18543.34
559.953	18634.19
560.316	18768.42
560.679	18838.02
561.041	18981.75
561.404	18973.39
561.767	19088.86
562.129	19001.18
562.492	19230.33
562.854	19185.36
563.217	19211.12
563.579	19357.56
563.941	19425.12
564.304	19442.75
564.666	19644.55
565.028	19593.03
565.39	19697.89
565.753	19846.36
566.115	19901.95
566.477	19964.09
566.839	20000.7
567.201	20146.46
567.563	20122.06
567.925	20274.59
568.287	20348.94
568.648	20315.5
569.01	20433.91
569.372	20651.99
569.734	20540.12
570.095	20709.61
570.457	20756.39
570.819	20907.35
571.18	20937.63
571.542	21072.31
571.903	21090.39
572.265	21272.08
572.626	21189.15
572.987	21340.78
573.349	21444.73
573.71	21511.17
574.071	21639.08
574.432	21730.15
574.794	21900.31
575.155	21933.53
575.516	21945.51
575.877	22103.92
576.238	22165.39
576.599	22347.53
576.96	22426.4
577.32	22612.16
577.681	22676.56
578.042	22857.35
578.403	22893.51
578.763	22966.05
579.124	23110.68
579.485	23270.9
579.845	23438.13
580.206	23489.2
580.566	23610.55
580.927	23725.58
581.287	23968.28
581.648	24023.65
582.008	24304.54
582.368	24495.95
582.728	24603.75
583.089	24662.73
583.449	24954.7
583.809	25046.9
584.169	25188.14
584.529	25411.63
584.889	25722.59
585.249	25882.58
585.609	25859.31
585.969	26344.04
586.329	26367.54
586.688	26491.83
587.048	26808.21
587.408	26836
587.768	27080.29
588.127	27403.45
588.487	27474.4
588.846	27834.4
589.206	27862.87
589.565	28004.33
589.925	28455.85
590.284	28599.8
590.643	28781.04
591.003	28964.99
591.362	29387.8
591.721	29445.88
592.08	29573.78
592.44	29963.6
592.799	30125.86
593.158	30317.27
593.517	30520.2
593.876	30654.66
594.235	30849.91
594.593	31156.57
594.952	31335.32
595.311	31411.93
595.67	31700.51
596.029	32063.89
596.387	32270.21
596.746	32554.5
597.104	32543.2
597.463	32695.96
597.822	33045.56
598.18	33100.92
598.538	33217.98
598.897	33675.82
599.255	33475.15
599.613	34131.63
599.972	34051.63
600.33	34331.4
600.688	34465.86
601.046	34670.37
601.404	34906.53
601.762	34947.88
602.12	35329.57
602.478	35308.55
602.836	35590.58
603.194	35459.73
603.552	35730.01
603.91	35769.55
604.268	36064.24
604.625	36236.66
604.983	36385.36
605.341	36438.91
605.698	36638.91
606.056	36916.64
606.413	37014.27
606.771	37217.43
607.128	37393.01
607.485	37308.72
607.843	37514.37
608.2	37786
608.557	37862.38
608.914	37897.86
609.272	38226.66
609.629	38374.91
609.986	38484.74
610.343	38401.12
610.7	38856.03
611.057	38880.43
611.414	39009.47
611.771	39127.66
612.127	39157.71
612.484	39233.42
612.841	39489.46
613.198	39522.68
613.554	39607.19
613.911	39989.78
614.267	39958.82
614.624	39985.49
614.98	40171.25
615.337	40461.18
615.693	40324.01
616.05	40447.62
616.406	40587.51
616.762	40599.48
617.118	40772.81
617.475	40763.32
617.831	40964.67
618.187	40979.36
618.543	41133.25
618.899	41447.82
619.255	41359.46
619.611	41385.23
619.967	41558.1
620.323	41709.51
620.678	41610.53
621.034	41477.2
621.39	41679.45
621.746	41722.39
622.101	42177.52
622.457	41948.83
622.812	42039.45
623.168	42113.57
623.523	42069.05
623.879	42293
624.234	42137.07
624.589	42235.6
624.945	42312.43
625.3	42411.64
625.655	42347.91
626.01	42529.6
626.365	42430.85
626.72	42554.91
627.075	42585.19
627.43	42637.4
627.785	42549.49
628.14	42631.07
628.495	42666.77
628.85	42586.1
629.205	42568.7
629.559	42749.94
629.914	42627
630.269	42676.49
630.623	42653.67
630.978	42595.36
631.332	42875.36
631.687	42843.27
632.041	42775.47
632.396	42783.83
632.75	42671.07
633.104	42756.71
633.459	42493.67
633.813	42649.6
634.167	42721.46
634.521	42681.46
634.875	42855.02
635.229	42679.2
635.583	42574.8
635.937	42549.71
636.291	42550.84
636.645	42711.29
636.999	42578.41
637.352	42756.04
637.706	42399.66
638.06	42671.29
638.413	42611.86
638.767	42480.34
639.121	42554.46
639.474	42340
639.828	42414.12
640.181	42505.87
640.534	42465.87
640.888	42410.96
641.241	42212.77
641.594	42167.8
641.947	42554.91
642.301	42391.98
642.654	42282.15
643.007	42387.01
643.36	42426.55
643.713	42312.88
644.066	42436.95
644.419	42176.17
644.771	41975.72
645.124	41437.65
645.477	41445.56
645.83	41251.67
646.182	40989.3
646.535	41012.13
646.888	41044.67
647.24	40935.75
647.593	41131.45
647.945	41075.4
648.298	40965.12
648.65	40716.32
649.002	40731.46
649.355	40980.49
649.707	40845.8
650.059	41093.48
650.411	41373.93
650.763	41512.91
651.115	41821.6
651.467	41786.57
651.819	41804.88
652.171	41649.17
652.523	41639.68
652.875	41683.97
653.227	41460.48
653.578	41696.18
653.93	41567.82
654.282	41605.78
654.633	41479.23
654.985	41409.41
655.337	41653.69
655.688	41432.68
656.039	41825.89
656.391	41391.78
656.742	41292.57
657.094	41440.37
657.445	41598.33
657.796	41425
658.147	41335.28
658.498	41395.62
658.849	41386.58
659.2	41535.28
659.551	41172.8
659.902	41364.66
660.253	41351.33
660.604	41431.55
660.955	41266.58
661.306	41263.65
661.656	41232.46
662.007	41219.58
662.358	41162.86
662.708	41201.95
663.059	41211.22
663.409	41040.38
663.76	41307.26
664.11	41267.94
664.461	41233.36
664.811	41377.09
665.161	41295.28
665.511	41175.51
665.862	41153.59
666.212	41455.05
666.562	41466.58
666.912	41236.3
667.262	41066.59
667.612	41209.18
667.962	41152.92
668.312	41125.12
668.662	41349.07
669.011	41320.14
669.361	41048.29
669.711	41115.85
670.06	41039.02
670.41	41079.47
670.76	40826.82
671.109	41131.67
671.459	41030.43
671.808	40901.85
672.157	41038.57
672.507	40783.43
672.856	40773.94
673.205	41014.61
673.554	40958.8
673.904	40897.78
674.253	41165.12
674.602	40865.92
674.951	40329.66
675.3	40130.34
675.649	40893.26
675.998	40826.37
676.346	40849.87
676.695	40940.04
677.044	40572.14
677.393	40712.7
677.741	40834.28
678.09	40734.85
678.438	40476.1
678.787	40664.79
679.135	40631.57
679.484	40461.86
679.832	40529.65
680.181	40289.43
680.529	40418.47
680.877	40300.51
681.225	40029.33
681.573	40451.01
681.922	40146.39
682.27	40071.59
682.618	39919.95
682.966	40066.16
683.314	40136.67
683.661	40027.52
684.009	39824.59
684.357	39710.92
684.705	39694.65
685.053	39706.4
685.4	39567.42
685.748	39472.96
686.095	39441.55
686.443	39237.03
686.79	39333.53
687.138	39372.85
687.485	39388.44
687.832	39167.43
688.18	39279.52
688.527	39147.54
688.874	39178.96
689.221	38943.26
689.568	38918.4
689.915	38797.5
690.262	38782.36
690.609	38646.99
690.956	38674.34
691.303	38528.8
691.65	38378.07
691.997	38478.64
692.344	38217.63
692.69	38175.14
693.037	38291.3
693.383	37812.66
693.73	38010.4
694.077	37697.19
694.423	37839.78
694.769	37580.13
695.116	37490.19
695.462	37546
695.808	37386.46
696.155	37523.63
696.501	37285.67
696.847	37110.99
697.193	36951.44
697.539	37108.28
697.885	36844.78
698.231	36563.88
698.577	36747.38
698.923	36702.41
699.269	36448.86
699.614	36319.6
699.96	36274.17
700.306	36260.39
700.651	36036.44
700.997	35948.98
701.342	36008.42
701.688	35786.5
702.033	35690.91
702.379	35732.49
702.724	35754.19
703.069	35777.69
703.415	35261.32
703.76	35330.7
704.105	35600.07
704.45	35304.26
704.795	35073.98
705.14	35046.18
705.485	34921.21
705.83	34863.59
706.175	34836.47
706.52	34839.41
706.865	34734.33
707.209	34637.15
707.554	34528.23
707.899	34536.14
708.243	34483.49
708.588	34290.95
708.932	34046.89
709.277	34143.83
709.621	34215.7
709.966	33928.92
710.31	33956.04
710.654	33685.99
710.998	33724.64
711.342	33763.28
711.687	33668.37
712.031	33524.19
712.375	33401.71
712.719	33392.89
713.063	33426.34
713.407	33468.82
713.75	33199.23
714.094	33190.19
714.438	33163.52
714.782	33158.1
715.125	32875.84
715.469	33039.46
715.812	32876.97
716.156	32744.1
716.499	32846.47
716.843	32837.88
717.186	32605.57
717.53	32691.67
717.873	32605.57
718.216	32632.01
718.559	32438.12
718.902	32313.6
719.246	32361.28
719.589	32321.73
719.932	32048.07
720.275	32148.18
720.617	32039.26
720.96	31889.2
721.303	31908.64
721.646	31935.3
721.989	31771.24
722.331	31962.2
722.674	31802.43
723.016	31817.34
723.359	31616.89
723.701	31744.57
724.044	31455.09
724.386	31460.29
724.729	31495.09
725.071	31396.56
725.413	31413.96
725.755	31294.42
726.097	31248.54
726.439	31031.6
726.782	31085.84
727.124	31277.69
727.465	31160.64
727.807	30907.53
728.149	30921.77
728.491	30961.77
728.833	30944.37
729.175	30793.87
729.516	30784.83
729.858	30753.41
730.199	30703.92
730.541	30754.54
730.882	30753.64
731.224	30802
731.565	30489.92
731.906	30515.23
732.248	30534.44
732.589	30291.96
732.93	30324.05
733.271	30316.14
733.612	30282.92
733.953	30280.43
734.294	30137.84
734.635	30045.64
734.976	30126.54
735.317	29905.08
735.658	29943.49
735.999	30044.51
736.339	29847.22
736.68	30039.99
737.021	29793.89
737.361	29756.83
737.702	29855.59
738.042	29723.61
738.383	29653.78
738.723	29787.79
739.063	29570.17
739.404	29762.71
739.744	29536.05
740.084	29434.35
740.424	29434.81
740.764	29355.26
741.104	29527.91
741.444	29266
741.784	29139.45
742.124	29333.56
742.464	29273.23
742.804	29235.94
743.143	29206.11
743.483	29178.77
743.823	28939.45
744.162	28978.09
744.502	29007.92
744.841	28846.35
745.181	29039.34
745.52	28939.22
745.86	28889.73
746.199	28772.68
746.538	28809.51
746.877	28833.24
747.216	28744.2
747.556	28666.69
747.895	28558.22
748.234	28456.75
748.573	28512.8
748.911	28465.11
749.25	28449.75
749.589	28269.64
749.928	28316.19
750.267	28318.68
750.605	28250.66
750.944	28153.93
751.283	28090.66
751.621	28027.16
751.96	27958.69
752.298	28012.47
752.636	28001.4
752.975	27872.36
753.313	27640.5
753.651	27750.78
753.989	27529.77
754.327	27618.36
754.666	27491.35
755.004	27567.28
755.342	27640.73
755.679	27536.55
756.017	27346.95
756.355	27436.21
756.693	27247.52
757.031	27417.23
