Data from hue_38_FLMS001491_00041.txt Node
Date: Tue Feb 07 17:31:32 GMT 2017
User: dcchb
Spectrometer: FLMS00149
Trigger mode: 0
Integration Time (sec): 2.000000E-2
Scans to average: 10
Electric dark correction enabled: true
Nonlinearity correction enabled: false
Boxcar width: 0
XAxis mode: Wavelengths
Number of Pixels in Spectrum: 2048
>>>>>Begin Spectral Data<<<<<
341.393	-11.09
341.776	-11.09
342.16	-11.09
342.543	-68.26
342.927	-57.41
343.31	-87.47
343.693	-57.19
344.077	-60.13
344.46	-46.57
344.843	-43.4
345.226	-41.59
345.61	-29.17
345.993	-26.68
346.376	-24.42
346.759	16.03
347.142	12.19
347.525	68.46
347.908	37.72
348.291	77.72
348.674	102.13
349.057	102.36
349.44	120.89
349.823	143.26
350.206	162.02
350.588	179.64
350.971	197.04
351.354	226.65
351.737	243.6
352.119	258.06
352.502	264.16
352.884	268.45
353.267	282.92
353.65	287.21
354.032	319.07
354.414	317.49
354.797	324.27
355.179	334.21
355.562	342.35
355.944	334.44
356.326	329.24
356.709	338.28
357.091	337.15
357.473	330.15
357.855	354.78
358.238	329.69
358.62	344.16
359.002	325.63
359.384	331.05
359.766	340.54
360.148	340.32
360.53	336.02
360.912	338.28
361.294	346.87
361.676	347.77
362.057	337.38
362.439	358.62
362.821	338.06
363.203	323.37
363.584	309.13
363.966	314.33
364.348	329.92
364.729	308.9
365.111	345.51
365.493	332.86
365.874	326.08
366.256	333.54
366.637	339.41
367.019	310.26
367.4	317.27
367.781	310.71
368.163	308.9
368.544	319.07
368.925	329.69
369.306	335.57
369.688	312.29
370.069	333.31
370.45	311.62
370.831	318.4
371.212	325.4
371.593	335.12
371.974	324.05
372.355	331.28
372.736	326.3
373.117	310.94
373.498	325.18
373.879	317.27
374.26	318.4
374.641	328.11
375.021	323.59
375.402	305.29
375.783	333.31
376.163	333.54
376.544	324.27
376.925	337.38
377.305	327.43
377.686	330.15
378.066	318.4
378.447	334.21
378.827	332.41
379.208	334.89
379.588	331.73
379.968	352.29
380.349	339.41
380.729	332.41
381.109	345.74
381.489	345.51
381.87	337.6
382.25	350.94
382.63	367.43
383.01	342.12
383.39	358.17
383.77	335.12
384.15	341.22
384.53	364.04
384.91	352.74
385.29	353.65
385.67	363.37
386.049	372.18
386.429	357.26
386.809	352.29
387.189	345.51
387.568	369.69
387.948	349.81
388.328	355
388.707	364.95
389.087	371.95
389.466	355.68
389.846	370.6
390.225	371.5
390.605	379.64
390.984	367.89
391.363	366.3
391.743	377.15
392.122	370.15
392.501	380.77
392.881	378.06
393.26	387.55
393.639	396.81
394.018	373.31
394.397	373.99
394.776	373.99
395.155	384.16
395.534	363.59
395.913	369.69
396.292	395.91
396.671	382.57
397.05	399.98
397.429	378.96
397.808	390.03
398.186	392.29
398.565	372.18
398.944	357.72
399.323	380.77
399.701	378.73
400.08	390.03
400.458	402.91
400.837	396.13
401.215	406.98
401.594	408.11
401.972	412.63
402.351	414.44
402.729	414.21
403.107	422.57
403.486	417.38
403.864	403.37
404.242	405.4
404.62	411.5
404.999	414.66
405.377	416.02
405.755	421.67
406.133	441.56
406.511	432.29
406.889	444.49
407.267	446.08
407.645	418.96
408.023	433.87
408.401	455.12
408.779	449.47
409.156	449.24
409.534	454.21
409.912	432.06
410.29	447.43
410.667	467.32
411.045	446.53
411.422	467.09
411.8	450.6
412.178	473.87
412.555	480.65
412.933	474.78
413.31	447.21
413.687	479.97
414.065	505.28
414.442	494.44
414.819	482.46
415.197	497.15
415.574	505.06
415.951	498.96
416.328	511.16
416.705	495.11
417.082	499.41
417.46	506.41
417.837	500.54
418.214	539.18
418.591	508.22
418.967	519.52
419.344	531.72
419.721	528.79
420.098	522.68
420.475	524.27
420.852	529.92
421.228	530.59
421.605	551.16
421.982	537.82
422.358	538.73
422.735	537.37
423.111	546.41
423.488	554.77
423.864	537.37
424.241	573.08
424.617	550.71
424.994	552.51
425.37	570.14
425.746	561.33
426.123	578.73
426.499	560.2
426.875	582.34
427.251	589.12
427.627	580.76
428.003	571.27
428.379	590.93
428.756	608.33
429.132	581.67
429.507	589.35
429.883	613.76
430.259	618.27
430.635	617.6
431.011	630.93
431.387	642.91
431.763	640.42
432.138	607.2
432.514	648.33
432.89	653.3
433.265	663.47
433.641	630.48
434.016	649.91
434.392	680.42
434.767	675.9
435.143	644.49
435.518	698.05
435.894	682.91
436.269	696.92
436.644	691.72
437.02	707.09
437.395	706.18
437.77	735.33
438.145	735.11
438.52	722
438.895	721.32
439.271	734.66
439.646	752.51
440.021	726.29
440.395	756.58
440.77	739.63
441.145	749.8
441.52	770.59
441.895	761.55
442.27	757.48
442.645	778.72
443.019	780.08
443.394	762.68
443.769	790.7
444.143	787.76
444.518	782.11
444.892	772.17
445.267	786.41
445.641	795.45
446.016	821.66
446.39	804.26
446.764	800.19
447.139	808.78
447.513	821.89
447.887	827.99
448.262	812.39
448.636	846.07
449.01	834.31
449.384	834.54
449.758	840.87
450.132	877.7
450.506	897.82
450.88	867.99
451.254	861.21
451.628	874.99
452.002	870.92
452.376	886.97
452.75	918.15
453.123	886.97
453.497	898.72
453.871	909.79
454.244	936.01
454.618	931.49
454.992	936.46
455.365	946.4
455.739	986.85
456.112	980.75
456.486	979.62
456.859	994.31
457.232	1009.45
457.606	995.89
457.979	1042.67
458.352	1039.28
458.725	1053.29
459.099	1033.41
459.472	1038.15
459.845	1074.76
460.218	1085.61
460.591	1099.84
460.964	1110.01
461.337	1097.81
461.71	1131.03
462.083	1135.78
462.456	1148.88
462.829	1146.62
463.201	1179.39
463.574	1213.29
463.947	1180.07
464.32	1237.69
464.692	1216.23
465.065	1232.5
465.438	1265.94
465.81	1268.43
466.183	1305.49
466.555	1307.3
466.928	1327.18
467.3	1328.76
467.672	1359.95
468.045	1393.85
468.417	1357.69
468.789	1368.09
469.161	1445.15
469.534	1453.28
469.906	1482.66
470.278	1534.63
470.65	1518.82
471.022	1565.59
471.394	1575.54
471.766	1623.45
472.138	1621.41
472.51	1673.39
472.882	1739.15
473.253	1772.37
473.625	1755.42
473.997	1805.59
474.369	1850.78
474.74	1853.5
475.112	1893.5
475.484	1915.42
475.855	1978.24
476.227	2038.8
476.598	2086.48
476.97	2119.03
477.341	2172.58
477.713	2245.8
478.084	2266.14
478.455	2285.8
478.827	2370.32
479.198	2470.43
479.569	2503.42
479.94	2596.08
480.311	2641.27
480.682	2724.89
481.053	2745
481.424	2871.1
481.795	2888.05
482.166	2968.27
482.537	3059.34
482.908	3142.73
483.279	3239.22
483.65	3296.85
484.021	3397.18
484.391	3462.95
484.762	3524.86
485.133	3580.91
485.503	3667.91
485.874	3792.88
486.244	3870.62
486.615	3996.72
486.985	4100.22
487.356	4175.47
487.726	4242.59
488.097	4384.96
488.467	4443.48
488.837	4524.39
489.207	4677.83
489.578	4770.93
489.948	4932.06
490.318	5030.59
490.688	5093.64
491.058	5222.9
491.428	5327.76
491.798	5418.15
492.168	5535.43
492.538	5674.64
492.908	5791.02
493.278	5876.44
493.648	5931.58
494.017	6067.85
494.387	6169.99
494.757	6253.38
495.126	6360.72
495.496	6483.88
495.866	6558.68
496.235	6681.17
496.605	6792.35
496.974	6853.59
497.344	6977.2
497.713	7038.9
498.082	7162.06
498.452	7240.93
498.821	7328.38
499.19	7371.09
499.559	7515.27
499.928	7630.75
500.298	7699.22
500.667	7838.42
501.036	7806.56
501.405	8000.68
501.774	8049.49
502.143	8116.83
502.512	8168.36
502.88	8299.65
503.249	8389.14
503.618	8457.16
503.987	8505.52
504.356	8643.15
504.724	8743.26
505.093	8797.04
505.462	8818.96
505.83	8972.86
506.199	9012.63
506.567	9138.73
506.936	9152.74
507.304	9328.1
507.672	9375.33
508.041	9424.6
508.409	9483.35
508.777	9636.57
509.145	9675.89
509.514	9748.66
509.882	9809.22
510.25	9866.85
510.618	9905.04
510.986	9959.5
511.354	10082.88
511.722	10167.18
512.09	10223.9
512.458	10287.85
512.826	10390.45
513.193	10451.46
513.561	10490.33
513.929	10643.55
514.297	10693.72
514.664	10751.79
515.032	10787.72
515.4	10846.48
515.767	10965.57
516.135	11028.85
516.502	10956.99
516.869	11226.58
517.237	11221.61
517.604	11226.58
517.972	11335.51
518.339	11339.8
518.706	11418.22
519.073	11553.13
519.44	11583.18
519.808	11693.92
520.175	11704.76
520.542	11887.13
520.909	11912.67
521.276	11937.3
521.643	12024.3
522.009	12056.39
522.376	12152.66
522.743	12259.55
523.11	12364.18
523.477	12451.86
523.843	12512.43
524.21	12572.31
524.577	12725.08
524.943	12830.83
525.31	12888.69
525.676	12991.73
526.043	13033.99
526.409	13162.13
526.776	13210.26
527.142	13309.92
527.508	13316.25
527.874	13510.82
528.241	13552.17
528.607	13573.87
528.973	13714.65
529.339	13725.73
529.705	13837.36
530.071	13989
530.437	14011.82
530.803	14128.88
531.169	14134.98
531.535	14095.66
531.901	14213.4
532.267	14351.25
532.632	14382.88
532.998	14446.61
533.364	14483.45
533.73	14566.61
534.095	14587.17
534.461	14765.93
534.826	14771.12
535.192	14812.7
535.557	14999.59
535.923	14930.44
536.288	15091.79
536.653	15087.27
537.019	15120.27
537.384	15235.07
537.749	15254.05
538.114	15339.47
538.479	15343.99
538.845	15509.41
539.21	15539.24
539.575	15488.84
539.94	15596.64
540.305	15636.64
540.67	15675.05
541.034	15746.69
541.399	15840.02
541.764	15802.06
542.129	15922.05
542.494	15949.62
542.858	16031.2
543.223	16132.22
543.587	16239.78
543.952	16167.7
544.316	16325.88
544.681	16354.13
545.045	16420.57
545.41	16614.92
545.774	16550.74
546.138	16538.53
546.503	16694.01
546.867	16577.86
547.231	16854.91
547.595	16817.62
547.959	16849.03
548.324	16843.84
548.688	16918.64
549.052	17047.9
549.416	17124.73
549.779	17172.19
550.143	17156.37
550.507	17359.98
550.871	17274.79
551.235	17395.91
551.599	17531.95
551.962	17485.85
552.326	17602.69
552.689	17643.14
553.053	17572.86
553.417	17641.1
553.78	17884.49
554.143	17900.31
554.507	17827.09
554.87	17986.63
555.234	18124.03
555.597	18031.15
555.96	18233.4
556.323	18263.01
556.686	18238.6
557.05	18426.85
557.413	18460.97
557.776	18431.37
558.139	18570.57
558.502	18648.99
558.865	18659.61
559.228	18832.71
559.59	18819.83
559.953	18844.91
560.316	19138.92
560.679	19037.9
561.041	19157
561.404	19239.03
561.767	19322.19
562.129	19350.44
562.492	19519.92
562.854	19479.02
563.217	19479.93
563.579	19552.47
563.941	19587.49
564.304	19721.05
564.666	19878.11
565.028	19884.89
565.39	19986.13
565.753	20069.51
566.115	20099.12
566.477	20285.78
566.839	20293.46
567.201	20355.83
567.563	20492.33
567.925	20552.44
568.287	20560.8
568.648	20597.86
569.01	20788.14
569.372	20888.48
569.734	20860.23
570.095	21016.16
570.457	21088.7
570.819	21210.05
571.18	21184.97
571.542	21405.75
571.903	21353.77
572.265	21383.83
572.626	21640.55
572.987	21774.1
573.349	21726.87
573.71	21831.73
574.071	21938.62
574.432	21968
574.794	22115.56
575.155	22175.45
575.516	22173.64
575.877	22449.79
576.238	22585.15
576.599	22721.65
576.96	22729.33
577.32	22865.6
577.681	22997.35
578.042	23080.06
578.403	23260.62
578.763	23340.16
579.124	23481.4
579.485	23645.92
579.845	23960.71
580.206	24020.37
580.566	24182.4
580.927	24260.82
581.287	24465.11
581.648	24543.3
582.008	24797.75
582.368	24923.62
582.728	25106.44
583.089	25128.14
583.449	25307.12
583.809	25541.01
584.169	25788.69
584.529	25839.76
584.889	26190.94
585.249	26255.57
585.609	26376.47
585.969	26638.16
586.329	26877.7
586.688	27062.33
587.048	27229.33
587.408	27363.33
587.768	27424.12
588.127	27656.21
588.487	27935.75
588.846	28264.78
589.206	28368.73
589.565	28600.36
589.925	28944.08
590.284	28924.42
590.643	29176.39
591.003	29415.03
591.362	29784.97
591.721	29899.31
592.08	30070.61
592.44	30225.18
592.799	30610.48
593.158	30577.94
593.517	30767.99
593.876	31129.11
594.235	31268.32
594.593	31447.29
594.952	31662.66
595.311	31930.45
595.67	32096.32
596.029	32423.99
596.387	32621.05
596.746	32876.18
597.104	32846.58
597.463	33035.95
597.822	33284.31
598.18	33327.02
598.538	33534.92
598.897	33966.78
599.255	33958.19
599.613	34451.06
599.972	34370.61
600.33	34830.03
600.688	34647.21
601.046	35053.53
601.404	35214.2
601.762	35325.16
602.12	35571.93
602.478	35761.08
602.836	35944.8
603.194	35895.31
603.552	36012.37
603.91	36031.58
604.268	36532.13
604.625	36450.1
604.983	36704.78
605.341	36654.16
605.698	36890.54
606.056	37058.22
606.413	37193.36
606.771	37492.56
607.128	37683.51
607.485	37583.86
607.843	37634.25
608.2	37927.8
608.557	38141.58
608.914	38142.03
609.272	38416.83
609.629	38532.08
609.986	38779.31
610.343	38753.54
610.7	38949.7
611.057	39013.2
611.414	39191.5
611.771	39244.38
612.127	39500.19
612.484	39525.27
612.841	39804.14
613.198	39713.52
613.554	39863.8
613.911	40039.39
614.267	40063.79
614.624	40000.52
614.98	40330.22
615.337	40518.02
615.693	40495.19
616.05	40483.44
616.406	40867.39
616.762	40687.28
617.118	40797.33
617.475	40956.88
617.831	41143.54
618.187	41101.05
618.543	41342.85
618.899	41600.25
619.255	41487.93
619.611	41545.33
619.967	41798.21
620.323	41851.99
620.678	41804.54
621.034	41652.9
621.39	41782.16
621.746	41805.89
622.101	42291.08
622.457	41968.6
622.812	42207.69
623.168	42157.3
623.523	42331.53
623.879	42510.28
624.234	42162.27
624.589	42361.13
624.945	42570.62
625.3	42660.79
625.655	42624.85
626.01	42610.16
626.365	42742.59
626.72	42583.27
627.075	42658.53
627.43	42640.9
627.785	42714.57
628.14	42717.05
628.495	42723.83
628.85	42704.85
629.205	42654.68
629.559	42970.83
629.914	42781.01
630.269	42784.85
630.623	42704.63
630.978	42843.83
631.332	42900.78
631.687	42984.17
632.041	42879.08
632.396	42965.64
632.75	42821.01
633.104	42896.71
633.459	42648.81
633.813	42821.91
634.167	42781.91
634.521	42902.13
634.875	42921.12
635.229	42861.91
635.583	42675.47
635.937	42687.68
636.291	42719.77
636.645	42631.63
636.999	42658.07
637.352	42797.96
637.706	42477.97
638.06	42738.07
638.413	42594.35
638.767	42461.47
639.121	42619.43
639.474	42406.55
639.828	42366.56
640.181	42581.92
640.534	42625.53
640.888	42364.75
641.241	42327.69
641.594	42402.26
641.947	42503.05
642.301	42391.64
642.654	42444.97
643.007	42466.89
643.36	42471.19
643.713	42338.31
644.066	42444.97
644.419	42177.18
644.771	41955.04
645.124	41592.79
645.477	41543.53
645.83	41502.85
646.182	41316.87
646.535	41113.93
646.888	41169.98
647.24	41052.47
647.593	41274.15
647.945	41185.12
648.298	41118
648.65	40974.05
649.002	40778.12
649.355	41133.14
649.707	41008.85
650.059	41103.09
650.411	41543.3
650.763	41578.33
651.115	42004.98
651.467	41963.85
651.819	41792.33
652.171	41833.01
652.523	41763.18
652.875	41715.95
653.227	41688.16
653.578	41928.83
653.93	41725.89
654.282	41618.33
654.633	41421.72
654.985	41600.47
655.337	41569.51
655.688	41658.55
656.039	41740.58
656.391	41412.46
656.742	41537.42
657.094	41490.87
657.445	41699
657.796	41517.31
658.147	41533.36
658.498	41244.78
658.849	41603.41
659.2	41396.41
659.551	41399.12
659.902	41482.74
660.253	41451.78
660.604	41469.4
660.955	41281.16
661.306	41588.04
661.656	41411.55
662.007	41387.37
662.358	41463.98
662.708	41362.97
663.059	41383.98
663.409	41157.1
663.76	41516.41
664.11	41461.95
664.461	41343.31
664.811	41379.69
665.161	41337.43
665.511	41160.94
665.862	41252.91
666.212	41339.69
666.562	41358.9
666.912	41177.89
667.262	41254.04
667.612	41268.73
667.962	41441.61
668.312	41328.16
668.662	41455.84
669.011	41371.1
669.361	41157.1
669.711	41223.08
670.06	41176.76
670.41	41039.36
670.76	40952.58
671.109	41105.12
671.459	41108.06
671.808	40978.34
672.157	41230.77
672.507	40999.59
672.856	40925.46
673.205	41070.54
673.554	41176.3
673.904	40904
674.253	41328.84
674.602	41093.37
674.951	40377.68
675.3	40337.91
675.649	40867.61
675.998	40974.5
676.346	40937.89
676.695	41084.33
677.044	40621.74
677.393	40950.1
677.741	40776.09
678.09	40820.16
678.438	40559.82
678.787	40733.38
679.135	40807.73
679.484	40504.46
679.832	40653.15
680.181	40469.2
680.529	40569.09
680.877	40409.77
681.225	40240.96
681.573	40569.31
681.922	40208.19
682.27	40171.58
682.618	40272.83
682.966	40031.93
683.314	40159.38
683.661	39971.82
684.009	39894.98
684.357	39814.98
684.705	39690.69
685.053	39745.16
685.4	39786.28
685.748	39526.4
686.095	39563.69
686.443	39482.79
686.79	39371.15
687.138	39497.25
687.485	39504.94
687.832	39472.62
688.18	39356.47
688.527	39142.01
688.874	39173.42
689.221	39076.02
689.568	39053.65
689.915	38959.87
690.262	38888.23
690.609	38802.36
690.956	38607.11
691.303	38677.16
691.65	38446.66
691.997	38387.9
692.344	38193.56
692.69	38183.39
693.037	38271.07
693.383	37978.2
693.73	38090.28
694.077	37802.38
694.423	37950.63
694.769	37590.64
695.116	37511.09
695.462	37681.25
695.808	37526.68
696.155	37621.82
696.501	37237.2
696.847	37306.12
697.193	37025.9
697.539	37098.67
697.885	37002.4
698.231	36801.96
698.577	36800.83
698.923	36785.23
699.269	36584.11
699.614	36328.75
699.96	36431.8
700.306	36412.59
700.651	36248.52
700.997	36150.45
701.342	36056.66
701.688	36162.42
702.033	35832.94
702.379	35952.03
702.724	35631.14
703.069	35940.06
703.415	35455.32
703.76	35461.43
704.105	35475.66
704.45	35357.02
704.795	35147.99
705.14	35069.8
705.485	35135.56
705.83	34921.55
706.175	34995.9
706.52	34858.28
706.865	34796.59
707.209	34751.61
707.554	34504.16
707.899	34623.26
708.243	34548.68
708.588	34431.17
708.932	34223.72
709.277	34259.88
709.621	34247.67
709.966	34075.02
710.31	34091.74
710.654	33866.44
710.998	33825.76
711.342	33854.01
711.687	33798.42
712.031	33648.37
712.375	33534.02
712.719	33640.91
713.063	33440.69
713.407	33579.89
713.75	33320.69
714.094	33324.76
714.438	33302.16
714.782	33284.08
715.125	33129.51
715.469	33053.13
715.812	33012.68
716.156	32715.96
716.499	32880.7
716.843	32793.93
717.186	32653.36
717.53	32814.72
717.873	32724.78
718.216	32621.5
718.559	32506.7
718.902	32276.43
719.246	32368.85
719.589	32461.96
719.932	32112.81
720.275	32050.22
720.617	32105.36
720.96	31993.72
721.303	31968.86
721.646	31984.23
721.989	31882.09
722.331	31821.3
722.674	31695.65
723.016	31933.84
723.359	31725.71
723.701	31773.39
724.044	31630.34
724.386	31310.12
724.729	31692.26
725.071	31514.86
725.413	31512.6
725.755	31405.71
726.097	31315.77
726.439	31123.01
726.782	31314.64
727.124	31318.71
727.465	31143.35
727.807	31155.55
728.149	31036.23
728.491	31084.37
728.833	30925.5
729.175	30939.51
729.516	30737.93
729.858	30785.62
730.199	30799.18
730.541	30619.75
730.882	30803.7
731.224	30775
731.565	30600.76
731.906	30567.77
732.248	30628.33
732.589	30410.49
732.93	30298.17
733.271	30277.83
733.612	30378.85
733.953	30372.75
734.294	30261.79
734.635	30150.61
734.976	30043.72
735.317	29989.93
735.658	30031.51
735.999	30046.2
736.339	29948.35
736.68	29983.15
737.021	29799.43
737.361	29623.61
737.702	29916.94
738.042	29765.98
738.383	29694.8
738.723	29802.59
739.063	29657.29
739.404	29616.61
739.744	29548.59
740.084	29400.57
740.424	29540.9
740.764	29524.63
741.104	29435.82
741.444	29403.73
741.784	29278.31
742.124	29419.1
742.464	29238.31
742.804	29177.07
743.143	29214.13
743.483	29221.82
743.823	28940.92
744.162	29051.2
744.502	29121.25
744.841	28844.88
745.181	29014.82
745.52	28861.37
745.86	28964.65
746.199	28846.91
746.538	28769.85
746.877	28734.82
747.216	28762.39
747.556	28716.74
747.895	28673.58
748.234	28542.29
748.573	28455.51
748.911	28572.79
749.25	28401.72
749.589	28254.84
749.928	28391.78
750.267	28381.39
750.605	28254.61
750.944	28162.41
751.283	28105.91
751.621	28189.53
751.96	28095.97
752.298	28115.86
752.636	27954.51
752.975	27829.54
753.313	27790.67
753.651	27906.14
753.989	27660.28
754.327	27655.3
754.666	27542.99
755.004	27615.53
755.342	27663.89
755.679	27640.16
756.017	27380.73
756.355	27612.14
756.693	27327.85
757.031	27274.97
