Data from hue_310_FLMS001491_19.txt Node
Date: Mon Feb 06 15:48:55 GMT 2017
User: dcchb
Spectrometer: FLMS00149
Trigger mode: 0
Integration Time (sec): 2.000000E-2
Scans to average: 10
Electric dark correction enabled: true
Nonlinearity correction enabled: false
Boxcar width: 0
XAxis mode: Wavelengths
Number of Pixels in Spectrum: 2048
>>>>>Begin Spectral Data<<<<<
341.393	-4.9
341.776	-4.9
342.16	-4.9
342.543	-64.56
342.927	-78.57
343.31	-77.22
343.693	-75.86
344.077	-72.92
344.46	-60.94
344.843	-53.71
345.226	-38.35
345.61	-20.95
345.993	-10.55
346.376	-4.9
346.759	5.95
347.142	21.99
347.525	30.8
347.908	43.46
348.291	70.8
348.674	111.93
349.057	130.46
349.44	121.2
349.823	140.86
350.206	179.05
350.588	175.66
350.971	221.99
351.354	207.07
351.737	249.56
352.119	254.08
352.502	254.75
352.884	260.4
353.267	275.77
353.65	275.09
354.032	310.8
354.414	321.64
354.797	314.64
355.179	300.4
355.562	336.33
355.944	326.84
356.326	335.43
356.709	338.14
357.091	327.52
357.473	337.01
357.855	323
358.238	335.88
358.62	335.66
359.002	335.2
359.384	332.49
359.766	325.03
360.148	344.69
360.53	325.03
360.912	337.91
361.294	343.11
361.676	334.53
362.057	330.46
362.439	315.32
362.821	312.15
363.203	304.47
363.584	343.11
363.966	304.02
364.348	338.14
364.729	313.51
365.111	317.35
365.493	328.88
365.874	320.74
366.256	319.84
366.637	309.89
367.019	309.67
367.4	300.63
367.781	313.06
368.163	308.99
368.544	319.16
368.925	311.7
369.306	323.45
369.688	309.44
370.069	300.18
370.45	286.39
370.831	308.99
371.212	318.03
371.593	330.68
371.974	344.24
372.355	305.15
372.736	319.84
373.117	304.92
373.498	316.22
373.879	328.42
374.26	325.03
374.641	321.19
375.021	303.79
375.402	312.6
375.783	299.5
376.163	334.53
376.544	327.07
376.925	327.29
377.305	324.58
377.686	331.36
378.066	322.55
378.447	327.97
378.827	328.65
379.208	338.14
379.588	319.84
379.968	313.28
380.349	343.56
380.729	304.47
381.109	320.51
381.489	351.25
381.87	337.91
382.25	338.59
382.63	333.4
383.01	341.3
383.39	330.23
383.77	352.83
384.15	328.2
384.53	349.89
384.91	356.22
385.29	348.31
385.67	346.28
386.049	354.19
386.429	345.6
386.809	356.9
387.189	329.55
387.568	329.78
387.948	325.49
388.328	363
388.707	376.11
389.087	367.97
389.466	368.87
389.846	361.19
390.225	357.58
390.605	371.13
390.984	365.48
391.363	361.87
391.743	357.35
392.122	355.32
392.501	377.01
392.881	372.72
393.26	360.51
393.639	389.44
394.018	386.5
394.397	364.13
394.776	371.59
395.155	358.71
395.534	360.97
395.913	379.72
396.292	385.82
396.671	376.56
397.05	391.7
397.429	389.21
397.808	384.24
398.186	389.66
398.565	402.32
398.944	385.15
399.323	399.83
399.701	394.41
400.08	370
400.458	409.33
400.837	396.67
401.215	386.5
401.594	409.33
401.972	422.43
402.351	406.61
402.729	418.14
403.107	409.78
403.486	415.65
403.864	416.33
404.242	434.86
404.62	429.89
404.999	435.99
405.377	436.9
405.755	416.1
406.133	434.86
406.511	446.84
406.889	457.46
407.267	443.9
407.645	474.86
408.023	460.85
408.401	447.74
408.779	502.2
409.156	489.55
409.534	493.84
409.912	479.15
410.29	501.75
410.667	489.32
411.045	511.92
411.422	515.76
411.8	504.01
412.178	498.14
412.555	537.23
412.933	522.32
413.31	521.86
413.687	553.5
414.065	554.86
414.442	537.68
414.819	567.74
415.197	586.5
415.574	593.5
415.951	576.78
416.328	605.93
416.705	613.61
417.082	605.03
417.46	591.02
417.837	618.36
418.214	619.72
418.591	626.95
418.967	627.4
419.344	653.39
419.721	652.26
420.098	661.07
420.475	672.37
420.852	652.93
421.228	698.13
421.605	675.99
421.982	692.93
422.358	692.48
422.735	685.7
423.111	710.33
423.488	727.28
423.864	738.36
424.241	720.5
424.617	754.4
424.994	774.51
425.37	768.64
425.746	766.15
426.123	757.79
426.499	774.97
426.875	764.57
427.251	810.44
427.627	821.97
428.003	829.88
428.379	832.82
428.756	823.55
429.132	849.09
429.507	853.38
429.883	851.57
430.259	863.55
430.635	900.16
431.011	887.96
431.387	900.61
431.763	902.19
432.138	898.35
432.514	948.07
432.89	950.1
433.265	970.89
433.641	948.07
434.016	953.27
434.392	986.71
434.767	1025.13
435.143	1007.73
435.518	1019.93
435.894	1024.68
436.269	1038.46
436.644	1073.71
437.02	1065.13
437.395	1059.25
437.77	1057.9
438.145	1069.87
438.52	1103.32
438.895	1086.82
439.271	1092.25
439.646	1138.12
440.021	1134.28
440.395	1158.91
440.77	1130.89
441.145	1128.18
441.52	1164.56
441.895	1151.23
442.27	1167.05
442.645	1160.27
443.019	1207.5
443.394	1160.49
443.769	1172.7
444.143	1170.66
444.518	1200.94
444.892	1192.81
445.267	1213.37
445.641	1192.81
446.016	1212.69
446.39	1214.28
446.764	1232.35
447.139	1217.67
447.513	1240.94
447.887	1252.02
448.262	1247.04
448.636	1238.68
449.01	1281.84
449.384	1266.25
449.758	1272.13
450.132	1267.83
450.506	1273.71
450.88	1293.37
451.254	1284.78
451.628	1320.49
452.002	1311.9
452.376	1301.96
452.75	1315.06
453.123	1319.58
453.497	1324.1
453.871	1328.85
454.244	1380.37
454.618	1361.39
454.992	1377.44
455.365	1377.66
455.739	1406.14
456.112	1406.81
456.486	1430.09
456.859	1441.84
457.232	1458.56
457.606	1443.87
457.979	1459.02
458.352	1458.11
458.725	1478.22
459.099	1468.96
459.472	1480.03
459.845	1513.48
460.218	1525.45
460.591	1481.16
460.964	1524.1
461.337	1552.12
461.71	1569.75
462.083	1594.83
462.456	1597.09
462.829	1573.59
463.201	1598.9
463.574	1608.16
463.947	1585.57
464.32	1645.23
464.692	1667.37
465.065	1665.11
465.438	1669.41
465.81	1668.05
466.183	1699.01
466.555	1734.71
466.928	1738.33
467.3	1736.07
467.672	1762.96
468.045	1779.46
468.417	1778.1
468.789	1788.72
469.161	1796.41
469.534	1815.16
469.906	1854.49
470.278	1843.86
470.65	1876.86
471.022	1887.7
471.394	1933.13
471.766	1927.03
472.138	1937.87
472.51	1948.72
472.882	1988.27
473.253	2001.83
473.625	2007.02
473.997	2054.03
474.369	2062.39
474.74	2055.84
475.112	2096.06
475.484	2105.33
475.855	2111.43
476.227	2165.44
476.598	2215.15
476.97	2181.26
477.341	2255.15
477.713	2250.41
478.084	2261.03
478.455	2278.43
478.827	2349.16
479.198	2379.9
479.569	2348.26
479.94	2400.91
480.311	2395.94
480.682	2460.34
481.053	2463.96
481.424	2483.85
481.795	2490.85
482.166	2558.42
482.537	2612.88
482.908	2597.97
483.279	2617.4
483.65	2692.88
484.021	2691.53
484.391	2684.97
484.762	2718.64
485.133	2769.94
485.503	2768.13
485.874	2838.87
486.244	2833.67
486.615	2881.12
486.985	2899.66
487.356	2910.73
487.726	2906.43
488.097	3004.51
488.467	3027.11
488.837	3082.93
489.207	3089.48
489.578	3126.99
489.948	3147.78
490.318	3138.07
490.688	3153.66
491.058	3154.79
491.428	3244.96
491.798	3245.18
492.168	3336.03
492.538	3312.3
492.908	3317.95
493.278	3363.37
493.648	3347.78
494.017	3433.65
494.387	3396.14
494.757	3465.74
495.126	3441.11
495.496	3459.19
495.866	3477.49
496.235	3532.18
496.605	3578.51
496.974	3564.5
497.344	3587.77
497.713	3585.06
498.082	3615.12
498.452	3626.87
498.821	3604.04
499.19	3639.07
499.559	3628.22
499.928	3707.77
500.298	3664.61
500.667	3702.12
501.036	3701.67
501.405	3708.67
501.774	3727.66
502.143	3796.13
502.512	3799.97
502.88	3847.2
503.249	3831.16
503.618	3842.91
503.987	3816.02
504.356	3848.33
504.724	3867.99
505.093	3906.18
505.462	3908.67
505.83	3923.81
506.199	3920.87
506.567	3913.87
506.936	3936.24
507.304	3960.19
507.672	3966.52
508.041	3976.24
508.409	3997.03
508.777	4036.35
509.145	4032.28
509.514	4034.54
509.882	4092.84
510.25	4080.42
510.618	4063.69
510.986	4096.01
511.354	4104.14
511.722	4146.4
512.09	4190.69
512.458	4138.27
512.826	4189.56
513.193	4175.1
513.561	4136.23
513.929	4185.95
514.297	4239.73
514.664	4230.69
515.032	4256
515.4	4237.25
515.767	4284.93
516.135	4240.19
516.502	4246.51
516.869	4287.19
517.237	4321.31
517.604	4281.09
517.972	4341.2
518.339	4355.44
518.706	4341.43
519.073	4389.11
519.44	4425.04
519.808	4399.95
520.175	4391.59
520.542	4420.97
520.909	4448.09
521.276	4439.5
521.643	4464.36
522.009	4460.52
522.376	4505.71
522.743	4514.3
523.11	4557.24
523.477	4609.89
523.843	4576.67
524.21	4568.54
524.577	4637.91
524.943	4680.63
525.31	4642.89
525.676	4690.34
526.043	4706.16
526.409	4718.82
526.776	4742.77
527.142	4816.22
527.508	4762.43
527.874	4844.91
528.241	4832.26
528.607	4846.5
528.973	4918.59
529.339	4881.75
529.705	4930.11
530.071	4966.95
530.437	4998.13
530.803	5013.5
531.169	5035.42
531.535	4998.13
531.901	5018.24
532.267	5108.18
532.632	5110.44
532.998	5079.71
533.364	5147.28
533.73	5194.96
534.095	5195.19
534.461	5200.39
534.826	5224.34
535.192	5236.32
535.557	5276.99
535.923	5301.17
536.288	5308.63
536.653	5302.98
537.019	5340.5
537.384	5362.42
537.749	5363.09
538.114	5351.34
538.479	5459.59
538.845	5422.07
539.21	5436.54
539.575	5468.4
539.94	5493.49
540.305	5544.78
540.67	5511.11
541.034	5526.25
541.399	5540.49
541.764	5569.64
542.129	5603.31
542.494	5600.15
542.858	5676.31
543.223	5688.96
543.587	5744.33
543.952	5777.55
544.316	5792.01
544.681	5776.87
545.045	5829.07
545.41	5832.69
545.774	5867.03
546.138	5831.33
546.503	5888.28
546.867	5873.14
547.231	5919.69
547.595	5965.79
547.959	6022.51
548.324	5981.61
548.688	6020.03
549.052	6024.09
549.416	6076.52
549.779	6034.49
550.143	6096.86
550.507	6126.01
550.871	6139.12
551.235	6165.56
551.599	6205.56
551.962	6179.8
552.326	6271.54
552.689	6180.25
553.053	6256.63
553.417	6258.44
553.78	6297.08
554.143	6285.1
554.507	6313.58
554.87	6366.68
555.234	6391.09
555.597	6355.38
555.96	6388.38
556.323	6407.13
556.686	6431.09
557.05	6498.2
557.413	6493.01
557.776	6482.61
558.139	6558.54
558.502	6596.28
558.865	6504.08
559.228	6614.13
559.59	6596.06
559.953	6650.29
560.316	6683.06
560.679	6695.94
561.041	6709.5
561.404	6740.23
561.767	6757.63
562.129	6760.12
562.492	6819.78
562.854	6765.54
563.217	6826.78
563.579	6799.21
563.941	6845.54
564.304	6857.52
564.666	6960.11
565.028	6909.72
565.39	6912.88
565.753	6983.84
566.115	7017.51
566.477	7078.98
566.839	7007.57
567.201	7037.63
567.563	7098.42
567.925	7102.03
568.287	7168.02
568.648	7118.53
569.01	7125.31
569.372	7250.73
569.734	7243.95
570.095	7281.24
570.457	7374.34
570.819	7325.3
571.18	7341.57
571.542	7352.42
571.903	7460.21
572.265	7498.63
572.626	7506.77
572.987	7564.62
573.349	7642.13
573.71	7615.46
574.071	7691.39
574.432	7767.32
574.794	7784.05
575.155	7903.82
575.516	7932.97
575.877	7923.93
576.238	8005.06
576.599	8095.45
576.96	8156.01
577.32	8213.64
577.681	8290.7
578.042	8352.39
578.403	8399.62
578.763	8558.04
579.124	8589.45
579.485	8700.18
579.845	8881.87
580.206	8849.33
580.566	9063.11
580.927	9103.11
581.287	9265.59
581.648	9341.52
582.008	9555.3
582.368	9594.39
582.728	9765.69
583.089	9900.83
583.449	10079.13
583.809	10242.29
584.169	10380.81
584.529	10533.8
584.889	10792.33
585.249	10935.6
585.609	11089.04
585.969	11344.18
586.329	11461.24
586.688	11762.25
587.048	11964.28
587.408	12097.83
587.768	12338.96
588.127	12550.25
588.487	12734.65
588.846	13253.73
589.206	13256.22
589.565	13569.43
589.925	13895.52
590.284	14065.46
590.643	14326.25
591.003	14633.13
591.362	14950.86
591.721	15307.46
592.08	15494.35
592.44	15857.73
592.799	15973.44
593.158	16285.97
593.517	16567.09
593.876	16944.71
594.235	17198.71
594.593	17416.34
594.952	17766.38
595.311	18071.23
595.67	18403.65
596.029	18788.05
596.387	19036.41
596.746	19347.36
597.104	19583.74
597.463	19829.61
597.822	20272.08
598.18	20393.43
598.538	20765.4
598.897	21103.24
599.255	21213.52
599.613	21748.2
599.972	22003.33
600.33	22286.26
600.688	22480.61
601.046	22865.23
601.404	23279.23
601.762	23504.54
602.12	23864.53
602.478	24116.5
602.836	24398.98
603.194	24447.11
603.552	24811.4
603.91	24973.2
604.268	25431.49
604.625	25533.86
604.983	25967.07
605.341	26073.06
605.698	26496.1
606.056	26654.96
606.413	26878.69
606.771	27197.55
607.128	27527.71
607.485	27594.6
607.843	27769.96
608.2	28228.25
608.557	28438.87
608.914	28529.49
609.272	28871.63
609.629	29262.8
609.986	29422.57
610.343	29542.12
610.7	29922
611.057	30055.33
611.414	30134.19
611.771	30441.08
612.127	30616.67
612.484	30835.64
612.841	31007.16
613.198	31044.9
613.554	31356.08
613.911	31644.44
614.267	31850.76
614.624	31934.15
614.98	32075.16
615.337	32318.77
615.693	32388.15
616.05	32551.98
616.406	32908.58
616.762	32791.75
617.118	33165.53
617.475	33156.26
617.831	33440.55
618.187	33647.32
618.543	33697.49
618.899	33884.83
619.255	34120.3
619.611	34019.29
619.967	34443.46
620.323	34515.32
620.678	34526.85
621.034	34470.35
621.39	34567.98
621.746	34646.84
622.101	35277.34
622.457	34922.54
622.812	35246.6
623.168	35333.6
623.523	35456.09
623.879	35666.48
624.234	35568.85
624.589	35683.2
624.945	35845.23
625.3	35886.13
625.655	35829.86
626.01	35916.87
626.365	36080.7
626.72	36150.53
627.075	36099.23
627.43	36161.83
627.785	36236.41
628.14	36466.46
628.495	36367.48
628.85	36454.48
629.205	36428.27
629.559	36835.49
629.914	36502.84
630.269	36582.39
630.623	36592.1
630.978	36570.63
631.332	36793.45
631.687	36792.32
632.041	36750.52
632.396	36951.64
632.75	36756.84
633.104	36935.14
633.459	36832.32
633.813	36786.67
634.167	36804.3
634.521	36759.56
634.875	36998.19
635.229	36893.34
635.583	36812.21
635.937	36900.57
636.291	36856.95
636.645	36974.69
636.999	36849.5
637.352	37008.59
637.706	36950.06
638.06	36982.15
638.413	36874.81
638.767	37003.84
639.121	36957.29
639.474	36762.49
639.828	36772.89
640.181	36955.94
640.534	36914.13
640.888	36906.9
641.241	36653.57
641.594	36874.58
641.947	36804.75
642.301	36802.27
642.654	36807.24
643.007	36899.89
643.36	36918.65
643.713	36759.33
644.066	36910.51
644.419	36706.22
644.771	36487.25
645.124	36139.46
645.477	36161.61
645.83	36021.04
646.182	35779.92
646.535	35748.74
646.888	35908.73
647.24	35536.99
647.593	35841.84
647.945	35756.42
648.298	35699.24
648.65	35524.33
649.002	35442.75
649.355	35682.97
649.707	35655.63
650.059	35744.22
650.411	36091.78
650.763	36185.56
651.115	36566.11
651.467	36460.13
651.819	36533.57
652.171	36530.18
652.523	36356.63
652.875	36376.97
653.227	36176.75
653.578	36437.76
653.93	36288.61
654.282	36202.28
654.633	36259.68
654.985	36351.88
655.337	36196.18
655.688	36212
656.039	36322.28
656.391	36026.02
656.742	36168.16
657.094	35988.28
657.445	36323.86
657.796	36257.2
658.147	36233.92
658.498	36262.39
658.849	36278.66
659.2	36123.87
659.551	35930.88
659.902	36132.23
660.253	35999.12
660.604	36097.43
660.955	35865.34
661.306	36148.05
661.656	35960.48
662.007	36014.72
662.358	36033.02
662.708	35989.18
663.059	35880.03
663.409	35790.54
663.76	35978.11
664.11	36057.2
664.461	36017.2
664.811	36078.22
665.161	36038.9
665.511	35915.51
665.862	35949.63
666.212	36041.16
666.562	35971.33
666.912	35856.98
667.262	35932.46
667.612	35873.93
667.962	35949.86
668.312	35908.5
668.662	36039.57
669.011	35821.73
669.361	35892.91
669.711	35861.5
670.06	35889.97
670.41	35754.38
670.76	35757.77
671.109	35909.41
671.459	35912.57
671.808	35815.63
672.157	35800.03
672.507	35618.34
672.856	35772.46
673.205	35678.23
673.554	35820.37
673.904	35630.32
674.253	35899.47
674.602	35713.03
674.951	35241.4
675.3	34963.45
675.649	35593.03
675.998	35561.62
676.346	35482.3
676.695	35606.59
677.044	35343.55
677.393	35569.3
677.741	35513.71
678.09	35438.46
678.438	35340.84
678.787	35527.27
679.135	35518.68
679.484	35289.09
679.832	35359.14
680.181	35054.97
680.529	35397.78
680.877	35126.15
681.225	35252.93
681.573	35467.84
681.922	35196.66
682.27	35088.64
682.618	34998.25
682.966	35014.74
683.314	35000.96
683.661	34859.94
684.009	34730.91
684.357	34716.45
684.705	34669.67
685.053	34581.53
685.4	34553.51
685.748	34450.69
686.095	34404.82
686.443	34278.04
686.79	34195.56
687.138	34353.29
687.485	34270.81
687.832	34142.45
688.18	34304.03
688.527	34073.52
688.874	33933.64
689.221	33930.48
689.568	33862.68
689.915	33735
690.262	33714.44
690.609	33584.95
690.956	33603.71
691.303	33598.74
691.65	33424.28
691.997	33490.94
692.344	33216.37
692.69	33175.47
693.037	33246.43
693.383	32890.28
693.73	33002.59
694.077	32882.14
694.423	32792.65
694.769	32697.97
695.116	32686.22
695.462	32644.41
695.808	32547.92
696.155	32594.69
696.501	32397.86
696.847	32361.48
697.193	32176.17
697.539	32352.89
697.885	32111.77
698.231	31907.25
698.577	31912.23
698.923	31898.89
699.269	31701.61
699.614	31536.64
699.96	31630.88
700.306	31565.57
700.651	31503.42
700.997	31359.02
701.342	31238.8
701.688	31211
702.033	31183.43
702.379	31121.96
702.724	30965.81
703.069	31145.01
703.415	30793.39
703.76	30817.11
704.105	30745.7
704.45	30658.47
704.795	30379.38
705.14	30371.48
705.485	30470.46
705.83	30274.98
706.175	30331.02
706.52	30250.12
706.865	30171.48
707.209	30010.58
707.554	29973.97
707.899	30076.12
708.243	29903.69
708.588	29784.37
708.932	29633.19
709.277	29718.16
709.621	29642.91
709.966	29517.26
710.31	29504.61
710.654	29373.31
710.998	29376.93
711.342	29162.69
711.687	29269.13
712.031	29181.45
712.375	29065.75
712.719	29035.24
713.063	29023.94
713.407	29067.78
713.75	28827.56
714.094	28929.25
714.438	28661.92
714.782	28751.41
715.125	28612.65
715.469	28748.24
715.812	28603.39
716.156	28455.59
716.499	28426.89
716.843	28400.45
717.186	28313.9
717.53	28442.94
717.873	28459.21
718.216	28327.69
718.559	28173.12
718.902	27883.41
719.246	28086.79
719.589	27935.83
719.932	27871.65
720.275	27847.7
720.617	27851.77
720.96	27810.19
721.303	27739.68
721.646	27735.61
721.989	27638.67
722.331	27813.35
722.674	27620.81
723.016	27612
723.359	27599.57
723.701	27634.37
724.044	27320.03
724.386	27265.34
724.729	27382.18
725.071	27364.1
725.413	27327.71
725.755	27276.87
726.097	27146.48
726.439	27039.36
726.782	27001.39
727.124	27154.16
727.465	26970.21
727.807	26989.19
728.149	26867.16
728.491	26783.1
728.833	26866.71
729.175	26751.01
729.516	26678.47
729.858	26579.71
730.199	26709.88
730.541	26609.09
730.882	26691.35
731.224	26614.96
731.565	26459.49
731.906	26583.55
732.248	26427.85
732.589	26331.81
732.93	26142.21
733.271	26282.32
733.612	26284.8
733.953	26281.87
734.294	26177.69
734.635	26037.8
734.976	26183.34
735.317	25934.76
735.658	26026.96
735.999	26008.88
736.339	25955.09
736.68	26125.03
737.021	25960.74
737.361	25740.86
737.702	25965.49
738.042	25744.7
738.383	25819.5
738.723	25809.11
739.063	25756.68
739.404	25740.18
739.744	25704.71
740.084	25486.63
740.424	25688.21
740.764	25487.76
741.104	25701.99
741.444	25394.21
741.784	25484.37
742.124	25380.42
742.464	25258.62
742.804	25293.19
743.143	25260.88
743.483	25259.07
743.823	25118.96
744.162	25088.68
744.502	25152.63
744.841	24918.29
745.181	25166.41
745.52	24919.19
745.86	25044.38
746.199	25026.76
746.538	24903.6
746.877	24848
747.216	24798.51
747.556	24778.85
747.895	24767.33
748.234	24780.89
748.573	24707.9
748.911	24730.49
749.25	24739.53
749.589	24549.26
749.928	24617.73
750.267	24612.3
750.605	24554.68
750.944	24511.97
751.283	24280.79
751.621	24418.86
751.96	24201.24
752.298	24246.21
752.636	24098.87
752.975	24140.68
753.313	23957.41
753.651	24165.76
753.989	24038.08
754.327	23873.57
754.666	23900.91
755.004	23844.42
755.342	23942.72
755.679	23828.14
756.017	23687.13
756.355	23728.49
756.693	23642.16
757.031	23652.78
757.368	23507.93
757.706	23521.03
758.044	23378.44
758.381	23348.16
758.719	23342.51
759.056	23243.08
759.394	23169.86
759.731	23097.99
