Data from hue_210_FLMS001491_00035.txt Node
Date: Tue Feb 07 16:41:06 GMT 2017
User: dcchb
Spectrometer: FLMS00149
Trigger mode: 0
Integration Time (sec): 2.000000E-2
Scans to average: 10
Electric dark correction enabled: true
Nonlinearity correction enabled: false
Boxcar width: 0
XAxis mode: Wavelengths
Number of Pixels in Spectrum: 2048
>>>>>Begin Spectral Data<<<<<
341.393	6.75
341.776	6.75
342.16	6.75
342.543	-58.33
342.927	-63.08
343.31	-68.5
343.693	-61.27
344.077	-67.15
344.46	-63.3
344.843	-47.94
345.226	-32.8
345.61	-37.77
345.993	-34.38
346.376	7.2
346.759	12.4
347.142	2.68
347.525	39.74
347.908	48.33
348.291	80.2
348.674	99.63
349.057	122.91
349.44	112.74
349.823	142.11
350.206	167.2
350.588	185.05
350.971	207.88
351.354	225.95
351.737	221.66
352.119	251.04
352.502	257.59
352.884	260.98
353.267	288.1
353.65	291.49
354.032	320.64
354.414	310.47
354.797	315.67
355.179	311.83
355.562	319.96
355.944	322.68
356.326	294.88
356.709	339.17
357.091	322.45
357.473	343.01
357.855	325.84
358.238	332.17
358.62	343.92
359.002	341.21
359.384	341.88
359.766	334.88
360.148	329.45
360.53	335.1
360.912	329.45
361.294	347.08
361.676	321.77
362.057	336.69
362.439	330.81
362.821	327.42
363.203	318.83
363.584	326.06
363.966	319.06
364.348	317.93
364.729	305.73
365.111	309.34
365.493	308.89
365.874	326.52
366.256	298.49
366.637	309.79
367.019	323.58
367.4	301.88
367.781	313.86
368.163	305.5
368.544	305.5
368.925	310.47
369.306	316.35
369.688	298.27
370.069	313.41
370.45	307.76
370.831	305.95
371.212	317.93
371.593	331.49
371.974	301.66
372.355	318.83
372.736	289.23
373.117	335.33
373.498	304.37
373.879	324.93
374.26	309.57
374.641	301.43
375.021	313.18
375.402	301.21
375.783	314.31
376.163	310.92
376.544	331.26
376.925	329.91
377.305	330.13
377.686	314.54
378.066	337.59
378.447	320.64
378.827	340.3
379.208	359.28
379.588	336.23
379.968	331.04
380.349	336.91
380.729	326.74
381.109	335.56
381.489	337.36
381.87	342.11
382.25	333.07
382.63	352.05
383.01	341.88
383.39	353.41
383.77	332.39
384.15	327.87
384.53	349.34
384.91	340.98
385.29	362.22
385.67	349.12
386.049	361.09
386.429	336.23
386.809	346.63
387.189	375.1
387.568	358.38
387.948	342.79
388.328	362.22
388.707	380.75
389.087	360.64
389.466	368.32
389.846	351.6
390.225	378.72
390.605	361.77
390.984	352.73
391.363	372.17
391.743	381.88
392.122	378.04
392.501	371.04
392.881	358.38
393.26	394.09
393.639	381.43
394.018	381.66
394.397	404.71
394.776	397.48
395.155	360.87
395.534	377.81
395.913	386.85
396.292	399.28
396.671	392.5
397.05	398.38
397.429	404.71
397.808	417.81
398.186	380.75
398.565	410.36
398.944	379.4
399.323	395.22
399.701	400.64
400.08	414.2
400.458	429.34
400.837	430.92
401.215	418.49
401.594	434.08
401.972	407.19
402.351	428.66
402.729	436.34
403.107	434.99
403.486	428.89
403.864	425.05
404.242	432.28
404.62	472.28
404.999	456.68
405.377	482.44
405.755	451.03
406.133	468.21
406.511	486.74
406.889	489.68
407.267	473.18
407.645	481.32
408.023	505.04
408.401	505.72
408.779	511.37
409.156	515.66
409.534	512.73
409.912	510.92
410.29	530.81
410.667	547.08
411.045	545.04
411.422	551.14
411.8	557.02
412.178	582.56
412.555	580.3
412.933	587.53
413.31	609.67
413.687	609.67
414.065	640.41
414.442	623.01
414.819	637.47
415.197	669.11
415.574	659.39
415.951	663.01
416.328	663.46
416.705	666.17
417.082	670.01
417.46	688.09
417.837	703.46
418.214	722.66
418.591	741.42
418.967	740.74
419.344	762.21
419.721	797.24
420.098	761.99
420.475	789.56
420.852	785.71
421.228	823.68
421.605	825.26
421.982	822.55
422.358	857.8
422.735	854.86
423.111	861.64
423.488	883.79
423.864	890.12
424.241	915.88
424.617	927.63
424.994	945.03
425.37	943
425.746	967.86
426.123	982.77
426.499	1008.53
426.875	1018.7
427.251	1036.55
427.627	1037.46
428.003	1057.8
428.379	1050.34
428.756	1087.63
429.132	1098.93
429.507	1110.23
429.883	1142.09
430.259	1172.14
430.635	1172.14
431.011	1177.12
431.387	1178.02
431.763	1226.38
432.138	1212.6
432.514	1223.44
432.89	1266.83
433.265	1284.23
433.641	1303.44
434.016	1338.24
434.392	1358.81
434.767	1384.34
435.143	1387.28
435.518	1425.47
435.894	1429.54
436.269	1464.57
436.644	1509.31
437.02	1513.6
437.395	1519.93
437.77	1580.27
438.145	1610.55
438.52	1631.57
438.895	1619.36
439.271	1679.7
439.646	1719.7
440.021	1737.78
440.395	1733.94
440.77	1717.21
441.145	1775.97
441.52	1792.69
441.895	1829.98
442.27	1830.88
442.645	1823.2
443.019	1867.49
443.394	1902.52
443.769	1933.71
444.143	1911.79
444.518	1961.05
444.892	1974.38
445.267	1928.96
445.641	2039.47
446.016	2009.86
446.39	2022.29
446.764	2046.02
447.139	2059.8
447.513	2066.81
447.887	2093.93
448.262	2113.81
448.636	2126.47
449.01	2170.08
449.384	2182.74
449.758	2210.54
450.132	2191.78
450.506	2211.21
450.88	2233.36
451.254	2232.68
451.628	2278.56
452.002	2309.29
452.376	2317.65
452.75	2330.98
453.123	2353.36
453.497	2364.2
453.871	2426.35
454.244	2453.47
454.618	2456.18
454.992	2477.87
455.365	2509.06
455.739	2589.51
456.112	2617.3
456.486	2624.31
456.859	2650.75
457.232	2683.52
457.606	2656.85
457.979	2728.94
458.352	2766.9
458.725	2793.12
459.099	2799.67
459.472	2861.14
459.845	2876.28
460.218	2915.15
460.591	2935.94
460.964	2916.05
461.337	2983.17
461.71	3053
462.083	3084.18
462.456	3103.84
462.829	3110.62
463.201	3136.16
463.574	3176.39
463.947	3236.04
464.32	3272.43
464.692	3315.59
465.065	3314.01
465.438	3362.37
465.81	3437.62
466.183	3481.91
466.555	3561.23
466.928	3570.27
467.3	3540.9
467.672	3628.12
468.045	3694.34
468.417	3705.41
468.789	3715.81
469.161	3795.58
469.534	3793.54
469.906	3883.71
470.278	3929.81
470.65	3960.55
471.022	3990.15
471.394	4114.21
471.766	4143.37
472.138	4174.55
472.51	4259.52
472.882	4335.68
473.253	4317.82
473.625	4390.36
473.997	4455.45
474.369	4525.73
474.74	4558.95
475.112	4648.66
475.484	4678.49
475.855	4776.8
476.227	4779.73
476.598	4903.35
476.97	4951.71
477.341	5031.25
477.713	5131.14
478.084	5115.09
478.455	5308.76
478.827	5300.85
479.198	5495.65
479.569	5456.1
479.94	5596.89
480.311	5621.97
480.682	5795.75
481.053	5871.68
481.424	5895.86
481.795	6001.4
482.166	6060.38
482.537	6091.11
482.908	6251.11
483.279	6304.21
483.65	6390.31
484.021	6481.16
484.391	6520.48
484.762	6587.14
485.133	6640.7
485.503	6717.76
485.874	6806.57
486.244	6919.79
486.615	7051.54
486.985	7040.01
487.356	7224.64
487.726	7239.1
488.097	7360.23
488.467	7410.62
488.837	7522.71
489.207	7618.75
489.578	7715.48
489.948	7752.08
490.318	7881.57
490.688	7879.54
491.058	7990.5
491.428	8142.36
491.798	8124.05
492.168	8310.26
492.538	8265.29
492.908	8418.96
493.278	8478.84
493.648	8422.12
494.017	8506.64
494.387	8598.39
494.757	8705.05
495.126	8777.37
495.496	8745.28
495.866	8838.61
496.235	8868.67
496.605	8947.31
496.974	8981.66
497.344	9031.6
497.713	9104.14
498.082	9099.17
498.452	9270.01
498.821	9258.49
499.19	9184.59
499.559	9255.77
499.928	9368.76
500.298	9391.59
500.667	9450.57
501.036	9398.82
501.405	9485.82
501.774	9511.13
502.143	9554.07
502.512	9611.7
502.88	9633.16
503.249	9610.11
503.618	9636.78
503.987	9711.13
504.356	9767.85
504.724	9795.87
505.093	9790.67
505.462	9855.31
505.83	9804.46
506.199	9890.79
506.567	9971.01
506.936	9953.83
507.304	9998.8
507.672	10060.05
508.041	10034.06
508.409	10123.1
508.777	10208.06
509.145	10232.25
509.514	10195.18
509.882	10241.06
510.25	10188.86
510.618	10225.92
510.986	10264.11
511.354	10312.47
511.722	10301.4
512.09	10441.05
512.458	10338.23
512.826	10451.22
513.193	10426.82
513.561	10429.3
513.929	10505.46
514.297	10527.38
514.664	10553.37
515.032	10634.49
515.4	10674.04
515.767	10630.2
516.135	10650.77
516.502	10481.05
516.869	10642.18
517.237	10722.18
517.604	10576.19
517.972	10721.95
518.339	10747.71
518.706	10662.74
519.073	10685.79
519.44	10729.86
519.808	10735.51
520.175	10713.59
520.542	10889.18
520.909	10856.41
521.276	10775.96
521.643	10847.37
522.009	10852.57
522.376	10971.21
522.743	10943.19
523.11	10937.31
523.477	10977.08
523.843	10999
524.21	11116.97
524.577	11067.7
524.943	11109.96
525.31	11102.5
525.676	11083.3
526.043	11119
526.409	11163.29
526.776	11161.03
527.142	11220.02
527.508	11135.27
527.874	11161.26
528.241	11159.23
528.607	11112.22
528.973	11248.72
529.339	11160.81
529.705	11264.53
530.071	11249.62
530.437	11245.33
530.803	11262.5
531.169	11219.79
531.535	11172.11
531.901	11234.25
532.267	11114.03
532.632	11204.42
532.998	11149.74
533.364	11201.49
533.73	11146.57
534.095	11133.69
534.461	11190.86
534.826	11070.42
535.192	11059.79
535.557	11082.17
535.923	11040.36
536.288	11064.77
536.653	11014.82
537.019	10995.61
537.384	10961.27
537.749	10971.89
538.114	10961.04
538.479	10850.76
538.845	10901.61
539.21	10813.25
539.575	10844.43
539.94	10823.87
540.305	10777.99
540.67	10711.33
541.034	10692.57
541.399	10729.41
541.764	10693.48
542.129	10681.05
542.494	10653.48
542.858	10568.06
543.223	10574.38
543.587	10565.8
543.952	10510.2
544.316	10550.65
544.681	10463.43
545.045	10443.54
545.41	10471.56
545.774	10465.69
546.138	10390.88
546.503	10380.49
546.867	10292.36
547.231	10353.6
547.595	10282.64
547.959	10234.28
548.324	10232.47
548.688	10196.54
549.052	10182.53
549.416	10151.34
549.779	10126.94
550.143	10119.25
550.507	10064.79
550.871	10022.08
551.235	10015.98
551.599	10002.87
551.962	9956.32
552.326	9880.62
552.689	9909.99
553.053	9883.33
553.417	9914.29
553.78	9875.42
554.143	9834.52
554.507	9904.12
554.87	9822.76
555.234	9852.14
555.597	9684.91
555.96	9727.85
556.323	9753.84
556.686	9672.26
557.05	9773.5
557.413	9710.22
557.776	9727.63
558.139	9671.13
558.502	9758.59
558.865	9673.84
559.228	9705.25
559.59	9724.46
559.953	9705.25
560.316	9783.44
560.679	9689.89
561.041	9736.89
561.404	9764.91
561.767	9735.08
562.129	9612.83
562.492	9833.16
562.854	9665.03
563.217	9753.84
563.579	9699.15
563.941	9739.38
564.304	9731.47
564.666	9766.49
565.028	9749.77
565.39	9786.16
565.753	9750.45
566.115	9732.82
566.477	9780.51
566.839	9818.92
567.201	9796.55
567.563	9730.56
567.925	9843.1
568.287	9832.03
568.648	9870.22
569.01	9847.4
569.372	9921.97
569.734	9838.81
570.095	9850.33
570.457	9924.23
570.819	9912.93
571.18	9764.23
571.542	9862.99
571.903	9867.96
572.265	9912.71
572.626	9937.34
572.987	9928.75
573.349	9940.95
573.71	9992.25
574.071	10022.53
574.432	9943.89
574.794	10112.93
575.155	10020.5
575.516	10009.88
575.877	10061.4
576.238	10045.58
576.599	10114.51
576.96	10034.28
577.32	10021.4
577.681	10123.32
578.042	10164.45
578.403	10114.06
578.763	10128.97
579.124	10151.8
579.485	10193.83
579.845	10169.42
580.206	10199.7
580.566	10203.32
580.927	10283.77
581.287	10258.01
581.648	10275.63
582.008	10287.38
582.368	10213.71
582.728	10275.41
583.089	10246.26
583.449	10275.41
583.809	10279.02
584.169	10284.67
584.529	10274.73
584.889	10351.34
585.249	10313.15
585.609	10251.68
585.969	10328.29
586.329	10267.27
586.688	10263.88
587.048	10297.55
587.408	10257.56
587.768	10286.48
588.127	10284.9
588.487	10318.8
588.846	10401.05
589.206	10291.68
589.565	10302.98
589.925	10332.36
590.284	10343.65
590.643	10382.3
591.003	10309.76
591.362	10407.16
591.721	10409.64
592.08	10315.63
592.44	10389.08
592.799	10382.52
593.158	10324.22
593.517	10338.68
593.876	10371.22
594.235	10333.03
594.593	10362.19
594.952	10311.57
595.311	10352.02
595.67	10373.03
596.029	10422.75
596.387	10373.26
596.746	10479.02
597.104	10331
597.463	10369.87
597.822	10470.2
598.18	10353.6
598.538	10387.72
598.897	10387.04
599.255	10297.33
599.613	10476.76
599.972	10422.3
600.33	10393.37
600.688	10415.97
601.046	10414.16
601.404	10460.04
601.762	10380.72
602.12	10469.98
602.478	10469.75
602.836	10458.91
603.194	10445.35
603.552	10418.23
603.91	10393.37
604.268	10432.24
604.625	10430.21
604.983	10475.18
605.341	10368.29
605.698	10459.13
606.056	10511.79
606.413	10441.05
606.771	10444.89
607.128	10479.92
607.485	10476.98
607.843	10486.02
608.2	10514.27
608.557	10550.88
608.914	10486.48
609.272	10532.8
609.629	10569.64
609.986	10579.81
610.343	10465.46
610.7	10603.53
611.057	10542.29
611.414	10603.99
611.771	10533.48
612.127	10640.14
612.484	10601.05
612.841	10618
613.198	10580.26
613.554	10613.93
613.911	10738.67
614.267	10597.66
614.624	10610.09
614.98	10636.75
615.337	10623.65
615.693	10618.45
616.05	10675.4
616.406	10697.32
616.762	10641.5
617.118	10634.27
617.475	10637.66
617.831	10693.25
618.187	10713.36
618.543	10727.37
618.899	10736.86
619.255	10792.23
619.611	10753.14
619.967	10802.17
620.323	10855.05
620.678	10761.27
621.034	10700.48
621.39	10765.56
621.746	10699.35
622.101	10830.65
622.457	10749.29
622.812	10673.82
623.168	10762.4
623.523	10743.87
623.879	10733.02
624.234	10733.7
624.589	10760.37
624.945	10710.65
625.3	10771.67
625.655	10692.8
626.01	10782.97
626.365	10695.06
626.72	10697.77
627.075	10723.53
627.43	10709.75
627.785	10711.78
628.14	10726.92
628.495	10726.02
628.85	10777.99
629.205	10674.04
629.559	10746.81
629.914	10695.74
630.269	10725.11
630.623	10654.83
630.978	10603.99
631.332	10754.04
631.687	10673.14
632.041	10594.27
632.396	10688.28
632.75	10582.97
633.104	10570.99
633.459	10498.9
633.813	10523.08
634.167	10531.45
634.521	10529.41
634.875	10486.25
635.229	10603.31
635.583	10494.16
635.937	10428.85
636.291	10450.32
636.645	10494.84
636.999	10389.76
637.352	10474.27
637.706	10403.77
638.06	10456.19
638.413	10503.42
638.767	10404.67
639.121	10352.24
639.474	10315.86
639.828	10323.09
640.181	10333.94
640.534	10292.81
640.888	10277.44
641.241	10213.04
641.594	10224.11
641.947	10347.95
642.301	10261.17
642.654	10258.46
643.007	10257.78
643.36	10288.06
643.713	10245.58
644.066	10289.19
644.419	10224.11
644.771	10137.33
645.124	10011.91
645.477	10028.41
645.83	9984.79
646.182	9937.56
646.535	9863.67
646.888	9936.43
647.24	9832.93
647.593	9948.41
647.945	9921.29
648.298	9844.23
648.65	9866.83
649.002	9822.76
649.355	9976.21
649.707	9874.51
650.059	9895.08
650.411	10066.15
650.763	10079.48
651.115	10116.54
651.467	10141.85
651.819	10142.76
652.171	10028.41
652.523	10032.02
652.875	10082.19
653.227	10020.95
653.578	10093.94
653.93	10097.56
654.282	10051.91
654.633	10020.05
654.985	10047.84
655.337	10059.59
655.688	10066.37
656.039	10143.43
656.391	10082.64
656.742	10127.62
657.094	10093.27
657.445	10128.52
657.796	10096.43
658.147	10064.34
658.498	10068.63
658.849	10138.46
659.2	10144.11
659.551	10012.36
659.902	10105.92
660.253	10075.19
660.604	10109.99
660.955	10039.71
661.306	10177.33
661.656	10105.92
662.007	10134.17
662.358	10131
662.708	10129.87
663.059	10112.25
663.409	10076.32
663.76	10195.18
664.11	10152.02
664.461	10187.05
664.811	10204.45
665.161	10157.67
665.511	10114.06
665.862	10061.63
666.212	10178.01
666.562	10134.85
666.912	10114.28
667.262	10135.52
667.612	10166.94
667.962	10156.77
668.312	10154.28
668.662	10193.83
669.011	10144.79
669.361	10083.77
669.711	10118.12
670.06	10071.8
670.41	10007.84
670.76	10027.5
671.109	10126.26
671.459	10025.24
671.808	10109.08
672.157	10089.2
672.507	10021.18
672.856	10038.35
673.205	10000.84
673.554	10055.75
673.904	10091.91
674.253	10119.03
674.602	10046.04
674.951	9875.42
675.3	9815.76
675.649	10044
675.998	9949.31
676.346	10018.01
676.695	9987.28
677.044	9942.76
677.393	9895.08
677.741	9962.42
678.09	9947.73
678.438	9937.11
678.787	9957
679.135	9965.59
679.484	9804.23
679.832	9857.34
680.181	9733.05
680.529	9834.06
680.877	9777.12
681.225	9793.84
681.573	9825.48
681.922	9698.02
682.27	9742.31
682.618	9691.47
682.966	9643.56
683.314	9736.44
683.661	9656.44
684.009	9615.76
684.357	9628.87
684.705	9612.6
685.053	9587.52
685.4	9579.83
685.748	9474.98
686.095	9520.63
686.443	9487.63
686.79	9399.27
687.138	9491.25
687.485	9511.36
687.832	9442.66
688.18	9426.62
688.527	9379.84
688.874	9392.49
689.221	9342.55
689.568	9356.11
689.915	9325.38
690.262	9282.21
690.609	9239.73
690.956	9183.46
691.303	9169.22
691.65	9075.67
691.997	9141.43
692.344	9095.33
692.69	9006.06
693.037	9017.81
693.383	8936.01
693.73	8943.47
694.077	8977.81
694.423	8936.01
694.769	8919.96
695.116	8803.13
695.462	8807.42
695.808	8785.73
696.155	8787.54
696.501	8686.3
696.847	8743.7
697.193	8582.57
697.539	8629.12
697.885	8555.9
698.231	8560.88
698.577	8582.34
698.923	8557.94
699.269	8522.69
699.614	8430.48
699.96	8371.96
700.306	8368.11
700.651	8372.86
700.997	8380.54
701.342	8268.45
701.688	8286.08
702.033	8255.12
702.379	8249.7
702.724	8199.76
703.069	8236.37
703.415	8085.18
703.76	8075.92
704.105	8131.28
704.45	8094.22
704.795	8040.66
705.14	7960.21
705.485	8000.44
705.83	7937.84
706.175	7938.52
706.52	7957.05
706.865	7872.08
707.209	7856.49
707.554	7800.67
707.899	7835.25
708.243	7795.25
708.588	7779.2
708.932	7717.51
709.277	7709.6
709.621	7685.42
709.966	7613.56
710.31	7628.7
710.654	7562.94
710.998	7652.65
711.342	7570.85
711.687	7549.83
712.031	7520.23
712.375	7507.12
712.719	7530.4
713.063	7529.94
713.407	7505.54
713.75	7457.85
714.094	7463.28
714.438	7444.97
714.782	7488.36
715.125	7419.89
715.469	7449.49
715.812	7441.36
716.156	7322.04
716.499	7340.57
716.843	7331.08
717.186	7293.11
717.53	7320.91
717.873	7303.73
718.216	7251.31
718.559	7262.38
718.902	7254.47
719.246	7306.9
719.589	7192.1
719.932	7210.18
720.275	7248.14
720.617	7199.56
720.96	7123.63
721.303	7204.53
721.646	7140.35
721.989	7166.34
722.331	7183.29
722.674	7185.32
723.016	7151.42
723.359	7123.4
723.701	7145.77
724.044	7148.71
724.386	7111.65
724.729	7132.89
725.071	7143.06
725.413	7064.42
725.755	7136.73
726.097	7076.62
726.439	7023.06
726.782	7052.89
727.124	7069.39
727.465	7034.36
727.807	7023.52
728.149	7060.35
728.491	7036.85
728.833	7044.98
729.175	7042.95
729.516	6993.46
729.858	6948.94
730.199	7010.63
730.541	7016.28
730.882	7025.1
731.224	6973.57
731.565	6981.03
731.906	7023.97
732.248	7050.41
732.589	7036.4
732.93	6979.9
733.271	7011.54
733.612	6964.31
733.953	7035.94
734.294	6948.26
734.635	6977.42
734.976	7005.89
735.317	6973.8
735.658	6934.48
735.999	7000.24
736.339	6983.06
736.68	7029.17
737.021	6980.58
737.361	6999.79
737.702	6993.91
738.042	7046.34
738.383	7024.65
738.723	7040.24
739.063	7045.21
739.404	7028.26
739.744	7074.59
740.084	7023.29
740.424	7114.59
740.764	7042.05
741.104	7058.09
741.444	7092.21
741.784	7092.67
742.124	7084.08
742.464	7174.7
742.804	7130.86
743.143	7141.48
743.483	7228.48
743.823	7187.81
744.162	7169.27
744.502	7209.95
744.841	7273
745.181	7347.12
745.52	7303.06
745.86	7466.44
746.199	7467.12
746.538	7450.4
746.877	7483.16
747.216	7524.75
747.556	7582.37
747.895	7590.28
748.234	7612.88
748.573	7707.34
748.911	7726.1
749.25	7837.51
749.589	7892.42
749.928	7896.49
750.267	8027.56
750.605	8033.21
750.944	8150.72
751.283	8228.46
751.621	8280.21
751.96	8296.25
752.298	8399.98
752.636	8545.51
752.975	8571.5
753.313	8632.51
753.651	8885.39
753.989	8894.65
754.327	8969.23
754.666	9120.86
755.004	9209.67
755.342	9394.98
755.679	9439.72
756.017	9549.33
756.355	9662.77
756.693	9841.52
757.031	9985.47
757.368	10144.34
757.706	10232.7
758.044	10308.18
758.381	10520.15
758.719	10661.16
759.056	10927.82
759.394	11030.64
759.731	11161.94
760.068	11300.92
760.405	11473.57
760.743	11604.41
761.08	11837.4
