Data from hue_220_FLMS001491_00008.txt Node
Date: Tue Feb 07 16:38:28 GMT 2017
User: dcchb
Spectrometer: FLMS00149
Trigger mode: 0
Integration Time (sec): 2.000000E-2
Scans to average: 10
Electric dark correction enabled: true
Nonlinearity correction enabled: false
Boxcar width: 0
XAxis mode: Wavelengths
Number of Pixels in Spectrum: 2048
>>>>>Begin Spectral Data<<<<<
341.393	-10.17
341.776	-10.17
342.16	-10.17
342.543	-55.14
342.927	-72.31
343.31	-60.34
343.693	-73.67
344.077	-65.54
344.46	-44.74
344.843	-59.66
345.226	-42.26
345.61	-40.45
345.993	-14.46
346.376	-9.94
346.759	25.08
347.142	3.16
347.525	30.96
347.908	73.44
348.291	65.99
348.674	105.99
349.057	106.44
349.44	115.7
349.823	136.72
350.206	163.61
350.588	196.61
350.971	214.91
351.354	216.94
351.737	241.8
352.119	265.3
352.502	244.06
352.884	254.23
353.267	279.77
353.65	293.55
354.032	293.1
354.414	293.33
354.797	298.98
355.179	308.69
355.562	319.09
355.944	322.93
356.326	329.93
356.709	332.19
357.091	320.44
357.473	344.85
357.855	349.37
358.238	350.73
358.62	324.29
359.002	329.93
359.384	337.17
359.766	335.81
360.148	319.09
360.53	328.35
360.912	343.95
361.294	335.58
361.676	334.91
362.057	327
362.439	351.18
362.821	353.44
363.203	331.29
363.584	327.9
363.966	318.64
364.348	304.17
364.729	320.9
365.111	329.93
365.493	324.29
365.874	289.26
366.256	319.99
366.637	317.28
367.019	314.34
367.4	326.32
367.781	300.11
368.163	320.67
368.544	328.58
368.925	314.79
369.306	326.77
369.688	315.25
370.069	300.33
370.45	311.63
370.831	299.43
371.212	338.52
371.593	288.13
371.974	308.01
372.355	324.06
372.736	335.81
373.117	323.38
373.498	323.61
373.879	341.91
374.26	312.76
374.641	329.03
375.021	299.43
375.402	306.21
375.783	330.84
376.163	343.04
376.544	333.55
376.925	326.77
377.305	321.57
377.686	337.84
378.066	328.8
378.447	310.05
378.827	350.05
379.208	319.09
379.588	333.32
379.968	345.75
380.349	335.36
380.729	326.32
381.109	340.1
381.489	308.24
381.87	348.47
382.25	336.49
382.63	350.95
383.01	325.42
383.39	319.99
383.77	350.95
384.15	346.21
384.53	347.79
384.91	360.89
385.29	365.64
385.67	344.62
386.049	352.76
386.429	345.98
386.809	350.05
387.189	348.47
387.568	350.5
387.948	343.72
388.328	353.66
388.707	350.73
389.087	360.44
389.466	355.47
389.846	382.81
390.225	385.53
390.605	361.57
390.984	365.41
391.363	402.7
391.743	367.67
392.122	371.97
392.501	378.75
392.881	382.14
393.26	382.36
393.639	378.3
394.018	401.8
394.397	409.93
394.776	398.86
395.155	381.01
395.534	380.78
395.913	382.36
396.292	383.72
396.671	397.05
397.05	405.64
397.429	400.44
397.808	403.15
398.186	408.12
398.565	421.91
398.944	387.56
399.323	408.35
399.701	417.62
400.08	421.91
400.458	425.98
400.837	402.7
401.215	423.94
401.594	424.85
401.972	409.93
402.351	444.51
402.729	452.87
403.107	425.53
403.486	440.67
403.864	444.06
404.242	436.37
404.62	467.33
404.999	460.1
405.377	442.7
405.755	452.42
406.133	465.3
406.511	450.38
406.889	482.02
407.267	472.98
407.645	482.47
408.023	504.17
408.401	492.19
408.779	512.08
409.156	508.91
409.534	509.14
409.912	533.55
410.29	522.92
410.667	516.82
411.045	531.51
411.422	539.87
411.8	564.28
412.178	554.79
412.555	571.74
412.933	585.3
413.31	599.53
413.687	597.05
414.065	588.91
414.442	635.69
414.819	610.15
415.197	625.75
415.574	641.79
415.951	647.21
416.328	648.12
416.705	654.22
417.082	674.56
417.46	668.68
417.837	697.61
418.214	675.91
418.591	709.59
418.967	698.29
419.344	721.56
419.721	757.27
420.098	715.46
420.475	735.57
420.852	773.09
421.228	769.47
421.605	781
421.982	787.78
422.358	821.22
422.735	804.5
423.111	854.21
423.488	872.52
423.864	869.36
424.241	877.72
424.617	896.02
424.994	892.86
425.37	905.96
425.746	934.89
426.123	916.59
426.499	955.46
426.875	966.08
427.251	998.17
427.627	997.94
428.003	985.06
428.379	1031.39
428.756	1027.32
429.132	1049.46
429.507	1097.6
429.883	1065.51
430.259	1069.12
430.635	1102.12
431.011	1092.4
431.387	1113.19
431.763	1149.12
432.138	1156.35
432.514	1166.07
432.89	1195
433.265	1220.31
433.641	1238.61
434.016	1253.75
434.392	1277.48
434.767	1291.04
435.143	1294.43
435.518	1356.12
435.894	1347.31
436.269	1377.59
436.644	1401.77
437.02	1416.46
437.395	1423.01
437.77	1478.61
438.145	1482.22
438.52	1502.11
438.895	1524.93
439.271	1551.82
439.646	1587.53
440.021	1593.18
440.395	1595.21
440.77	1604.93
441.145	1637.25
441.52	1658.49
441.895	1656.68
442.27	1702.1
442.645	1698.26
443.019	1727.86
443.394	1754.08
443.769	1767.64
444.143	1786.39
444.518	1821.42
444.892	1802.89
445.267	1831.36
445.641	1821.2
446.016	1834.98
446.39	1849.67
446.764	1847.18
447.139	1893.51
447.513	1937.12
447.887	1908.2
448.262	1925.37
448.636	1931.7
449.01	1954.98
449.384	2020.06
449.758	1997.24
450.132	2018.25
450.506	2022.77
450.88	2050.57
451.254	2010.12
451.628	2071.36
452.002	2058.02
452.376	2097.35
452.75	2100.28
453.123	2145.93
453.497	2196.33
453.871	2194.52
454.244	2235.42
454.618	2245.14
454.992	2277.23
455.365	2257.79
455.739	2336.44
456.112	2350.67
456.486	2345.02
456.859	2367.85
457.232	2411.46
457.606	2413.27
457.979	2432.93
458.352	2509.76
458.725	2483.55
459.099	2516.54
459.472	2542.76
459.845	2584.56
460.218	2604.45
460.591	2594.28
460.964	2644.9
461.337	2698.01
461.71	2750.66
462.083	2771.23
462.456	2768.74
462.829	2793.6
463.201	2814.84
463.574	2857.1
463.947	2858.68
464.32	2912.24
464.692	2966.7
465.065	2976.42
465.438	2999.47
465.81	3055.29
466.183	3087.38
466.555	3093.48
466.928	3154.95
467.3	3155.17
467.672	3207.15
468.045	3300.93
468.417	3262.97
468.789	3302.06
469.161	3348.39
469.534	3384.32
469.906	3425.45
470.278	3456.41
470.65	3507.03
471.022	3574.14
471.394	3615.5
471.766	3599.23
472.138	3676.74
472.51	3709.06
472.882	3779.11
473.253	3803.52
473.625	3857.53
473.997	3905.89
474.369	3892.1
474.74	3997.64
475.112	4058.42
475.484	4063.17
475.855	4164.64
476.227	4178.42
476.598	4311.07
476.97	4375.03
477.341	4380.9
477.713	4445.31
478.084	4492.54
478.455	4600.56
478.827	4609.37
479.198	4744.73
479.569	4730.72
479.94	4839.19
480.311	4864.5
480.682	4959.42
481.053	5048.45
481.424	5143.59
481.795	5131.84
482.166	5234.44
482.537	5311.95
482.908	5398.73
483.279	5413.87
483.65	5534.54
484.021	5600.98
484.391	5627.2
484.762	5699.06
485.133	5695.44
485.503	5763.92
485.874	5862.44
486.244	5887.3
486.615	6002.55
486.985	6083
487.356	6218.14
487.726	6228.08
488.097	6335.43
488.467	6351.47
488.837	6444.58
489.207	6517.34
489.578	6607.06
489.948	6604.8
490.318	6661.29
490.688	6713.72
491.058	6831.23
491.428	6858.58
491.798	6909.42
492.168	7061.74
492.538	7044.79
492.908	7106.25
493.278	7194.84
493.648	7154.84
494.017	7319.36
494.387	7297.66
494.757	7341.28
495.126	7365.68
495.496	7438
495.866	7472.35
496.235	7522.29
496.605	7648.61
496.974	7556.41
497.344	7703.98
497.713	7735.16
498.082	7802.96
498.452	7835.95
498.821	7856.97
499.19	7783.3
499.559	7877.98
499.928	7915.72
500.298	7995.72
500.667	8099.22
501.036	8016.29
501.405	8105.32
501.774	8123.4
502.143	8135.61
502.512	8127.47
502.88	8159.56
503.249	8216.06
503.618	8202.04
503.987	8251.53
504.356	8274.36
504.724	8328.82
505.093	8266.45
505.462	8354.58
505.83	8393.23
506.199	8418.99
506.567	8489.72
506.936	8451.53
507.304	8538.76
507.672	8567.91
508.041	8533.56
508.409	8603.16
508.777	8675.7
509.145	8677.06
509.514	8602.03
509.882	8712.77
510.25	8702.6
510.618	8742.82
510.986	8728.36
511.354	8765.87
511.722	8752.76
512.09	8879.54
512.458	8753.22
512.826	8861.01
513.193	8823.27
513.561	8855.59
513.929	8932.87
514.297	8910.27
514.664	8977.39
515.032	8967.45
515.4	9013.1
515.767	9023.49
516.135	9055.81
516.502	8967.22
516.869	9130.38
517.237	8966.77
517.604	8997.96
517.972	9033.89
518.339	9097.39
518.706	9058.07
519.073	9049.93
519.44	9126.99
519.808	9167.67
520.175	9106.88
520.542	9185.3
520.909	9187.33
521.276	9184.62
521.643	9181.91
522.009	9153.21
522.376	9199.98
522.743	9209.93
523.11	9256.48
523.477	9234.33
523.843	9259.87
524.21	9355.91
524.577	9371.73
524.943	9344.16
525.31	9386.42
525.676	9420.77
526.043	9432.75
526.409	9376.02
526.776	9496.25
527.142	9425.06
527.508	9511.84
527.874	9436.81
528.241	9538.73
528.607	9504.38
528.973	9574.66
529.339	9533.31
529.705	9537.15
530.071	9532.18
530.437	9519.3
530.803	9568.56
531.169	9533.08
531.535	9488.11
531.901	9520.43
532.267	9496.25
532.632	9516.59
532.998	9539.41
533.364	9517.26
533.73	9515
534.095	9557.26
534.461	9525.63
534.826	9472.75
535.192	9498.51
535.557	9580.99
535.923	9497.83
536.288	9502.35
536.653	9438.17
537.019	9422.58
537.384	9427.55
537.749	9421.45
538.114	9371.5
538.479	9397.27
538.845	9397.94
539.21	9348.91
539.575	9347.55
539.94	9321.11
540.305	9369.47
540.67	9299.64
541.034	9319.08
541.399	9266.87
541.764	9252.86
542.129	9265.52
542.494	9269.13
542.858	9250.6
543.223	9146.43
543.587	9223.94
543.952	9176.48
544.316	9187.78
544.681	9137.39
545.045	9166.54
545.41	9184.17
545.774	9086.77
546.138	9093.55
546.503	9061.46
546.867	9041.12
547.231	9045.64
547.595	9032.53
547.959	9075.92
548.324	9024.62
548.688	8977.84
549.052	8989.82
549.416	8990.5
549.779	8962.25
550.143	8902.14
550.507	8882.48
550.871	8911.4
551.235	8808.58
551.599	8858.07
551.962	8816.94
552.326	8841.12
552.689	8809.49
553.053	8764.52
553.417	8798.41
553.78	8842.71
554.143	8796.83
554.507	8742.14
554.87	8736.49
555.234	8822.82
555.597	8717.96
555.96	8712.54
556.323	8711.86
556.686	8736.95
557.05	8720.9
557.413	8754.8
557.776	8688.36
558.139	8715.7
558.502	8752.76
558.865	8715.48
559.228	8758.64
559.59	8732.88
559.953	8679.55
560.316	8763.16
560.679	8739.88
561.041	8740.56
561.404	8775.14
561.767	8814.91
562.129	8756.61
562.492	8878.18
562.854	8750.05
563.217	8779.66
563.579	8827.56
563.941	8815.59
564.304	8826.66
564.666	8902.82
565.028	8818.98
565.39	8866.21
565.753	8900.78
566.115	8861.91
566.477	8835.25
566.839	8921.8
567.201	8979.2
567.563	8899.65
567.925	8909.37
568.287	8854.91
568.648	9001.57
569.01	9018.07
569.372	9048.58
569.734	9057.39
570.095	9036.37
570.457	9088.12
570.819	9067.56
571.18	9100.78
571.542	9166.31
571.903	9167.67
572.265	9195.24
572.626	9209.93
572.987	9212.19
573.349	9250.15
573.71	9300.77
574.071	9235.92
574.432	9318.85
574.794	9352.3
575.155	9317.95
575.516	9325.63
575.877	9311.62
576.238	9305.97
576.599	9387.1
576.96	9450.82
577.32	9400.66
577.681	9410.15
578.042	9435.01
578.403	9444.95
578.763	9517.26
579.124	9464.84
579.485	9566.3
579.845	9609.92
580.206	9569.92
580.566	9590.93
580.927	9572.86
581.287	9627.54
581.648	9602.91
582.008	9657.37
582.368	9683.81
582.728	9678.39
583.089	9652.4
583.449	9707.77
583.809	9737.15
584.169	9777.14
584.529	9751.61
584.889	9846.52
585.249	9717.03
585.609	9791.38
585.969	9839.74
586.329	9812.17
586.688	9824.37
587.048	9834.77
587.408	9874.77
587.768	9873.64
588.127	9885.16
588.487	9882
588.846	10021.88
589.206	9945.73
589.565	9944.37
589.925	10027.31
590.284	9979.17
590.643	9994.31
591.003	10069.34
591.362	10006.97
591.721	10014.65
592.08	10017.36
592.44	10071.15
592.799	10015.1
593.158	10069.79
593.517	10081.09
593.876	10162.44
594.235	10030.24
594.593	10056.23
594.952	10028.66
595.311	10045.16
595.67	10161.09
596.029	10206.06
596.387	10253.74
596.746	10153.86
597.104	10171.94
597.463	10183.69
597.822	10165.61
598.18	10234.31
598.538	10195.66
598.897	10209
599.255	10156.34
599.613	10343.23
599.972	10185.95
600.33	10266.85
600.688	10194.08
601.046	10279.5
601.404	10244.7
601.762	10266.4
602.12	10340.75
602.478	10320.63
602.836	10331.93
603.194	10270.46
603.552	10328.32
603.91	10274.76
604.268	10353.4
604.625	10298.94
604.983	10358.37
605.341	10334.19
605.698	10416.9
606.056	10350.46
606.413	10338.03
606.771	10427.75
607.128	10430.23
607.485	10380.07
607.843	10388.43
608.2	10412.16
608.557	10475.2
608.914	10371.25
609.272	10434.08
609.629	10483.79
609.986	10562.66
610.343	10465.26
610.7	10564.69
611.057	10492.61
611.414	10485.6
611.771	10512.49
612.127	10575.32
612.484	10468.88
612.841	10595.43
613.198	10528.76
613.554	10546.16
613.911	10590.23
614.267	10629.55
614.624	10591.81
614.98	10644.01
615.337	10634.3
615.693	10610.79
616.05	10596.78
616.406	10692.37
616.762	10700.28
617.118	10650.34
617.475	10637.01
617.831	10684.24
618.187	10792.94
618.543	10748.19
618.899	10691.24
619.255	10781.19
619.611	10714.52
619.967	10732.37
620.323	10827.74
620.678	10694.18
621.034	10689.44
621.39	10694.86
621.746	10677.91
622.101	10853.95
622.457	10740.96
622.812	10759.49
623.168	10785.48
623.523	10746.38
623.879	10757.91
624.234	10717.68
624.589	10762.2
624.945	10743.9
625.3	10763.33
625.655	10659.83
626.01	10695.54
626.365	10756.33
626.72	10756.1
627.075	10719.27
627.43	10792.71
627.785	10685.37
628.14	10714.75
628.495	10781.19
628.85	10734.63
629.205	10700.74
629.559	10719.72
629.914	10630.23
630.269	10623
630.623	10625.94
630.978	10633.62
631.332	10711.13
631.687	10645.82
632.041	10646.5
632.396	10650.12
632.75	10565.6
633.104	10610.79
633.459	10566.28
633.813	10550.68
634.167	10551.81
634.521	10498.71
634.875	10526.5
635.229	10587.97
635.583	10413.51
635.937	10510.46
636.291	10489.89
636.645	10517.24
636.999	10472.04
637.352	10453.06
637.706	10414.64
638.06	10439.05
638.413	10455.09
638.767	10414.87
639.121	10415.09
639.474	10270.46
639.828	10367.86
640.181	10360.41
640.534	10456.45
640.888	10305.72
641.241	10296
641.594	10411.48
641.947	10320.41
642.301	10300.07
642.654	10301.88
643.007	10303.91
643.36	10254.42
643.713	10338.49
644.066	10367.19
644.419	10221.43
644.771	10199.96
645.124	10143.69
645.477	10088.32
645.83	10063.92
646.182	9966.07
646.535	10024.37
646.888	10000.64
647.24	9928.55
647.593	10014.65
647.945	9921.1
648.298	9861.66
648.65	9902.34
649.002	9883.36
649.355	9958.38
649.707	9978.72
650.059	9954.99
650.411	10093.97
650.763	10095.33
651.115	10216.23
651.467	10168.32
651.819	10216.23
652.171	10163.8
652.523	10106.17
652.875	10103.01
653.227	10109.34
653.578	10185.49
653.93	10169.68
654.282	10083.12
654.633	10121.77
654.985	10087.42
655.337	10197.92
655.688	10072.5
656.039	10217.58
656.391	10068.66
656.742	10111.6
657.094	10152.5
657.445	10234.76
657.796	10153.18
658.147	10127.19
658.498	10150.24
658.849	10125.38
659.2	10125.61
659.551	10051.04
659.902	10160.64
660.253	10136.46
660.604	10183.91
660.955	10159.51
661.306	10154.08
661.656	10159.51
662.007	10166.06
662.358	10232.95
662.708	10170.58
663.059	10155.21
663.409	10197.7
663.76	10138.04
664.11	10185.95
664.461	10170.81
664.811	10135.33
665.161	10160.41
665.511	10205.38
665.862	10262.78
666.212	10225.27
666.562	10178.49
666.912	10243.57
667.262	10172.61
667.612	10113.63
667.962	10228.88
668.312	10157.02
668.662	10252.61
669.011	10194.99
669.361	10210.8
669.711	10211.03
670.06	10168.09
670.41	10091.71
670.76	10156.57
671.109	10190.47
671.459	10244.7
671.808	10083.8
672.157	10165.38
672.507	10116.8
672.856	9992.73
673.205	10125.16
673.554	10160.64
673.904	10093.97
674.253	10135.1
674.602	10048.32
674.951	9980.08
675.3	9882
675.649	10013.97
675.998	9975.1
676.346	10023.01
676.695	10104.59
677.044	9952.73
677.393	10007.87
677.741	9974.2
678.09	9961.09
678.438	9994.09
678.787	9939.85
679.135	9963.35
679.484	9884.94
679.832	9970.13
680.181	9879.51
680.529	9962
680.877	9892.17
681.225	9880.87
681.573	9954.99
681.922	9840.65
682.27	9792.51
682.618	9757.48
682.966	9752.06
683.314	9760.2
683.661	9752.51
684.009	9640.88
684.357	9720.2
684.705	9665.51
685.053	9647.88
685.4	9659.18
685.748	9590.93
686.095	9603.59
686.443	9550.48
686.79	9522.91
687.138	9521.33
687.485	9605.17
687.832	9555.23
688.18	9511.39
688.527	9435.91
688.874	9471.39
689.221	9421.45
689.568	9446.53
689.915	9310.26
690.262	9352.07
690.609	9323.14
690.956	9223.03
691.303	9278.4
691.65	9201.11
691.997	9195.92
692.344	9192.3
692.69	9116.37
693.037	9139.65
693.383	9054.68
693.73	9034.34
694.077	8935.13
694.423	8948.69
694.769	9004.51
695.116	8890.61
695.462	8879.99
695.808	8916.83
696.155	8865.53
696.501	8787.34
696.847	8755.02
697.193	8733.1
697.539	8737.17
697.885	8714.12
698.231	8671.86
698.577	8657.85
698.923	8609.04
699.269	8592.77
699.614	8585.99
699.96	8502.15
700.306	8510.28
700.651	8416.73
700.997	8440.23
701.342	8363.85
701.688	8400.91
702.033	8378.76
702.379	8381.25
702.724	8308.26
703.069	8341.93
703.415	8227.58
703.76	8253.12
704.105	8189.16
704.45	8176.06
704.795	8145.77
705.14	8062.16
705.485	8065.55
705.83	8042.05
706.175	8071.88
706.52	7994.59
706.865	7963.63
707.209	7949.62
707.554	7913.69
707.899	7988.72
708.243	7899.23
708.588	7836.63
708.932	7825.33
709.277	7804.09
709.621	7838.89
709.966	7728.38
710.31	7740.36
710.654	7718.44
710.998	7709.63
711.342	7650.42
711.687	7696.52
712.031	7705.56
712.375	7619.01
712.719	7653.13
713.063	7624.43
713.407	7601.83
713.75	7615.39
714.094	7548.28
714.438	7560.25
714.782	7503.31
715.125	7505.79
715.469	7477.54
715.812	7529.97
716.156	7421.05
716.499	7431.44
716.843	7463.08
717.186	7412.69
717.53	7440.93
717.873	7390.99
718.216	7374.5
718.559	7453.59
718.902	7302.41
719.246	7383.99
719.589	7367.49
719.932	7338.79
720.275	7275.74
720.617	7313.93
720.96	7292.01
721.303	7280.03
721.646	7286.36
721.989	7220.6
722.331	7251.33
722.674	7243.2
723.016	7230.09
723.359	7253.14
723.701	7278.68
724.044	7232.8
724.386	7178.57
724.729	7250.2
725.071	7198
725.413	7201.39
725.755	7211.34
726.097	7217.89
726.439	7177.21
726.782	7187.16
727.124	7207.72
727.465	7133.6
727.807	7119.59
728.149	7092.92
728.491	7104.67
728.833	7199.58
729.175	7150.09
729.516	7096.76
729.858	7187.83
730.199	7159.81
730.541	7135.18
730.882	7125.24
731.224	7164.78
731.565	7100.83
731.906	7104.45
732.248	7142.86
732.589	7122.07
732.93	7052.24
733.271	7076.42
733.612	7127.04
733.953	7148.51
734.294	7072.58
734.635	7129.98
734.976	7134.5
735.317	7106.48
735.658	7103.99
735.999	7066.93
736.339	7136.54
736.68	7148.51
737.021	7092.92
737.361	7146.48
737.702	7207.72
738.042	7162.3
738.383	7143.99
738.723	7158.23
739.063	7187.16
739.404	7170.43
739.744	7205.46
740.084	7134.28
740.424	7223.09
740.764	7173.14
741.104	7254.05
741.444	7160.94
741.784	7238.91
742.124	7244.33
742.464	7245.91
742.804	7264.89
743.143	7290.43
743.483	7384.89
743.823	7291.79
744.162	7350.54
744.502	7421.05
744.841	7361.16
745.181	7484.1
745.52	7488.84
745.86	7506.47
746.199	7542.63
746.538	7636.86
746.877	7704.88
747.216	7631.21
747.556	7725.9
747.895	7780.81
748.234	7727.48
748.573	7865.56
748.911	7930.41
749.25	7882.96
749.589	7927.25
749.928	8083.4
750.267	8136.96
750.605	8194.13
750.944	8298.76
751.283	8277.07
751.621	8451.76
751.96	8439.55
752.298	8504.86
752.636	8693.78
752.975	8803.38
753.313	8798.64
753.651	9000.67
753.989	9000.22
754.327	9164.96
754.666	9230.94
755.004	9386.87
755.342	9585.74
755.679	9607.88
756.017	9700.99
756.355	9930.59
756.693	9959.06
757.031	10156.34
757.368	10259.84
757.706	10435.43
758.044	10529.67
758.381	10781.86
758.719	10930.79
759.056	10994.97
759.394	11255.07
759.731	11372.81
760.068	11547.94
760.405	11700.03
760.743	11766.02
761.08	12039.46
761.417	12206.46
761.754	12399
762.091	12542.27
762.428	12662.94
762.765	12870.62
763.102	13128.24
763.438	13181.57
763.775	13342.93
764.112	13645.74
764.449	13843.48
