Data from hue_26_FLMS001491_00054.txt Node
Date: Tue Feb 07 17:14:12 GMT 2017
User: dcchb
Spectrometer: FLMS00149
Trigger mode: 0
Integration Time (sec): 2.000000E-2
Scans to average: 10
Electric dark correction enabled: true
Nonlinearity correction enabled: false
Boxcar width: 0
XAxis mode: Wavelengths
Number of Pixels in Spectrum: 2048
>>>>>Begin Spectral Data<<<<<
341.393	-9.31
341.776	-9.31
342.16	-9.31
342.543	-52.7
342.927	-68.29
343.31	-64.67
343.693	-67.16
344.077	-45.24
344.46	-67.39
344.843	-59.93
345.226	-29.87
345.61	-38.46
345.993	-6.37
346.376	-4.56
346.759	8.32
347.142	17.36
347.525	40.41
347.908	64.36
348.291	74.31
348.674	80.86
349.057	98.03
349.44	121.08
349.823	121.08
350.206	157.02
350.588	187.75
350.971	199.27
351.354	239.5
351.737	239.73
352.119	237.69
352.502	252.15
352.884	276.56
353.267	272.94
353.65	296
354.032	289.22
354.414	322.89
354.797	317.69
355.179	309.78
355.562	312.94
355.944	321.08
356.326	321.31
356.709	324.47
357.091	322.44
357.473	335.09
357.855	338.25
358.238	368.31
358.62	339.61
359.002	309.33
359.384	340.74
359.766	341.87
360.148	328.54
360.53	339.38
360.912	319.5
361.294	340.97
361.676	306.39
362.057	323.56
362.439	332.15
362.821	337.8
363.203	324.92
363.584	325.6
363.966	316.33
364.348	332.83
364.729	317.92
365.111	308.42
365.493	316.79
365.874	311.59
366.256	307.07
366.637	306.16
367.019	314.53
367.4	310.91
367.781	299.61
368.163	305.49
368.544	298.03
368.925	313.62
369.306	330.12
369.688	315.2
370.069	308.2
370.45	316.33
370.831	335.09
371.212	316.11
371.593	293.74
371.974	307.07
372.355	316.56
372.736	314.75
373.117	335.77
373.498	316.56
373.879	314.75
374.26	318.59
374.641	312.72
375.021	288.09
375.402	329.21
375.783	339.61
376.163	322.44
376.544	328.99
376.925	335.09
377.305	327.63
377.686	310.23
378.066	309.1
378.447	315.43
378.827	302.55
379.208	335.32
379.588	319.72
379.968	322.21
380.349	329.89
380.729	335.77
381.109	340.06
381.489	345.49
381.87	335.32
382.25	326.73
382.63	314.98
383.01	327.86
383.39	350.23
383.77	350
384.15	359.95
384.53	349.78
384.91	365.82
385.29	336.67
385.67	335.54
386.049	341.42
386.429	351.36
386.809	375.54
387.189	347.07
387.568	352.94
387.948	370.8
388.328	353.62
388.707	357.91
389.087	354.98
389.466	380.74
389.846	364.02
390.225	364.24
390.605	362.21
390.984	357.69
391.363	379.38
391.743	373.28
392.122	368.99
392.501	371.02
392.881	367.86
393.26	370.12
393.639	383.9
394.018	363.56
394.397	363.79
394.776	400.17
395.155	379.38
395.534	367.18
395.913	364.02
396.292	401.98
396.671	375.77
397.05	376.44
397.429	391.36
397.808	394.98
398.186	376.22
398.565	374.41
398.944	396.78
399.323	386.84
399.701	373.51
400.08	369.89
400.458	417.57
400.837	393.85
401.215	398.14
401.594	407.4
401.972	381.19
402.351	385.26
402.729	376.9
403.107	402.66
403.486	408.99
403.864	419.16
404.242	421.19
404.62	426.16
404.999	397.24
405.377	432.71
405.755	430
406.133	428.65
406.511	397.46
406.889	418.25
407.267	431.58
407.645	432.26
408.023	437.01
408.401	461.19
408.779	422.09
409.156	430.68
409.534	446.27
409.912	468.87
410.29	476.33
410.667	459.38
411.045	438.14
411.422	474.3
411.8	463.45
412.178	469.78
412.555	474.97
412.933	465.93
413.31	468.87
413.687	470.68
414.065	457.57
414.442	486.95
414.819	474.07
415.197	484.46
415.574	496.44
415.951	494.86
416.328	508.64
416.705	490.57
417.082	512.26
417.46	498.93
417.837	506.61
418.214	492.83
418.591	512.94
418.967	497.57
419.344	510.68
419.721	520.4
420.098	532.37
420.475	540.96
420.852	535.31
421.228	513.16
421.605	525.14
421.982	518.14
422.358	527.63
422.735	556.33
423.111	537.12
423.488	557.46
423.864	544.12
424.241	543.22
424.617	552.94
424.994	587.96
425.37	573.28
425.746	552.03
426.123	573.28
426.499	568.53
426.875	570.34
427.251	574.86
427.627	594.52
428.003	579.6
428.379	619.15
428.756	600.62
429.132	618.25
429.507	619.38
429.883	632.71
430.259	630.9
430.635	615.53
431.011	631.35
431.387	633.16
431.763	638.13
432.138	649.88
432.514	648.75
432.89	645.82
433.265	669.32
433.641	665.02
434.016	676.1
434.392	692.14
434.767	715.19
435.143	669.09
435.518	713.84
435.894	722.42
436.269	720.62
436.644	717.23
437.02	731.92
437.395	727.4
437.77	728.3
438.145	747.96
438.52	743.89
438.895	751.35
439.271	739.83
439.646	737.57
440.021	765.14
440.395	751.58
440.77	767.62
441.145	763.33
441.52	773.72
441.895	780.95
442.27	791.35
442.645	776.21
443.019	795.42
443.394	800.61
443.769	801.29
444.143	786.83
444.518	802.65
444.892	809.65
445.267	847.39
445.641	814.4
446.016	836.32
446.39	835.42
446.764	828.18
447.139	823.44
447.513	829.77
447.887	820.28
448.262	851.23
448.636	872.7
449.01	883.78
449.384	860.5
449.758	852.82
450.132	886.49
450.506	870.44
450.88	896.43
451.254	881.74
451.628	891.46
452.002	928.97
452.376	897.11
452.75	918.58
453.123	936.2
453.497	923.78
453.871	921.97
454.244	931.01
454.618	954.28
454.992	966.49
455.365	957.9
455.739	992.25
456.112	1004.9
456.486	1017.56
456.859	995.64
457.232	1013.49
457.606	1014.85
457.979	1043.55
458.352	1062.08
458.725	1043.09
459.099	1058.69
459.472	1078.12
459.845	1108.86
460.218	1108.63
460.591	1077.44
460.964	1117.22
461.337	1154.73
461.71	1142.98
462.083	1177.55
462.456	1173.03
462.829	1154.96
463.201	1177.55
463.574	1213.26
463.947	1204.45
464.32	1227.04
464.692	1253.26
465.065	1232.69
465.438	1265.01
465.81	1276.31
466.183	1297.55
466.555	1323.99
466.928	1328.96
467.3	1351.56
467.672	1340.71
468.045	1387.72
468.417	1423.42
468.789	1388.62
469.161	1406.7
469.534	1466.13
469.906	1453.03
470.278	1464.1
470.65	1505.23
471.022	1546.81
471.394	1556.98
471.766	1556.98
472.138	1547.71
472.51	1606.92
472.882	1661.16
473.253	1635.39
473.625	1690.31
473.997	1718.33
474.369	1715.39
474.74	1780.02
475.112	1780.48
475.484	1777.76
475.855	1861.6
476.227	1866.12
476.598	1928.04
476.97	1917.2
477.341	1988.61
477.713	2002.84
478.084	2034.03
478.455	2116.51
478.827	2107.7
479.198	2153.8
479.569	2188.15
479.94	2231.99
480.311	2288.71
480.682	2336.85
481.053	2347.24
481.424	2460.01
481.795	2464.3
482.166	2464.3
482.537	2561.25
482.908	2559.21
483.279	2610.74
483.65	2677.4
484.021	2755.82
484.391	2776.61
484.762	2813.67
485.133	2882.14
485.503	2925.08
485.874	2951.07
486.244	2992.65
486.615	3073.32
486.985	3096.83
487.356	3197.61
487.726	3236.26
488.097	3284.39
488.467	3302.7
488.837	3371.17
489.207	3409.13
489.578	3510.83
489.948	3551.5
490.318	3593.99
490.688	3649.58
491.058	3687.54
491.428	3720.99
491.798	3780.65
492.168	3837.6
492.538	3869.69
492.908	3977.03
493.278	4000.98
493.648	4021.32
494.017	4032.39
494.387	4105.84
494.757	4136.8
495.126	4212.05
495.496	4188.55
495.866	4280.3
496.235	4339.28
496.605	4341.76
496.974	4403.68
497.344	4454.98
497.713	4475.09
498.082	4501.99
498.452	4556.22
498.821	4575.2
499.19	4619.95
499.559	4704.47
499.928	4708.53
500.298	4749.21
500.667	4763.67
501.036	4828.98
501.405	4802.32
501.774	4844.8
502.143	4882.77
502.512	4925.03
502.88	4949.66
503.249	4979.04
503.618	5038.02
503.987	5079.37
504.356	5056.77
504.724	5111.24
505.093	5097.68
505.462	5140.61
505.83	5190.78
506.199	5223.55
506.567	5240.05
506.936	5293.6
507.304	5366.14
507.672	5289.76
508.041	5341.74
508.409	5425.8
508.777	5447.95
509.145	5448.63
509.514	5499.7
509.882	5513.71
510.25	5543.77
510.618	5569.75
510.986	5582.64
511.354	5654.5
511.722	5646.81
512.09	5688.4
512.458	5626.93
512.826	5730.43
513.193	5769.52
513.561	5756.87
513.929	5822.18
514.297	5854.04
514.664	5864.66
515.032	5903.76
515.4	5936.75
515.767	5973.59
516.135	5995.96
516.502	5961.83
516.869	6071.21
517.237	6054.26
517.604	6026.24
517.972	6097.65
518.339	6105.33
518.706	6141.72
519.073	6150.53
519.44	6204.54
519.808	6245.9
520.175	6227.59
520.542	6352.78
520.909	6340.58
521.276	6350.3
521.643	6413.57
522.009	6389.85
522.376	6478.43
522.743	6499.45
523.11	6542.38
523.477	6588.26
523.843	6579.67
524.21	6638.88
524.577	6687.01
524.943	6703.06
525.31	6706.67
525.676	6792.32
526.043	6785.99
526.409	6842.72
526.776	6932.43
527.142	6943.5
527.508	7004.75
527.874	7025.08
528.241	7061.69
528.607	7040.22
528.973	7155.25
529.339	7145.31
529.705	7242.93
530.071	7263.95
530.437	7270.95
530.803	7323.15
531.169	7304.4
531.535	7314.57
531.901	7359.09
532.267	7421.46
532.632	7446.32
532.998	7500.33
533.364	7555.47
533.73	7529.25
534.095	7635.69
534.461	7607.44
534.826	7701
535.192	7726.99
535.557	7782.58
535.923	7791.84
536.288	7788.45
536.653	7833.65
537.019	7844.72
537.384	7805.85
537.749	7911.39
538.114	7922.24
538.479	7969.92
538.845	7971.05
539.21	8029.35
539.575	8042.91
539.94	8055.11
540.305	8213.53
540.67	8091.72
541.034	8169.91
541.399	8217.37
541.764	8250.36
542.129	8253.53
542.494	8287.65
542.858	8315.67
543.223	8309.8
543.587	8391.38
543.952	8386.63
544.316	8408.32
544.681	8472.5
545.045	8502.78
545.41	8573.97
545.774	8581.88
546.138	8569.9
546.503	8657.36
546.867	8643.8
547.231	8749.11
547.595	8737.13
547.959	8771.25
548.324	8765.6
548.688	8841.31
549.052	8928.54
549.416	8860.97
549.779	8889.67
550.143	8890.57
550.507	8979.38
550.871	9063
551.235	9020.06
551.599	9104.58
551.962	9078.59
552.326	9152.71
552.689	9186.83
553.053	9164.01
553.417	9252.37
553.78	9263.89
554.143	9254.63
554.507	9296.21
554.87	9334.85
555.234	9455.3
555.597	9382.99
555.96	9410.78
556.323	9480.61
556.686	9508.63
557.05	9542.31
557.413	9560.84
557.776	9600.16
558.139	9601.51
558.502	9641.74
558.865	9697.1
559.228	9720.61
559.59	9681.06
559.953	9781.17
560.316	9864.33
560.679	9830.66
561.041	9931.9
561.404	9971.45
561.767	9988.17
562.129	9953.37
562.492	10113.59
562.854	10006.02
563.217	10106.36
563.579	10092.35
563.941	10156.07
564.304	10156.98
564.666	10229.75
565.028	10246.47
565.39	10347.93
565.753	10402.17
566.115	10460.25
566.477	10467.03
566.839	10467.25
567.201	10595.61
567.563	10560.58
567.925	10659.56
568.287	10620.24
568.648	10668.6
569.01	10768.26
569.372	10667.7
569.734	10781.37
570.095	10852.78
570.457	10915.15
570.819	10904.3
571.18	10944.08
571.542	11033.34
571.903	11083.06
572.265	11098.87
572.626	11188.36
572.987	11208.7
573.349	11267.68
573.71	11336.38
574.071	11374.57
574.432	11411.41
574.794	11543.16
575.155	11629.71
575.516	11618.18
575.877	11698.41
576.238	11810.04
576.599	11836.48
576.96	11912.19
577.32	11946.76
577.681	12062.24
578.042	12098.62
578.403	12285.96
578.763	12326.41
579.124	12349.01
579.485	12530.02
579.845	12666.52
580.206	12769.11
580.566	12819.06
580.927	13049.56
581.287	13139.27
581.648	13242.77
582.008	13360.51
582.368	13532.26
582.728	13693.38
583.089	13871.91
583.449	14054.96
583.809	14135.86
584.169	14407.71
584.529	14502.63
584.889	14794.6
585.249	14835.05
585.609	15039.79
585.969	15324.07
586.329	15511.19
586.688	15722.71
587.048	15941.23
587.408	16140.55
587.768	16336.93
588.127	16575.57
588.487	16828.67
588.846	17164.03
589.206	17248.77
589.565	17561.76
589.925	17916.77
590.284	18095.08
590.643	18386.82
591.003	18625.68
591.362	19020.25
591.721	19204.88
592.08	19614.13
592.44	19880.79
592.799	20058.41
593.158	20256.37
593.517	20624.73
593.876	20981.78
594.235	21156.46
594.593	21519.39
594.952	21926.84
595.311	22026.72
595.67	22422.87
596.029	22789.64
596.387	23136.75
596.746	23416.74
597.104	23562.05
597.463	23930.63
597.822	24313.22
598.18	24624.62
598.538	24790.49
598.897	25297.6
599.255	25311.83
599.613	25860.07
599.972	26052.15
600.33	26449.43
600.688	26573.04
601.046	27053.26
601.404	27345.23
601.762	27554.94
602.12	27903.63
602.478	28322.6
602.836	28544.29
603.194	28765.53
603.552	28957.84
603.91	29078.06
604.268	29610.03
604.625	29680.53
604.983	30149.67
605.341	30322.1
605.698	30660.62
606.056	30853.38
606.413	31178.57
606.771	31435.52
607.128	31532.01
607.485	31716.41
607.843	31943.3
608.2	32417.64
608.557	32650.62
608.914	32826.67
609.272	33054.91
609.629	33243.15
609.986	33717.26
610.343	33693.31
610.7	34085.84
611.057	34227.76
611.414	34416
611.771	34561.76
612.127	34937.57
612.484	35154.74
612.841	35265.92
613.198	35431.12
613.554	35613.26
613.911	36009.86
614.267	36046.92
614.624	36112.23
614.98	36426.34
615.337	36637.19
615.693	36711.08
616.05	36977.29
616.406	37313.78
616.762	37155.82
617.118	37300.22
617.475	37489.14
617.831	37877.61
618.187	37904.27
618.543	38042.12
618.899	38387.42
619.255	38325.28
619.611	38332.06
619.967	38679.84
620.323	38795.55
620.678	38755.55
621.034	38878.94
621.39	39018.82
621.746	39029.44
622.101	39623.1
622.457	39340.84
622.812	39544.45
623.168	39709.65
623.523	39851.57
623.879	39863.77
624.234	39736.31
624.589	40045.01
624.945	39999.13
625.3	40193.25
625.655	40241.61
626.01	40213.36
626.365	40315.06
626.72	40400.25
627.075	40510.3
627.43	40490.87
627.785	40487.48
628.14	40632.79
628.495	40816.96
628.85	40750.3
629.205	40734.25
629.559	41050.63
629.914	40986.68
630.269	40849.28
630.623	40817.64
630.978	40796.85
631.332	41086.33
631.687	41146.22
632.041	40952.55
632.396	41314.13
632.75	41070.29
633.104	41140.57
633.459	40982.83
633.813	41056.96
634.167	41113.68
634.521	41166.78
634.875	41216.05
635.229	41203.39
635.583	41029.39
635.937	41112.1
636.291	41120.91
636.645	41180.12
636.999	41129.5
637.352	41178.08
637.706	40951.2
638.06	41239.33
638.413	41039.56
638.767	41013.12
639.121	41148.93
639.474	40888.37
639.828	41029.61
640.181	41034.36
640.534	41007.69
640.888	41017.64
641.241	40746.46
641.594	41033.23
641.947	41218.99
642.301	41066.9
642.654	41000.91
643.007	41079.33
643.36	41014.47
643.713	40905.1
644.066	41073
644.419	40831.65
644.771	40522.96
645.124	40332.23
645.477	40156.42
645.83	40021.05
646.182	39898.8
646.535	39777.89
646.888	39878.23
647.24	39703.55
647.593	39935.4
647.945	39715.3
648.298	39689.31
648.65	39574.28
649.002	39510.33
649.355	39730.21
649.707	39702.19
650.059	39951.45
650.411	40311.89
650.763	40292.23
651.115	40762.73
651.467	40525.9
651.819	40552.56
652.171	40524.32
652.523	40469.63
652.875	40427.82
653.227	40393.92
653.578	40546.91
653.93	40445
654.282	40221.5
654.633	40336.98
654.985	40331.55
655.337	40437.99
655.688	40430.31
656.039	40424.88
656.391	40175.17
656.742	40281.16
657.094	40324.55
657.445	40487.48
657.796	40373.13
658.147	40258.33
658.498	40293.36
658.849	40270.99
659.2	40365.68
659.551	40162.97
659.902	40271.22
660.253	40203.87
660.604	40283.64
660.955	40129.75
661.306	40305.79
661.656	40098.34
662.007	40265.79
662.358	40307.37
662.708	40245.68
663.059	40211.33
663.409	39977.89
663.76	40401.83
664.11	40190.77
664.461	40159.81
664.811	40130.88
665.161	40131.33
665.511	40099.02
665.862	40092.24
666.212	40381.95
666.562	40217.21
666.912	40103.99
667.262	40077.32
667.612	40253.59
667.962	40112.35
668.312	40002.52
668.662	40157.55
669.011	39981.96
669.361	39969.53
669.711	39980.38
670.06	39967.04
670.41	39926.59
670.76	39831
671.109	40073.03
671.459	39941.28
671.808	39812.92
672.157	39779.48
672.507	39781.74
672.856	39780.38
673.205	39757.78
673.554	39940.83
673.904	39841.4
674.253	39900.6
674.602	39839.81
674.951	39255.42
675.3	39068.08
675.649	39708.97
675.998	39674.62
676.346	39722.98
676.695	39849.53
677.044	39457
677.393	39603.44
677.741	39658.58
678.09	39521.63
678.438	39581.06
678.787	39630.33
679.135	39425.14
679.484	39372.93
679.832	39410.22
680.181	39314.63
680.529	39415.87
680.877	39220.17
681.225	39106.27
681.573	39433.5
681.922	39172.26
682.27	39072.15
682.618	39067.63
682.966	38985.15
683.314	38981.76
683.661	38968.2
684.009	38828.32
684.357	38659.28
684.705	38533.86
685.053	38601.2
685.4	38499.96
685.748	38366.41
686.095	38398.72
686.443	38339.06
686.79	38311.49
687.138	38238.27
687.485	38338.38
687.832	38112.63
688.18	38222.23
688.527	38063.36
688.874	38009.81
689.221	37890.94
689.568	37717.38
689.915	37777.27
690.262	37742.47
690.609	37852.52
690.956	37574.11
691.303	37376.15
691.65	37230.17
691.997	37272.42
692.344	37028.59
692.69	37141.35
693.037	37185.19
693.383	36779.78
693.73	36930.51
694.077	36776.39
694.423	36661.82
694.769	36573.91
695.116	36395.61
695.462	36471.77
695.808	36291.66
696.155	36465.21
696.501	36164.66
696.847	36130.99
697.193	35737.55
697.539	36215.28
697.885	35744.78
698.231	35651
698.577	35767.83
698.923	35580.72
699.269	35431.34
699.614	35271.12
699.96	35229.77
700.306	35291.91
700.651	35015.53
700.997	34938.93
701.342	34961.07
701.688	34885.14
702.033	34851.47
702.379	34741.64
702.724	34729.21
703.069	34631.14
703.415	34353.18
703.76	34378.71
704.105	34319.28
704.45	34277.25
704.795	34121.09
705.14	33979.63
705.485	34001.1
705.83	33785.96
706.175	33947.54
706.52	33715.23
706.865	33672.74
707.209	33599.98
707.554	33522.01
707.899	33630.49
708.243	33344.84
708.588	33375.58
708.932	33237.95
709.277	33188.92
709.621	33088.13
709.966	32830.96
710.31	32995.25
710.654	32757.74
710.998	32868.92
711.342	32851.75
711.687	32713.67
712.031	32731.75
712.375	32436.62
712.719	32492.44
713.063	32491.76
713.407	32440.91
713.75	32359.33
714.094	32273.23
714.438	32058.55
714.782	32253.12
715.125	31969.96
715.469	32120.92
715.812	31920.7
716.156	31704.43
716.499	31902.17
716.843	31723.87
717.186	31581.5
717.53	31846.58
717.873	31793.7
718.216	31611.33
718.559	31568.39
718.902	31404.1
719.246	31433.03
719.589	31279.81
719.932	30951.23
720.275	31197.56
720.617	31241.62
720.96	31131.57
721.303	31068.75
721.646	30944.91
721.989	30894.96
722.331	30964.57
722.674	30813.16
723.016	30704.69
723.359	30773.16
723.701	30859.94
724.044	30619.72
724.386	30423.34
724.729	30536.56
725.071	30558.25
725.413	30567.97
725.755	30503.56
726.097	30417.01
726.439	30226.96
726.782	30250.69
727.124	30280.07
727.465	30192.61
727.807	30248.65
728.149	30104.7
728.491	30087.3
728.833	30002.78
729.175	29930.24
729.516	29868.32
729.858	29824.48
730.199	29803.24
730.541	29755.56
730.882	29768.89
731.224	29861.09
731.565	29640.31
731.906	29596.92
732.248	29680.31
732.589	29424.27
732.93	29450.03
733.271	29432.86
733.612	29434.44
733.953	29337.27
734.294	29285.29
734.635	29328.9
734.976	29328.45
735.317	29151.51
735.658	29074
735.999	29106.54
736.339	29059.98
736.68	29129.59
737.021	29009.59
737.361	28912.42
737.702	29131.85
738.042	28904.73
738.383	28866.54
738.723	28884.62
739.063	28863.38
739.404	28861.35
739.744	28721.91
740.084	28735.93
740.424	28733.67
740.764	28652.99
741.104	28708.13
741.444	28565.76
741.784	28465.42
742.124	28580.22
742.464	28371.87
742.804	28431.75
743.143	28384.75
743.483	28308.37
743.823	28209.61
744.162	28245.99
744.502	28309.95
744.841	28202.38
745.181	28189.5
745.52	28033.12
745.86	28121.48
746.199	28056.17
746.538	28135.49
746.877	28069.95
747.216	28030.41
747.556	28013.23
747.895	27936.17
748.234	27815.05
748.573	27760.81
748.911	27749.51
749.25	27713.58
749.589	27636.29
749.928	27643.07
750.267	27697.99
750.605	27538.44
750.944	27534.83
751.283	27476.52
751.621	27537.31
751.96	27377.99
752.298	27469.07
752.636	27201.05
752.975	27198.56
753.313	27095.29
753.651	27298.22
753.989	27165.12
754.327	27028.4
754.666	26918.12
755.004	27009.64
755.342	27009.42
755.679	26935.52
756.017	26745.7
756.355	26884.67
756.693	26753.83
757.031	26748.86
757.368	26588.41
757.706	26642.19
758.044	26548.19
758.381	26513.84
758.719	26387.96
759.056	26472.26
759.394	26284.01
759.731	26281.07
