Data from hue_270_FLMS001491_00035.txt Node
Date: Tue Feb 07 15:57:06 GMT 2017
User: dcchb
Spectrometer: FLMS00149
Trigger mode: 0
Integration Time (sec): 2.000000E-2
Scans to average: 10
Electric dark correction enabled: true
Nonlinearity correction enabled: false
Boxcar width: 0
XAxis mode: Wavelengths
Number of Pixels in Spectrum: 2048
>>>>>Begin Spectral Data<<<<<
341.393	-16.1
341.776	-16.1
342.16	-16.1
342.543	-41.86
342.927	-72.82
343.31	-69.43
343.693	-59.49
344.077	-51.81
344.46	-48.64
344.843	-52.26
345.226	-47.74
345.61	-29.66
345.993	-17.01
346.376	-13.62
346.759	16.89
347.142	8.53
347.525	42.43
347.908	51.92
348.291	69.09
348.674	91.24
349.057	109.55
349.44	140.05
349.823	133.05
350.206	169.88
350.588	169.2
350.971	199.49
351.354	193.16
351.737	227.73
352.119	228.41
352.502	250.78
352.884	257.79
353.267	272.7
353.65	291.24
354.032	268.64
354.414	311.57
354.797	312.25
355.179	317
355.562	328.52
355.944	311.12
356.326	294.63
356.709	315.64
357.091	332.36
357.473	344.34
357.855	340.05
358.238	349.76
358.62	338.92
359.002	339.37
359.384	333.27
359.766	337.56
360.148	342.08
360.53	339.14
360.912	317.68
361.294	327.62
361.676	319.71
362.057	319.94
362.439	344.12
362.821	318.35
363.203	324
363.584	324.23
363.966	315.87
364.348	334.85
364.729	311.35
365.111	318.13
365.493	311.57
365.874	316.09
366.256	293.04
366.637	314.51
367.019	331.91
367.4	324.91
367.781	302.31
368.163	300.27
368.544	312.48
368.925	302.08
369.306	307.51
369.688	310.67
370.069	313.38
370.45	294.4
370.831	309.09
371.212	303.44
371.593	308.41
371.974	315.19
372.355	317.68
372.736	320.16
373.117	309.99
373.498	315.64
373.879	312.25
374.26	306.83
374.641	321.29
375.021	313.61
375.402	327.39
375.783	322.19
376.163	306.15
376.544	326.04
376.925	303.66
377.305	323.1
377.686	328.75
378.066	323.78
378.447	323.78
378.827	336.43
379.208	314.06
379.588	329.65
379.968	349.54
380.349	326.71
380.729	337.11
381.109	330.56
381.489	364.68
381.87	300.95
382.25	335.3
382.63	334.17
383.01	331.69
383.39	345.02
383.77	329.88
384.15	345.02
384.53	339.37
384.91	331.01
385.29	343.21
385.67	342.08
386.049	331.91
386.429	353.38
386.809	338.47
387.189	349.54
387.568	350.22
387.948	327.84
388.328	354.06
388.707	364.45
389.087	352.48
389.466	319.26
389.846	352.7
390.225	347.28
390.605	368.3
390.984	365.58
391.363	360.84
391.743	353.38
392.122	371.46
392.501	372.82
392.881	353.38
393.26	374.17
393.639	387.5
394.018	385.24
394.397	380.72
394.776	357
395.155	378.92
395.534	383.89
395.913	376.66
396.292	396.32
396.671	392.93
397.05	368.75
397.429	387.28
397.808	392.48
398.186	374.85
398.565	398.13
398.944	385.92
399.323	405.36
399.701	402.87
400.08	406.94
400.458	416.88
400.837	405.81
401.215	418.24
401.594	408.75
401.972	418.92
402.351	400.38
402.729	420.72
403.107	430.21
403.486	425.02
403.864	442.64
404.242	434.73
404.62	444.68
404.999	446.71
405.377	451.01
405.755	435.86
406.133	447.62
406.511	453.72
406.889	482.87
407.267	467.28
407.645	454.62
408.023	452.36
408.401	470.44
408.779	460.95
409.156	497.56
409.534	468.41
409.912	487.84
410.29	498.24
410.667	505.69
411.045	504.79
411.422	503.21
411.8	525.58
412.178	515.64
412.555	521.74
412.933	524.22
413.31	521.74
413.687	536.65
414.065	545.01
414.442	565.58
414.819	568.29
415.197	561.51
415.574	605.58
415.951	562.87
416.328	620.49
416.705	619.81
417.082	594.05
417.46	596.76
417.837	591.11
418.214	624.56
418.591	624.56
418.967	626.37
419.344	629.98
419.721	640.6
420.098	640.15
420.475	654.62
420.852	670.43
421.228	670.43
421.605	672.47
421.982	695.29
422.358	698
422.735	709.3
423.111	742.3
423.488	700.04
423.864	750.66
424.241	754.5
424.617	748.4
424.994	759.7
425.37	777.55
425.746	809.41
426.123	812.13
426.499	813.48
426.875	816.19
427.251	832.24
427.627	815.52
428.003	860.49
428.379	872.69
428.756	875.85
429.132	865.68
429.507	873.37
429.883	886.7
430.259	868.4
430.635	927.6
431.011	926.47
431.387	948.85
431.763	962.18
432.138	947.26
432.514	977.77
432.89	970.99
433.265	1024.78
433.641	994.49
434.016	1017.54
434.392	1054.61
434.767	1062.51
435.143	1078.11
435.518	1077.43
435.894	1110.87
436.269	1118.33
436.644	1129.41
437.02	1149.74
437.395	1187.71
437.77	1191.32
438.145	1195.17
438.52	1215.5
438.895	1243.07
439.271	1234.49
439.646	1260.7
440.021	1257.31
440.395	1270.19
440.77	1284.2
441.145	1311.55
441.52	1325.11
441.895	1339.34
442.27	1328.04
442.645	1363.75
443.019	1354.48
443.394	1364.2
443.769	1371.21
444.143	1379.57
444.518	1415.27
444.892	1425.67
445.267	1421.15
445.641	1421.38
446.016	1444.2
446.39	1419.57
446.764	1432.22
447.139	1461.15
447.513	1448.72
447.887	1469.06
448.262	1477.42
448.636	1508.83
449.01	1500.24
449.384	1530.52
449.758	1529.85
450.132	1549.96
450.506	1553.8
450.88	1593.12
451.254	1566
451.628	1593.8
452.002	1589.05
452.376	1619.34
452.75	1623.18
453.123	1608.04
453.497	1643.06
453.871	1691.2
454.244	1693.68
454.618	1669.96
454.992	1727.13
455.365	1709.28
455.739	1747.69
456.112	1773
456.486	1806.22
456.859	1789.05
457.232	1827.01
457.606	1831.76
457.979	1831.31
458.352	1873.11
458.725	1907.69
459.099	1869.95
459.472	1923.96
459.845	1970.97
460.218	1959.89
460.591	1961.7
460.964	1988.82
461.337	2026.78
461.71	2051.41
462.083	2057.29
462.456	2042.38
462.829	2060.91
463.201	2055.48
463.574	2102.49
463.947	2149.72
464.32	2170.28
464.692	2172.09
465.065	2189.72
465.438	2219.55
465.81	2256.61
466.183	2268.36
466.555	2297.51
466.928	2330.05
467.3	2317.17
467.672	2354.23
468.045	2401.91
468.417	2410.95
468.789	2417.51
469.161	2453.21
469.534	2453.44
469.906	2502.02
470.278	2506.09
470.65	2555.36
471.022	2592.64
471.394	2638.74
471.766	2646.88
472.138	2655.69
472.51	2714.22
472.882	2786.54
473.253	2722.58
473.625	2816.82
473.997	2827.67
474.369	2833.54
474.74	2879.87
475.112	2919.64
475.484	2961.9
475.855	3011.39
476.227	2997.6
476.598	3080.09
476.97	3102.46
477.341	3154.66
477.713	3191.5
478.084	3221.33
478.455	3304.94
478.827	3329.12
479.198	3424.03
479.569	3392.85
479.94	3419.06
480.311	3462
480.682	3562.56
481.053	3614.54
481.424	3675.55
481.795	3676.46
482.166	3702.67
482.537	3760.75
482.908	3815.89
483.279	3832.61
483.65	3903.8
484.021	3950.35
484.391	3984.02
484.762	4014.3
485.133	4047.75
485.503	4053.17
485.874	4158.03
486.244	4149.21
486.615	4244.35
486.985	4280.06
487.356	4327.97
487.726	4337
488.097	4417.23
488.467	4451.13
488.837	4533.16
489.207	4548.52
489.578	4629.88
489.948	4635.08
490.318	4692.02
490.688	4671.91
491.058	4747.84
491.428	4814.28
491.798	4798.01
492.168	4958.46
492.538	4900.83
492.908	4996.42
493.278	5016.76
493.648	4997.1
494.017	5093.37
494.387	5097.21
494.757	5183.76
495.126	5215.4
495.496	5230.54
495.866	5216.3
496.235	5265.34
496.605	5305.57
496.974	5364.1
497.344	5414.04
497.713	5438.9
498.082	5428.95
498.452	5489.97
498.821	5503.3
499.19	5509.86
499.559	5519.8
499.928	5531.32
500.298	5528.16
500.667	5593.47
501.036	5598.21
501.405	5635.73
501.774	5644.77
502.143	5637.31
502.512	5669.62
502.88	5703.52
503.249	5711.66
503.618	5752.33
503.987	5764.54
504.356	5851.09
504.724	5784.88
505.093	5859.45
505.462	5796.63
505.83	5892.44
506.199	5924.76
506.567	5921.82
506.936	5921.14
507.304	5963.4
507.672	5971.99
508.041	6020.35
508.409	5997.98
508.777	5995.94
509.145	6100.8
509.514	6126.56
509.882	6076.17
510.25	6075.26
510.618	6099.44
510.986	6090.86
511.354	6147.13
511.722	6172.66
512.09	6230.97
512.458	6155.26
512.826	6200.23
513.193	6202.49
513.561	6212.66
513.929	6313.68
514.297	6313.9
514.664	6286.11
515.032	6305.31
515.4	6308.03
515.767	6390.96
516.135	6331.08
516.502	6294.92
516.869	6434.35
517.237	6386.44
517.604	6423.28
517.972	6393.45
518.339	6460.79
518.706	6395.03
519.073	6447.23
519.44	6455.59
519.808	6485.87
520.175	6465.54
520.542	6527.91
520.909	6521.58
521.276	6507.57
521.643	6557.29
522.009	6538.75
522.376	6604.06
522.743	6617.17
523.11	6644.74
523.477	6691.07
523.843	6673.44
524.21	6681.58
524.577	6723.61
524.943	6715.02
525.31	6736.49
525.676	6780.1
526.043	6805.64
526.409	6808.8
526.776	6863.94
527.142	6844.74
527.508	6867.56
527.874	6877.28
528.241	6925.86
528.607	6936.03
528.973	7001.57
529.339	6894.9
529.705	6965.41
530.071	7008.8
530.437	7040.21
530.803	7003.15
531.169	7065.97
531.535	7012.64
531.901	7013.09
532.267	7035.24
532.632	7003.38
532.998	7063.03
533.364	7051.06
533.73	7083.83
534.095	7098.51
534.461	7127.67
534.826	7114.78
535.192	7112.07
535.557	7169.7
535.923	7116.14
536.288	7150.49
536.653	7134.22
537.019	7102.81
537.384	7143.71
537.749	7140.32
538.114	7178.74
538.479	7192.97
538.845	7161.79
539.21	7121.11
539.575	7175.12
539.94	7242.01
540.305	7189.58
540.67	7225.97
541.034	7263.03
541.399	7206.76
541.764	7202.24
542.129	7229.58
542.494	7206.08
542.858	7169.47
543.223	7233.43
543.587	7209.92
543.952	7234.33
544.316	7241.56
544.681	7213.77
545.045	7307.77
545.41	7246.98
545.774	7320.43
546.138	7253.76
546.503	7335.12
546.867	7261.22
547.231	7319.07
547.595	7282.92
547.959	7263.03
548.324	7284.72
548.688	7315.01
549.052	7303.71
549.416	7315.23
549.779	7300.09
550.143	7261.45
550.507	7368.34
550.871	7322.24
551.235	7379.64
551.599	7369.24
551.962	7367.43
552.326	7389.35
552.689	7368.79
553.053	7353.87
553.417	7358.17
553.78	7416.92
554.143	7336.7
554.507	7376.7
554.87	7429.58
555.234	7437.04
555.597	7342.58
555.96	7486.07
556.323	7459.41
556.686	7388
557.05	7423.7
557.413	7458.28
557.776	7477.04
558.139	7563.13
558.502	7531.5
558.865	7542.12
559.228	7577.6
559.59	7632.96
559.953	7641.55
560.316	7664.37
560.679	7581.89
561.041	7667.76
561.404	7693.98
561.767	7767.42
562.129	7750.02
562.492	7849.45
562.854	7745.95
563.217	7789.8
563.579	7846.06
563.941	7797.03
564.304	7860.98
564.666	7933.75
565.028	7938.49
565.39	7912.96
565.753	7947.08
566.115	8025.04
566.477	8037.47
566.839	8001.77
567.201	8057.36
567.563	8046.29
567.925	8121.54
568.287	8141.88
568.648	8150.92
569.01	8154.08
569.372	8229.33
569.734	8165.6
570.095	8186.17
570.457	8274.75
570.819	8212.16
571.18	8288.77
571.542	8293.96
571.903	8309.56
572.265	8278.6
572.626	8378.25
572.987	8419.84
573.349	8426.61
573.71	8447.18
574.071	8446.73
574.432	8514.97
574.794	8537.8
575.155	8527.18
575.516	8573.28
575.877	8614.18
576.238	8639.04
576.599	8684.91
576.96	8671.13
577.32	8683.11
577.681	8802.42
578.042	8788.64
578.403	8785.7
578.763	8775.53
579.124	8820.28
579.485	8877.45
579.845	8974.62
580.206	8810.11
580.566	8960.16
580.927	8978.92
581.287	8989.09
581.648	8956.09
582.008	9102.08
582.368	9025.24
582.728	9071.8
583.089	9155.63
583.449	9094.17
583.809	9161.06
584.169	9225.46
584.529	9179.14
584.889	9284.9
585.249	9282.86
585.609	9290.32
585.969	9326.03
586.329	9295.74
586.688	9361.96
587.048	9311.56
587.408	9363.09
587.768	9389.53
588.127	9425.68
588.487	9423.65
588.846	9513.37
589.206	9504.55
589.565	9583.19
589.925	9553.14
590.284	9518.11
590.643	9603.98
591.003	9643.98
591.362	9621.39
591.721	9646.7
592.08	9657.54
592.44	9771.21
592.799	9768.95
593.158	9783.87
593.517	9815.5
593.876	9820.48
594.235	9713.13
594.593	9864.09
594.952	9801.95
595.311	9877.42
595.67	9888.27
596.029	9976.18
596.387	10006.69
596.746	9952.9
597.104	9905.22
597.463	9927.14
597.822	9956.97
598.18	9992.68
598.538	10006.69
598.897	10025.67
599.255	10036.29
599.613	10139.34
599.972	10107.02
600.33	10117.19
600.688	10069.74
601.046	10119.9
601.404	10197.42
601.762	10161.71
602.12	10166.46
602.478	10224.76
602.836	10239.9
603.194	10206.68
603.552	10141.6
603.91	10160.13
604.268	10239.45
604.625	10196.51
604.983	10252.1
605.341	10235.83
605.698	10241.26
606.056	10321.48
606.413	10221.82
606.771	10342.04
607.128	10376.17
607.485	10309.73
607.843	10357.41
608.2	10386.79
608.557	10411.65
608.914	10340.91
609.272	10457.97
609.629	10360.8
609.986	10506.11
610.343	10419.1
610.7	10442.83
611.057	10517.41
611.414	10509.72
611.771	10539.78
612.127	10560.57
612.484	10547.91
612.841	10589.95
613.198	10515.6
613.554	10521.93
613.911	10664.07
614.267	10674.24
614.624	10607.8
614.98	10613.22
615.337	10675.37
615.693	10654.35
616.05	10612.55
616.406	10690.28
616.762	10594.47
617.118	10626.1
617.475	10631.98
617.831	10650.96
618.187	10671.08
618.543	10666.33
618.899	10751.98
619.255	10704.75
619.611	10743.62
619.967	10784.74
620.323	10787.46
620.678	10702.71
621.034	10740
621.39	10757.17
621.746	10788.59
622.101	10843.27
622.457	10815.7
622.812	10832.2
623.168	10770.28
623.523	10803.5
623.879	10854.35
624.234	10746.55
624.589	10805.99
624.945	10727.12
625.3	10826.55
625.655	10841.01
626.01	10820
626.365	10803.5
626.72	10813.22
627.075	10695.26
627.43	10685.09
627.785	10809.6
628.14	10781.81
628.495	10797.85
628.85	10703.62
629.205	10747.46
629.559	10810.28
629.914	10759.89
630.269	10756.72
630.623	10711.07
630.978	10707.91
631.332	10759.21
631.687	10806.67
632.041	10715.59
632.396	10699.78
632.75	10660.91
633.104	10694.13
633.459	10669.49
633.813	10603.96
634.167	10587.01
634.521	10591.76
634.875	10638.53
635.229	10543.62
635.583	10540.01
635.937	10611.19
636.291	10549.72
636.645	10532.1
636.999	10490.74
637.352	10499.1
637.706	10461.14
638.06	10554.69
638.413	10372.1
638.767	10436.51
639.121	10428.14
639.474	10286.68
639.828	10362.83
640.181	10470.63
640.534	10422.27
640.888	10380.24
641.241	10337.98
641.594	10305.44
641.947	10371.87
642.301	10342.5
642.654	10343.63
643.007	10378.2
643.36	10316.96
643.713	10322.84
644.066	10345.43
644.419	10270.86
644.771	10250.97
645.124	10137.76
645.477	10158.09
645.83	10112.22
646.182	10027.48
646.535	10029.06
646.888	9994.03
647.24	9995.39
647.593	9940.7
647.945	10041.04
648.298	9911.77
648.65	9976.63
649.002	9899.34
649.355	9996.52
649.707	10008.27
650.059	10018.89
650.411	10133.91
650.763	10085.33
651.115	10224.76
651.467	10245.32
651.819	10208.49
652.171	10201.94
652.523	10206.45
652.875	10172.78
653.227	10209.39
653.578	10231.76
653.93	10213.23
654.282	10096.4
654.633	10250.97
654.985	10124.2
655.337	10199.45
655.688	10162.61
656.039	10159.45
656.391	10095.05
656.742	10153.8
657.094	10186.79
657.445	10174.37
657.796	10189.96
658.147	10097.53
658.498	10149.73
658.849	10150.19
659.2	10138.89
659.551	10080.13
659.902	10256.4
660.253	10165.78
660.604	10191.54
660.955	10139.34
661.306	10149.96
661.656	10186.79
662.007	10145.44
662.358	10134.37
662.708	10147.25
663.059	10135.5
663.409	10104.54
663.76	10187.92
664.11	10198.32
664.461	10228.83
664.811	10201.71
665.161	10171.88
665.511	10140.02
665.862	10155.16
666.212	10272.22
666.562	10238.54
666.912	10176.85
667.262	10181.14
667.612	10193.35
667.962	10158.32
668.312	10147.93
668.662	10211.88
669.011	10189.28
669.361	10162.39
669.711	10119
670.06	10147.02
670.41	10125.33
670.76	10147.7
671.109	10141.82
671.459	10199.68
671.808	10131.88
672.157	10143.63
672.507	10092.79
672.856	10045.33
673.205	10071.54
673.554	10095.27
673.904	10070.87
674.253	10128.26
674.602	10081.26
674.951	9901.15
675.3	9898.21
675.649	10016.18
675.998	10000.13
676.346	9969.17
676.695	10035.84
677.044	9949.29
677.393	9996.97
677.741	10036.29
678.09	9935.28
678.438	9973.92
678.787	9894.37
679.135	10001.49
679.484	9981.83
679.832	9912.68
680.181	9846.46
680.529	9862.74
680.877	9852.34
681.225	9804.88
681.573	9887.14
681.922	9840.59
682.27	9821.38
682.618	9758.78
682.966	9771.66
683.314	9758.56
683.661	9763.08
684.009	9692.57
684.357	9681.04
684.705	9691.89
685.053	9645.34
685.4	9719.24
685.748	9596.75
686.095	9602.63
686.443	9562.86
686.79	9576.19
687.138	9601.5
687.485	9516.53
687.832	9514.5
688.18	9478.11
688.527	9385.01
688.874	9419.13
689.221	9395.18
689.568	9396.08
689.915	9337.1
690.262	9383.43
690.609	9273.37
690.956	9312.02
691.303	9206.48
691.65	9171
691.997	9166.26
692.344	9155.41
692.69	9139.14
693.037	9168.97
693.383	9017.56
693.73	9047.84
694.077	9019.14
694.423	9018.01
694.769	8988.63
695.116	8962.42
695.462	8940.27
695.808	8912.48
696.155	8897.56
696.501	8809.43
696.847	8851.24
697.193	8771.24
697.539	8806.49
697.885	8703.67
698.231	8670.9
698.577	8660.05
698.923	8663.22
699.269	8575.09
699.614	8518.59
699.96	8554.52
700.306	8543
700.651	8493.51
700.997	8452.83
701.342	8427.07
701.688	8393.85
702.033	8374.19
702.379	8319.05
702.724	8405.15
703.069	8333.51
703.415	8284.02
703.76	8262.78
704.105	8220.74
704.45	8231.59
704.795	8173.74
705.14	8144.81
705.485	8167.41
705.83	8106.17
706.175	8073.18
706.52	8039.96
706.865	8060.07
707.209	8063.23
707.554	8002.9
707.899	7992.28
708.243	7933.29
708.588	7949.34
708.932	7864.14
709.277	7861.43
709.621	7858.04
709.966	7849.45
710.31	7823.24
710.654	7779.4
710.998	7711.38
711.342	7754.54
711.687	7738.95
712.031	7720.19
712.375	7728.33
712.719	7684.49
713.063	7657.37
713.407	7678.39
713.75	7648.56
714.094	7651.49
714.438	7551.16
714.782	7626.64
715.125	7561.55
715.469	7577.37
715.812	7579.86
716.156	7555.45
716.499	7535.11
716.843	7571.5
717.186	7462.12
717.53	7469.58
717.873	7554.1
718.216	7433.19
718.559	7445.17
718.902	7456.7
719.246	7372.41
719.589	7413.53
719.932	7364.5
720.275	7335.34
720.617	7365.4
720.96	7309.13
721.303	7366.98
721.646	7355.46
721.989	7338.06
722.331	7357.04
722.674	7283.59
723.016	7270.49
723.359	7317.72
723.701	7365.17
724.044	7286.08
724.386	7173.99
724.729	7251.73
725.071	7227.1
725.413	7239.08
725.755	7275.01
726.097	7179.19
726.439	7138.74
726.782	7216.93
727.124	7285.85
727.465	7232.97
727.807	7158.85
728.149	7140.55
728.491	7171.73
728.833	7222.13
729.175	7170.6
729.516	7167.44
729.858	7151.17
730.199	7164.73
730.541	7133.32
730.882	7169.7
731.224	7162.69
731.565	7198.85
731.906	7182.35
732.248	7112.3
732.589	7143.26
732.93	7167.44
733.271	7112.07
733.612	7104.16
733.953	7146.65
734.294	7117.04
734.635	7105.97
734.976	7134.22
735.317	7106.65
735.658	7050.61
735.999	7113.88
736.339	7096.48
736.68	7149.59
737.021	7141
737.361	7140.32
737.702	7198.62
738.042	7152.75
738.383	7171.51
738.723	7083.15
739.063	7172.86
739.404	7169.25
739.744	7169.02
740.084	7191.39
740.424	7170.15
740.764	7231.84
741.104	7221
741.444	7171.05
741.784	7158.4
742.124	7213.99
742.464	7225.97
742.804	7261.9
743.143	7208.34
743.483	7265.97
743.823	7192.07
744.162	7345.51
744.502	7306.19
744.841	7348.22
745.181	7395.91
745.52	7400.65
745.86	7447.66
746.199	7403.59
746.538	7525.62
746.877	7545.28
747.216	7585.05
747.556	7542.57
747.895	7602.23
748.234	7688.1
748.573	7686.97
748.911	7699.4
749.25	7804.03
749.589	7810.81
749.928	7920.64
750.267	7938.49
750.605	8017.81
750.944	8060.3
751.283	8143.01
751.621	8211.7
751.96	8266.17
752.298	8328.31
752.636	8391.59
752.975	8489.44
753.313	8522.88
753.651	8645.82
753.989	8709.32
754.327	8792.25
754.666	8839.49
755.004	9036.54
755.342	9135.3
755.679	9245.58
756.017	9336.65
756.355	9503.2
756.693	9608.28
757.031	9709.29
757.368	9847.82
757.706	9972.11
758.044	9994.93
758.381	10171.65
758.719	10307.47
759.056	10557.18
759.394	10627.46
759.731	10699.1
760.068	10844.63
760.405	11000.11
760.743	11069.48
761.08	11282.81
761.417	11381.79
761.754	11550.15
762.091	11753.31
762.428	11836.69
762.765	11905.85
763.102	12237.36
763.438	12290.02
763.775	12456.34
764.112	12589.89
764.449	12755.77
764.785	12892.71
765.122	13041.63
765.458	13148.3
