Data from hue_200_FLMS001491_00056.txt Node
Date: Tue Feb 07 16:43:38 GMT 2017
User: dcchb
Spectrometer: FLMS00149
Trigger mode: 0
Integration Time (sec): 2.000000E-2
Scans to average: 10
Electric dark correction enabled: true
Nonlinearity correction enabled: false
Boxcar width: 0
XAxis mode: Wavelengths
Number of Pixels in Spectrum: 2048
>>>>>Begin Spectral Data<<<<<
341.393	2.16
341.776	2.16
342.16	2.16
342.543	-55.46
342.927	-66.76
343.31	-71.51
343.693	-64.28
344.077	-62.92
344.46	-50.04
344.843	-80.32
345.226	-48.69
345.61	-25.41
345.993	-14.11
346.376	-9.14
346.759	-0.1
347.142	41.26
347.525	39.22
347.908	67.7
348.291	78.54
348.674	96.85
349.057	102.95
349.44	113.57
349.823	124.87
350.206	171.87
350.588	185.43
350.971	204.42
351.354	220.23
351.737	224.75
352.119	264.53
352.502	259.56
352.884	259.1
353.267	275.83
353.65	300.23
354.032	287.58
354.414	297.52
354.797	305.66
355.179	301.81
355.562	318.31
355.944	317.18
356.326	323.06
356.709	330.06
357.091	348.14
357.473	349.27
357.855	339.1
358.238	323.06
358.62	340.46
359.002	310.4
359.384	344.75
359.766	325.77
360.148	342.49
360.53	318.54
360.912	328.93
361.294	340.23
361.676	339.33
362.057	332.55
362.439	316.28
362.821	332.55
363.203	319.89
363.584	339.55
363.966	314.47
364.348	321.47
364.729	309.05
365.111	308.14
365.493	316.05
365.874	323.51
366.256	289.16
366.637	283.96
367.019	311.08
367.4	313.34
367.781	294.13
368.163	330.51
368.544	281.48
368.925	299.55
369.306	311.31
369.688	317.63
370.069	300.91
370.45	290.06
370.831	299.1
371.212	313.11
371.593	296.39
371.974	316.5
372.355	318.08
372.736	325.54
373.117	324.19
373.498	315.83
373.879	320.34
374.26	322.15
374.641	302.72
375.021	327.12
375.402	321.93
375.783	330.06
376.163	307.92
376.544	310.4
376.925	307.46
377.305	308.14
377.686	331.87
378.066	344.3
378.447	301.81
378.827	323.51
379.208	317.18
379.588	323.06
379.968	333.45
380.349	326.9
380.729	326.22
381.109	326.45
381.489	323.06
381.87	316.73
382.25	295.26
382.63	336.84
383.01	342.94
383.39	352.43
383.77	339.55
384.15	331.42
384.53	322.83
384.91	319.21
385.29	329.84
385.67	361.7
386.049	369.38
386.429	358.99
386.809	356.05
387.189	337.29
387.568	354.69
387.948	350.63
388.328	364.64
388.707	347.24
389.087	355.15
389.466	342.72
389.846	355.37
390.225	372.77
390.605	357.41
390.984	345.88
391.363	386.78
391.743	355.82
392.122	368.7
392.501	376.16
392.881	383.85
393.26	379.1
393.639	374.81
394.018	370.96
394.397	366.9
394.776	375.71
395.155	390.17
395.534	386.33
395.913	398.76
396.292	393.11
396.671	382.04
397.05	391.53
397.429	394.47
397.808	406.44
398.186	387.69
398.565	389.95
398.944	426.78
399.323	385.88
399.701	412.09
400.08	413.68
400.458	412.77
400.837	397.86
401.215	417.52
401.594	428.36
401.972	431.98
402.351	415.03
402.729	423.84
403.107	430.17
403.486	437.18
403.864	433.79
404.242	447.8
404.62	430.4
404.999	434.92
405.377	459.1
405.755	455.03
406.133	445.09
406.511	455.71
406.889	470.85
407.267	494.8
407.645	479.89
408.023	502.49
408.401	489.83
408.779	510.85
409.156	489.15
409.534	501.81
409.912	509.94
410.29	533.9
410.667	537.97
411.045	548.14
411.422	560.79
411.8	541.81
412.178	558.98
412.555	584.74
412.933	582.94
413.31	603.95
413.687	589.72
414.065	613.9
414.442	625.2
414.819	609.83
415.197	641.24
415.574	634.91
415.951	649.15
416.328	659.32
416.705	664.74
417.082	692.54
417.46	674.01
417.837	693.44
418.214	696.38
418.591	710.39
418.967	711.29
419.344	748.13
419.721	743.61
420.098	754.01
420.475	736.15
420.852	778.19
421.228	789.03
421.605	793.33
421.982	806.66
422.358	813.21
422.735	829.71
423.111	837.62
423.488	868.8
423.864	889.14
424.241	892.53
424.617	897.96
424.994	945.86
425.37	945.86
425.746	965.98
426.123	959.2
426.499	981.34
426.875	992.64
427.251	1022.02
427.627	1032.87
428.003	1030.61
428.379	1036.94
428.756	1051.85
429.132	1075.81
429.507	1088.46
429.883	1110.15
430.259	1109.48
430.635	1142.24
431.011	1131.85
431.387	1160.77
431.763	1173.2
432.138	1205.97
432.514	1218.17
432.89	1219.53
433.265	1270.15
433.641	1283.94
434.016	1329.36
434.392	1315.35
434.767	1368.68
435.143	1387.89
435.518	1394.67
435.894	1424.04
436.269	1457.94
436.644	1476.47
437.02	1470.6
437.395	1534.32
437.77	1537.49
438.145	1578.16
438.52	1610.48
438.895	1656.35
439.271	1665.85
439.646	1687.77
440.021	1711.27
440.395	1720.99
440.77	1717.37
441.145	1755.56
441.52	1820.87
441.895	1818.38
442.27	1842.56
442.645	1859.74
443.019	1865.39
443.394	1914.65
443.769	1944.93
444.143	1934.09
444.518	1944.71
444.892	1965.5
445.267	1986.74
445.641	1990.81
446.016	1991.71
446.39	2014.76
446.764	2060.64
447.139	2089.34
447.513	2092.95
447.887	2085.72
448.262	2137.02
448.636	2130.47
449.01	2157.36
449.384	2192.84
449.758	2197.36
450.132	2241.88
450.506	2221.54
450.88	2244.81
451.254	2275.55
451.628	2288.88
452.002	2352.16
452.376	2344.25
452.75	2405.94
453.123	2397.35
453.497	2409.1
453.871	2445.03
454.244	2492.04
454.618	2463.57
454.992	2545.14
455.365	2546.27
455.739	2614.07
456.112	2642.77
456.486	2662.66
456.859	2657.01
457.232	2714.63
457.606	2752.6
457.979	2737.91
458.352	2776.33
458.725	2811.8
459.099	2875.31
459.472	2920.73
459.845	2901.07
460.218	2936.1
460.591	2974.74
460.964	2981.97
461.337	3072.81
461.71	3107.39
462.083	3151.68
462.456	3184.68
462.829	3191.91
463.201	3198.69
463.574	3239.59
463.947	3272.13
464.32	3339.02
464.692	3399.81
465.065	3444.33
465.438	3480.94
465.81	3548.73
466.183	3582.18
466.555	3641.61
466.928	3606.13
467.3	3633.25
467.672	3735.62
468.045	3798.9
468.417	3795.73
468.789	3828.28
469.161	3906.24
469.534	3937.65
469.906	4037.08
470.278	4019.46
470.65	4103.07
471.022	4126.35
471.394	4209.06
471.766	4221.94
472.138	4284.31
472.51	4340.35
472.882	4416.73
473.253	4452.21
473.625	4532.66
473.997	4665.32
474.369	4633
474.74	4687.46
475.112	4746.44
475.484	4831.86
475.855	4927.68
476.227	4973.1
476.598	5095.59
476.97	5139.65
477.341	5167
477.713	5337.61
478.084	5340.33
478.455	5495.12
478.827	5531.06
479.198	5683.59
479.569	5674.1
479.94	5829.35
480.311	5849.46
480.682	5957.03
481.053	6115.9
481.424	6165.39
481.795	6195.67
482.166	6322.9
482.537	6364.48
482.908	6467.3
483.279	6540.97
483.65	6726.96
484.021	6752.04
484.391	6829.78
484.762	6825.71
485.133	6909.1
485.503	7028.87
485.874	7145.7
486.244	7269.77
486.615	7276.55
486.985	7397.22
487.356	7479.7
487.726	7568.06
488.097	7730.32
488.467	7751.56
488.837	7887.6
489.207	7934.16
489.578	8008.28
489.948	8102.74
490.318	8237.42
490.688	8279.23
491.058	8349.06
491.428	8381.38
491.798	8532.11
492.168	8691.65
492.538	8678.99
492.908	8800.8
493.278	8836.05
493.648	8856.84
494.017	8890.06
494.387	9003.96
494.757	8946.56
495.126	9077.4
495.496	9091.41
495.866	9191.98
496.235	9172.99
496.605	9312.42
496.974	9320.33
497.344	9401.24
497.713	9410.73
498.082	9497.96
498.452	9570.27
498.821	9580.44
499.19	9579.76
499.559	9700.21
499.928	9758.06
500.298	9724.39
500.667	9824.5
501.036	9744.96
501.405	9855.24
501.774	9833.09
502.143	9893.2
502.512	9880.55
502.88	9961.9
503.249	9993.99
503.618	10090.71
503.987	10045.74
504.356	10139.07
504.724	10136.13
505.093	10154.21
505.462	10166.87
505.83	10245.73
506.199	10322.79
506.567	10392.4
506.936	10264.72
507.304	10391.94
507.672	10430.59
508.041	10433.98
508.409	10420.87
508.777	10524.37
509.145	10588.55
509.514	10506.52
509.882	10522.11
510.25	10587.65
510.618	10595.78
510.986	10634.65
511.354	10667.19
511.722	10727.3
512.09	10815.21
512.458	10733.63
512.826	10794.42
513.193	10697.02
513.561	10694.99
513.929	10835.55
514.297	10857.92
514.664	10820.41
515.032	10842.55
515.4	10946.51
515.767	10904.25
516.135	10941.76
516.502	10830.35
516.869	10977.01
517.237	10915.77
517.604	10923.23
517.972	11013.4
518.339	11017.01
518.706	10968.43
519.073	10970.91
519.44	10970.01
519.808	11120.96
520.175	11009.1
520.542	11083.9
520.909	11125.26
521.276	11051.14
521.643	11112.6
522.009	11090.23
522.376	11134.07
522.743	11097.69
523.11	11205.71
523.477	11174.75
523.843	11177.23
524.21	11342.65
524.577	11229.44
524.943	11303.56
525.31	11267.63
525.676	11336.33
526.043	11326.38
526.409	11284.12
526.776	11367.29
527.142	11356.44
527.508	11372.71
527.874	11292.94
528.241	11329.55
528.607	11199.15
528.973	11278.93
529.339	11195.99
529.705	11302.88
530.071	11381.52
530.437	11295.2
530.803	11329.77
531.169	11284.8
531.535	11171.13
531.901	11128.2
532.267	11186.05
532.632	11174.75
532.998	11213.84
533.364	11117.8
533.73	11113.06
534.095	11114.86
534.461	11067.41
534.826	11019.95
535.192	11083.68
535.557	11152.15
535.923	10925.94
536.288	10957.13
536.653	10941.08
537.019	10913.96
537.384	10832.84
537.749	10861.76
538.114	10842.55
538.479	10873.97
538.845	10764.59
539.21	10676.68
539.575	10698.15
539.94	10599.4
540.305	10611.83
540.67	10582.67
541.034	10530.92
541.399	10474.65
541.764	10500.64
542.129	10445.73
542.494	10380.42
542.858	10405.96
543.223	10269.46
543.587	10280.99
543.952	10267.2
544.316	10203.47
544.681	10140.65
545.045	10162.12
545.41	10112.18
545.774	10051.39
546.138	10052.97
546.503	9950.83
546.867	9887.55
547.231	9930.49
547.595	9850.94
547.959	9819.98
548.324	9724.62
548.688	9720.55
549.052	9727.33
549.416	9707.89
549.779	9658.63
550.143	9666.31
550.507	9545.19
550.871	9528.46
551.235	9529.14
551.599	9554.9
551.962	9500.67
552.326	9511.52
552.689	9445.75
553.053	9343.16
553.417	9354.23
553.78	9404.63
554.143	9282.59
554.507	9269.26
554.87	9285.31
555.234	9290.05
555.597	9148.59
555.96	9116.72
556.323	9177.29
556.686	9128.47
557.05	9121.47
557.413	9109.72
557.776	9033.79
558.139	9062.71
558.502	8992.66
558.865	9042.83
559.228	9049.38
559.59	9020
559.953	8972.55
560.316	8990.85
560.679	8942.72
561.041	9020.91
561.404	9008.93
561.767	8996.27
562.129	8961.93
562.492	8977.74
562.854	8942.94
563.217	8928.25
563.579	8934.81
563.941	8939.33
564.304	8935.03
564.666	8968.48
565.028	8954.02
565.39	9034.47
565.753	8936.39
566.115	9046.44
566.477	8957.86
566.839	8884.19
567.201	8956.28
567.563	8897.52
567.925	8931.42
568.287	8950.4
568.648	8985.43
569.01	8948.37
569.372	8967.35
569.734	8889.38
570.095	8977.52
570.457	9027.01
570.819	8989.95
571.18	8959.89
571.542	8987.69
571.903	8940.68
572.265	9009.83
572.626	9072.43
572.987	9079.21
573.349	9062.71
573.71	9045.09
574.071	9052.54
574.432	9019.55
574.794	9056.61
575.155	9051.19
575.516	8982.49
575.877	9012.32
576.238	9029.27
576.599	9099.1
576.96	9053.9
577.32	9053
577.681	9070.62
578.042	9071.53
578.403	9104.75
578.763	9135.71
579.124	9074.92
579.485	9088.48
579.845	9115.14
580.206	9052.09
580.566	9095.93
580.927	9100.45
581.287	9115.14
581.648	9048.02
582.008	9097.52
582.368	9094.13
582.728	9131.19
583.089	9024.3
583.449	8993.11
583.809	9043.73
584.169	9045.31
584.529	9043.73
584.889	9074.46
585.249	9024.52
585.609	8947.46
585.969	9022.49
586.329	8962.15
586.688	8991.3
587.048	8987.46
587.408	8977.29
587.768	8993.34
588.127	8971.64
588.487	8976.61
588.846	9023.62
589.206	8975.26
589.565	8959.67
589.925	9075.59
590.284	8904.75
590.643	8982.72
591.003	8996.73
591.362	8997.86
591.721	8952.66
592.08	8933.23
592.44	8988.14
592.799	8925.77
593.158	8897.75
593.517	8897.29
593.876	8933.45
594.235	8883.28
594.593	8876.96
594.952	8952.21
595.311	8840.57
595.67	8928.71
596.029	8973.22
596.387	8927.35
596.746	8859.33
597.104	8941.13
597.463	8830.18
597.822	8908.14
598.18	8870.63
598.538	8846.67
598.897	8874.02
599.255	8853
599.613	8940.46
599.972	8896.16
600.33	8830.63
600.688	8873.11
601.046	8896.62
601.404	8857.52
601.762	8861.14
602.12	8858.43
602.478	8869.72
602.836	8910.63
603.194	8854.58
603.552	8882.61
603.91	8860.46
604.268	8858.43
604.625	8762.83
604.983	8872.89
605.341	8805.55
605.698	8870.18
606.056	8861.14
606.413	8852.78
606.771	8927.35
607.128	8914.02
607.485	8857.3
607.843	8858.88
608.2	8897.52
608.557	8891.87
608.914	8842.15
609.272	8890.29
609.629	8916.5
609.986	8924.19
610.343	8898.2
610.7	8973.9
611.057	8952.66
611.414	8906.11
611.771	8933.45
612.127	8973
612.484	8983.62
612.841	9061.13
613.198	8908.14
613.554	9015.94
613.911	8993.56
614.267	8933.68
614.624	8962.6
614.98	8956.95
615.337	9015.71
615.693	9019.1
616.05	8973.45
616.406	9069.27
616.762	8998.53
617.118	8942.94
617.475	8997.4
617.831	9044.86
618.187	9031.75
618.543	9084.41
618.899	9119.21
619.255	9121.24
619.611	9081.47
619.967	9108.36
620.323	9068.82
620.678	9057.06
621.034	9093.67
621.39	8996.05
621.746	9056.16
622.101	9153.78
622.457	9043.28
622.812	9097.97
623.168	9078.31
623.523	9078.53
623.879	9041.25
624.234	9065.2
624.589	9064.3
624.945	9052.54
625.3	9044.64
625.655	9062.49
626.01	9006.44
626.365	9059.32
626.72	9026.33
627.075	9057.74
627.43	9029.04
627.785	8978.2
628.14	9029.27
628.495	9032.43
628.85	9018.65
629.205	8981.36
629.559	9050.06
629.914	8967.35
630.269	9037.63
630.623	8968.48
630.978	8933.9
631.332	9027.01
631.687	8945.88
632.041	8959.67
632.396	8976.61
632.75	8904.53
633.104	8910.63
633.459	8849.39
633.813	8852.55
634.167	8813
634.521	8891.42
634.875	8900.23
635.229	8840.8
635.583	8775.49
635.937	8805.55
636.291	8808.03
636.645	8775.04
636.999	8838.09
637.352	8760.8
637.706	8773.68
638.06	8764.19
638.413	8798.99
638.767	8717.86
639.121	8813.45
639.474	8758.99
639.828	8727.81
640.181	8714.02
640.534	8703.18
640.888	8702.72
641.241	8660.69
641.594	8739.11
641.947	8718.77
642.301	8732.33
642.654	8669.28
643.007	8679.67
643.36	8681.48
643.713	8643.97
644.066	8626.79
644.419	8583.18
644.771	8570.98
645.124	8465.44
645.477	8486.91
645.83	8378.21
646.182	8383.18
646.535	8339.34
646.888	8371.21
647.24	8397.65
647.593	8333.24
647.945	8363.97
648.298	8295.95
648.65	8292.79
649.002	8315.16
649.355	8267.93
649.707	8336.18
650.059	8353.81
650.411	8442.39
650.763	8466.8
651.115	8542.73
651.467	8548.83
651.819	8489.62
652.171	8517.42
652.523	8477.19
652.875	8455.27
653.227	8459.79
653.578	8479
653.93	8555.61
654.282	8419.79
654.633	8446.91
654.985	8453.92
655.337	8503.41
655.688	8470.64
656.039	8530.75
656.391	8440.13
656.742	8442.62
657.094	8469.28
657.445	8500.47
657.796	8481.26
658.147	8519
658.498	8476.06
658.849	8501.82
659.2	8483.97
659.551	8494.37
659.902	8528.49
660.253	8548.6
660.604	8514.93
660.955	8456.85
661.306	8584.53
661.656	8527.59
662.007	8555.83
662.358	8468.83
662.708	8535.72
663.059	8548.38
663.409	8487.59
663.76	8583.63
664.11	8548.83
664.461	8595.38
664.811	8508.15
665.161	8547.25
665.511	8476.74
665.862	8545.21
666.212	8564.2
666.562	8524.2
666.912	8557.19
667.262	8554.03
667.612	8550.64
667.962	8551.99
668.312	8566.68
668.662	8568.49
669.011	8563.07
669.361	8479.68
669.711	8556.51
670.06	8495.04
670.41	8486.46
670.76	8483.97
671.109	8489.85
671.459	8487.36
671.808	8446.68
672.157	8503.41
672.507	8433.58
672.856	8469.96
673.205	8467.25
673.554	8478.77
673.904	8518.32
674.253	8520.36
674.602	8440.58
674.951	8360.59
675.3	8299.57
675.649	8437.87
675.998	8394.26
676.346	8377.31
676.695	8416.18
677.044	8391.32
677.393	8355.61
677.741	8446.46
678.09	8335.05
678.438	8332.11
678.787	8337.54
679.135	8322.85
679.484	8294.6
679.832	8290.3
680.181	8272.23
680.529	8265.67
680.877	8232.9
681.225	8198.1
681.573	8295.28
681.922	8201.95
682.27	8128.73
682.618	8124.89
682.966	8177.99
683.314	8195.39
683.661	8178.44
684.009	8104.09
684.357	8083.3
684.705	8034.72
685.053	8061.16
685.4	8090.54
685.748	7982.74
686.095	8005.11
686.443	8028.16
686.79	8064.32
687.138	7941.39
687.485	7991.78
687.832	7917.43
688.18	7908.39
688.527	7866.81
688.874	7816.64
689.221	7805.57
689.568	7791.56
689.915	7789.3
690.262	7813.48
690.609	7711.34
690.956	7737.78
691.303	7733.26
691.65	7657.78
691.997	7719.02
692.344	7580.27
692.69	7605.12
693.037	7618.68
693.383	7490.78
693.73	7562.19
694.077	7487.61
694.423	7500.95
694.769	7453.26
695.116	7429.99
695.462	7407.62
695.808	7338.92
696.155	7353.15
696.501	7360.61
696.847	7307.05
697.193	7300.27
697.539	7280.84
697.885	7203.1
698.231	7175.98
698.577	7152.71
698.923	7148.87
699.269	7110
699.614	7074.74
699.96	7051.24
700.306	7051.69
700.651	7103.9
700.997	7040.17
701.342	7000.85
701.688	6957.01
702.033	6917.91
702.379	6943.45
702.724	6913.39
703.069	6845.6
703.415	6849.44
703.76	6793.39
704.105	6812.83
704.45	6776.45
704.795	6731.48
705.14	6744.81
705.485	6689.44
705.83	6680.4
706.175	6714.98
706.52	6655.09
706.865	6628.43
707.209	6573.51
707.554	6620.29
707.899	6583.68
708.243	6554.53
708.588	6528.77
708.932	6509.33
709.277	6474.31
709.621	6494.87
709.966	6458.04
710.31	6468.66
710.654	6456.23
710.998	6413.74
711.342	6408.55
711.687	6386.4
712.031	6391.82
712.375	6299.85
712.719	6424.82
713.063	6336.23
713.407	6340.07
713.75	6312.05
714.094	6312.05
714.438	6248.78
714.782	6283.58
715.125	6268.66
715.469	6294.88
715.812	6228.44
716.156	6192.96
716.499	6199.74
716.843	6207.87
717.186	6169.23
717.53	6213.75
717.873	6173.07
718.216	6152.28
718.559	6154.32
718.902	6111.83
719.246	6148.21
719.589	6121.1
719.932	6136.46
720.275	6102.34
720.617	6121.32
720.96	6060.31
721.303	6008.1
721.646	6099.4
721.989	6102.34
722.331	6074.77
722.674	6038.16
723.016	6012.85
723.359	6046.75
723.701	6093.53
724.044	6034.32
724.386	6015.34
724.729	5992.29
725.071	5941.44
725.413	6011.95
725.755	6070.48
726.097	5975.56
726.439	5955.68
726.782	5980.76
727.124	5979.63
727.465	5959.74
727.807	5971.04
728.149	5916.36
728.491	5966.07
728.833	5949.8
729.175	5956.13
729.516	5925.62
729.858	5900.99
730.199	5973.3
730.541	5938.73
730.882	5903.93
731.224	5937.6
731.565	5948.9
731.906	5969.24
732.248	6003.81
732.589	5896.47
732.93	5933.08
733.271	5933.3
733.612	5931.72
733.953	5942.12
734.294	5916.81
734.635	5938.28
734.976	5959.52
735.317	5926.3
735.658	5895.34
735.999	5946.86
736.339	5944.6
736.68	5967.2
737.021	5962.91
737.361	5952.29
737.702	5954.55
738.042	5952.74
738.383	5976.92
738.723	6022.34
739.063	6017.14
739.404	6027.99
739.744	6053.75
740.084	6007.43
740.424	6035.9
740.764	6037.71
741.104	6067.99
741.444	6035.9
741.784	6045.17
742.124	6088.55
742.464	6086.75
742.804	6075.22
743.143	6142.11
743.483	6180.53
743.823	6133.75
744.162	6153.86
744.502	6256.23
744.841	6177.37
745.181	6255.56
745.52	6279.74
745.86	6334.88
746.199	6382.56
746.538	6340.75
746.877	6416
747.216	6459.62
747.556	6455.1
747.895	6538.26
748.234	6555.89
748.573	6601.31
748.911	6675.88
749.25	6700.97
749.589	6694.19
749.928	6858.7
750.267	6863.68
750.605	6942.32
750.944	7026.38
751.283	7101.86
751.621	7173.95
751.96	7171.01
752.298	7303.89
752.636	7438.8
752.975	7469.99
753.313	7506.37
753.651	7597.44
753.989	7758.79
754.327	7879.24
754.666	7906.81
755.004	8042.18
755.342	8227.26
755.679	8373.01
756.017	8462.28
756.355	8591.99
756.693	8693.01
757.031	8784.08
757.368	8921.02
757.706	9041.92
758.044	9229.49
758.381	9375.93
758.719	9474.45
759.056	9697.95
759.394	9793.99
759.731	9998.28
760.068	10016.36
760.405	10276.92
760.743	10352.62
761.08	10591.26
761.417	10701.99
761.754	10881.87
762.091	11120.74
762.428	11253.39
762.765	11413.39
763.102	11596.21
763.438	11731.8
763.775	11966.59
764.112	12064.22
764.449	12328.62
764.785	12358.9
765.122	12641.83
765.458	12694.48
765.795	12932.22
766.131	13119.1
766.467	13209.27
766.804	13363.62
