Data from hue_70_FLMS001491_20.txt Node
Date: Mon Feb 06 15:20:12 GMT 2017
User: dcchb
Spectrometer: FLMS00149
Trigger mode: 0
Integration Time (sec): 2.000000E-2
Scans to average: 10
Electric dark correction enabled: true
Nonlinearity correction enabled: false
Boxcar width: 0
XAxis mode: Wavelengths
Number of Pixels in Spectrum: 2048
>>>>>Begin Spectral Data<<<<<
341.393	-12.41
341.776	-12.41
342.16	-12.41
342.543	-53.32
342.927	-65.97
343.31	-66.88
343.693	-59.19
344.077	-54.67
344.46	-55.13
344.843	-74.33
345.226	-31.17
345.61	-40.66
345.993	-12.64
346.376	-0.89
346.759	11.77
347.142	29.39
347.525	60.58
347.908	51.99
348.291	70.52
348.674	70.07
349.057	101.25
349.44	142.16
349.823	140.58
350.206	138.32
350.588	196.17
350.971	197.98
351.354	228.93
351.737	229.84
352.119	257.86
352.502	250.18
352.884	260.12
353.267	274.81
353.65	300.35
354.032	275.04
354.414	286.11
354.797	300.35
355.179	313
355.562	322.49
355.944	327.01
356.326	325.66
356.709	324.3
357.091	318.42
357.473	325.66
357.855	345.77
358.238	350.97
358.62	345.54
359.002	341.25
359.384	348.25
359.766	342.6
360.148	331.3
360.53	341.25
360.912	345.54
361.294	327.46
361.676	354.36
362.057	338.76
362.439	314.81
362.821	329.27
363.203	318.42
363.584	324.3
363.966	345.32
364.348	323.4
364.729	325.66
365.111	307.12
365.493	323.4
365.874	323.85
366.256	303.73
366.637	301.25
367.019	285.43
367.4	314.36
367.781	315.71
368.163	326.79
368.544	293.11
368.925	311.87
369.306	299.67
369.688	310.97
370.069	328.37
370.45	315.71
370.831	324.75
371.212	301.48
371.593	297.63
371.974	299.44
372.355	300.57
372.736	306.22
373.117	298.09
373.498	296.05
373.879	317.52
374.26	314.36
374.641	329.05
375.021	300.35
375.402	317.97
375.783	310.06
376.163	308.93
376.544	327.69
376.925	314.36
377.305	325.43
377.686	334.24
378.066	315.03
378.447	320.46
378.827	326.79
379.208	324.98
379.588	351.19
379.968	334.24
380.349	326.56
380.729	316.16
381.109	319.33
381.489	334.69
381.87	322.94
382.25	324.75
382.63	313.45
383.01	316.62
383.39	326.11
383.77	330.63
384.15	342.38
384.53	336.05
384.91	344.86
385.29	347.12
385.67	320.91
386.049	337.63
386.429	339.89
386.809	330.17
387.189	356.61
387.568	336.5
387.948	336.5
388.328	348.03
388.707	339.44
389.087	338.08
389.466	355.03
389.846	349.16
390.225	344.19
390.605	365.88
390.984	338.31
391.363	340.12
391.743	360.46
392.122	377.18
392.501	350.51
392.881	363.62
393.26	349.38
393.639	350.74
394.018	360.68
394.397	364.07
394.776	342.83
395.155	322.27
395.534	360.91
395.913	381.47
396.292	365.88
396.671	352.32
397.05	383.73
397.429	363.85
397.808	362.04
398.186	344.86
398.565	369.27
398.944	378.54
399.323	366.33
399.701	394.81
400.08	353.23
400.458	366.78
400.837	363.62
401.215	386.22
401.594	385.54
401.972	381.47
402.351	400.46
402.729	367.91
403.107	397.74
403.486	373.11
403.864	390.74
404.242	381.02
404.62	397.74
404.999	395.26
405.377	395.26
405.755	411.3
406.133	423.51
406.511	399.33
406.889	389.83
407.267	388.7
407.645	417.63
408.023	407.24
408.401	414.24
408.779	407.46
409.156	411.08
409.534	417.86
409.912	387.35
410.29	426.67
410.667	409.49
411.045	412.43
411.422	433.68
411.8	428.93
412.178	401.36
412.555	449.04
412.933	429.38
413.31	428.7
413.687	433
414.065	439.55
414.442	436.61
414.819	440.91
415.197	450.62
415.574	436.84
415.951	465.09
416.328	456.05
416.705	457.4
417.082	443.39
417.46	456.5
417.837	460.79
418.214	469.15
418.591	450.62
418.967	464.63
419.344	479.1
419.721	464.63
420.098	479.78
420.475	463.73
420.852	472.54
421.228	490.17
421.605	486.33
421.982	492.2
422.358	503.96
422.735	490.85
423.111	501.24
423.488	500.79
423.864	493.56
424.241	528.81
424.617	490.17
424.994	494.92
425.37	510.96
425.746	510.06
426.123	514.8
426.499	502.37
426.875	510.51
427.251	507.12
427.627	529.49
428.003	536.72
428.379	521.58
428.756	552.09
429.132	555.48
429.507	548.02
429.883	541.69
430.259	553.67
430.635	557.29
431.011	562.94
431.387	563.39
431.763	560.23
432.138	571.52
432.514	567.91
432.89	574.01
433.265	597.29
433.641	588.02
434.016	595.93
434.392	600
434.767	620.34
435.143	612.65
435.518	619.43
435.894	638.87
436.269	620.34
436.644	628.47
437.02	589.6
437.395	611.52
437.77	651.75
438.145	640.68
438.52	656.95
438.895	636.83
439.271	662.82
439.646	651.3
440.021	661.24
440.395	650.17
440.77	667.34
441.145	660.34
441.52	674.57
441.895	654.46
442.27	695.59
442.645	680.45
443.019	678.41
443.394	708.47
443.769	689.49
444.143	707.11
444.518	719.77
444.892	695.82
445.267	700.79
445.641	711.41
446.016	713.22
446.39	719.77
446.764	709.6
447.139	728.81
447.513	703.5
447.887	741.69
448.262	736.49
448.636	750.5
449.01	743.95
449.384	755.47
449.758	744.63
450.132	729.03
450.506	779.43
450.88	752.76
451.254	777.62
451.628	787.34
452.002	786.21
452.376	789.6
452.75	797.51
453.123	797.96
453.497	807
453.871	811.74
454.244	846.09
454.618	828.24
454.992	844.96
455.365	810.84
455.739	853.55
456.112	840.9
456.486	864.85
456.859	873.44
457.232	892.87
457.606	872.08
457.979	876.15
458.352	904.17
458.725	920.89
459.099	938.07
459.472	929.26
459.845	964.51
460.218	948.01
460.591	962.7
460.964	943.72
461.337	973.32
461.71	984.85
462.083	1010.16
462.456	1007.45
462.829	1014.45
463.201	1053.09
463.574	1053.77
463.947	1039.76
464.32	1080.44
464.692	1083.38
465.065	1104.39
465.438	1112.08
465.81	1131.06
466.183	1135.13
466.555	1166.31
466.928	1180.32
467.3	1198.85
467.672	1214.45
468.045	1217.61
468.417	1253.09
468.789	1255.8
469.161	1286.53
469.534	1249.47
469.906	1326.31
470.278	1359.75
470.65	1358.17
471.022	1388.45
471.394	1429.81
471.766	1458.05
472.138	1477.26
472.51	1489.24
472.882	1554.78
473.253	1548.67
473.625	1581.22
473.997	1629.35
474.369	1637.26
474.74	1672.06
475.112	1713.19
475.484	1757.03
475.855	1820.08
476.227	1820.08
476.598	1903.92
476.97	1918.16
477.341	1992.73
477.713	2041.32
478.084	2085.16
478.455	2160.64
478.827	2210.13
479.198	2271.14
479.569	2319.28
479.94	2409.67
480.311	2455.99
480.682	2551.36
481.053	2591.81
481.424	2665.03
481.795	2735.31
482.166	2811.01
482.537	2881.52
482.908	3027.96
483.279	3075.19
483.65	3154.51
484.021	3274.5
484.391	3384.78
484.762	3423.88
485.133	3529.19
485.503	3594.27
485.874	3747.49
486.244	3822.29
486.615	3956.07
486.985	4012.56
487.356	4158.1
487.726	4268.6
488.097	4422.95
488.467	4527.13
488.837	4654.81
489.207	4774.35
489.578	4900.22
489.948	5004.4
490.318	5136.83
490.688	5248.01
491.058	5336.37
491.428	5486.88
491.798	5628.57
492.168	5782.91
492.538	5933.19
492.908	6053.41
493.278	6214.99
493.648	6268.78
494.017	6438.94
494.387	6577.02
494.757	6686.39
495.126	6834.18
495.496	6946.5
495.866	7046.61
496.235	7174.74
496.605	7391.01
496.974	7461.06
497.344	7620.15
497.713	7749.87
498.082	7861.05
498.452	8052.01
498.821	8121.38
499.19	8243.41
499.559	8407.02
499.928	8527.47
500.298	8635.95
500.667	8838.2
501.036	8891.76
501.405	9011.53
501.774	9071.41
502.143	9241.13
502.512	9354.57
502.88	9465.3
503.249	9527.9
503.618	9722.24
503.987	9788.46
504.356	9878.17
504.724	10014.21
505.093	10057.83
505.462	10179.63
505.83	10304.6
506.199	10395
506.567	10606.74
506.936	10689.22
507.304	10803.12
507.672	10951.14
508.041	10998.59
508.409	11090.34
508.777	11245.59
509.145	11384.35
509.514	11459.83
509.882	11557
510.25	11584.12
510.618	11734.17
510.986	11767.39
511.354	11943.65
511.722	12086.02
512.09	12203.76
512.458	12165.34
512.826	12442.4
513.193	12397.65
513.561	12482.62
513.929	12615.28
514.297	12814.37
514.664	12822.95
515.032	12909.73
515.4	13018.65
515.767	13108.6
516.135	13215.94
516.502	13155.83
516.869	13422.49
517.237	13384.07
517.604	13388.14
517.972	13527.57
518.339	13741.8
518.706	13713.33
519.073	13797.62
519.44	13929.14
519.808	14036.26
520.175	14061.11
520.542	14164.16
520.909	14329.58
521.276	14387.66
521.643	14487.99
522.009	14598.05
522.376	14658.84
522.743	14801.66
523.11	14814.54
523.477	14973.86
523.843	15036.23
524.21	15159.39
524.577	15242.55
524.943	15365.49
525.31	15403.22
525.676	15500.85
526.043	15614.97
526.409	15703.1
526.776	15751.92
527.142	15887.96
527.508	15910.1
527.874	16009.54
528.241	15980.38
528.607	16185.13
528.973	16230.32
529.339	16228.29
529.705	16330.88
530.071	16487.94
530.437	16485.68
530.803	16572.46
531.169	16675.51
531.535	16562.97
531.901	16659.69
532.267	16699.01
532.632	16793.24
532.998	16852.45
533.364	16899
533.73	16971.77
534.095	17012.67
534.461	17078.89
534.826	17106.01
535.192	17192.1
535.557	17258.54
535.923	17177.19
536.288	17275.04
536.653	17295.38
537.019	17264.19
537.384	17314.36
537.749	17404.75
538.114	17460.12
538.479	17458.09
538.845	17477.97
539.21	17483.62
539.575	17400.01
539.94	17591.64
540.305	17603.39
540.67	17563.39
541.034	17572.89
541.399	17569.27
541.764	17705.54
542.129	17756.38
542.494	17662.6
542.858	17752.99
543.223	17725.42
543.587	17709.38
543.952	17804.74
544.316	17797.51
544.681	17765.87
545.045	17798.87
545.41	17911.63
545.774	17977.17
546.138	17878.41
546.503	17858.75
546.867	17893.1
547.231	17978.07
547.595	18009.48
547.959	18071.86
548.324	17979.43
548.688	18030.73
549.052	18145.07
549.416	18084.96
549.779	18122.48
550.143	18105.07
550.507	18106.2
550.871	18207.22
551.235	18115.24
551.599	18254.45
551.962	18192.08
552.326	18276.14
552.689	18448.57
553.053	18303.49
553.417	18385.52
553.78	18500.32
554.143	18463.48
554.507	18523.14
554.87	18447.21
555.234	18591.62
555.597	18524.27
555.96	18517.95
556.323	18615.34
556.686	18584.16
557.05	18746.87
557.413	18688.79
557.776	18631.61
558.139	18766.98
558.502	18892.4
558.865	18879.97
559.228	19051.26
559.59	18904.15
559.953	18967.2
560.316	19179.4
560.679	19059.85
561.041	19133.52
561.404	19232.73
561.767	19424.14
562.129	19346.62
562.492	19474.3
562.854	19481.99
563.217	19453.06
563.579	19504.13
563.941	19642.44
564.304	19541.65
564.666	19754.97
565.028	19689.44
565.39	19816.89
565.753	19866.38
566.115	19807.4
566.477	19965.14
566.839	19956.1
567.201	20091.01
567.563	20077
567.925	20241.52
568.287	20224.57
568.648	20199.26
569.01	20360.83
569.372	20485.13
569.734	20398.35
570.095	20439.25
570.457	20513.37
570.819	20576.42
571.18	20601.05
571.542	20646.02
571.903	20648.74
572.265	20711.56
572.626	20825.46
572.987	20784.33
573.349	20898.22
573.71	20968.5
574.071	20964.66
574.432	20968.28
574.794	21124.88
575.155	21122.62
575.516	21116.3
575.877	21197.65
576.238	21164.66
576.599	21235.16
576.96	21247.14
577.32	21283.97
577.681	21201.26
578.042	21362.62
578.403	21278.1
578.763	21322.17
579.124	21308.61
579.485	21497.75
579.845	21470.86
580.206	21428.15
580.566	21446.91
580.927	21443.74
581.287	21570.29
581.648	21412.78
582.008	21564.42
582.368	21603.29
582.728	21625.89
583.089	21499.56
583.449	21636.06
583.809	21401.71
584.169	21549.05
584.529	21512.44
584.889	21657.75
585.249	21582.5
585.609	21574.81
585.969	21615.26
586.329	21532.78
586.688	21632.44
587.048	21682.61
587.408	21586.11
587.768	21568.03
588.127	21599.9
588.487	21609.84
588.846	21682.83
589.206	21633.34
589.565	21635.6
589.925	21657.52
590.284	21612.33
590.643	21654.59
591.003	21691.2
591.362	21721.93
591.721	21722.61
592.08	21624.3
592.44	21752.66
592.799	21706.56
593.158	21605.55
593.517	21670.18
593.876	21694.13
594.235	21577.07
594.593	21625.66
594.952	21698.2
595.311	21683.29
595.67	21680.8
596.029	21831.98
596.387	21732.78
596.746	21737.07
597.104	21680.57
597.463	21759.67
597.822	21730.74
598.18	21709.27
598.538	21680.12
598.897	21829.04
599.255	21692.55
599.613	21882.83
599.972	21792.66
600.33	21847.8
600.688	21742.72
601.046	21952.88
601.404	21852.55
601.762	21952.43
602.12	21899.33
602.478	21921.25
602.836	21890.29
603.194	21840.57
603.552	22041.69
603.91	21742.04
604.268	21962.37
604.625	21980
604.983	22002.83
605.341	21917.18
605.698	22076.5
606.056	22031.53
606.413	21954.01
606.771	22173.44
607.128	22103.16
607.485	22069.49
607.843	22078.53
608.2	22234.01
608.557	22254.12
608.914	22165.76
609.272	22287.34
609.629	22246.89
609.986	22338.86
610.343	22288.02
610.7	22419.76
611.057	22424.96
611.414	22413.44
611.771	22375.25
612.127	22434.68
612.484	22452.76
612.841	22633.77
613.198	22521.68
613.554	22535.92
613.911	22635.8
614.267	22717.61
614.624	22596.93
614.98	22689.14
615.337	22755.57
615.693	22721.45
616.05	22665.18
616.406	22891.62
616.762	22768.91
617.118	22845.74
617.475	22789.25
617.831	22935.68
618.187	22964.83
618.543	22896.14
618.899	23043.02
619.255	23002.35
619.611	23063.81
619.967	23107.2
620.323	23178.39
620.678	23121.89
621.034	23021.33
621.39	23087.09
621.746	22985.17
622.101	23274.88
622.457	22938.85
622.812	23089.35
623.168	23279.63
623.523	23219.29
623.879	23323.47
624.234	23111.5
624.589	23227.65
624.945	23251.83
625.3	23271.27
625.655	23191.04
626.01	23210.7
626.365	23292.51
626.72	23279.85
627.075	23287.31
627.43	23242.11
627.785	23185.17
628.14	23279.4
628.495	23233.75
628.85	23233.08
629.205	23243.47
629.559	23441.66
629.914	23266.52
630.269	23216.35
630.623	23165.05
630.978	23193.08
631.332	23240.08
631.687	23292.74
632.041	23149.01
632.396	23259.97
632.75	23075.57
633.104	23170.48
633.459	23034.66
633.813	23102.91
634.167	23037.37
634.521	23034.44
634.875	23025.4
635.229	23035.34
635.583	22844.61
635.937	22883.48
636.291	22897.94
636.645	22907.21
636.999	22793.99
637.352	23040.99
637.706	22879.19
638.06	22929.81
638.413	22893.65
638.767	22807.1
639.121	22927.32
639.474	22670.15
639.828	22785.86
640.181	22819.08
640.534	22767.33
640.888	22643.94
641.241	22676.48
641.594	22659.76
641.947	22703.6
642.301	22605.07
642.654	22557.61
643.007	22748.79
643.36	22586.76
643.713	22492.3
644.066	22632.87
644.419	22486.2
644.771	22379.31
645.124	22225.42
645.477	22125.76
645.83	22045.08
646.182	21953.56
646.535	21941.58
646.888	21960.57
647.24	21796.5
647.593	22003.73
647.945	21908.59
648.298	21733.45
648.65	21813.9
649.002	21657.3
649.355	21801.7
649.707	21772.77
650.059	21846.9
650.411	22104.52
650.763	22090.96
651.115	22389.48
651.467	22338.86
651.819	22286.43
652.171	22342.48
652.523	22203.05
652.875	22278.3
653.227	22230.39
653.578	22267
653.93	22228.13
654.282	22207.34
654.633	22135.25
654.985	22201.92
655.337	22185.65
655.688	22218.41
656.039	22234.46
656.391	22170.96
656.742	22249.15
657.094	22255.02
657.445	22227.45
657.796	22170.73
658.147	22229.71
658.498	22205.31
658.849	22194.68
659.2	22187
659.551	22186.1
659.902	22292.99
660.253	22233.55
660.604	22249.15
660.955	22112.65
661.306	22224.51
661.656	22101.35
662.007	22062.48
662.358	22193.33
662.708	22145.65
663.059	22155.59
663.409	22061.58
663.76	22354.91
664.11	22177.96
664.461	22266.32
664.811	22192.42
665.161	22165.98
665.511	22187.45
665.862	22239.2
666.212	22232.88
666.562	22251.86
666.912	22168.47
667.262	22175.25
667.612	22146.78
667.962	22212.54
668.312	22136.83
668.662	22185.87
669.011	22099.55
669.361	22134.8
669.711	22039.89
670.06	22029.94
670.41	22024.52
670.76	21977.06
671.109	22196.04
671.459	22135.7
671.808	22027.91
672.157	22150.17
672.507	21984.97
672.856	22004.41
673.205	22012.99
673.554	22174.8
673.904	21949.49
674.253	22022.49
674.602	21977.29
674.951	21651.87
675.3	21622.04
675.649	21932.54
675.998	21881.7
676.346	21972.32
676.695	21909.72
677.044	21831.76
677.393	21813.9
677.741	21856.84
678.09	21879.89
678.438	21867.24
678.787	21788.82
679.135	21768.26
679.484	21651.87
679.832	21688.03
680.181	21580.01
680.529	21689.61
680.877	21653.23
681.225	21591.99
681.573	21767.13
681.922	21510.18
682.27	21552.22
682.618	21384.76
682.966	21306.35
683.314	21462.27
683.661	21392.45
684.009	21228.16
684.357	21268.61
684.705	21162.85
685.053	21149.29
685.4	21138.67
685.748	21060.7
686.095	20989.97
686.443	20943.19
686.79	20989.52
687.138	20966.24
687.485	20921.27
687.832	20903.87
688.18	20954.04
688.527	20658.23
688.874	20765.57
689.221	20642.64
689.568	20623.65
689.915	20569.19
690.262	20556.08
690.609	20480.15
690.956	20435.41
691.303	20405.13
691.65	20326.49
691.997	20299.14
692.344	20195.42
692.69	20214.62
693.037	20192.03
693.383	19974.86
693.73	20028.41
694.077	19957.91
694.423	19980.96
694.769	19845.82
695.116	19909.55
695.462	19696.22
695.808	19651.7
696.155	19728.99
696.501	19550.91
696.847	19536.45
697.193	19340.07
697.539	19479.28
697.885	19443.57
698.231	19215.78
698.577	19308.66
698.923	19155.89
699.269	19159.51
699.614	19063.02
699.96	18971.94
700.306	18866.86
700.651	18808.79
700.997	18816.92
701.342	18697.6
701.688	18674.55
702.033	18663.48
702.379	18665.96
702.724	18583.71
703.069	18591.39
703.415	18241.79
703.76	18385.97
704.105	18385.52
704.45	18308.91
704.795	18157.28
705.14	18056.94
705.485	18087.22
705.83	18019.65
706.175	18009.94
706.52	17945.3
706.865	17891.97
707.209	17823.27
707.554	17708.7
707.899	17883.39
708.243	17683.16
708.588	17665.31
708.932	17583.28
709.277	17607.91
709.621	17525.88
709.966	17422.15
710.31	17531.53
710.654	17359.56
710.998	17332.89
711.342	17353.68
711.687	17317.52
712.031	17214.02
712.375	17268.03
712.719	17222.84
713.063	17207.7
713.407	17136.74
713.75	17084.99
714.094	17114.82
714.438	16982.17
714.782	17049.28
715.125	17002.5
715.469	16970.64
715.812	16783.98
716.156	16752.79
716.499	16760.48
716.843	16829.4
717.186	16760.7
717.53	16750.76
717.873	16679.58
718.216	16728.39
718.559	16602.06
718.902	16595.28
719.246	16612.68
719.589	16445.01
719.932	16518.45
720.275	16419.92
720.617	16487.04
720.96	16434.84
721.303	16403.42
721.646	16400.94
721.989	16371.79
722.331	16430.09
722.674	16287.04
723.016	16351.67
723.359	16233.49
723.701	16240.04
724.044	16191
724.386	16134.28
724.729	16266.25
725.071	16166.82
725.413	16132.92
725.755	16202.53
726.097	16097.9
726.439	15991.91
726.782	15994.85
727.124	16044.79
727.465	15951.01
727.807	15995.98
728.149	15913.49
728.491	15902.19
728.833	16105.35
729.175	15939.93
729.516	15860.84
729.858	15867.85
730.199	15818.13
730.541	15893.83
730.882	15867.85
731.224	15871.01
731.565	15775.42
731.906	15790.79
732.248	15770.67
732.589	15744.23
732.93	15682.54
733.271	15767.96
733.612	15681.86
733.953	15855.64
734.294	15656.1
734.635	15618.13
734.976	15708.98
735.317	15579.72
735.658	15679.6
735.999	15635.08
736.339	15616.55
736.68	15711.69
737.021	15612.71
737.361	15673.27
737.702	15699.49
738.042	15621.52
738.383	15619.72
738.723	15649.09
739.063	15590.79
739.404	15626.72
739.744	15622.88
740.084	15548.76
740.424	15671.01
740.764	15562.77
741.104	15607.97
741.444	15605.71
741.784	15559.38
742.124	15720.5
742.464	15651.13
742.804	15650
743.143	15569.55
743.483	15561.64
743.823	15546.72
744.162	15586.72
744.502	15668.3
744.841	15640.73
745.181	15646.38
745.52	15657
745.86	15706.72
746.199	15732.93
746.538	15657.23
746.877	15821.97
747.216	15826.72
747.556	15825.81
747.895	15843.44
748.234	15758.47
748.573	15946.49
748.911	15974.28
749.25	15972.48
749.589	15919.82
749.928	16072.81
750.267	16169.08
750.605	16118.23
750.944	16109.2
751.283	16129.76
751.621	16204.11
751.96	16204.11
752.298	16342.86
752.636	16409.75
752.975	16346.03
753.313	16405.68
753.651	16461.95
753.989	16509.86
754.327	16506.47
754.666	16626.02
755.004	16694.94
755.342	16810.42
755.679	16914.6
756.017	16868.05
756.355	16905.78
756.693	16986.23
757.031	17142.84
