Data from hue_36_FLMS001491_00095.txt Node
Date: Tue Feb 07 17:30:33 GMT 2017
User: dcchb
Spectrometer: FLMS00149
Trigger mode: 0
Integration Time (sec): 2.000000E-2
Scans to average: 10
Electric dark correction enabled: true
Nonlinearity correction enabled: false
Boxcar width: 0
XAxis mode: Wavelengths
Number of Pixels in Spectrum: 2048
>>>>>Begin Spectral Data<<<<<
341.393	-14.66
341.776	-14.66
342.16	-14.66
342.543	-51.72
342.927	-64.83
343.31	-53.98
343.693	-67.77
344.077	-62.57
344.46	-41.78
344.843	-53.08
345.226	-61.89
345.61	-47.2
345.993	5.9
346.376	-4.94
346.759	-0.2
347.142	18.11
347.525	43.87
347.908	47.26
348.291	79.57
348.674	86.81
349.057	111.89
349.44	133.36
349.823	153.7
350.206	174.71
350.588	194.37
350.971	215.16
351.354	264.2
351.737	249.51
352.119	238.44
352.502	261.72
352.884	287.48
353.267	295.84
353.65	279.12
354.032	304.65
354.414	318.44
354.797	324.09
355.179	335.39
355.562	311.43
355.944	336.74
356.326	333.58
356.709	343.97
357.091	345.33
357.473	345.78
357.855	343.52
358.238	365.22
358.62	371.09
359.002	353.47
359.384	341.26
359.766	342.17
360.148	329.96
360.53	332.45
360.912	343.75
361.294	362.96
361.676	349.85
362.057	328.83
362.439	337.65
362.821	329.51
363.203	348.72
363.584	332.22
363.966	303.52
364.348	330.42
364.729	350.75
365.111	313.69
365.493	322.73
365.874	307.36
366.256	333.13
366.637	317.76
367.019	319.12
367.4	323.64
367.781	329.51
368.163	318.21
368.544	316.86
368.925	333.8
369.306	308.04
369.688	323.18
370.069	320.25
370.45	330.42
370.831	317.31
371.212	325.9
371.593	340.36
371.974	304.2
372.355	324.31
372.736	333.35
373.117	329.96
373.498	310.75
373.879	321.83
374.26	325.9
374.641	307.36
375.021	319.57
375.402	319.57
375.783	332.67
376.163	319.12
376.544	319.57
376.925	329.06
377.305	310.75
377.686	311.21
378.066	324.99
378.447	310.98
378.827	346.46
379.208	331.77
379.588	314.37
379.968	307.82
380.349	342.17
380.729	355.5
381.109	347.36
381.489	341.26
381.87	346.23
382.25	342.84
382.63	343.97
383.01	344.2
383.39	344.88
383.77	317.76
384.15	339.91
384.53	362.05
384.91	345.78
385.29	342.62
385.67	319.79
386.049	353.69
386.429	340.81
386.809	354.14
387.189	325.9
387.568	351.66
387.948	357.76
388.328	369.96
388.707	365.67
389.087	339.91
389.466	359.57
389.846	346.23
390.225	357.31
390.605	355.73
390.984	386.91
391.363	366.35
391.743	364.54
392.122	377.87
392.501	355.95
392.881	363.41
393.26	381.49
393.639	381.94
394.018	364.99
394.397	380.81
394.776	390.53
395.155	372.9
395.534	365.44
395.913	381.04
396.292	377.42
396.671	378.55
397.05	390.07
397.429	387.14
397.808	393.69
398.186	371.54
398.565	394.37
398.944	382.17
399.323	400.02
399.701	396.4
400.08	391.66
400.458	395.95
400.837	389.17
401.215	396.18
401.594	405.44
401.972	396.63
402.351	404.76
402.729	397.98
403.107	413.58
403.486	424.2
403.864	402.28
404.242	395.5
404.62	390.98
404.999	393.69
405.377	394.59
405.755	411.54
406.133	405.22
406.511	434.37
406.889	409.06
407.267	421.03
407.645	431.2
408.023	434.59
408.401	451.54
408.779	427.59
409.156	429.85
409.534	446.57
409.912	453.8
410.29	451.77
410.667	446.12
411.045	476.17
411.422	444.08
411.8	450.64
412.178	473.01
412.555	469.62
412.933	460.81
413.31	465.55
413.687	466.91
414.065	478.43
414.442	472.11
414.819	477.3
415.197	495.16
415.574	480.92
415.951	461.94
416.328	487.93
416.705	469.85
417.082	489.05
417.46	488.83
417.837	505.33
418.214	486.8
418.591	516.85
418.967	508.04
419.344	515.49
419.721	520.24
420.098	508.04
420.475	506.23
420.852	516.4
421.228	515.95
421.605	512.78
421.982	515.27
422.358	530.18
422.735	512.78
423.111	537.42
423.488	544.19
423.864	563.4
424.241	565.44
424.617	552.33
424.994	532.22
425.37	546
425.746	559.11
426.123	555.72
426.499	576.74
426.875	584.87
427.251	576.74
427.627	583.29
428.003	583.29
428.379	584.42
428.756	587.81
429.132	585.55
429.507	622.61
429.883	619.45
430.259	607.7
430.635	603.63
431.011	619.22
431.387	611.54
431.763	616.06
432.138	639.11
432.514	647.69
432.89	649.5
433.265	666.23
433.641	641.37
434.016	668.94
434.392	676.62
434.767	670.75
435.143	658.09
435.518	653.8
435.894	679.11
436.269	676.39
436.644	666.68
437.02	693.34
437.395	691.54
437.77	689.5
438.145	729.05
438.52	686.11
438.895	723.17
439.271	721.59
439.646	723.85
440.021	738.77
440.395	702.38
440.77	743.06
441.145	751.65
441.52	740.35
441.895	743.96
442.27	756.17
442.645	752.55
443.019	779.67
443.394	735.38
443.769	759.56
444.143	746.45
444.518	761.36
444.892	775.83
445.267	782.15
445.641	778.99
446.016	789.84
446.39	780.12
446.764	797.3
447.139	790.29
447.513	789.84
447.887	814.7
448.262	822.83
448.636	813.34
449.01	810.63
449.384	814.7
449.758	821.7
450.132	832.55
450.506	859.67
450.88	861.47
451.254	863.28
451.628	865.54
452.002	856.73
452.376	882.49
452.75	889.72
453.123	900.34
453.497	894.02
453.871	919.33
454.244	913.45
454.618	925.43
454.992	947.12
455.365	925.65
455.739	953.9
456.112	940.34
456.486	961.81
456.859	978.99
457.232	1001.13
457.606	1000.68
457.979	990.96
458.352	1007.69
458.725	1023.5
459.099	1010.62
459.472	1047.68
459.845	1044.07
460.218	1052.43
460.591	1091.75
460.964	1071.86
461.337	1089.49
461.71	1123.39
462.083	1124.74
462.456	1135.37
462.829	1134.24
463.201	1159.55
463.574	1143.05
463.947	1177.4
464.32	1202.26
464.692	1202.26
465.065	1214.69
465.438	1234.57
465.81	1245.19
466.183	1264.4
466.555	1289.26
466.928	1294.68
467.3	1321.35
467.672	1345.3
468.045	1357.05
468.417	1356.6
468.789	1389.14
469.161	1395.02
469.534	1413.78
469.906	1465.75
470.278	1478.41
470.65	1466.43
471.022	1502.36
471.394	1531.74
471.766	1582.36
472.138	1597.5
472.51	1613.77
472.882	1655.13
473.253	1670.72
473.625	1702.36
473.997	1744.16
474.369	1767.21
474.74	1778.06
475.112	1834.33
475.484	1857.61
475.855	1900.54
476.227	1949.81
476.598	2011.73
476.97	2065.51
477.341	2099.86
477.713	2138.5
478.084	2159.75
478.455	2226.18
478.827	2246.07
479.198	2342.11
479.569	2335.79
479.94	2413.3
480.311	2511.83
480.682	2529
481.053	2640.41
481.424	2696.45
481.795	2767.87
482.166	2837.92
482.537	2886.96
482.908	2970.12
483.279	3040.63
483.65	3140.28
484.021	3192.26
484.391	3210.11
484.762	3367.17
485.133	3405.14
485.503	3457.11
485.874	3573.95
486.244	3706.82
486.615	3756.54
486.985	3862.53
487.356	3924.67
487.726	4010.09
488.097	4116.53
488.467	4167.83
488.837	4265.45
489.207	4396.52
489.578	4507.25
489.948	4569.63
490.318	4716.74
490.688	4763.52
491.058	4876.06
491.428	4959.22
491.798	5049.16
492.168	5205.09
492.538	5217.07
492.908	5321.47
493.278	5453.9
493.648	5543.61
494.017	5646.66
494.387	5753.32
494.757	5817.05
495.126	5845.52
495.496	5961
495.866	6056.37
496.235	6151.73
496.605	6186.53
496.974	6308.11
497.344	6398.73
497.713	6486.19
498.082	6601.44
498.452	6692.96
498.821	6770.47
499.19	6802.11
499.559	6873.29
499.928	6968.43
500.298	7010.92
500.667	7127.3
501.036	7179.27
501.405	7281.87
501.774	7361.87
502.143	7403.9
502.512	7511.92
502.88	7587.63
503.249	7587.63
503.618	7768.64
503.987	7807.51
504.356	7833.72
504.724	7947.84
505.093	7992.13
505.462	8051.12
505.83	8111.91
506.199	8265.12
506.567	8285.01
506.936	8315.74
507.304	8472.12
507.672	8501.5
508.041	8539.92
508.409	8601.84
508.777	8642.96
509.145	8728.61
509.514	8779.23
509.882	8842.28
510.25	8894.71
510.618	8939.91
510.986	8968.15
511.354	9065.78
511.722	9189.84
512.09	9265.55
512.458	9203.18
512.826	9394.81
513.193	9405.2
513.561	9418.09
513.929	9491.76
514.297	9590.28
514.664	9658.31
515.032	9683.84
515.4	9804.97
515.767	9903.5
516.135	9912.99
516.502	9893.55
516.869	10016.49
517.237	10082.7
517.604	10028.92
517.972	10139.87
518.339	10185.3
518.706	10226.43
519.073	10311.4
519.44	10385.52
519.808	10485.18
520.175	10474.78
520.542	10561.56
520.909	10630.48
521.276	10697.15
521.643	10814.89
522.009	10870.02
522.376	10880.87
522.743	10967.65
523.11	11049.68
523.477	11107.08
523.843	11130.36
524.21	11268.88
524.577	11414.87
524.943	11407.19
525.31	11451.7
525.676	11611.25
526.043	11574.87
526.409	11597.01
526.776	11757.46
527.142	11797.46
527.508	11907.51
527.874	11934.4
528.241	12102.53
528.607	12042.42
528.973	12226.37
529.339	12186.83
529.705	12368.29
530.071	12384.79
530.437	12446.03
530.803	12538.46
531.169	12630.43
531.535	12579.81
531.901	12582.75
532.267	12700.71
532.632	12759.47
532.998	12925.56
533.364	12896.19
533.73	13033.58
534.095	12995.39
534.461	13072.9
534.826	13151.55
535.192	13216.63
535.557	13285.55
535.923	13208.49
536.288	13377.3
536.653	13468.83
537.019	13411.65
537.384	13536.17
537.749	13553.12
538.114	13676.73
538.479	13654.13
538.845	13722.38
539.21	13719.22
539.575	13770.51
539.94	13842.83
540.305	13826.78
540.67	13818.2
541.034	14000.79
541.399	14027
541.764	14124.18
542.129	14095.7
542.494	14183.16
542.858	14260.44
543.223	14276.49
543.587	14390.38
543.952	14419.08
544.316	14467.22
544.681	14414.79
545.045	14596.03
545.41	14674.22
545.774	14643.03
546.138	14719.87
546.503	14758.51
546.867	14805.29
547.231	14894.55
547.595	14943.59
547.959	14962.12
548.324	14965.06
548.688	15054.32
549.052	15155.56
549.416	15125.51
549.779	15061.78
550.143	15204.15
550.507	15333.64
550.871	15437.59
551.235	15354.2
551.599	15489.11
551.962	15529.11
552.326	15593.29
552.689	15729.78
553.053	15583.57
553.417	15661.54
553.78	15959.83
554.143	15809.33
554.507	15904.02
554.87	15909.21
555.234	16031.92
555.597	16025.6
555.96	16154.63
556.323	16210.22
556.686	16151.47
557.05	16266.27
557.413	16274.4
557.776	16387.17
558.139	16428.3
558.502	16515.53
558.865	16469.43
559.228	16664.9
559.59	16748.06
559.953	16684.56
560.316	16961.39
560.679	16833.26
561.041	16987.38
561.404	16959.13
561.767	17163.42
562.129	17134.72
562.492	17274.38
562.854	17313.02
563.217	17343.98
563.579	17414.71
563.941	17387.59
564.304	17519.34
564.666	17579.45
565.028	17623.07
565.39	17705.33
565.753	17815.38
566.115	17862.38
566.477	17956.84
566.839	17992.78
567.201	18022.38
567.563	18097.86
567.925	18162.71
568.287	18209.72
568.648	18248.81
569.01	18396.38
569.372	18528.81
569.734	18411.07
570.095	18612.42
570.457	18693.55
570.819	18709.14
571.18	18834.34
571.542	18924.95
571.903	18995.24
572.265	19017.38
572.626	19067.78
572.987	19163.37
573.349	19300.99
573.71	19378.5
574.071	19425.28
574.432	19578.5
574.794	19716.8
575.155	19654.2
575.516	19779.85
575.877	19915.89
576.238	19902.56
576.599	20041.08
576.96	20188.42
577.32	20297.8
577.681	20488.53
578.042	20564.91
578.403	20651.01
578.763	20913.15
579.124	20972.13
579.485	21065.24
579.845	21265.91
580.206	21311.56
580.566	21464.32
580.927	21659.12
581.287	21875.39
581.648	21973.01
582.008	22181.82
582.368	22201.03
582.728	22475.6
583.089	22549.72
583.449	22784.29
583.809	23000.78
584.169	23168.46
584.529	23243.26
584.889	23612.51
585.249	23712.63
585.609	23842.11
585.969	24156.68
586.329	24194.87
586.688	24569.1
587.048	24732.49
587.408	24788.75
587.768	25069.88
588.127	25229.2
588.487	25386.48
588.846	25922.96
589.206	25945.79
589.565	26176.29
589.925	26579.44
590.284	26639.55
590.643	26839.55
591.003	27181.69
591.362	27448.57
591.721	27647.21
592.08	27806.75
592.44	28075
592.799	28180.3
593.158	28421.88
593.517	28755.88
593.876	28913.17
594.235	29176.66
594.593	29399.71
594.952	29667.5
595.311	29738
595.67	29960.37
596.029	30453.92
596.387	30674.25
596.746	30891.65
597.104	30893.45
597.463	31089.61
597.822	31479.65
598.18	31588.35
598.538	31791.06
598.897	32115.57
599.255	32080.99
599.613	32605.27
599.972	32633.75
600.33	32945.15
600.688	33047.07
601.046	33318.02
601.404	33663.55
601.762	33741.74
602.12	33971.11
602.478	34129.53
602.836	34386.02
603.194	34397.32
603.552	34688.61
603.91	34676.63
604.268	34973.35
604.625	34984.65
604.983	35196.16
605.341	35200.46
605.698	35688.58
606.056	35854.23
606.413	35808.8
606.771	36131.96
607.128	36300.54
607.485	36219.41
607.843	36473.42
608.2	36837.03
608.557	36941.2
608.914	36975.33
609.272	37228.2
609.629	37351.36
609.986	37551.58
610.343	37618.47
610.7	37999.26
611.057	38007.16
611.414	38047.39
611.771	38295.97
612.127	38458
612.484	38562.63
612.841	38763.08
613.198	38782.06
613.554	38741.38
613.911	39242.84
614.267	39277.64
614.624	39241.93
614.98	39291.88
615.337	39717.63
615.693	39598.76
616.05	39630.62
616.406	39910.39
616.762	39987
617.118	39938.64
617.475	40053.89
617.831	40198.29
618.187	40325.52
618.543	40459.76
618.899	40823.36
619.255	40561.67
619.611	40591.28
619.967	40835.79
620.323	40944.94
620.678	40942
621.034	40890.25
621.39	40983.58
621.746	40964.6
622.101	41501.99
622.457	41205.95
622.812	41419.73
623.168	41605.94
623.523	41483.46
623.879	41751.92
624.234	41497.02
624.589	41701.98
624.945	41806.61
625.3	41817.46
625.655	41949.43
626.01	41859.72
626.365	41963.22
626.72	41951.92
627.075	41983.78
627.43	42012.03
627.785	41930
628.14	42140.39
628.495	42226.26
628.85	42262.19
629.205	42151.46
629.559	42351.91
629.914	42028.98
630.269	42024.69
630.623	42162.54
630.978	42199.14
631.332	42374.51
631.687	42325.24
632.041	42346.94
632.396	42344
632.75	42244.34
633.104	42361.4
633.459	42250.44
633.813	42132.93
634.167	42210.67
634.521	42145.59
634.875	42219.71
635.229	42212.25
635.583	42100.84
635.937	42015.87
636.291	42133.61
636.645	42313.04
636.999	42060.62
637.352	42247.96
637.706	41976.33
638.06	42283.89
638.413	42171.57
638.767	41984.24
639.121	42214.51
639.474	41965.93
639.828	42077.11
640.181	42129.77
640.534	42068.53
640.888	41951.92
641.241	41768.87
641.594	41947.17
641.947	42066.94
642.301	41967.74
642.654	41876.44
643.007	41873.96
643.36	41941.98
643.713	41830.34
644.066	41988.53
644.419	41675.54
644.771	41583.12
645.124	41092.73
645.477	41105.84
645.83	40742.91
646.182	40700.88
646.535	40561
646.888	40679.41
647.24	40480.32
647.593	40820.42
647.945	40630.15
648.298	40487.1
648.65	40428.8
649.002	40382.02
649.355	40394.22
649.707	40516.7
650.059	40521.9
650.411	41054.09
650.763	41135.22
651.115	41480.52
651.467	41471.48
651.819	41382.67
652.171	41323.46
652.523	41159.62
652.875	41214.76
653.227	41048.21
653.578	41316
653.93	41228.77
654.282	40993.53
654.633	40920.76
654.985	41223.35
655.337	41137.93
655.688	41227.87
656.039	41217.93
656.391	40908.11
656.742	41057.93
657.094	40906.75
657.445	41266.51
657.796	41139.51
658.147	41018.61
658.498	41029.23
658.849	41004.15
659.2	40883.7
659.551	40908.11
659.902	40911.27
660.253	40921.89
660.604	41026.07
660.955	40832.4
661.306	40973.41
661.656	40966.18
662.007	40967.54
662.358	40940.65
662.708	41047.99
663.059	40946.07
663.409	40648.22
663.76	41092.28
664.11	40952.85
664.461	40849.58
664.811	40857.49
665.161	40822.91
665.511	40783.81
665.862	40854.32
666.212	40939.97
666.562	40928.9
666.912	40709.69
667.262	40779.52
667.612	40760.31
667.962	40832.17
668.312	40745.17
668.662	40861.1
669.011	40872.63
669.361	40832.17
669.711	40658.39
670.06	40753.98
670.41	40675.12
670.76	40538.85
671.109	40755.57
671.459	40652.07
671.808	40548.11
672.157	40695.68
672.507	40403.71
672.856	40520.77
673.205	40592.63
673.554	40518.74
673.904	40480.32
674.253	40652.07
674.602	40561.22
674.951	40000.33
675.3	39872.88
675.649	40422.02
675.998	40340.66
676.346	40319.87
676.695	40532.07
677.044	40232.87
677.393	40385.18
677.741	40297.05
678.09	40315.58
678.438	40165.53
678.787	40217.05
679.135	40222.7
679.484	39987.45
679.832	40268.57
680.181	39996.49
680.529	40065.64
680.877	39902.26
681.225	39969.37
681.573	40147
681.922	39787.68
682.27	39640.12
682.618	39829.49
682.966	39670.4
683.314	39769.83
683.661	39638.76
684.009	39402.83
684.357	39537.75
684.705	39306.79
685.053	39381.37
685.4	39455.71
685.748	39229.73
686.095	39215.72
686.443	39058.89
686.79	39040.58
687.138	39070.19
687.485	39144.31
687.832	39013.01
688.18	39026.8
688.527	38727.37
688.874	38763.3
689.221	38619.58
689.568	38608.96
689.915	38466.59
690.262	38543.42
690.609	38359.02
690.956	38246.25
691.303	38181.62
691.65	38007.16
691.997	38119.48
692.344	37873.61
692.69	37782.31
693.037	37788.19
693.383	37619.15
693.73	37627.29
694.077	37471.13
694.423	37413.51
694.769	37435.43
695.116	37270.91
695.462	37082.9
695.808	37032.73
696.155	37138.26
696.501	36901.43
696.847	36769.23
697.193	36667.99
697.539	36657.37
697.885	36485.17
698.231	36325.4
698.577	36411.05
698.923	36343.71
699.269	36175.12
699.614	35982.58
699.96	35922.47
700.306	36072.98
700.651	35763.61
700.997	35742.37
701.342	35751.86
701.688	35734.46
702.033	35603.16
702.379	35439.77
702.724	35341.02
703.069	35461.02
703.415	35132.66
703.76	35120.23
704.105	35111.65
704.45	34942.39
704.795	34790.75
705.14	34789.17
705.485	34861.26
705.83	34579.46
706.175	34701.94
706.52	34419.01
706.865	34466.24
707.209	34398.67
707.554	34271.67
707.899	34339.92
708.243	34134.5
708.588	34032.81
708.932	33811.79
709.277	33803.66
709.621	33935.86
709.966	33642.31
710.31	33672.59
710.654	33507.17
710.998	33623.78
711.342	33551.46
711.687	33490.22
712.031	33288.64
712.375	33222.21
712.719	33288.42
713.063	33106.28
713.407	33209.78
713.75	32974.98
714.094	33044.36
714.438	32778.15
714.782	32820.86
715.125	32759.84
715.469	32739.28
715.812	32770.01
716.156	32533.18
716.499	32571.6
716.843	32499.96
717.186	32299.52
717.53	32376.13
717.873	32378.84
718.216	32207.77
718.559	32183.14
718.902	31918.29
719.246	32045.97
719.589	31895.46
719.932	31804.16
720.275	32001.67
720.617	31827.21
720.96	31807.78
721.303	31782.92
721.646	31743.37
721.989	31473.55
722.331	31691.4
722.674	31422.25
723.016	31531.4
723.359	31389.26
723.701	31438.07
724.044	31356.49
724.386	31261.81
724.729	31177.51
725.071	31168.7
725.413	31196.04
725.755	31125.09
726.097	31042.38
726.439	30822.27
726.782	30957.86
727.124	31013.22
727.465	30867.69
727.807	30838.54
728.149	30771.2
728.491	30685.78
728.833	30675.83
729.175	30682.84
729.516	30526.46
729.858	30521.94
730.199	30540.02
730.541	30333.24
730.882	30373.69
731.224	30468.38
731.565	30291.21
731.906	30297.54
732.248	30271.55
732.589	30130.08
732.93	30009.86
733.271	30092.34
733.612	30069.07
733.953	30108.62
734.294	29999.69
734.635	29862.52
734.976	29969.18
735.317	29691.9
735.658	29671.34
735.999	29834.05
736.339	29746.14
736.68	29799.24
737.021	29669.08
737.361	29573.71
737.702	29713.15
738.042	29389.31
738.383	29467.73
738.723	29543.43
739.063	29362.87
739.404	29400.61
739.744	29426.83
740.084	29171.92
740.424	29171.46
740.764	29238.81
741.104	29207.85
741.444	29042.2
741.784	29112.03
742.124	28985.48
742.464	28906.16
742.804	28955.65
743.143	28856.22
743.483	28968.76
743.823	28753.62
744.162	28873.39
744.502	28828.2
744.841	28711.82
745.181	28819.38
745.52	28521.76
745.86	28646.73
746.199	28596.11
746.538	28546.85
746.877	28519.73
747.216	28535.78
747.556	28449.68
747.895	28411.48
748.234	28296.69
748.573	28328.55
748.911	28139.4
749.25	28194.77
749.589	28144.82
749.928	28125.84
750.267	28110.48
750.605	28041.32
750.944	27915
751.283	27684.27
751.621	27833.87
751.96	27704.61
752.298	27753.65
752.636	27795.68
752.975	27663.48
753.313	27527.44
753.651	27667.1
753.989	27393.88
754.327	27373.32
754.666	27345.52
755.004	27362.02
755.342	27435.47
755.679	27284.28
756.017	27205.64
756.355	27142.37
756.693	27010.62
757.031	27182.82
757.368	26870.28
757.706	26829.38
