Data from hue_280_FLMS001491_00055.txt Node
Date: Tue Feb 07 15:55:28 GMT 2017
User: dcchb
Spectrometer: FLMS00149
Trigger mode: 0
Integration Time (sec): 2.000000E-2
Scans to average: 10
Electric dark correction enabled: true
Nonlinearity correction enabled: false
Boxcar width: 0
XAxis mode: Wavelengths
Number of Pixels in Spectrum: 2048
>>>>>Begin Spectral Data<<<<<
341.393	-13.46
341.776	-13.46
342.16	-13.46
342.543	-44.87
342.927	-62.05
343.31	-66.57
343.693	-64.53
344.077	-52.33
344.46	-75.15
344.843	-54.59
345.226	-37.87
345.61	-35.15
345.993	-28.15
346.376	5.52
346.759	19.53
347.142	19.31
347.525	29.48
347.908	70.15
348.291	77.84
348.674	96.59
349.057	95.92
349.44	104.95
349.823	154.67
350.206	152.19
350.588	191.28
350.971	203.94
351.354	200.55
351.737	226.08
352.119	241.9
352.502	254.56
352.884	257.95
353.267	267.89
353.65	293.65
354.032	278.06
354.414	293.42
354.797	315.8
355.179	316.7
355.562	302.24
355.944	316.25
356.326	328.9
356.709	305.18
357.091	320.54
357.473	338.4
357.855	344.72
358.238	323.25
358.62	347.66
359.002	316.25
359.384	318.51
359.766	316.25
360.148	347.43
360.53	338.4
360.912	331.84
361.294	330.94
361.676	310.15
362.057	322.8
362.439	328.68
362.821	325.06
363.203	315.34
363.584	311.05
363.966	341.78
364.348	318.06
364.729	321.22
365.111	325.51
365.493	316.02
365.874	303.14
366.256	323.71
366.637	318.51
367.019	318.28
367.4	303.14
367.781	295.23
368.163	308.34
368.544	302.69
368.925	306.31
369.306	310.6
369.688	297.94
370.069	307.89
370.45	301.79
370.831	296.81
371.212	303.14
371.593	311.5
371.974	319.41
372.355	321.22
372.736	318.96
373.117	295.68
373.498	294.1
373.879	330.49
374.26	313.99
374.641	314.89
375.021	311.5
375.402	292.97
375.783	344.5
376.163	318.28
376.544	333.88
376.925	318.51
377.305	316.47
377.686	307.21
378.066	340.43
378.447	352.18
378.827	316.93
379.208	313.76
379.588	331.39
379.968	322.8
380.349	337.94
380.729	336.59
381.109	333.65
381.489	343.14
381.87	330.26
382.25	313.31
382.63	350.82
383.01	338.85
383.39	346.08
383.77	350.82
384.15	348.56
384.53	338.4
384.91	355.8
385.29	365.29
385.67	363.71
386.049	363.25
386.429	349.47
386.809	348.34
387.189	361.67
387.568	354.21
387.948	362.35
388.328	363.71
388.707	368
389.087	376.59
389.466	364.16
389.846	364.84
390.225	385.4
390.605	387.66
390.984	374.1
391.363	353.31
391.743	375.23
392.122	378.62
392.501	388.34
392.881	389.47
393.26	386.76
393.639	395.34
394.018	389.02
394.397	390.6
394.776	391.28
395.155	398.51
395.534	394.21
395.913	400.99
396.292	393.53
396.671	383.37
397.05	404.16
397.429	411.84
397.808	419.3
398.186	436.47
398.565	409.58
398.944	420.65
399.323	420.43
399.701	426.98
400.08	429.01
400.458	431.05
400.837	422.69
401.215	438.51
401.594	417.94
401.972	438.96
402.351	432.86
402.729	433.53
403.107	423.36
403.486	431.5
403.864	455.91
404.242	448.9
404.62	456.36
404.999	458.62
405.377	460.88
405.755	465.62
406.133	463.36
406.511	488.67
406.889	481.22
407.267	460.43
407.645	494.1
408.023	519.41
408.401	497.26
408.779	494.1
409.156	499.07
409.534	478.5
409.912	524.6
410.29	527.77
410.667	531.61
411.045	552.4
411.422	544.27
411.8	543.59
412.178	566.86
412.555	559.18
412.933	597.37
413.31	561.21
413.687	598.95
414.065	611.16
414.442	603.92
414.819	592.17
415.197	626.98
415.574	641.89
415.951	628.1
416.328	643.7
416.705	645.51
417.082	656.13
417.46	656.13
417.837	673.08
418.214	666.3
418.591	698.39
418.967	688.44
419.344	709.68
419.721	722.79
420.098	706.52
420.475	740.19
420.852	742
421.228	718.05
421.605	741.32
421.982	760.98
422.358	774.77
422.735	786.97
423.111	790.36
423.488	806.63
423.864	796.24
424.241	815.44
424.617	841.88
424.994	817.03
425.37	839.17
425.746	846.63
426.123	887.53
426.499	860.64
426.875	893.63
427.251	905.61
427.627	881.21
428.003	916.46
428.379	943.58
428.756	938.38
429.132	969.56
429.507	947.87
429.883	980.86
430.259	978.83
430.635	989.45
431.011	1008.66
431.387	1036.23
431.763	1023.8
432.138	1060.86
432.514	1029.68
432.89	1085.95
433.265	1124.82
433.641	1068.55
434.016	1103.35
434.392	1109.9
434.767	1170.24
435.143	1170.01
435.518	1170.01
435.894	1176.11
436.269	1191.48
436.644	1212.5
437.02	1239.39
437.395	1225.83
437.77	1256.56
438.145	1264.92
438.52	1274.64
438.895	1280.29
439.271	1323.45
439.646	1336.33
440.021	1365.26
440.395	1346.96
440.77	1339.72
441.145	1371.36
441.52	1384.02
441.895	1389.21
442.27	1397.12
442.645	1407.29
443.019	1415.43
443.394	1453.17
443.769	1462.43
444.143	1471.92
444.518	1489.78
444.892	1479.16
445.267	1489.55
445.641	1490.91
446.016	1476.22
446.39	1495.2
446.764	1531.58
447.139	1515.09
447.513	1540.85
447.887	1543.56
448.262	1546.5
448.636	1552.37
449.01	1548.53
449.384	1566.16
449.758	1595.76
450.132	1600.06
450.506	1627.4
450.88	1637.57
451.254	1627.85
451.628	1652.26
452.002	1638.25
452.376	1677.12
452.75	1682.54
453.123	1669.89
453.497	1702.88
453.871	1718.92
454.244	1714.4
454.618	1745.59
454.992	1774.29
455.365	1772.48
455.739	1790.56
456.112	1841.41
456.486	1844.57
456.859	1839.6
457.232	1876.89
457.606	1901.52
457.979	1881.86
458.352	1950.1
458.725	1948.52
459.099	1926.38
459.472	2019.48
459.845	1980.84
460.218	1995.53
460.591	2040.5
460.964	2025.58
461.337	2059.93
461.71	2073.04
462.083	2099.03
462.456	2108.07
462.829	2141.96
463.201	2160.95
463.574	2146.48
463.947	2199.82
464.32	2225.58
464.692	2245.01
465.065	2283.88
465.438	2291.56
465.81	2296.76
466.183	2310.09
466.555	2360.94
466.928	2333.37
467.3	2333.6
467.672	2378.79
468.045	2400.94
468.417	2473.48
468.789	2436.19
469.161	2482.52
469.534	2537.89
469.906	2549.86
470.278	2564.1
470.65	2569.97
471.022	2642.29
471.394	2691.78
471.766	2658.79
472.138	2703.53
472.51	2763.19
472.882	2759.57
473.253	2807.03
473.625	2835.05
473.997	2889.06
474.369	2896.07
474.74	2938.33
475.112	2970.19
475.484	3018.55
475.855	3057.65
476.227	3062.17
476.598	3138.1
476.97	3138.32
477.341	3222.61
477.713	3224.42
478.084	3247.92
478.455	3353.68
478.827	3366.56
479.198	3457.18
479.569	3444.08
479.94	3474.36
480.311	3533.11
480.682	3586.67
481.053	3654.47
481.424	3692.43
481.795	3700.11
482.166	3761.36
482.537	3831.64
482.908	3885.65
483.279	3923.16
483.65	3947.34
484.021	4036.83
484.391	4068.24
484.762	4073.66
485.133	4108.92
485.503	4129.03
485.874	4207.22
486.244	4221
486.615	4299.42
486.985	4296.94
487.356	4411.06
487.726	4415.12
488.097	4490.38
488.467	4528.12
488.837	4595.68
489.207	4672.07
489.578	4710.03
489.948	4697.6
490.318	4763.36
490.688	4745.96
491.058	4845.62
491.428	4899.63
491.798	4889.24
492.168	5030.48
492.538	5039.74
492.908	5097.37
493.278	5096.46
493.648	5117.25
494.017	5190.02
494.387	5214.65
494.757	5265.72
495.126	5284.93
495.496	5313.41
495.866	5340.75
496.235	5378.71
496.605	5414.87
496.974	5387.53
497.344	5456.9
497.713	5497.36
498.082	5528.09
498.452	5546.85
498.821	5547.07
499.19	5615.32
499.559	5632.95
499.928	5634.53
500.298	5632.27
500.667	5710.91
501.036	5747.29
501.405	5778.7
501.774	5792.04
502.143	5809.44
502.512	5879.72
502.88	5912.71
503.249	5883.56
503.618	5912.26
503.987	5931.92
504.356	5987.74
504.724	5966.04
505.093	5918.14
505.462	6047.62
505.83	6034.74
506.199	6082.88
506.567	6178.24
506.936	6141.18
507.304	6286.71
507.672	6170.78
508.041	6196.55
508.409	6244.45
508.777	6286.49
509.145	6326.71
509.514	6318.35
509.882	6346.15
510.25	6359.71
510.618	6339.37
510.986	6397.9
511.354	6493.71
511.722	6461.62
512.09	6457.78
512.458	6506.14
512.826	6506.37
513.193	6516.09
513.561	6579.36
513.929	6630.21
514.297	6691.9
514.664	6665.91
515.032	6677.89
515.4	6729.64
515.767	6683.31
516.135	6741.16
516.502	6709.53
516.869	6764.44
517.237	6803.76
517.604	6770.99
517.972	6843.53
518.339	6871.1
518.706	6868.17
519.073	6893.93
519.44	6958.11
519.808	6986.58
520.175	7040.82
520.542	7049.41
520.909	7108.84
521.276	7039.24
521.643	7049.63
522.009	7143.64
522.376	7178.89
522.743	7240.59
523.11	7255.5
523.477	7253.69
523.843	7304.31
524.21	7380.92
524.577	7433.58
524.943	7439.9
525.31	7420.02
525.676	7559.45
526.043	7496.62
526.409	7566.23
526.776	7664.3
527.142	7605.32
527.508	7682.61
527.874	7689.16
528.241	7753.34
528.607	7798.54
528.973	7807.35
529.339	7778.88
529.705	7894.58
530.071	7891.64
530.437	7883.06
530.803	7936.61
531.169	7977.29
531.535	7993.11
531.901	7924.18
532.267	8019.32
532.632	8093.22
532.998	8080.56
533.364	8130.51
533.73	8132.31
534.095	8176.61
534.461	8206.44
534.826	8199.43
535.192	8181.13
535.557	8333.44
535.923	8266.77
536.288	8323.5
536.653	8342.03
537.019	8328.92
537.384	8340.22
537.749	8393.1
538.114	8342.93
538.479	8410.73
538.845	8438.97
539.21	8460.89
539.575	8474.45
539.94	8485.75
540.305	8532.53
540.67	8505.64
541.034	8532.98
541.399	8571.4
541.764	8629.48
542.129	8691.85
542.494	8624.73
542.858	8642.13
543.223	8709.7
543.587	8715.58
543.952	8753.99
544.316	8731.85
544.681	8762.13
545.045	8819.3
545.41	8813.65
545.774	8816.82
546.138	8830.83
546.503	8842.13
546.867	8880.77
547.231	8941.11
547.595	8909.92
547.959	8984.27
548.324	8951.28
548.688	8977.26
549.052	9070.14
549.416	9000.31
549.779	9027.43
550.143	9038.05
550.507	9073.53
550.871	9102.01
551.235	9105.85
551.599	9181.55
551.962	9123.02
552.326	9169.35
552.689	9204.6
553.053	9260.87
553.417	9256.13
553.78	9347.42
554.143	9222
554.507	9291.83
554.87	9300.19
555.234	9412.05
555.597	9313.53
555.96	9352.85
556.323	9367.54
556.686	9406.18
557.05	9422.45
557.413	9547.42
557.776	9487.08
558.139	9545.84
558.502	9527.31
558.865	9535.89
559.228	9638.94
559.59	9629
559.953	9666.74
560.316	9745.83
560.679	9744.25
561.041	9759.62
561.404	9773.18
561.767	9898.82
562.129	9787.64
562.492	9871.25
562.854	9929.78
563.217	9899.95
563.579	9953.51
563.941	10035.54
564.304	10057.69
564.666	10103.11
565.028	10147.4
565.39	10214.29
565.753	10127.52
566.115	10286.16
566.477	10324.35
566.839	10284.8
567.201	10335.42
567.563	10352.14
567.925	10410.67
568.287	10385.36
568.648	10502.65
569.01	10502.87
569.372	10581.52
569.734	10494.51
570.095	10579.03
570.457	10603.44
570.819	10689.08
571.18	10629.88
571.542	10760.72
571.903	10725.47
572.265	10795.52
572.626	10880.04
572.987	10887.5
573.349	10900.6
573.71	10885.46
574.071	10987.15
574.432	10986.93
574.794	11119.13
575.155	11122.29
575.516	11126.13
575.877	11178.56
576.238	11183.08
576.599	11220.37
576.96	11279.58
577.32	11336.52
577.681	11416.97
578.042	11423.08
578.403	11456.52
578.763	11517.54
579.124	11539.23
579.485	11602.73
579.845	11665.78
580.206	11667.14
580.566	11733.8
580.927	11737.19
581.287	11810.86
581.648	11912.33
582.008	11936.96
582.368	11938.54
582.728	12020.8
583.089	12030.29
583.449	12055.6
583.809	12157.97
584.169	12196.84
584.529	12290.85
584.889	12321.13
585.249	12355.93
585.609	12376.5
585.969	12490.62
586.329	12515.93
586.688	12613.55
587.048	12684.29
587.408	12684.96
587.768	12757.5
588.127	12814
588.487	12899.87
588.846	12978.97
589.206	12999.76
589.565	13025.07
589.925	13093.77
590.284	13138.28
590.643	13257.83
591.003	13324.95
591.362	13491.5
591.721	13435.23
592.08	13452.85
592.44	13572.17
592.799	13689.91
593.158	13615.33
593.517	13706.41
593.876	13882.9
594.235	13784.37
594.593	13956.34
594.952	14143.46
595.311	13968.32
595.67	14054.42
596.029	14185.71
596.387	14277.24
596.746	14365.6
597.104	14347.52
597.463	14430.23
597.822	14466.84
598.18	14487.4
598.538	14594.29
598.897	14554.29
599.255	14560.17
599.613	14831.8
599.972	14799.94
600.33	14937.11
600.688	14858.47
601.046	14973.72
601.404	15011.46
601.762	15047.61
602.12	15169.19
602.478	15109.98
602.836	15195.63
603.194	15155.63
603.552	15255.06
603.91	15276.53
604.268	15399.47
604.625	15317.21
604.983	15414.61
605.341	15443.76
605.698	15525.34
606.056	15558.56
606.413	15522.63
606.771	15638.56
607.128	15715.62
607.485	15600.59
607.843	15744.32
608.2	15804.2
608.557	15827.71
608.914	15808.04
609.272	15893.92
609.629	15932.79
609.986	16002.39
610.343	16015.72
610.7	16049.39
611.057	16110.18
611.414	16039.68
611.771	16079
612.127	16156.51
612.484	16251.42
612.841	16147.47
613.198	16217.3
613.554	16248.26
613.911	16360.8
614.267	16335.04
614.624	16378.43
614.98	16478.31
615.337	16497.29
615.693	16473.56
616.05	16459.55
616.406	16514.01
616.762	16557.18
617.118	16539.33
617.475	16498.65
617.831	16593.79
618.187	16572.32
618.543	16668.81
618.899	16767.57
619.255	16689.6
619.611	16692.09
619.967	16778.41
620.323	16869.26
620.678	16787.91
621.034	16716.95
621.39	16748.36
621.746	16798.08
622.101	16932.54
622.457	16818.87
622.812	16848.24
623.168	16974.34
623.523	16876.04
623.879	17004.85
624.234	16900.22
624.589	16942.25
624.945	16874.23
625.3	16976.6
625.655	16969.37
626.01	16874.91
626.365	16962.82
626.72	16976.83
627.075	16949.71
627.43	16984.96
627.785	16905.64
628.14	16978.64
628.495	16979.31
628.85	16954.46
629.205	16863.84
629.559	16976.38
629.914	16888.02
630.269	16907.9
630.623	16886.66
630.978	16874.68
631.332	16875.14
631.687	16984.51
632.041	16872.2
632.396	16903.61
632.75	16771.41
633.104	16825.65
633.459	16755.59
633.813	16843.05
634.167	16779.77
634.521	16766.66
634.875	16748.59
635.229	16732.99
635.583	16645.54
635.937	16717.63
636.291	16691.19
636.645	16720.34
636.999	16666.1
637.352	16645.54
637.706	16558.99
638.06	16652.77
638.413	16575.03
638.767	16555.6
639.121	16575.93
639.474	16445.77
639.828	16518.99
640.181	16563.05
640.534	16505.88
640.888	16438.31
641.241	16405.54
641.594	16433.11
641.947	16420.01
642.301	16455.71
642.654	16443.28
643.007	16422.27
643.36	16485.77
643.713	16379.33
644.066	16461.59
644.419	16365.77
644.771	16247.13
645.124	16160.35
645.477	16097.08
645.83	15948.15
646.182	15928.04
646.535	15873.58
646.888	15949.28
647.24	15861.15
647.593	15906.8
647.945	15932.34
648.298	15854.82
648.65	15813.92
649.002	15766.46
649.355	15890.53
649.707	15914.71
650.059	15966.46
650.411	16123.97
650.763	16146.34
651.115	16297.52
651.467	16215.72
651.819	16301.37
652.171	16171.43
652.523	16238.77
652.875	16198.99
653.227	16151.99
653.578	16287.13
653.93	16193.8
654.282	16174.59
654.633	16105.44
654.985	16240.8
655.337	16171.43
655.688	16168.26
656.039	16264.3
656.391	16158.77
656.742	16182.5
657.094	16160.35
657.445	16330.29
657.796	16291.2
658.147	16209.39
658.498	16213.46
658.849	16179.11
659.2	16177.07
659.551	16233.57
659.902	16274.25
660.253	16221.82
660.604	16294.81
660.955	16194.7
661.306	16296.85
661.656	16248.26
662.007	16305.43
662.358	16210.52
662.708	16197.41
663.059	16190.63
663.409	16098.88
663.76	16233.12
664.11	16218.2
664.461	16236.06
664.811	16290.07
665.161	16287.58
665.511	16239.67
665.862	16366.67
666.212	16184.53
666.562	16364.64
666.912	16286.68
667.262	16349.05
667.612	16323.29
667.962	16370.97
668.312	16290.74
668.662	16384.98
669.011	16270.63
669.361	16321.7
669.711	16271.08
670.06	16260.24
670.41	16125.78
670.76	16106.57
671.109	16266.11
671.459	16258.43
671.808	16189.28
672.157	16114.93
672.507	16128.71
672.856	16224.76
673.205	16144.08
673.554	16207.13
673.904	16163.52
674.253	16194.93
674.602	16207.81
674.951	15917.19
675.3	15871.77
675.649	16053.01
675.998	16029.73
676.346	16091.43
676.695	16078.09
677.044	16012.79
677.393	16072.67
677.741	16075.38
678.09	16015.95
678.438	15962.39
678.787	15893.69
679.135	15963.97
679.484	15796.07
679.832	15850.98
680.181	15819.12
680.529	15822.96
680.877	15811.66
681.225	15767.37
681.573	15877.2
681.922	15708.16
682.27	15636.75
682.618	15667.71
682.966	15580.03
683.314	15676.97
683.661	15580.93
684.009	15521.72
684.357	15588.39
684.705	15442.86
685.053	15499.8
685.4	15458
685.748	15399.24
686.095	15390.65
686.443	15399.24
686.79	15214.84
687.138	15269.98
687.485	15200.15
687.832	15231.79
688.18	15277.89
688.527	15110.89
688.874	15163.99
689.221	15133.49
689.568	14964.9
689.915	15016.88
690.262	14927.62
690.609	14917.22
690.956	14928.75
691.303	14851.91
691.65	14862.76
691.997	14772.37
692.344	14650.56
692.69	14694.85
693.037	14599.04
693.383	14476.1
693.73	14560.62
694.077	14466.84
694.423	14459.61
694.769	14473.62
695.116	14374.86
695.462	14257.8
695.808	14305.71
696.155	14263.68
696.501	14129.67
696.847	14128.99
697.193	14080.86
697.539	14111.37
697.885	13909.34
698.231	13978.94
698.577	13908.66
698.923	13902.56
699.269	13761.09
699.614	13745.5
699.96	13677.48
700.306	13627.76
700.651	13569.91
700.997	13495.56
701.342	13512.74
701.688	13404.94
702.033	13427.99
702.379	13424.83
702.724	13305.51
703.069	13284.27
703.415	13120.66
703.76	13131.28
704.105	13077.72
704.45	13108.68
704.795	12969.25
705.14	12935.35
705.485	12992.53
705.83	12935.8
706.175	12845.41
706.52	12814.9
706.865	12788.24
707.209	12760.67
707.554	12657.62
707.899	12751.63
708.243	12701.69
708.588	12585.08
708.932	12578.75
709.277	12613.33
709.621	12582.37
709.966	12514.12
710.31	12503.95
710.654	12455.14
710.998	12417.63
711.342	12394.8
711.687	12407.23
712.031	12306.67
712.375	12305.31
712.719	12300.11
713.063	12254.92
713.407	12298.76
713.75	12205.65
714.094	12194.35
714.438	12150.29
714.782	12197.74
715.125	12109.38
715.469	12192.55
715.812	12038.65
716.156	11978.09
716.499	12042.72
716.843	12032.78
717.186	11999.56
717.53	11968.37
717.873	11929.5
718.216	11929.28
718.559	11846.12
718.902	11806.79
719.246	11785.33
719.589	11825.78
719.932	11712.56
720.275	11739.23
720.617	11769.73
720.96	11744.87
721.303	11788.94
721.646	11696.29
721.989	11657.65
722.331	11772.9
722.674	11623.07
723.016	11669.85
723.359	11548.5
723.701	11671.2
724.044	11508.04
724.386	11557.54
724.729	11574.48
725.071	11535.61
725.413	11452
725.755	11566.35
726.097	11476.86
726.439	11409.06
726.782	11452.45
727.124	11533.58
727.465	11442.06
727.807	11502.4
728.149	11442.28
728.491	11386.01
728.833	11515.05
729.175	11387.37
729.516	11491.1
729.858	11456.97
730.199	11464.43
730.541	11439.12
730.882	11394.6
731.224	11467.82
731.565	11397.99
731.906	11405.67
732.248	11421.49
732.589	11342.85
732.93	11373.81
733.271	11376.3
733.612	11397.09
733.953	11379.01
734.294	11305.79
734.635	11320.03
734.976	11357.31
735.317	11314.6
735.658	11289.52
735.999	11412.45
736.339	11358.67
736.68	11327.71
737.021	11366.13
737.361	11338.56
737.702	11412.23
738.042	11359.12
738.383	11365
738.723	11436.63
739.063	11391.21
739.404	11361.61
739.744	11380.59
740.084	11350.53
740.424	11469.18
740.764	11464.43
741.104	11371.33
741.444	11319.12
741.784	11374.94
742.124	11458.78
742.464	11389.4
742.804	11486.8
743.143	11530.64
743.483	11437.76
743.823	11505.79
744.162	11537.87
744.502	11664.88
744.841	11503.98
745.181	11656.06
745.52	11651.77
745.86	11727.25
746.199	11708.94
746.538	11783.07
746.877	11799.11
747.216	11912.33
747.556	11910.52
747.895	11916.4
748.234	11898.54
748.573	12020.8
748.911	12101.7
749.25	12135.15
749.589	12234.35
749.928	12264.18
750.267	12382.15
750.605	12371.07
750.944	12442.48
751.283	12480.9
751.621	12646.77
751.96	12685.42
752.298	12777.39
752.636	12919.53
752.975	12880.44
753.313	13004.73
753.651	13168.34
753.989	13227.32
754.327	13334.21
754.666	13364.04
755.004	13632.51
755.342	13770.13
755.679	13884.93
756.017	13940.75
756.355	14028.43
756.693	14214.87
757.031	14397.91
757.368	14392.04
757.706	14502.77
758.044	14665.02
758.381	14853.04
758.719	14920.84
