Data from hue_260_FLMS001491_00086.txt Node
Date: Tue Feb 07 15:59:43 GMT 2017
User: dcchb
Spectrometer: FLMS00149
Trigger mode: 0
Integration Time (sec): 2.000000E-2
Scans to average: 10
Electric dark correction enabled: true
Nonlinearity correction enabled: false
Boxcar width: 0
XAxis mode: Wavelengths
Number of Pixels in Spectrum: 2048
>>>>>Begin Spectral Data<<<<<
341.393	-9.36
341.776	-9.36
342.16	-9.36
342.543	-19.99
342.927	-68.57
343.31	-38.29
343.693	-73.09
344.077	-63.83
344.46	-64.28
344.843	-31.96
345.226	-25.63
345.61	-23.83
345.993	-22.47
346.376	-4.62
346.759	6.91
347.142	12.33
347.525	30.41
347.908	44.42
348.291	60.01
348.674	89.39
349.057	104.53
349.44	133.91
349.823	135.26
350.206	153.57
350.588	204.87
350.971	180.46
351.354	234.25
351.737	257.75
352.119	237.86
352.502	269.95
352.884	273.57
353.267	270.63
353.65	288.03
354.032	271.76
354.414	267.01
354.797	302.49
355.179	314.02
355.562	298.2
355.944	334.58
356.326	330.74
356.709	347.69
357.091	339.55
357.473	319.89
357.855	329.61
358.238	341.81
358.62	326.45
359.002	329.38
359.384	328.48
359.766	325.99
360.148	333.45
360.53	336.16
360.912	326.22
361.294	311.31
361.676	326.9
362.057	318.08
362.439	320.8
362.821	313.57
363.203	301.36
363.584	316.05
363.966	309.05
364.348	311.76
364.729	318.54
365.111	334.58
365.493	304.07
365.874	286.9
366.256	301.81
366.637	300.46
367.019	304.3
367.4	324.19
367.781	301.14
368.163	325.77
368.544	301.81
368.925	334.36
369.306	291.64
369.688	298.65
370.069	293
370.45	307.69
370.831	312.66
371.212	292.1
371.593	284.19
371.974	324.19
372.355	292.32
372.736	310.85
373.117	314.7
373.498	320.12
373.879	313.57
374.26	321.7
374.641	325.54
375.021	303.17
375.402	321.02
375.783	308.37
376.163	349.04
376.544	303.4
376.925	312.44
377.305	311.98
377.686	311.08
378.066	297.29
378.447	321.47
378.827	319.21
379.208	325.32
379.588	322.15
379.968	320.34
380.349	321.02
380.729	326.45
381.109	336.16
381.489	332.55
381.87	337.29
382.25	342.49
382.63	329.61
383.01	328.03
383.39	338.42
383.77	341.36
384.15	337.07
384.53	348.59
384.91	340.68
385.29	334.81
385.67	342.04
386.049	326.22
386.429	342.27
386.809	348.37
387.189	361.02
387.568	358.76
387.948	348.14
388.328	360.34
388.707	344.98
389.087	345.88
389.466	334.81
389.846	344.98
390.225	349.27
390.605	366.9
390.984	352.21
391.363	386.56
391.743	353.79
392.122	379.55
392.501	368.7
392.881	373.9
393.26	363.51
393.639	371.42
394.018	379.33
394.397	390.4
394.776	391.98
395.155	369.61
395.534	383.62
395.913	363.96
396.292	406.9
396.671	379.78
397.05	405.54
397.429	388.14
397.808	395.6
398.186	394.02
398.565	393.79
398.944	411.19
399.323	423.84
399.701	397.86
400.08	413.9
400.458	414.13
400.837	405.54
401.215	415.48
401.594	440.79
401.972	426.56
402.351	433.79
402.729	434.01
403.107	418.65
403.486	442.15
403.864	400.34
404.242	420.23
404.62	438.53
404.999	430.4
405.377	445.54
405.755	451.64
406.133	442.38
406.511	475.14
406.889	473.79
407.267	448.02
407.645	469.95
408.023	485.76
408.401	474.92
408.779	482.83
409.156	489.83
409.534	501.36
409.912	507.01
410.29	478.76
410.667	514.01
411.045	519.21
411.422	542.49
411.8	532.09
412.178	534.8
412.555	561.92
412.933	551.3
413.31	579.55
413.687	585.2
414.065	569.38
414.442	570.06
414.819	581.35
415.197	591.07
415.574	588.13
415.951	599.89
416.328	599.43
416.705	616.61
417.082	611.18
417.46	620.45
417.837	654.12
418.214	641.92
418.591	637.4
418.967	661.58
419.344	676.49
419.721	659.77
420.098	679.21
420.475	686.21
420.852	703.16
421.228	706.55
421.605	710.84
421.982	727.34
422.358	730.73
422.735	748.81
423.111	747.68
423.488	752.88
423.864	785.42
424.241	795.36
424.617	781.58
424.994	797.62
425.37	832.42
425.746	815.92
426.123	873.55
426.499	857.73
426.875	898.63
427.251	875.13
427.627	891.4
428.003	908.58
428.379	890.73
428.756	896.83
429.132	930.05
429.507	920.78
429.883	952.42
430.259	978.63
430.635	970.95
431.011	966.66
431.387	975.24
431.763	1024.51
432.138	1028.57
432.514	1039.2
432.89	1062.25
433.265	1067.44
433.641	1080.1
434.016	1103.6
434.392	1106.31
434.767	1145.18
435.143	1161.45
435.518	1110.15
435.894	1161.68
436.269	1195.8
436.644	1207.78
437.02	1229.7
437.395	1231.28
437.77	1257.04
438.145	1291.17
438.52	1303.6
438.895	1299.75
439.271	1317.61
439.646	1360.09
440.021	1361.9
440.395	1344.95
440.77	1389.92
441.145	1391.28
441.52	1454.33
441.895	1404.84
442.27	1453.65
442.645	1453.87
443.019	1483.7
443.394	1454.78
443.769	1468.56
444.143	1502.91
444.518	1504.49
444.892	1505.4
445.267	1548.11
445.641	1543.14
446.016	1553.76
446.39	1577.26
446.764	1554.21
447.139	1573.87
447.513	1599.63
447.887	1593.53
448.262	1579.75
448.636	1616.36
449.01	1630.59
449.384	1652.74
449.758	1650.93
450.132	1688.44
450.506	1707.43
450.88	1736.35
451.254	1707.65
451.628	1746.07
452.002	1766.86
452.376	1746.52
452.75	1796.01
453.123	1803.92
453.497	1815.45
453.871	1825.16
454.244	1865.16
454.618	1887.99
454.992	1890.7
455.365	1894.77
455.739	1931.38
456.112	2004.37
456.486	1991.71
456.859	1965.05
457.232	2006.63
457.606	2024.03
457.979	2029.45
458.352	2084.37
458.725	2102.9
459.099	2128.21
459.472	2161.43
459.845	2163.23
460.218	2174.99
460.591	2219.5
460.964	2211.59
461.337	2261.99
461.71	2292.95
462.083	2339.95
462.456	2305.6
462.829	2315.09
463.201	2382.66
463.574	2351.25
463.947	2417.46
464.32	2478.25
464.692	2471.93
465.065	2459.72
465.438	2493.39
465.81	2532.49
466.183	2566.39
466.555	2633.96
466.928	2656.33
467.3	2624.69
467.672	2684.35
468.045	2765.7
468.417	2745.82
468.789	2731.35
469.161	2774.52
469.534	2800.96
469.906	2855.19
470.278	2892.93
470.65	2890.9
471.022	2935.87
471.394	3037.79
471.766	3021.29
472.138	3070.33
472.51	3115.07
472.882	3146.94
473.253	3151.68
473.625	3213.6
473.997	3298.8
474.369	3280.72
474.74	3327.72
475.112	3343.09
475.484	3423.99
475.855	3460.38
476.227	3523.42
476.598	3598.45
476.97	3581.73
477.341	3685.45
477.713	3729.97
478.084	3734.94
478.455	3825.34
478.827	3827.15
479.198	3936.75
479.569	3930.87
479.94	4033.47
480.311	4077.31
480.682	4164.31
481.053	4230.3
481.424	4290.86
481.795	4270.98
482.166	4359.11
482.537	4411.31
482.908	4483.17
483.279	4444.98
483.65	4576.05
484.021	4654.47
484.391	4710.29
484.762	4777.18
485.133	4782.83
485.503	4875.93
485.874	4919.09
486.244	4926.78
486.615	5016.94
486.985	5083.61
487.356	5132.2
487.726	5210.84
488.097	5323.38
488.467	5301
488.837	5348.24
489.207	5400.21
489.578	5509.59
489.948	5548.23
490.318	5619.64
490.688	5591.84
491.058	5702.12
491.428	5755.68
491.798	5822.8
492.168	5916.13
492.538	5893.53
492.908	5934.66
493.278	5994.77
493.648	6021.66
494.017	6147.99
494.387	6114.77
494.757	6176.91
495.126	6219.85
495.496	6205.61
495.866	6256.01
496.235	6358.38
496.605	6390.47
496.974	6385.72
497.344	6484.7
497.713	6445.16
498.082	6526.06
498.452	6568.54
498.821	6627.98
499.19	6558.6
499.559	6624.36
499.928	6661.42
500.298	6713.17
500.667	6726.96
501.036	6702.32
501.405	6758.59
501.774	6802.66
502.143	6822.77
502.512	6856.44
502.88	6914.75
503.249	6930.79
503.618	6937.12
503.987	6933.05
504.356	7006.04
504.724	7036.1
505.093	6989.1
505.462	7010.11
505.83	7072.71
506.199	7166.49
506.567	7205.81
506.936	7135.31
507.304	7256.21
507.672	7187.73
508.041	7272.48
508.409	7309.09
508.777	7281.07
509.145	7289.43
509.514	7334.17
509.882	7395.64
510.25	7395.64
510.618	7402.42
510.986	7451.91
511.354	7483.09
511.722	7527.16
512.09	7529.42
512.458	7547.95
512.826	7566.71
513.193	7589.76
513.561	7609.64
513.929	7666.59
514.297	7688.06
514.664	7735.74
515.032	7670.89
515.4	7684.44
515.767	7767.38
516.135	7756.31
516.502	7685.57
516.869	7817.77
517.237	7862.07
517.604	7768.06
517.972	7883.31
518.339	7857.77
518.706	7822.97
519.073	7871.56
519.44	7900.03
519.808	7894.38
520.175	7922.18
520.542	8004.89
520.909	7978.22
521.276	7950.65
521.643	7980.48
522.009	8023.64
522.376	8097.99
522.743	8104.09
523.11	8169.4
523.477	8131.21
523.843	8164.66
524.21	8198.1
524.577	8239.01
524.943	8236.29
525.31	8262.73
525.676	8278.78
526.043	8321.94
526.409	8379.57
526.776	8387.7
527.142	8306.58
527.508	8385.9
527.874	8344.09
528.241	8443.07
528.607	8490.07
528.973	8510.19
529.339	8475.16
529.705	8500.47
530.071	8534.14
530.437	8519.45
530.803	8530.07
531.169	8508.83
531.535	8499.79
531.901	8582.73
532.267	8550.86
532.632	8570.3
532.998	8511.54
533.364	8552.44
533.73	8582.27
534.095	8636.28
534.461	8603.74
534.826	8603.52
535.192	8637.41
535.557	8667.7
535.923	8668.37
536.288	8632.89
536.653	8645.32
537.019	8587.47
537.384	8622.95
537.749	8655.94
538.114	8708.37
538.479	8604.87
538.845	8643.52
539.21	8615.27
539.575	8632.67
539.94	8608.71
540.305	8668.15
540.67	8684.87
541.034	8595.16
541.399	8629.5
541.764	8636.74
542.129	8678.54
542.494	8611.88
542.858	8628.37
543.223	8628.6
543.587	8620.01
543.952	8634.93
544.316	8578.66
544.681	8629.5
545.045	8599
545.41	8638.77
545.774	8600.58
546.138	8562.16
546.503	8625.66
546.867	8580.69
547.231	8618.88
547.595	8571.2
547.959	8625.66
548.324	8571.43
548.688	8580.24
549.052	8568.72
549.416	8596.06
549.779	8578.43
550.143	8498.89
550.507	8588.15
550.871	8563.97
551.235	8565.33
551.599	8618.43
551.962	8537.3
552.326	8584.31
552.689	8610.3
553.053	8495.72
553.417	8556.96
553.78	8620.69
554.143	8547.25
554.507	8566.91
554.87	8555.16
555.234	8625.89
555.597	8516.97
555.96	8597.42
556.323	8631.99
556.686	8612.1
557.05	8657.3
557.413	8600.58
557.776	8614.82
558.139	8635.38
558.502	8641.71
558.865	8708.82
559.228	8712.89
559.59	8697.98
559.953	8736.85
560.316	8724.19
560.679	8767.13
561.041	8800.57
561.404	8788.14
561.767	8766.22
562.129	8831.76
562.492	8867.46
562.854	8832.66
563.217	8893.23
563.579	8818.88
563.941	8890.74
564.304	8937.75
564.666	8950.85
565.028	8925.09
565.39	9024.97
565.753	9044.64
566.115	9046.67
566.477	9025.2
566.839	9061.36
567.201	9071.53
567.563	9116.27
567.925	9161.24
568.287	9186.1
568.648	9152.65
569.01	9248.92
569.372	9292.09
569.734	9178.87
570.095	9336.6
570.457	9291.63
570.819	9311.29
571.18	9305.87
571.542	9322.37
571.903	9320.56
572.265	9366.21
572.626	9400.78
572.987	9376.38
573.349	9436.94
573.71	9424.51
574.071	9443.72
574.432	9479.2
574.794	9559.42
575.155	9618.18
575.516	9555.58
575.877	9582.93
576.238	9637.39
576.599	9683.94
576.96	9699.08
577.32	9660.89
577.681	9721.23
578.042	9693.66
578.403	9749.25
578.763	9744.28
579.124	9700.44
579.485	9828.34
579.845	9856.14
580.206	9882.35
580.566	9823.6
580.927	9832.18
581.287	9826.76
581.648	9908.12
582.008	9917.83
582.368	9886.87
582.728	9986.76
583.089	10000.99
583.449	9968.9
583.809	10026.76
584.169	9990.82
584.529	10070.14
584.889	10128.9
585.249	10069.24
585.609	10026.08
585.969	10179.52
586.329	10012.97
586.688	10124.83
587.048	10113.08
587.408	10155.11
587.768	10124.15
588.127	10104.72
588.487	10157.15
588.846	10216.58
589.206	10086.87
589.565	10128.45
589.925	10233.53
590.284	10220.65
590.643	10223.81
591.003	10180.42
591.362	10401.66
591.721	10258.84
592.08	10225.39
592.44	10361.21
592.799	10259.07
593.158	10295.9
593.517	10333.87
593.876	10363.02
594.235	10307.65
594.593	10328.9
594.952	10342.68
595.311	10413.41
595.67	10397.59
596.029	10435.56
596.387	10401.21
596.746	10423.81
597.104	10384.03
597.463	10402.57
597.822	10425.62
598.18	10397.37
598.538	10407.76
598.897	10494.31
599.255	10337.48
599.613	10482.11
599.972	10446.86
600.33	10473.07
600.688	10457.25
601.046	10504.48
601.404	10565.27
601.762	10549.68
602.12	10582.67
602.478	10564.6
602.836	10577.7
603.194	10498.16
603.552	10533.41
603.91	10534.09
604.268	10570.02
604.625	10568.21
604.983	10604.37
605.341	10613.41
605.698	10586.29
606.056	10591.49
606.413	10597.81
606.771	10608.89
607.128	10586.97
607.485	10568.89
607.843	10579.96
608.2	10690.24
608.557	10748.55
608.914	10581.54
609.272	10674.87
609.629	10708.55
609.986	10850.69
610.343	10677.36
610.7	10736.34
611.057	10702.9
611.414	10778.83
611.771	10721.65
612.127	10796.45
612.484	10830.8
612.841	10834.19
613.198	10740.86
613.554	10740.41
613.911	10855.89
614.267	10831.03
614.624	10805.04
614.98	10815.44
615.337	10890.91
615.693	10857.02
616.05	10817.02
616.406	10861.76
616.762	10899.73
617.118	10946.51
617.475	10930.91
617.831	10931.82
618.187	10936.34
618.543	10923.68
618.899	10975.43
619.255	10910.12
619.611	10920.07
619.967	10941.08
620.323	10940.18
620.678	10928.88
621.034	10979.5
621.39	10979.05
621.746	11000.74
622.101	11024.47
622.457	10908.09
622.812	10982.89
623.168	11028.54
623.523	10980.86
623.879	11064.24
624.234	11018.14
624.589	10993.74
624.945	11034.41
625.3	10953.29
625.655	11045.94
626.01	10991.02
626.365	10997.58
626.72	10989.22
627.075	10925.26
627.43	10993.06
627.785	10883.68
628.14	11004.13
628.495	10939.5
628.85	10952.83
629.205	10843.91
629.559	10952.83
629.914	10867.64
630.269	10871.93
630.623	10860.41
630.978	10857.47
631.332	10879.62
631.687	10932.5
632.041	10825.83
632.396	10889.78
632.75	10749.9
633.104	10809.33
633.459	10785.38
633.813	10739.05
634.167	10808.66
634.521	10763.23
634.875	10765.95
635.229	10756.68
635.583	10648.43
635.937	10656.12
636.291	10698.15
636.645	10649.56
636.999	10647.53
637.352	10701.77
637.706	10638.94
638.06	10625.61
638.413	10575.67
638.767	10592.84
639.121	10596.23
639.474	10488.89
639.828	10556.01
640.181	10547.19
640.534	10599.4
640.888	10501.09
641.241	10459.29
641.594	10441.66
641.947	10556.23
642.301	10528.89
642.654	10526.4
643.007	10523.01
643.36	10467.87
643.713	10446.63
644.066	10483.92
644.419	10369.12
644.771	10358.05
645.124	10292.51
645.477	10287.31
645.83	10238.95
646.182	10205.73
646.535	10094.55
646.888	10171.84
647.24	10072.86
647.593	10176.13
647.945	10109.69
648.298	10081.67
648.65	9965.51
649.002	10058.17
649.355	10128.9
649.707	10019.07
650.059	10137.49
650.411	10284.6
650.763	10221.78
651.115	10288.44
651.467	10285.96
651.819	10278.73
652.171	10290.93
652.523	10234.66
652.875	10257.94
653.227	10280.76
653.578	10296.81
653.93	10298.39
654.282	10264.72
654.633	10210.93
654.985	10266.3
655.337	10252.51
655.688	10217.71
656.039	10302.23
656.391	10211.16
656.742	10266.3
657.094	10277.82
657.445	10259.29
657.796	10259.74
658.147	10209.58
658.498	10160.31
658.849	10299.29
659.2	10243.25
659.551	10174.1
659.902	10225.39
660.253	10215.45
660.604	10240.08
660.955	10206.86
661.306	10266.98
661.656	10205.96
662.007	10285.51
662.358	10262.23
662.708	10244.6
663.059	10221.55
663.409	10101.78
663.76	10269.69
664.11	10292.74
664.461	10339.29
664.811	10275.34
665.161	10294.55
665.511	10219.52
665.862	10246.41
666.212	10246.41
666.562	10305.39
666.912	10244.38
667.262	10266.07
667.612	10237.6
667.962	10280.99
668.312	10203.93
668.662	10184.49
669.011	10237.37
669.361	10215.9
669.711	10139.3
670.06	10147.2
670.41	10172.06
670.76	10150.82
671.109	10254.09
671.459	10154.44
671.808	10186.53
672.157	10249.35
672.507	10080.31
672.856	10043.93
673.205	10053.42
673.554	10156.47
673.904	10121.44
674.253	10084.16
674.602	10106.08
674.951	9954.22
675.3	9933.2
675.649	10099.52
675.998	10052.74
676.346	10087.09
676.695	10089.35
677.044	10024.72
677.393	10055.68
677.741	10021.56
678.09	10003.25
678.438	9971.84
678.787	9981.33
679.135	9998.73
679.484	9887.1
679.832	9968.23
680.181	9881.22
680.529	10023.82
680.877	9934.33
681.225	9872.86
681.573	9937.04
681.922	9781.79
682.27	9815.91
682.618	9822.02
682.966	9828.8
683.314	9809.59
683.661	9805.74
684.009	9798.74
684.357	9705.63
684.705	9693.21
685.053	9650.04
685.4	9707.22
685.748	9645.52
686.095	9661.34
686.443	9619.99
686.79	9520.1
687.138	9637.39
687.485	9541.8
687.832	9539.54
688.18	9575.47
688.527	9481.23
688.874	9401.01
689.221	9441.46
689.568	9368.47
689.915	9357.85
690.262	9396.94
690.609	9339.77
690.956	9336.6
691.303	9279.21
691.65	9219.77
691.997	9262.48
692.344	9186.1
692.69	9140
693.037	9158.76
693.383	9132.09
693.73	9083.96
694.077	9036.5
694.423	8971.19
694.769	9058.19
695.116	8967.8
695.462	8967.8
695.808	8931.19
696.155	8914.47
696.501	8869.5
696.847	8827.47
697.193	8785.43
697.539	8827.01
697.885	8755.15
698.231	8676.96
698.577	8706.11
698.923	8683.29
699.269	8670.18
699.614	8604.87
699.96	8531.65
700.306	8526.46
700.651	8528.26
700.997	8537.3
701.342	8439.91
701.688	8449.62
702.033	8415.05
702.379	8405.1
702.724	8344.09
703.069	8359.23
703.415	8301.6
703.76	8293.02
704.105	8287.37
704.45	8293.24
704.795	8202.4
705.14	8193.13
705.485	8167.37
705.83	8090.54
706.175	8114.72
706.52	8018.67
706.865	8070.2
707.209	8015.96
707.554	8070.42
707.899	8039.92
708.243	8027.03
708.588	7983.19
708.932	7886.47
709.277	7936.42
709.621	7874.27
709.966	7825.23
710.31	7879.69
710.654	7763.09
710.998	7803.54
711.342	7792.69
711.687	7816.64
712.031	7795.18
712.375	7683.09
712.719	7740.04
713.063	7709.75
713.407	7701.62
713.75	7694.39
714.094	7686.03
714.438	7607.38
714.782	7695.74
715.125	7627.05
715.469	7604.22
715.812	7554.73
716.156	7537.33
716.499	7561.06
716.843	7574.17
717.186	7513.83
717.53	7481.06
717.873	7575.52
718.216	7472.7
718.559	7477.22
718.902	7407.39
719.246	7439.93
719.589	7486.48
719.932	7387.96
720.275	7427.28
720.617	7390.89
720.96	7371.01
721.303	7361.97
721.646	7367.17
721.989	7326.94
722.331	7317.67
722.674	7397.9
723.016	7392.7
723.359	7274.74
723.701	7318.35
724.044	7238.35
724.386	7243.55
724.729	7341.18
725.071	7294.62
725.413	7247.62
725.755	7228.19
726.097	7254.17
726.439	7174.85
726.782	7201.75
727.124	7224.34
727.465	7227.28
727.807	7163.1
728.149	7207.17
728.491	7204.91
728.833	7154.29
729.175	7150.67
729.516	7185.02
729.858	7190.22
730.199	7174.85
730.541	7138.47
730.882	7143.67
731.224	7205.14
731.565	7109.54
731.906	7150.9
732.248	7127.62
732.589	7134.4
732.93	7147.28
733.271	7134.63
733.612	7154.74
733.953	7062.77
734.294	7096.44
734.635	7099.83
734.976	7056.44
735.317	7108.19
735.658	7115.65
735.999	7119.49
736.339	7100.51
736.68	7153.61
737.021	7067.74
737.361	7118.13
737.702	7125.36
738.042	7190.67
738.383	7096.21
738.723	7165.81
739.063	7118.36
739.404	7154.97
739.744	7129.88
740.084	7146.83
740.424	7156.78
740.764	7172.37
741.104	7168.98
741.444	7175.76
741.784	7192.71
742.124	7234.29
742.464	7173.05
742.804	7192.48
743.143	7231.8
743.483	7237.9
743.823	7161.75
744.162	7236.77
744.502	7251.01
744.841	7283.33
745.181	7351.35
745.52	7285.59
745.86	7345.47
746.199	7381.18
746.538	7406.26
746.877	7465.02
747.216	7497.33
747.556	7488.52
747.895	7508.4
748.234	7613.26
748.573	7601.96
748.911	7655.75
749.25	7665.69
749.589	7670.43
749.928	7748.85
750.267	7786.14
750.605	7890.54
750.944	7944.33
751.283	7935.51
751.621	8057.54
751.96	8082.85
752.298	8207.14
752.636	8268.38
752.975	8258.44
753.313	8319
753.651	8401.94
753.989	8464.31
754.327	8554.48
754.666	8623.4
755.004	8718.77
755.342	8860.23
755.679	8931.87
756.017	8989.04
756.355	9088.48
756.693	9220.9
757.031	9385.64
757.368	9373.67
757.706	9523.94
758.044	9656.6
758.381	9714.22
758.719	9889.58
759.056	10011.62
759.394	10104.72
759.731	10191.27
760.068	10254.32
760.405	10436.91
760.743	10566.18
761.08	10719.39
761.417	10800.75
761.754	10933.85
762.091	11065.82
762.428	11208.19
762.765	11303.78
763.102	11427.17
763.438	11525.47
763.775	11554.85
764.112	11737.22
