Data from hue_190_FLMS001491_00032.txt Node
Date: Tue Feb 07 16:45:11 GMT 2017
User: dcchb
Spectrometer: FLMS00149
Trigger mode: 0
Integration Time (sec): 2.000000E-2
Scans to average: 10
Electric dark correction enabled: true
Nonlinearity correction enabled: false
Boxcar width: 0
XAxis mode: Wavelengths
Number of Pixels in Spectrum: 2048
>>>>>Begin Spectral Data<<<<<
341.393	-3.69
341.776	-3.69
342.16	-3.69
342.543	-61.54
342.927	-61.31
343.31	-63.35
343.693	-72.16
344.077	-48.66
344.46	-59.73
344.843	-46.62
345.226	-26.28
345.61	-52.05
345.993	-19.73
346.376	-16.57
346.759	22.3
347.142	11.68
347.525	30.66
347.908	54.17
348.291	81.28
348.674	92.36
349.057	112.69
349.44	116.76
349.823	153.82
350.206	155.63
350.588	198.34
350.971	190.43
351.354	227.72
351.737	249.41
352.119	243.99
352.502	257.78
352.884	257.78
353.267	266.14
353.65	281.96
354.032	286.7
354.414	282.41
354.797	295.06
355.179	302.29
355.562	326.7
355.944	325.8
356.326	326.25
356.709	339.58
357.091	319.02
357.473	348.39
357.855	353.82
358.238	338.68
358.62	303.42
359.002	334.38
359.384	333.71
359.766	319.02
360.148	330.99
360.53	334.38
360.912	327.6
361.294	331.67
361.676	323.31
362.057	303.65
362.439	329.64
362.821	329.64
363.203	329.64
363.584	324.44
363.966	323.76
364.348	305.68
364.729	328.73
365.111	310.88
365.493	326.02
365.874	302.07
366.256	311.79
366.637	319.47
367.019	303.65
367.4	292.58
367.781	317.44
368.163	309.98
368.544	327.6
368.925	316.76
369.306	311.56
369.688	315.85
370.069	322.63
370.45	322.86
370.831	313.14
371.212	303.88
371.593	295.97
371.974	294.16
372.355	295.74
372.736	303.88
373.117	297.77
373.498	315.4
373.879	318.79
374.26	328.73
374.641	301.16
375.021	316.31
375.402	333.93
375.783	306.81
376.163	323.54
376.544	340.03
376.925	331.67
377.305	326.7
377.686	317.21
378.066	316.08
378.447	336.42
378.827	316.98
379.208	319.69
379.588	334.38
379.968	329.86
380.349	314.72
380.729	335.51
381.109	326.7
381.489	334.16
381.87	341.62
382.25	320.15
382.63	332.58
383.01	317.66
383.39	320.37
383.77	341.16
384.15	331.22
384.53	345.01
384.91	352.91
385.29	348.62
385.67	321.05
386.049	331.67
386.429	342.52
386.809	359.69
387.189	370.99
387.568	357.66
387.948	361.05
388.328	348.39
388.707	351.33
389.087	329.86
389.466	338.68
389.846	348.62
390.225	355.63
390.605	361.05
390.984	356.53
391.363	360.37
391.743	364.21
392.122	348.62
392.501	360.82
392.881	386.81
393.26	359.02
393.639	369.19
394.018	368.51
394.397	363.99
394.776	369.19
395.155	375.51
395.534	365.34
395.913	375.51
396.292	384.78
396.671	389.75
397.05	388.39
397.429	377.09
397.808	396.76
398.186	396.98
398.565	404.66
398.944	375.96
399.323	403.99
399.701	380.94
400.08	385.23
400.458	400.37
400.837	398.34
401.215	415.06
401.594	397.43
401.972	401.27
402.351	398.56
402.729	417.32
403.107	403.31
403.486	419.35
403.864	414.16
404.242	445.79
404.62	437.88
404.999	434.95
405.377	445.57
405.755	436.75
406.133	418
406.511	429.97
406.889	465.23
407.267	470.65
407.645	483.98
408.023	459.13
408.401	493.02
408.779	492.35
409.156	471.33
409.534	477.88
409.912	488.5
410.29	498.45
410.667	503.42
411.045	500.03
411.422	523.76
411.8	513.14
412.178	504.55
412.555	541.61
412.933	535.28
413.31	563.76
413.687	538.67
414.065	573.93
414.442	579.8
414.819	573.93
415.197	572.8
415.574	602.4
415.951	610.99
416.328	617.31
416.705	578.45
417.082	627.26
417.46	640.59
417.837	655.28
418.214	645.34
418.591	653.7
418.967	665.22
419.344	670.19
419.721	669.97
420.098	680.14
420.475	700.25
420.852	680.59
421.228	722.4
421.605	738.67
421.982	752
422.358	733.02
422.735	769.63
423.111	785.22
423.488	787.71
423.864	808.72
424.241	830.87
424.617	823.41
424.994	838.55
425.37	862.96
425.746	864.54
426.123	874.71
426.499	875.16
426.875	898.66
427.251	897.76
427.627	940.24
428.003	901.83
428.379	953.35
428.756	934.59
429.132	965.78
429.507	980.24
429.883	999.45
430.259	1018.89
430.635	1006.91
431.011	1025.44
431.387	1019.11
431.763	1035.16
432.138	1064.31
432.514	1089.39
432.89	1078.55
433.265	1080.35
433.641	1103.4
434.016	1167.58
434.392	1171.65
434.767	1195.6
435.143	1199.9
435.518	1222.27
435.894	1239.44
436.269	1268.82
436.644	1325.32
437.02	1308.82
437.395	1335.04
437.77	1353.11
438.145	1354.92
438.52	1387.01
438.895	1404.86
439.271	1421.36
439.646	1440.8
440.021	1500.91
440.395	1505.65
440.77	1507.69
441.145	1506.1
441.52	1536.61
441.895	1595.59
442.27	1565.31
442.645	1608.25
443.019	1643.05
443.394	1625.65
443.769	1650.28
444.143	1671.07
444.518	1671.3
444.892	1688.7
445.267	1699.77
445.641	1739.54
446.016	1747.68
446.39	1760.56
446.764	1787.23
447.139	1795.14
447.513	1776.38
447.887	1811.18
448.262	1842.14
448.636	1855.25
449.01	1830.16
449.384	1903.16
449.758	1901.35
450.132	1918.97
450.506	1925.98
450.88	1930.73
451.254	1960.33
451.628	1982.7
452.002	1981.57
452.376	2000.55
452.75	2041.23
453.123	2034
453.497	2050.95
453.871	2097.28
454.244	2152.64
454.618	2138.63
454.992	2178.4
455.365	2208.01
455.739	2240.1
456.112	2268.12
456.486	2262.24
456.859	2303.15
457.232	2373.88
457.606	2324.16
457.979	2391.96
458.352	2450.03
458.725	2461.33
459.099	2495.01
459.472	2531.84
459.845	2539.07
460.218	2569.35
460.591	2602.57
460.964	2600.09
461.337	2665.4
461.71	2697.26
462.083	2716.47
462.456	2745.17
462.829	2769.8
463.201	2817.03
463.574	2804.83
463.947	2896.12
464.32	2916.46
464.692	2958.72
465.065	2987.42
465.438	3034.2
465.81	3060.87
466.183	3088.21
466.555	3132.5
466.928	3182.22
467.3	3164.82
467.672	3262.89
468.045	3317.13
468.417	3341.31
468.789	3357.13
469.161	3449.1
469.534	3459.27
469.906	3533.85
470.278	3579.95
470.65	3597.12
471.022	3697.46
471.394	3800.06
471.766	3826.95
472.138	3851.13
472.51	3940.84
472.882	3987.17
473.253	4045.7
473.625	4098.35
473.997	4202.53
474.369	4184.9
474.74	4280.04
475.112	4352.81
475.484	4441.85
475.855	4502.41
476.227	4522.75
476.598	4653.37
476.97	4703.53
477.341	4823.08
477.713	4873.25
478.084	4957.77
478.455	5053.36
478.827	5143.07
479.198	5211.32
479.569	5266.01
479.94	5435.72
480.311	5529.95
480.682	5551.42
481.053	5690.63
481.424	5833
481.795	5833
482.166	6026.89
482.537	6063.27
482.908	6227.34
483.279	6242.93
483.65	6336.94
484.021	6442.02
484.391	6546.88
484.762	6575.8
485.133	6656.25
485.503	6729.7
485.874	6908.67
486.244	7014.89
486.615	7102.57
486.985	7179.18
487.356	7374.88
487.726	7367.42
488.097	7532.84
488.467	7560.63
488.837	7790.46
489.207	7836.79
489.578	7914.75
489.948	7975.09
490.318	8147.29
490.688	8150.22
491.058	8265.47
491.428	8339.37
491.798	8370.78
492.168	8587.05
492.538	8639.7
492.908	8720.6
493.278	8805.35
493.648	8799.25
494.017	8935.74
494.387	8957.89
494.757	9061.61
495.126	9139.12
495.496	9171.21
495.866	9200.82
496.235	9352.9
496.605	9387.48
496.974	9481.94
497.344	9493.47
497.713	9527.36
498.082	9555.38
498.452	9681.26
498.821	9752.22
499.19	9696.4
499.559	9815.49
499.928	9857.52
500.298	9904.3
500.667	10015.03
501.036	9896.39
501.405	10026.56
501.774	10069.95
502.143	10074.01
502.512	10007.8
502.88	10175.93
503.249	10149.49
503.618	10265.2
503.987	10251.64
504.356	10316.72
504.724	10317.85
505.093	10291.86
505.462	10309.49
505.83	10415.02
506.199	10427.68
506.567	10559.65
506.936	10551.06
507.304	10663.38
507.672	10553.55
508.041	10686.43
508.409	10653.89
508.777	10664.06
509.145	10687.33
509.514	10714.22
509.882	10806.88
510.25	10718.52
510.618	10809.59
510.986	10784.28
511.354	10865.41
511.722	10881.45
512.09	10988.12
512.458	10856.82
512.826	10966.87
513.193	10979.75
513.561	10951.28
513.929	11023.14
514.297	11087.1
514.664	11067.21
515.032	11088.68
515.4	11082.12
515.767	11050.03
516.135	11072.63
516.502	11060.66
516.869	11165.29
517.237	11123.03
517.604	11109.69
517.972	11190.82
518.339	11177.71
518.706	11105.4
519.073	11132.97
519.44	11143.82
519.808	11203.48
520.175	11177.26
520.542	11228.33
520.909	11269.01
521.276	11147.66
521.643	11287.09
522.009	11302.23
522.376	11301.33
522.743	11253.42
523.11	11331.38
523.477	11340.42
523.843	11266.3
524.21	11419.74
524.577	11385.39
524.943	11365.73
525.31	11408.44
525.676	11352.85
526.043	11370.93
526.409	11412.28
526.776	11382.23
527.142	11325.96
527.508	11389.69
527.874	11347.65
528.241	11338.16
528.607	11367.09
528.973	11394.21
529.339	11237.6
529.705	11348.56
530.071	11432.4
530.437	11265.85
530.803	11303.14
531.169	11307.65
531.535	11218.62
531.901	11245.74
532.267	11169.81
532.632	11240.76
532.998	11151.95
533.364	11126.19
533.73	11035.8
534.095	11153.99
534.461	11044.16
534.826	10978.85
535.192	10973.65
535.557	10967.55
535.923	10820.44
536.288	10930.94
536.653	10811.62
537.019	10744.28
537.384	10696.15
537.749	10717.16
538.114	10557.39
538.479	10570.05
538.845	10559.2
539.21	10508.35
539.575	10430.84
539.94	10465.87
540.305	10412.54
540.67	10328.02
541.034	10294.8
541.399	10286.21
541.764	10208.02
542.129	10187.68
542.494	10109.95
542.858	10136.84
543.223	9999.89
543.587	10011.87
543.952	9909.73
544.316	9852.78
544.681	9836.73
545.045	9820.24
545.41	9799.45
545.774	9683.52
546.138	9673.35
546.503	9615.27
546.867	9561.26
547.231	9528.72
547.595	9472.45
547.959	9498.44
548.324	9371.21
548.688	9395.84
549.052	9296.86
549.416	9239.46
549.779	9177.99
550.143	9159.69
550.507	9112.68
550.871	9135.06
551.235	9002.18
551.599	8981.61
551.962	9025.23
552.326	8942.97
552.689	8831.79
553.053	8862.3
553.417	8740.26
553.78	8796.31
554.143	8685.12
554.507	8719.25
554.87	8667.27
555.234	8747.04
555.597	8607.39
555.96	8515.64
556.323	8540.27
556.686	8546.15
557.05	8483.55
557.413	8495.07
557.776	8418.01
558.139	8420.95
558.502	8389.77
558.865	8393.16
559.228	8396.54
559.59	8281.97
559.953	8329.43
560.316	8332.59
560.679	8297.56
561.041	8295.76
561.404	8226.61
561.767	8227.51
562.129	8240.84
562.492	8228.87
562.854	8155.2
563.217	8174.86
563.579	8150.68
563.941	8186.83
564.304	8104.12
564.666	8123.11
565.028	8165.36
565.39	8097.57
565.753	8110.9
566.115	8115.87
566.477	8131.47
566.839	8170.79
567.201	8165.82
567.563	8144.35
567.925	8146.83
568.287	8142.54
568.648	8088.3
569.01	8208.53
569.372	8109.09
569.734	8099.38
570.095	8091.92
570.457	8084.46
570.819	8112.48
571.18	8098.47
571.542	8112.48
571.903	8053.28
572.265	8160.62
572.626	8101.64
572.987	8073.39
573.349	8083.78
573.71	8130.11
574.071	8078.36
574.432	8049.21
574.794	8047.63
575.155	8165.59
575.516	8075.65
575.877	8058.25
576.238	8052.15
576.599	8107.06
576.96	8095.54
577.32	8083.11
577.681	8120.39
578.042	8095.31
578.403	8089.21
578.763	8075.42
579.124	8058.47
579.485	8132.82
579.845	8067.74
580.206	8048.53
580.566	8035.65
580.927	8006.95
581.287	8052.82
581.648	7998.14
582.008	7989.55
582.368	8038.14
582.728	8035.88
583.089	7979.61
583.449	7947.74
583.809	7941.87
584.169	7929.44
584.529	7923.34
584.889	7933.28
585.249	7944.58
585.609	7884.47
585.969	7892.6
586.329	7913.85
586.688	7937.8
587.048	7909.33
587.408	7885.82
587.768	7852.15
588.127	7879.27
588.487	7820.06
588.846	7905.71
589.206	7823.9
589.565	7819.16
589.925	7794.53
590.284	7773.74
590.643	7878.59
591.003	7781.19
591.362	7903.68
591.721	7822.32
592.08	7798.82
592.44	7840.4
592.799	7847.18
593.158	7775.54
593.517	7783.45
593.876	7758.6
594.235	7710.24
594.593	7782.1
594.952	7743.68
595.311	7678.6
595.67	7702.78
596.029	7738.93
596.387	7684.7
596.746	7742.55
597.104	7692.38
597.463	7656.45
597.822	7623.46
598.18	7643.8
598.538	7675.21
598.897	7686.96
599.255	7597.47
599.613	7730.35
599.972	7617.13
600.33	7644.7
600.688	7655.55
601.046	7669.33
601.404	7696.22
601.762	7594.98
602.12	7645.38
602.478	7647.41
602.836	7687.18
603.194	7623.46
603.552	7576.68
603.91	7634.98
604.268	7632.72
604.625	7582.78
604.983	7603.57
605.341	7493.52
605.698	7599.73
606.056	7652.61
606.413	7667.98
606.771	7672.04
607.128	7618.26
607.485	7564.25
607.843	7601.09
608.2	7679.28
608.557	7625.94
608.914	7589.79
609.272	7617.13
609.629	7630.24
609.986	7731.48
610.343	7623.91
610.7	7696.68
611.057	7690.57
611.414	7658.49
611.771	7653.06
612.127	7695.09
612.484	7669.78
612.841	7700.07
613.198	7679.05
613.554	7746.62
613.911	7714.53
614.267	7773.06
614.624	7696.68
614.98	7634.3
615.337	7783.23
615.693	7689.9
616.05	7678.6
616.406	7752.04
616.762	7721.08
617.118	7737.58
617.475	7688.77
617.831	7783.23
618.187	7728.77
618.543	7743.23
618.899	7778.26
619.255	7686.05
619.611	7773.28
619.967	7811.93
620.323	7792.49
620.678	7752.72
621.034	7792.72
621.39	7712.49
621.746	7754.53
622.101	7820.06
622.457	7692.83
622.812	7752.49
623.168	7778.71
623.523	7742.32
623.879	7768.99
624.234	7770.35
624.589	7721.99
624.945	7763.34
625.3	7698.94
625.655	7762.89
626.01	7783.23
626.365	7693.29
626.72	7705.26
627.075	7740.29
627.43	7686.96
627.785	7669.33
628.14	7711.37
628.495	7723.12
628.85	7726.73
629.205	7666.85
629.559	7754.98
629.914	7687.86
630.269	7653.97
630.623	7647.64
630.978	7632.72
631.332	7680.18
631.687	7705.94
632.041	7647.19
632.396	7621.2
632.75	7652.61
633.104	7654.64
633.459	7604.7
633.813	7613.06
634.167	7631.82
634.521	7568.09
634.875	7637.47
635.229	7562.44
635.583	7515.66
635.937	7513.18
636.291	7586.4
636.645	7560.63
636.999	7550.01
637.352	7531.03
637.706	7447.19
638.06	7484.48
638.413	7451.94
638.767	7499.62
639.121	7470.24
639.474	7410.13
639.828	7410.13
640.181	7425.27
640.534	7397.93
640.888	7424.37
641.241	7399.06
641.594	7430.24
641.947	7465.5
642.301	7389.79
642.654	7398.83
643.007	7397.7
643.36	7382.56
643.713	7368.1
644.066	7396.57
644.419	7355.67
644.771	7314.99
645.124	7234.09
645.477	7231.6
645.83	7156.58
646.182	7133.08
646.535	7148.44
646.888	7157.26
647.24	7127.88
647.593	7191.38
647.945	7157.26
648.298	7095.11
648.65	7107.54
649.002	7069.8
649.355	7115.22
649.707	7039.07
650.059	7144.6
650.411	7199.74
650.763	7192.28
651.115	7287.65
651.467	7305.73
651.819	7271.6
652.171	7331.71
652.523	7257.59
652.875	7263.47
653.227	7294.2
653.578	7257.14
653.93	7297.36
654.282	7226.18
654.633	7253.07
654.985	7255.33
655.337	7293.97
655.688	7321.54
656.039	7353.41
656.391	7249.91
656.742	7230.02
657.094	7288.33
657.445	7289.68
657.796	7252.17
658.147	7320.64
658.498	7282.68
658.849	7289.23
659.2	7339.85
659.551	7336.69
659.902	7334.88
660.253	7296.01
660.604	7316.57
660.955	7336.91
661.306	7349.11
661.656	7318.83
662.007	7313.64
662.358	7337.36
662.708	7382.56
663.059	7336.01
663.409	7296.46
663.76	7340.53
664.11	7335.33
664.461	7375.55
664.811	7378.04
665.161	7380.75
665.511	7391.15
665.862	7303.24
666.212	7380.07
666.562	7374.42
666.912	7394.99
667.262	7358.83
667.612	7358.61
667.962	7375.78
668.312	7366.97
668.662	7318.61
669.011	7363.35
669.361	7371.71
669.711	7387.31
670.06	7321.09
670.41	7387.53
670.76	7271.15
671.109	7323.13
671.459	7358.15
671.808	7338.04
672.157	7298.95
672.507	7302.11
672.856	7307.76
673.205	7290.13
673.554	7333.97
673.904	7315.9
674.253	7312.51
674.602	7358.15
674.951	7152.51
675.3	7152.51
675.649	7263.02
675.998	7268.21
676.346	7281.09
676.695	7300.53
677.044	7207.88
677.393	7242
677.741	7259.4
678.09	7210.36
678.438	7191.83
678.787	7132.85
679.135	7205.39
679.484	7133.53
679.832	7193.41
680.181	7096.47
680.529	7148.89
680.877	7128.78
681.225	7075.9
681.573	7160.19
681.922	7072.29
682.27	7091.27
682.618	7051.95
682.966	7066.64
683.314	7015.79
683.661	7007.88
684.009	7008.11
684.357	7003.81
684.705	6963.36
685.053	6960.65
685.4	6925.17
685.748	6900.09
686.095	6947.77
686.443	6866.42
686.79	6843.37
687.138	6851.5
687.485	6900.31
687.832	6881.33
688.18	6888.11
688.527	6778.73
688.874	6768.56
689.221	6758.4
689.568	6721.33
689.915	6733.99
690.262	6684.5
690.609	6681.79
690.956	6646.76
691.303	6691.73
691.65	6609.93
691.997	6604.05
692.344	6604.5
692.69	6570.83
693.037	6577.16
693.383	6470.04
693.73	6488.35
694.077	6513.43
694.423	6481.57
694.769	6419.87
695.116	6360.67
695.462	6358.41
695.808	6329.93
696.155	6304.17
696.501	6309.82
696.847	6307.79
697.193	6254.91
697.539	6323.83
697.885	6157.96
698.231	6202.7
698.577	6191.63
698.923	6190.73
699.269	6178.98
699.614	6119.99
699.96	6151.41
700.306	6118.19
700.651	6056.72
700.997	6026.89
701.342	6056.72
701.688	5973.78
702.033	5975.37
702.379	5962.26
702.724	5909.6
703.069	5879.55
703.415	5872.54
703.76	5851.75
704.105	5936.95
704.45	5840.91
704.795	5770.4
705.14	5783.96
705.485	5801.36
705.83	5761.59
706.175	5722.26
706.52	5733.11
706.865	5698.31
707.209	5734.92
707.554	5654.24
707.899	5673.45
708.243	5613.57
708.588	5649.05
708.932	5605.43
709.277	5568.14
709.621	5567.47
709.966	5556.62
710.31	5554.36
710.654	5553.46
710.998	5492.67
711.342	5503.74
711.687	5487.02
712.031	5447.24
712.375	5484.3
712.719	5456.96
713.063	5425.78
713.407	5471.42
713.75	5430.3
714.094	5426
714.438	5374.93
714.782	5371.31
715.125	5391.88
715.469	5328.38
715.812	5363.4
716.156	5344.87
716.499	5316.85
716.843	5325.89
717.186	5368.38
717.53	5284.54
717.873	5334.03
718.216	5342.84
718.559	5313.69
718.902	5229.85
719.246	5267.81
719.589	5264.42
719.932	5264.65
720.275	5256.29
720.617	5246.35
720.96	5234.59
721.303	5241.6
721.646	5263.52
721.989	5235.95
722.331	5277.53
722.674	5215.61
723.016	5257.42
723.359	5236.4
723.701	5222.16
724.044	5207.48
724.386	5162.51
724.729	5185.1
725.071	5191.66
725.413	5185.56
725.755	5154.6
726.097	5146.01
726.439	5167.7
726.782	5190.98
727.124	5200.92
727.465	5147.14
727.807	5101.26
728.149	5116.41
728.491	5101.26
728.833	5139.23
729.175	5176.52
729.516	5168.83
729.858	5121.6
730.199	5140.81
730.541	5133.81
730.882	5132.22
731.224	5111.21
731.565	5169.06
731.906	5114.37
732.248	5159.79
732.589	5136.74
732.93	5126.35
733.271	5140.59
733.612	5096.07
733.953	5193.92
734.294	5114.82
734.635	5124.31
734.976	5177.19
735.317	5124.31
735.658	5183.75
735.999	5195.27
736.339	5182.84
736.68	5141.72
737.021	5178.1
737.361	5159.79
737.702	5158.89
738.042	5160.92
738.383	5198.89
738.723	5244.09
739.063	5238.89
739.404	5260.81
739.744	5251.77
740.084	5234.14
740.424	5269.4
740.764	5214.71
741.104	5289.51
741.444	5302.84
741.784	5333.35
742.124	5343.97
742.464	5332.44
742.804	5312.11
743.143	5378.77
743.483	5397.98
743.823	5390.07
744.162	5419.67
744.502	5507.36
744.841	5461.71
745.181	5512.33
745.52	5502.38
745.86	5540.12
746.199	5599.33
746.538	5658.54
746.877	5703.51
747.216	5704.86
747.556	5731.3
747.895	5811.98
748.234	5791.64
748.573	5857.4
748.911	5917.74
749.25	5991.64
749.589	6014.69
749.928	6086.1
750.267	6074.57
750.605	6196.15
750.944	6270.27
751.283	6345.07
751.621	6397.5
751.96	6493.54
752.298	6612.64
752.636	6630.04
752.975	6719.53
753.313	6809.69
753.651	6953.42
753.989	7007.2
754.327	7121.55
754.666	7192.96
755.004	7329.23
755.342	7491.03
755.679	7651.48
756.017	7740.52
756.355	7884.69
756.693	7948.65
757.031	8110.22
757.368	8222.99
757.706	8445.81
758.044	8534.85
758.381	8695.75
758.719	8899.13
759.056	9040.14
759.394	9171.44
759.731	9294.37
760.068	9426.57
760.405	9599.9
760.743	9738.66
761.08	9961.25
761.417	10133.9
761.754	10292.31
762.091	10422.03
762.428	10616.15
762.765	10745.41
763.102	10926.2
763.438	11084.16
763.775	11298.84
764.112	11453.19
764.449	11636.91
764.785	11811.14
765.122	11919.39
765.458	12151.02
765.795	12266.5
766.131	12426.5
766.467	12594.17
766.804	12773.83
