Data from hue_38_FLMS001491_00079.txt Node
Date: Tue Feb 07 17:31:58 GMT 2017
User: dcchb
Spectrometer: FLMS00149
Trigger mode: 0
Integration Time (sec): 2.000000E-2
Scans to average: 10
Electric dark correction enabled: true
Nonlinearity correction enabled: false
Boxcar width: 0
XAxis mode: Wavelengths
Number of Pixels in Spectrum: 2048
>>>>>Begin Spectral Data<<<<<
341.393	-14.18
341.776	-14.18
342.16	-14.18
342.543	-52.15
342.927	-68.87
343.31	-64.57
343.693	-78.81
344.077	-81.98
344.46	-52.37
344.843	-58.47
345.226	-36.78
345.61	-17.8
345.993	-27.06
346.376	7.29
346.759	10.45
347.142	17.23
347.525	31.92
347.908	71.24
348.291	78.7
348.674	85.7
349.057	115.31
349.44	128.87
349.823	129.54
350.206	163.89
350.588	192.59
350.971	202.31
351.354	243.89
351.737	239.82
352.119	248.41
352.502	243.44
352.884	291.8
353.267	279.6
353.65	293.61
354.032	303.33
354.414	314.17
354.797	322.76
355.179	339.03
355.562	330.22
355.944	342.65
356.326	348.97
356.709	360.05
357.091	365.92
357.473	344
357.855	349.2
358.238	341.06
358.62	346.71
359.002	348.3
359.384	348.75
359.766	361.85
360.148	350.78
360.53	345.13
360.912	354.62
361.294	335.64
361.676	339.26
362.057	337
362.439	318.24
362.821	331.8
363.203	329.54
363.584	317.56
363.966	337.22
364.348	333.83
364.729	321.18
365.111	336.54
365.493	313.72
365.874	316.21
366.256	318.47
366.637	318.01
367.019	320.27
367.4	320.27
367.781	309.43
368.163	326.38
368.544	317.79
368.925	336.54
369.306	326.6
369.688	316.43
370.069	309.43
370.45	327.96
370.831	329.54
371.212	317.34
371.593	303.33
371.974	307.85
372.355	302.65
372.736	312.82
373.117	327.51
373.498	331.35
373.879	304.23
374.26	313.04
374.641	315.75
375.021	316.88
375.402	316.66
375.783	315.75
376.163	338.8
376.544	334.06
376.925	325.92
377.305	330.22
377.686	343.55
378.066	329.31
378.447	334.74
378.827	325.25
379.208	345.58
379.588	336.77
379.968	335.41
380.349	340.16
380.729	337.22
381.109	355.98
381.489	325.92
381.87	340.84
382.25	363.66
382.63	341.97
383.01	325.92
383.39	336.54
383.77	339.71
384.15	358.24
384.53	344.91
384.91	345.36
385.29	343.1
385.67	347.39
386.049	359.14
386.429	326.83
386.809	345.58
387.189	355.75
387.568	372.25
387.948	371.57
388.328	375.64
388.707	356.88
389.087	369.99
389.466	351.23
389.846	358.47
390.225	360.95
390.605	356.88
390.984	366.6
391.363	368.63
391.743	372.25
392.122	370.89
392.501	382.87
392.881	366.6
393.26	377
393.639	391.46
394.018	376.09
394.397	368.86
394.776	376.32
395.155	384.45
395.534	377.9
395.913	370.22
396.292	392.36
396.671	412.48
397.05	402.08
397.429	393.27
397.808	398.92
398.186	408.18
398.565	384.45
398.944	400.05
399.323	431.46
399.701	395.75
400.08	411.12
400.458	426.26
400.837	385.58
401.215	392.81
401.594	416.77
401.972	425.58
402.351	399.37
402.729	407.96
403.107	414.06
403.486	429.88
403.864	431.91
404.242	429.88
404.62	424
404.999	418.12
405.377	419.03
405.755	405.7
406.133	422.42
406.511	426.26
406.889	418.12
407.267	436.2
407.645	420.84
408.023	436.88
408.401	448.41
408.779	454.73
409.156	463.32
409.534	456.09
409.912	469.87
410.29	452.47
410.667	456.09
411.045	470.1
411.422	490.44
411.8	471.91
412.178	449.54
412.555	474.85
412.933	468.52
413.31	485.92
413.687	482.53
414.065	475.52
414.442	483.66
414.819	483.43
415.197	512.59
415.574	490.44
415.951	507.84
416.328	514.39
416.705	496.09
417.082	496.09
417.46	512.13
417.837	518.23
418.214	506.71
418.591	522.75
418.967	513.26
419.344	527.5
419.721	526.82
420.098	528.63
420.475	531.57
420.852	528.4
421.228	540.16
421.605	548.74
421.982	543.55
422.358	542.87
422.735	558.91
423.111	541.74
423.488	567.95
423.864	551.23
424.241	554.84
424.617	576.54
424.994	584
425.37	569.31
425.746	578.35
426.123	586.48
426.499	574.5
426.875	599.36
427.251	588.74
427.627	613.15
428.003	609.98
428.379	624.45
428.756	609.08
429.132	625.12
429.507	614.73
429.883	617.67
430.259	614.73
430.635	623.99
431.011	625.58
431.387	647.5
431.763	643.2
432.138	656.08
432.514	659.25
432.89	654.73
433.265	689.3
433.641	688.63
434.016	670.55
434.392	672.58
434.767	693.82
435.143	690.21
435.518	718.91
435.894	688.4
436.269	715.07
436.644	720.72
437.02	731.56
437.395	713.71
437.77	711
438.145	736.99
438.52	756.42
438.895	754.84
439.271	745.8
439.646	760.71
440.021	760.26
440.395	773.37
440.77	754.16
441.145	765.69
441.52	776.99
441.895	812.46
442.27	796.65
442.645	782.63
443.019	806.36
443.394	799.13
443.769	790.09
444.143	790.32
444.518	804.78
444.892	821.5
445.267	827.61
445.641	839.13
446.016	844.33
446.39	830.54
446.764	854.27
447.139	837.77
447.513	859.24
447.887	857.89
448.262	857.66
448.636	866.7
449.01	874.61
449.384	896.53
449.758	882.97
450.132	893.37
450.506	889.07
450.88	893.14
451.254	898.11
451.628	927.04
452.002	933.37
452.376	927.04
452.75	924.78
453.123	927.94
453.497	933.37
453.871	967.04
454.244	954.61
454.618	979.47
454.992	1008.84
455.365	993.48
455.739	1015.17
456.112	1008.62
456.486	1047.03
456.859	1047.71
457.232	1072.8
457.606	1070.08
457.979	1085.9
458.352	1074.83
458.725	1077.09
459.099	1092.91
459.472	1111.89
459.845	1125.22
460.218	1098.56
460.591	1153.25
460.964	1149.63
461.337	1190.31
461.71	1200.25
462.083	1200.48
462.456	1226.92
462.829	1198.44
463.201	1228.5
463.574	1240.48
463.947	1246.35
464.32	1282.73
464.692	1296.75
465.065	1291.55
465.438	1349.85
465.81	1348.04
466.183	1338.78
466.555	1391.66
466.928	1378.55
467.3	1402.51
467.672	1437.53
468.045	1452.67
468.417	1440.02
468.789	1456.74
469.161	1513.91
469.534	1542.39
469.906	1548.72
470.278	1569.28
470.65	1562.28
471.022	1640.01
471.394	1682.5
471.766	1679.79
472.138	1710.52
472.51	1768.82
472.882	1760.01
473.253	1795.49
473.625	1860.8
473.997	1857.63
474.369	1891.98
474.74	1930.85
475.112	1979.21
475.484	2023.28
475.855	2057.86
476.227	2110.06
476.598	2192.77
476.97	2205.65
477.341	2259.43
477.713	2285.65
478.084	2350.28
478.455	2455.13
478.827	2453.1
479.198	2515.02
479.569	2522.48
479.94	2666.43
480.311	2699.42
480.682	2769.48
481.053	2859.19
481.424	2897.83
481.795	3010.6
482.166	3070.94
482.537	3130.82
482.908	3183.02
483.279	3248.56
483.65	3367.2
484.021	3468.67
484.391	3540.3
484.762	3582.11
485.133	3663.91
485.503	3745.04
485.874	3857.13
486.244	3946.85
486.615	4058.93
486.985	4147.29
487.356	4279.27
487.726	4374.4
488.097	4472.48
488.467	4499.6
488.837	4628.18
489.207	4740.72
489.578	4842.64
489.948	4962.19
490.318	5067.95
490.688	5133.48
491.058	5202.63
491.428	5387.71
491.798	5469.97
492.168	5595.62
492.538	5668.61
492.908	5821.82
493.278	5927.36
493.648	5997.86
494.017	6070.86
494.387	6166
494.757	6319.44
495.126	6465.65
495.496	6479.43
495.866	6596.72
496.235	6712.2
496.605	6789.93
496.974	6847.33
497.344	7025.41
497.713	7069.02
498.082	7158.51
498.452	7221.34
498.821	7367.55
499.19	7396.7
499.559	7566.41
499.928	7612.06
500.298	7735.45
500.667	7810.02
501.036	7872.39
501.405	8002.33
501.774	8022.44
502.143	8124.36
502.512	8219.28
502.88	8329.33
503.249	8373.17
503.618	8471.7
503.987	8539.04
504.356	8680.05
504.724	8682.54
505.093	8783.55
505.462	8877.34
505.83	8934.06
506.199	9066.03
506.567	9184
506.936	9132.47
507.304	9303.99
507.672	9361.62
508.041	9382.18
508.409	9522.52
508.777	9611.33
509.145	9702.63
509.514	9754.38
509.882	9811.1
510.25	9828.05
510.618	9965.22
510.986	10005.44
511.354	10176.06
511.722	10192.78
512.09	10307.81
512.458	10325.89
512.826	10415.6
513.193	10483.17
513.561	10555.26
513.929	10602.72
514.297	10683.84
514.664	10814.69
515.032	10752.09
515.4	10943.05
515.767	10983.5
516.135	11034.79
516.502	11014.46
516.869	11261.23
517.237	11249.7
517.604	11273.21
517.972	11369.02
518.339	11429.81
518.706	11505.74
519.073	11531.28
519.44	11625.29
519.808	11752.52
520.175	11791.61
520.542	11880.87
520.909	11966.52
521.276	11945.73
521.643	12058.95
522.009	12122.45
522.376	12291.48
522.743	12319.51
523.11	12394.31
523.477	12507.75
523.843	12534.87
524.21	12657.35
524.577	12788.19
524.943	12808.76
525.31	12927.63
525.676	13027.96
526.043	13126.04
526.409	13140.05
526.776	13371
527.142	13327.39
527.508	13406.26
527.874	13487.39
528.241	13574.16
528.607	13601.51
528.973	13766.02
529.339	13699.36
529.705	13952.46
530.071	14052.79
530.437	14110.19
530.803	14133.02
531.169	14285.78
531.535	14171.44
531.901	14299.34
532.267	14327.59
532.632	14477.42
532.998	14478.55
533.364	14589.28
533.73	14650.52
534.095	14734.36
534.461	14772.32
534.826	14878.99
535.192	14955.14
535.557	15021.81
535.923	15084.86
536.288	15178.64
536.653	15250.95
537.019	15126.44
537.384	15298.41
537.749	15296.38
538.114	15382.25
538.479	15385.19
538.845	15501.12
539.21	15425.19
539.575	15572.53
539.94	15644.62
540.305	15826.08
540.67	15746.76
541.034	15771.39
541.399	15842.13
541.764	15905.4
542.129	16069.01
542.494	16053.65
542.858	16179.07
543.223	16188.11
543.587	16293.64
543.952	16257.26
544.316	16344.94
544.681	16407.53
545.045	16434.2
545.41	16638.04
545.774	16695.21
546.138	16636.68
546.503	16737.02
546.867	16652.05
547.231	16883
547.595	16907.18
547.959	16942.44
548.324	16969.78
548.688	17007.52
549.052	17114.63
549.416	17137.68
549.779	17138.81
550.143	17249.32
550.507	17357.11
550.871	17381.29
551.235	17352.37
551.599	17532.93
551.962	17446.15
552.326	17624.68
552.689	17653.15
553.053	17660.16
553.417	17697.22
553.78	17976.53
554.143	17995.29
554.507	18040.03
554.87	18028.06
555.234	18184.66
555.597	18184.44
555.96	18153.7
556.323	18351.44
556.686	18244.32
557.05	18544.43
557.413	18480.02
557.776	18526.58
558.139	18623.97
558.502	18728.15
558.865	18757.08
559.228	18857.19
559.59	18934.02
559.953	18898.54
560.316	19060.8
560.679	19131.98
561.041	19267.8
561.404	19273.67
561.767	19372.65
562.129	19258.76
562.492	19541.69
562.854	19480.9
563.217	19494.46
563.579	19555.25
563.941	19699.2
564.304	19864.62
564.666	19910.49
565.028	19881.57
565.39	19996.37
565.753	20130.6
566.115	20180.09
566.477	20301.22
566.839	20395.68
567.201	20446.3
567.563	20460.99
567.925	20670.02
568.287	20702.34
568.648	20740.98
569.01	20750.02
569.372	20959.73
569.734	20893.07
570.095	21126.96
570.457	21268.88
570.819	21223.91
571.18	21239.72
571.542	21364.69
571.903	21475.88
572.265	21499.38
572.626	21607.4
572.987	21712.03
573.349	21798.81
573.71	21876.32
574.071	21956.09
574.432	22041.51
574.794	22245.35
575.155	22354.5
575.516	22243.09
575.877	22479.69
576.238	22595.17
576.599	22660.7
576.96	22842.62
577.32	22805.33
577.681	23062.5
578.042	23359.67
578.403	23358.31
578.763	23480.8
579.124	23504.52
579.485	23693.22
579.845	23848.47
580.206	23955.13
580.566	24161
580.927	24359.19
581.287	24499.3
581.648	24601.67
582.008	24772.06
582.368	24887.76
582.728	25169.11
583.089	25141.99
583.449	25356.9
583.809	25514.41
584.169	25786.05
584.529	25880.28
584.889	26277.11
585.249	26275.3
585.609	26384.22
585.969	26716.42
586.329	26844.55
586.688	27087.25
587.048	27248.61
587.408	27396.17
587.768	27633.23
588.127	27842.71
588.487	27918.19
588.846	28385.52
589.206	28372.42
589.565	28662.58
589.925	28844.5
590.284	29045.17
590.643	29375.56
591.003	29567.64
591.362	29750.01
591.721	29859.84
592.08	30174.86
592.44	30399.03
592.799	30739.14
593.158	30659.59
593.517	31049.86
593.876	31231.55
594.235	31309.97
594.593	31604.65
594.952	31866.34
595.311	31946.34
595.67	32172.54
596.029	32523.95
596.387	32836.93
596.746	33018.85
597.104	33061.11
597.463	33179.07
597.822	33582.9
598.18	33454.09
598.538	33675.56
598.897	34013.85
599.255	33920.07
599.613	34673.5
599.972	34562.76
600.33	34757.79
600.688	34859.7
601.046	35089.76
601.404	35417.66
601.762	35364.1
602.12	35738.55
602.478	35900.13
602.836	36040.69
603.194	35992.1
603.552	36264.41
603.91	36329.27
604.268	36568.59
604.625	36641.8
604.983	36972.19
605.341	36980.1
605.698	37192.07
606.056	37315.23
606.413	37357.72
606.771	37599.07
607.128	37709.57
607.485	37697.37
607.843	37774.88
608.2	38124.7
608.557	38381.65
608.914	38327.41
609.272	38461.19
609.629	38637.46
609.986	38937.34
610.343	38860.5
610.7	39130.1
611.057	39252.13
611.414	39274.28
611.771	39399.7
612.127	39660.03
612.484	39631.33
612.841	40016.63
613.198	39933.92
613.554	40068.16
613.911	40373.91
614.267	40271.99
614.624	40444.19
614.98	40609.61
615.337	40713.11
615.693	40704.75
616.05	40868.59
616.406	41099.77
616.762	40949.49
617.118	40980.67
617.475	41152.19
617.831	41317.39
618.187	41378.86
618.543	41364.62
618.899	41772.97
619.255	41674.89
619.611	41705.63
619.967	41858.84
620.323	41866.75
620.678	41873.08
621.034	41862.23
621.39	42011.61
621.746	41952.85
622.101	42443.46
622.457	42114.43
622.812	42211.83
623.168	42432.16
623.523	42513.29
623.879	42561.42
624.234	42298.15
624.589	42611.82
624.945	42560.97
625.3	42760.74
625.655	42700.63
626.01	42671.25
626.365	42799.16
626.72	42712.38
627.075	42776.11
627.43	42736.56
627.785	42845.71
628.14	42914.18
628.495	42873.96
628.85	42923.67
629.205	42853.17
629.559	43029.89
629.914	42911.7
630.269	42976.55
630.623	42872.38
630.978	42808.2
631.332	42964.35
631.687	43072.82
632.041	42940.4
632.396	43011.58
632.75	42921.64
633.104	42963.9
633.459	42749.67
633.813	42859.27
634.167	42825.37
634.521	42816.33
634.875	42993.5
635.229	42868.53
635.583	42727.75
635.937	42764.58
636.291	42729.1
636.645	42784.02
636.999	42639.61
637.352	42841.19
637.706	42569.78
638.06	42774.75
638.413	42831.47
638.767	42479.62
639.121	42714.19
639.474	42440.07
639.828	42453.18
640.181	42472.61
640.534	42533.63
640.888	42410.01
641.241	42309.45
641.594	42438.94
641.947	42573.4
642.301	42397.59
642.654	42418.6
643.007	42524.59
643.36	42341.32
643.713	42373.18
644.066	42411.6
644.419	42332.05
644.771	41954.66
645.124	41676.93
645.477	41555.8
645.83	41483.94
646.182	41254.56
646.535	41080.56
646.888	41261.57
647.24	41034.68
647.593	41194.91
647.945	41063.84
648.298	40937.51
648.65	40846.44
649.002	40796.05
649.355	41052.08
649.707	40929.6
650.059	41165.75
650.411	41500.21
650.763	41563.94
651.115	41897.26
651.467	41823.14
651.819	41873.53
652.171	41758.96
652.523	41798.05
652.875	41769.35
653.227	41565.52
653.578	41885.96
653.93	41768
654.282	41573.65
654.633	41436.48
654.985	41605.29
655.337	41501.56
655.688	41627.89
656.039	41718.96
656.391	41442.36
656.742	41466.99
657.094	41429.02
657.445	41636.7
657.796	41464.05
658.147	41460.21
658.498	41376.6
658.849	41488.68
659.2	41436.26
659.551	41272.42
659.902	41459.98
660.253	41447.55
660.604	41450.72
660.955	41084.4
661.306	41470.15
661.656	41245.75
662.007	41124.17
662.358	41237.84
662.708	41115.13
663.059	41245.53
663.409	41074.23
663.76	41337.27
664.11	41367.78
664.461	41315.35
664.811	41247.33
665.161	41161.69
665.511	41138.86
665.862	41211.4
666.212	41274
666.562	41366.65
666.912	41253.89
667.262	41326.43
667.612	41200.78
667.962	41232.64
668.312	41215.24
668.662	41302.7
669.011	41287.33
669.361	41151.06
669.711	41085.76
670.06	41135.47
670.41	41033.78
670.76	40960.79
671.109	41170.73
671.459	40978.87
671.808	40869.04
672.157	40950.39
672.507	40799.21
672.856	40871.98
673.205	40846.44
673.554	41060.22
673.904	40930.51
674.253	41044.63
674.602	40821.81
674.951	40387.47
675.3	40265.44
675.649	40891.86
675.998	40717.4
676.346	40749.27
676.695	40867
677.044	40533.91
677.393	40617.97
677.741	40722.38
678.09	40700
678.438	40545.43
678.787	40582.72
679.135	40507.47
679.484	40350.41
679.832	40627.69
680.181	40263.86
680.529	40529.16
680.877	40365.32
681.225	40105.22
681.573	40525.09
681.922	40120.58
682.27	40051.88
682.618	40088.95
682.966	40002.39
683.314	40163.29
683.661	39874.04
684.009	39771.21
684.357	39775.06
684.705	39731.22
685.053	39761.72
685.4	39678.79
685.748	39476.98
686.095	39555.17
686.443	39281.96
686.79	39299.59
687.138	39382.07
687.485	39491.45
687.832	39248.97
688.18	39271.34
688.527	39122.19
688.874	39021.18
689.221	38820.96
689.568	38723.56
689.915	38769.43
690.262	38792.03
690.609	38574.86
690.956	38528.31
691.303	38449.67
691.65	38426.62
691.997	38398.82
692.344	38207.19
692.69	38113.18
693.037	38211.71
693.383	37813.75
693.73	37944.6
694.077	37627.32
694.423	37639.29
694.769	37658.5
695.116	37425.97
695.462	37568.11
695.808	37320.88
696.155	37518.84
696.501	37163.15
696.847	37113.2
697.193	36923.61
697.539	36901.91
697.885	36638.42
698.231	36621.24
698.577	36703.27
698.923	36540.11
699.269	36323.4
699.614	36080.01
699.96	36313.68
700.306	36134.25
700.651	36061.71
700.997	35966.57
701.342	35909.39
701.688	35865.55
702.033	35887.25
702.379	35752.56
702.724	35671.43
703.069	35642.96
703.415	35261.28
703.76	35303.54
704.105	35289.3
704.45	35124.56
704.795	35050.21
705.14	34900.16
705.485	34918.46
705.83	34789.42
706.175	34645.02
706.52	34673.04
706.865	34594.18
707.209	34580.16
707.554	34376.78
707.899	34496.32
708.243	34333.62
708.588	34240.74
708.932	34134.3
709.277	34151.25
709.621	34101.31
709.966	33873.74
710.31	33873.97
710.654	33647.08
710.998	33597.14
711.342	33732.28
711.687	33560.3
712.031	33413.42
712.375	33351.5
712.719	33541.1
713.063	33348.56
713.407	33303.81
713.75	33180.2
714.094	33164.61
714.438	33009.13
714.782	32961.45
715.125	32877.38
715.469	32991.73
715.812	32857.05
716.156	32601.01
716.499	32585.19
716.843	32715.13
717.186	32386.1
717.53	32606.66
717.873	32540.67
718.216	32455.93
718.559	32398.53
718.902	32077.41
719.246	32113.34
719.589	32054.81
719.932	31886.22
720.275	32080.57
720.617	32024.07
720.96	31983.4
721.303	31816.62
721.646	31734.14
721.989	31646
722.331	31783.85
722.674	31620.47
723.016	31595.16
723.359	31572.79
723.701	31644.87
724.044	31506.12
724.386	31330.53
724.729	31293.7
725.071	31414.37
725.413	31100.03
725.755	31330.76
726.097	31069.97
726.439	30907.49
726.782	30997.43
727.124	31193.36
727.465	30889.87
727.807	30850.32
728.149	30827.95
728.491	30850.09
728.833	30770.09
729.175	30674.5
729.516	30753.6
729.858	30566.03
730.199	30523.55
730.541	30585.92
730.882	30527.39
731.224	30537.33
731.565	30393.61
731.906	30455.07
732.248	30258.47
732.589	30202.88
732.93	30098.02
733.271	30156.33
733.612	30169.43
733.953	30169.43
734.294	30098.25
734.635	29964.24
734.976	30032.04
735.317	29965.37
735.658	29864.13
735.999	29805.15
736.339	29729.9
736.68	29893.96
737.021	29687.86
737.361	29721.31
737.702	29876.11
738.042	29708.43
738.383	29567.64
738.723	29587.08
739.063	29492.16
739.404	29662.33
739.744	29437.7
740.084	29430.02
740.424	29297.14
740.764	29302.11
741.104	29436.34
741.444	29171.49
741.784	29197.93
742.124	29222.56
742.464	29057.6
742.804	29134.43
743.143	28965.62
743.483	28972.18
743.823	28859.64
744.162	28758.85
744.502	28955.23
744.841	28760.2
745.181	28806.98
745.52	28786.64
745.86	28690.6
746.199	28650.6
746.538	28628.46
746.877	28603.6
747.216	28646.53
747.556	28586.88
747.895	28539.65
748.234	28368.35
748.573	28258.97
748.911	28197.51
749.25	28330.61
749.589	28169.03
749.928	28293.32
750.267	28259.65
750.605	28072.99
750.944	28051.07
751.283	27941.69
751.621	27985.31
751.96	27857.86
752.298	27766.33
752.636	27797.29
752.975	27657.41
753.313	27713.9
753.651	27704.86
753.989	27649.72
754.327	27585.77
754.666	27432.78
755.004	27362.27
755.342	27453.8
755.679	27446.57
756.017	27187.59
756.355	27208.15
756.693	27221.49
757.031	27270.07
757.368	26965.45
