Data from hue_26_FLMS001491_00081.txt Node
Date: Tue Feb 07 17:14:40 GMT 2017
User: dcchb
Spectrometer: FLMS00149
Trigger mode: 0
Integration Time (sec): 2.000000E-2
Scans to average: 10
Electric dark correction enabled: true
Nonlinearity correction enabled: false
Boxcar width: 0
XAxis mode: Wavelengths
Number of Pixels in Spectrum: 2048
>>>>>Begin Spectral Data<<<<<
341.393	-5.16
341.776	-5.16
342.16	-5.16
342.543	-68.2
342.927	-71.59
343.31	-60.52
343.693	-68.2
344.077	-71.14
344.46	-65.94
344.843	-53.74
345.226	-45.61
345.61	-25.04
345.993	-1.09
346.376	-4.93
346.759	14.05
347.142	20.61
347.525	32.13
347.908	59.7
348.291	66.71
348.674	94.5
349.057	108.51
349.44	117.33
349.823	137.21
350.206	164.56
350.588	196.87
350.971	211.79
351.354	228.96
351.737	245.01
352.119	236.87
352.502	262.63
352.884	260.83
353.267	277.55
353.65	308.96
354.032	304.89
354.414	313.48
354.797	319.58
355.179	314.38
355.562	322.29
355.944	331.33
356.326	329.53
356.709	330.43
357.091	344.89
357.473	330.88
357.855	333.59
358.238	358.68
358.62	347.6
359.002	359.81
359.384	334.5
359.766	340.15
360.148	360.48
360.53	361.84
360.912	352.35
361.294	319.13
361.676	333.14
362.057	343.76
362.439	326.14
362.821	321.16
363.203	331.11
363.584	324.55
363.966	337.89
364.348	345.8
364.729	318.9
365.111	306.47
365.493	308.28
365.874	297.44
366.256	326.81
366.637	335.63
367.019	330.88
367.4	322.75
367.781	294.95
368.163	330.66
368.544	305.35
368.925	333.37
369.306	339.02
369.688	326.14
370.069	300.83
370.45	315.06
370.831	314.84
371.212	327.49
371.593	306.93
371.974	314.84
372.355	308.73
372.736	281.39
373.117	302.18
373.498	296.31
373.879	314.16
374.26	317.1
374.641	329.07
375.021	317.55
375.402	319.58
375.783	309.19
376.163	334.04
376.544	301.28
376.925	344.67
377.305	327.27
377.686	304.44
378.066	336.76
378.447	310.54
378.827	339.47
379.208	331.33
379.588	330.88
379.968	337.66
380.349	334.95
380.729	326.59
381.109	333.37
381.489	324.55
381.87	339.69
382.25	338.79
382.63	331.33
383.01	313.03
383.39	347.38
383.77	346.47
384.15	352.58
384.53	344.67
384.91	339.69
385.29	345.57
385.67	347.15
386.049	346.25
386.429	344.67
386.809	337.21
387.189	344.21
387.568	345.8
387.948	341.28
388.328	375.63
388.707	352.12
389.087	358.23
389.466	379.02
389.846	372.01
390.225	352.12
390.605	348.06
390.984	364.33
391.363	349.41
391.743	362.97
392.122	371.33
392.501	359.13
392.881	351.67
393.26	369.3
393.639	369.98
394.018	369.07
394.397	368.62
394.776	370.65
395.155	391.9
395.534	385.79
395.913	376.76
396.292	386.47
396.671	393.93
397.05	384.67
397.429	376.76
397.808	379.02
398.186	380.6
398.565	396.19
398.944	368.17
399.323	383.31
399.701	398.68
400.08	410.43
400.458	369.98
400.837	402.52
401.215	402.29
401.594	385.79
401.972	390.09
402.351	418.79
402.729	403.42
403.107	402.52
403.486	407.04
403.864	399.58
404.242	409.75
404.62	397.77
404.999	401.84
405.377	411.11
405.755	406.13
406.133	412.69
406.511	439.8
406.889	431.22
407.267	423.99
407.645	426.25
408.023	425.57
408.401	435.06
408.779	435.51
409.156	429.18
409.534	439.8
409.912	447.49
410.29	449.07
410.667	447.26
411.045	421.27
411.422	451.78
411.8	448.39
412.178	458.56
412.555	432.12
412.933	455.4
413.31	465.57
413.687	469.18
414.065	460.82
414.442	471.89
414.819	466.7
415.197	496.53
415.574	480.03
415.951	492.68
416.328	479.8
416.705	486.13
417.082	493.36
417.46	485.45
417.837	489.3
418.214	467.15
418.591	485.91
418.967	509.18
419.344	501.27
419.721	507.6
420.098	514.15
420.475	515.51
420.852	530.42
421.228	514.15
421.605	511.44
421.982	515.74
422.358	532.46
422.735	528.84
423.111	525
423.488	522.06
423.864	553.7
424.241	535.85
424.617	532.46
424.994	528.62
425.37	561.16
425.746	554.83
426.123	565
426.499	532.01
426.875	564.1
427.251	556.86
427.627	567.49
428.003	568.16
428.379	583.53
428.756	562.06
429.132	584.66
429.507	569.97
429.883	580.82
430.259	619.91
430.635	581.04
431.011	612.68
431.387	626.24
431.763	614.72
432.138	611.55
432.514	625.56
432.89	621.04
433.265	624.88
433.641	642.74
434.016	641.61
434.392	643.87
434.767	650.65
435.143	662.4
435.518	666.69
435.894	681.38
436.269	690.65
436.644	680.7
437.02	686.13
437.395	704.43
437.77	666.69
438.145	703.98
438.52	692.91
438.895	706.24
439.271	703.98
439.646	717.31
440.021	737.88
440.395	714.37
440.77	726.12
441.145	723.19
441.52	731.55
441.895	743.98
442.27	742.4
442.645	745.79
443.019	739.68
443.394	722.74
443.769	744.2
444.143	758.89
444.518	751.89
444.892	741.27
445.267	756.86
445.641	774.03
446.016	765.22
446.39	772.23
446.764	795.73
447.139	775.84
447.513	844.77
447.887	807.7
448.262	788.72
448.636	778.78
449.01	813.35
449.384	809.74
449.758	823.52
450.132	826.91
450.506	825.11
450.88	809.74
451.254	846.35
451.628	841.38
452.002	856.29
452.376	872.56
452.75	868.04
453.123	871.21
453.497	870.75
453.871	887.7
454.244	876.86
454.618	892.22
454.992	900.36
455.365	913.69
455.739	934.48
456.112	916.4
456.486	929.51
456.859	940.13
457.232	963.41
457.606	932.67
457.979	941.03
458.352	966.8
458.725	993.46
459.099	990.98
459.472	1030.52
459.845	984.42
460.218	1008.83
460.591	1019.68
460.964	1039.11
461.337	1052.67
461.71	1054.48
462.083	1066.46
462.456	1051.09
462.829	1089.51
463.201	1099.67
463.574	1104.42
463.947	1114.36
464.32	1122.05
464.692	1111.88
465.065	1165.89
465.438	1165.66
465.81	1181.48
466.183	1220.8
466.555	1218.77
466.928	1235.94
467.3	1214.7
467.672	1255.15
468.045	1292.21
468.417	1299.67
468.789	1293.57
469.161	1313
469.534	1324.75
469.906	1356.39
470.278	1357.52
470.65	1389.16
471.022	1380.57
471.394	1416.73
471.766	1456.28
472.138	1463.96
472.51	1481.81
472.882	1498.53
473.253	1524.97
473.625	1564.52
473.997	1582.83
474.369	1589.83
474.74	1577.18
475.112	1619.21
475.484	1655.37
475.855	1704.63
476.227	1715.48
476.598	1760.9
476.97	1808.81
477.341	1837.73
477.713	1846.55
478.084	1864.4
478.455	1904.85
478.827	1945.08
479.198	1995.24
479.569	2007.67
479.94	2071.63
480.311	2099.65
480.682	2129.7
481.053	2171.96
481.424	2210.15
481.795	2225.52
482.166	2291.28
482.537	2344.61
482.908	2377.38
483.279	2396.14
483.65	2491.28
484.021	2530.15
484.391	2585.29
484.762	2595
485.133	2612.63
485.503	2718.39
485.874	2735.11
486.244	2784.6
486.615	2837.71
486.985	2889.01
487.356	2932.62
487.726	2954.31
488.097	3075.22
488.467	3067.98
488.837	3109.57
489.207	3204.93
489.578	3262.1
489.948	3260.97
490.318	3332.84
490.688	3359.73
491.058	3376.22
491.428	3472.04
491.798	3524.7
492.168	3561.08
492.538	3620.51
492.908	3681.53
493.278	3733.05
493.648	3742.99
494.017	3786.16
494.387	3831.58
494.757	3887.85
495.126	3977.56
495.496	3985.7
495.866	4007.62
496.235	4070.44
496.605	4074.74
496.974	4102.76
497.344	4140.05
497.713	4209.88
498.082	4236.77
498.452	4300.49
498.821	4291
499.19	4339.82
499.559	4406.25
499.928	4422.52
500.298	4451.9
500.667	4479.25
501.036	4480.83
501.405	4554.27
501.774	4558.57
502.143	4594.95
502.512	4610.09
502.88	4665.91
503.249	4674.5
503.618	4683.76
503.987	4785.91
504.356	4796.07
504.724	4819.35
505.093	4834.04
505.462	4836.07
505.83	4888.05
506.199	4870.65
506.567	4973.02
506.936	4953.81
507.304	5005.11
507.672	5052.56
508.041	5039.91
508.409	5059.34
508.777	5124.2
509.145	5177.31
509.514	5183.86
509.882	5200.58
510.25	5200.13
510.618	5244.42
510.986	5255.27
511.354	5280.81
511.722	5348.6
512.09	5369.17
512.458	5374.82
512.826	5420.01
513.193	5413.01
513.561	5461.82
513.929	5474.7
514.297	5501.37
514.664	5599.9
515.032	5556.73
515.4	5572.55
515.767	5589.05
516.135	5646.67
516.502	5615.71
516.869	5673.79
517.237	5679.44
517.604	5709.95
517.972	5759.89
518.339	5727.58
518.706	5763.05
519.073	5763.05
519.44	5790.85
519.808	5929.15
520.175	5889.61
520.542	5940.23
520.909	6000.79
521.276	5940.23
521.643	6021.8
522.009	6040.56
522.376	6086.44
522.743	6067.45
523.11	6114.46
523.477	6188.13
523.843	6150.39
524.21	6278.75
524.577	6312.42
524.943	6235.58
525.31	6312.87
525.676	6396.48
526.043	6405.07
526.409	6415.92
526.776	6468.8
527.142	6534.11
527.508	6521.9
527.874	6567.33
528.241	6593.77
528.607	6614.33
528.973	6705.63
529.339	6693.2
529.705	6724.16
530.071	6804.84
530.437	6798.28
530.803	6860.43
531.169	6937.04
531.535	6909.24
531.901	6909.92
532.267	6956.02
532.632	6982.46
532.998	7033.3
533.364	6998.95
533.73	7090.03
534.095	7140.19
534.461	7126.63
534.826	7208.89
535.192	7193.75
535.557	7291.83
535.923	7330.92
536.288	7325.05
536.653	7389.9
537.019	7286.63
537.384	7380.19
537.749	7338.61
538.114	7419.28
538.479	7427.87
538.845	7492.5
539.21	7467.19
539.575	7506.96
539.94	7547.19
540.305	7612.5
540.67	7605.72
541.034	7622.89
541.399	7699.73
541.764	7671.25
542.129	7802.55
542.494	7708.54
542.858	7822.66
543.223	7805.26
543.587	7867.18
543.952	7894.98
544.316	7867.63
544.681	7899.5
545.045	8011.13
545.41	8002.09
545.774	8024.92
546.138	8050.23
546.503	8083.22
546.867	8120.73
547.231	8184.69
547.595	8176.1
547.959	8271.92
548.324	8259.03
548.688	8240.05
549.052	8283.44
549.416	8348.3
549.779	8364.57
550.143	8416.32
550.507	8496.77
550.871	8477.56
551.235	8444.57
551.599	8498.8
551.962	8591.45
552.326	8567.95
552.689	8538.35
553.053	8635.3
553.417	8562.76
553.78	8678.01
554.143	8664.9
554.507	8701.96
554.87	8728.4
555.234	8862.41
555.597	8788.29
555.96	8839.81
556.323	8864.22
556.686	8898.57
557.05	8877.32
557.413	8935.63
557.776	9018.79
558.139	9125.23
558.502	9003.87
558.865	9096.75
559.228	9181.5
559.59	9192.8
559.953	9125.68
560.316	9288.39
560.679	9203.64
561.041	9258.1
561.404	9304.43
561.767	9370.19
562.129	9302.17
562.492	9420.36
562.854	9354.15
563.217	9427.14
563.579	9423.98
563.941	9454.94
564.304	9571.32
564.666	9629.17
565.028	9572.22
565.39	9644.99
565.753	9705.1
566.115	9794.36
566.477	9777.41
566.839	9796.62
567.201	9849.5
567.563	9901.25
567.925	9977.63
568.287	9896.05
568.648	9954.58
569.01	10038.2
569.372	10105.77
569.734	10093.11
570.095	10137.4
570.457	10272.99
570.819	10239.55
571.18	10288.81
571.542	10352.31
571.903	10409.71
572.265	10395.25
572.626	10485.19
572.987	10506.21
573.349	10561.57
573.71	10617.62
574.071	10690.16
574.432	10677.73
574.794	10804.05
575.155	10859.87
575.516	10847.21
575.877	10965.4
576.238	11063.25
576.599	11106.19
576.96	11178.05
577.32	11287.88
577.681	11377.6
578.042	11476.12
578.403	11502.56
578.763	11658.04
579.124	11682.45
579.485	11827.3
579.845	12000.4
580.206	12067.3
580.566	12081.53
580.927	12372.37
581.287	12402.88
581.648	12504.12
582.008	12673.61
582.368	12854.85
582.728	12913.83
583.089	13158.79
583.449	13211.45
583.809	13466.81
584.169	13672.45
584.529	13784.09
584.889	14065.89
585.249	14116.28
585.609	14355.6
585.969	14662.48
586.329	14772.08
586.688	15018.18
587.048	15197.61
587.408	15374.78
587.768	15744.49
588.127	15842.56
588.487	16228.09
588.846	16461.98
589.206	16575.65
589.565	16854.29
589.925	17179.93
590.284	17414.27
590.643	17675.28
591.003	18088.83
591.362	18387.36
591.721	18559.78
592.08	18730.17
592.44	19169.26
592.799	19413.09
593.158	19659.19
593.517	19986.64
593.876	20234.99
594.235	20531.03
594.593	20873.62
594.952	21084.23
595.311	21448.29
595.67	21805.12
596.029	22283.75
596.387	22424.76
596.746	22844.87
597.104	23013.67
597.463	23253.89
597.822	23724.39
598.18	23896.59
598.538	24118.05
598.897	24567.98
599.255	24738.83
599.613	25331.81
599.972	25327.74
600.33	25738.57
600.688	25954.16
601.046	26295.17
601.404	26698.78
601.762	26917.07
602.12	27342.15
602.478	27551.18
602.836	27840.21
603.194	28037.05
603.552	28412.85
603.91	28547.99
604.268	29030.01
604.625	29067.53
604.983	29355.65
605.341	29533.05
605.698	29862.31
606.056	30258
606.413	30331.9
606.771	30741.61
607.128	31008.72
607.485	31114.48
607.843	31422.49
608.2	31829.26
608.557	32049.82
608.914	32154
609.272	32479.87
609.629	32770.03
609.986	33172.28
610.343	33063.58
610.7	33488.2
611.057	33592.15
611.414	33792.83
611.771	33981.07
612.127	34374.73
612.484	34491.11
612.841	34787.83
613.198	34723.2
613.554	34919.12
613.911	35357.08
614.267	35439.79
614.624	35570.41
614.98	35689.05
615.337	36078.42
615.693	36271.41
616.05	36277.28
616.406	36682.24
616.762	36631.62
617.118	36835.46
617.475	36902.8
617.831	37188.22
618.187	37227.31
618.543	37400.19
618.899	37707.07
619.255	37636.34
619.611	37823.45
619.967	38040.4
620.323	38295.53
620.678	38247.62
621.034	38237.23
621.39	38323.55
621.746	38477
622.101	38967.83
622.457	38794.05
622.812	38948.85
623.168	39095.96
623.523	39168.28
623.879	39349.29
624.234	39117.66
624.589	39457.54
624.945	39469.74
625.3	39704.31
625.655	39748.83
626.01	39678.55
626.365	39799.9
626.72	39956.96
627.075	40002.61
627.43	39997.41
627.785	39905.66
628.14	40147.01
628.495	40316.5
628.85	40272.66
629.205	40209.61
629.559	40408.7
629.914	40291.64
630.269	40353.33
630.623	40242.15
630.978	40251.87
631.332	40615.02
631.687	40642.14
632.041	40473.55
632.396	40640.78
632.75	40499.09
633.104	40665.64
633.459	40503.16
633.813	40638.97
634.167	40516.27
634.521	40757.61
634.875	40785.41
635.229	40537.28
635.583	40513.1
635.937	40536.15
636.291	40460.9
636.645	40597.39
636.999	40522.59
637.352	40687.33
637.706	40467.23
638.06	40681.46
638.413	40533.89
638.767	40430.17
639.121	40644.85
639.474	40410.73
639.828	40525.3
640.181	40614.57
640.534	40610.27
640.888	40476.27
641.241	40267.68
641.594	40532.99
641.947	40510.84
642.301	40373.22
642.654	40608.69
643.007	40588.13
643.36	40471.75
643.713	40389.26
644.066	40612.31
644.419	40308.81
644.771	40179.78
645.124	39877.41
645.477	39740.47
645.83	39532.34
646.182	39295.96
646.535	39297.99
646.888	39469.29
647.24	39083.08
647.593	39402.17
647.945	39517.2
648.298	39201.95
648.65	39032.01
649.002	39000.37
649.355	39143.87
649.707	39294.15
650.059	39345.22
650.411	39897.07
650.763	39838.99
651.115	40359.66
651.467	40157.4
651.819	40234.24
652.171	40202.15
652.523	39971.65
652.875	40022.49
653.227	39993.79
653.578	40095.94
653.93	39947.69
654.282	39882.84
654.633	39790.41
654.985	39974.13
655.337	39952.66
655.688	39948.37
656.039	40089.38
656.391	39845.32
656.742	39755.16
657.094	39824.76
657.445	39786.57
657.796	39838.54
658.147	39774.14
658.498	39799
658.849	39885.32
659.2	39808.71
659.551	39788.15
659.902	39893.91
660.253	39813.23
660.604	39743.86
660.955	39656.85
661.306	39831.76
661.656	39686.46
662.007	39759.22
662.358	39740.47
662.708	39826.57
663.059	39736.62
663.409	39486.24
663.76	39800.58
664.11	39823.4
664.461	39878.99
664.811	39780.01
665.161	39787.02
665.511	39716.74
665.862	39704.31
666.212	39855.49
666.562	39817.07
666.912	39725.33
667.262	39771.65
667.612	39671.77
667.962	39735.04
668.312	39713.35
668.662	39819.33
669.011	39712.9
669.361	39499.12
669.711	39530.08
670.06	39683.07
670.41	39505.9
670.76	39441.72
671.109	39530.98
671.459	39479.46
671.808	39467.48
672.157	39689.85
672.507	39307.71
672.856	39445.11
673.205	39410.08
673.554	39582.05
673.904	39368.27
674.253	39703.41
674.602	39347.03
674.951	38936.19
675.3	38745.01
675.649	39352
675.998	39218.9
676.346	39364.66
676.695	39524.43
677.044	39236.98
677.393	39152.91
677.741	39230.2
678.09	39133.48
678.438	39001.28
678.787	39183.42
679.135	39192.46
679.484	38998.34
679.832	39046.02
680.181	38836.99
680.529	38873.37
680.877	38868.62
681.225	38755.18
681.573	38968.06
681.922	38731.23
682.27	38634.05
682.618	38694.62
682.966	38542.08
683.314	38614.17
683.661	38600.84
684.009	38240.84
684.357	38432.7
684.705	38222.31
685.053	38247.4
685.4	38299.6
685.748	38117.91
686.095	38034.97
686.443	37940.06
686.79	38021.42
687.138	38062.54
687.485	37785.72
687.832	37860.97
688.18	37804.92
688.527	37621.88
688.874	37609.9
689.221	37444.26
689.568	37407.42
689.915	37396.57
690.262	37457.14
690.609	37253.98
690.956	37284.94
691.303	37064.15
691.65	36977.83
691.997	36886.53
692.344	36869.36
692.69	36700.77
693.037	36706.65
693.383	36534.67
693.73	36690.15
694.077	36320.67
694.423	36410.16
694.769	36299.2
695.116	36150.73
695.462	36139.66
695.808	36012.2
696.155	36130.39
696.501	35765.2
696.847	35840.46
697.193	35531.09
697.539	35864.86
697.885	35428.49
698.231	35231.88
698.577	35424.65
698.923	35327.7
699.269	35218.1
699.614	34998.22
699.96	34850.2
700.306	35062.62
700.651	34649.53
700.997	34747.38
701.342	34678.23
701.688	34635.06
702.033	34470.77
702.379	34588.06
702.724	34323.21
703.069	34434.17
703.415	34059.71
703.76	34077.79
704.105	34154.85
704.45	34108.07
704.795	33795.76
705.14	33763.9
705.485	33722.32
705.83	33621.76
706.175	33551.25
706.52	33491.14
706.865	33364.36
707.209	33187.64
707.554	33226.97
707.899	33223.12
708.243	32960.76
708.588	33087.76
708.932	32909.69
709.277	32780.65
709.621	32808.22
709.966	32572.07
710.31	32726.87
710.654	32485.52
710.998	32492.75
711.342	32518.96
711.687	32370.26
712.031	32232.87
712.375	32138.86
712.719	32202.59
713.063	32035.58
713.407	32187.22
713.75	31945.19
714.094	31969.15
714.438	31846.66
714.782	31881.01
715.125	31774.35
715.469	31852.09
715.812	31601.02
716.156	31432.44
716.499	31504.07
716.843	31565.99
717.186	31376.62
717.53	31464.07
717.873	31405.32
718.216	31347.47
718.559	31156.06
718.902	30993.13
719.246	31076.74
719.589	30982.28
719.932	31036.51
720.275	30905.9
720.617	30912.9
720.96	30742.28
721.303	30728.05
721.646	30800.14
721.989	30566.24
722.331	30597.2
722.674	30612.12
723.016	30653.25
723.359	30567.6
723.701	30583.87
724.044	30412.8
724.386	30239.93
724.729	30401.73
725.071	30227.27
725.413	30233.15
725.755	30285.12
726.097	30117.89
726.439	30082.87
726.782	29961.74
727.124	30009.42
727.465	29936.88
727.807	29954.06
728.149	29885.13
728.491	29850.56
728.833	29902.76
729.175	29621.64
729.516	29549.77
729.858	29589.09
730.199	29483.56
730.541	29520.85
730.882	29457.12
731.224	29627.51
731.565	29508.87
731.906	29413.96
732.248	29482.66
732.589	29250.12
732.93	29219.61
733.271	29283.79
733.612	29072.27
733.953	29171.93
734.294	29165.15
734.635	29119.28
734.976	29158.15
735.317	28853.52
735.658	28988.66
735.999	29009.45
736.339	28781.43
736.68	28923.12
737.021	28712.28
737.361	28686.29
737.702	28716.35
738.042	28734.65
738.383	28609.01
738.723	28680.64
739.063	28603.81
739.404	28590.25
739.744	28504.38
740.084	28355.23
740.424	28432.29
740.764	28347.32
741.104	28402.69
741.444	28276.14
741.784	28196.14
742.124	28243.82
742.464	28269.36
742.804	28211.05
743.143	28031.85
743.483	28115.46
743.823	27972.41
744.162	27921.12
744.502	28022.13
744.841	27830.05
745.181	28057.38
745.52	27750.95
745.86	27839.76
746.199	27774.68
746.538	27731.06
746.877	27795.7
747.216	27809.93
747.556	27636.38
747.895	27576.04
748.234	27544.4
748.573	27492.65
748.911	27713.89
749.25	27371.3
749.589	27282.26
749.928	27408.14
750.267	27411.75
750.605	27312.77
750.944	27206.78
751.283	27203.39
751.621	27156.39
751.96	27000.24
752.298	26978.77
752.636	27064.42
752.975	26977.41
753.313	26800.02
753.651	26858.77
753.989	26733.35
754.327	26788.72
754.666	26620.36
755.004	26703.75
755.342	26674.14
755.679	26608.83
756.017	26510.08
756.355	26472.57
756.693	26344.66
757.031	26456.07
757.368	26235.96
757.706	26230.09
758.044	26148.73
758.381	26138.34
758.719	26078
759.056	26158.9
759.394	25963.2
759.731	25795.97
760.068	25780.38
760.405	25652.93
