Data from hue_10_FLMS001491_89.txt Node
Date: Mon Feb 06 15:32:42 GMT 2017
User: dcchb
Spectrometer: FLMS00149
Trigger mode: 0
Integration Time (sec): 2.000000E-2
Scans to average: 10
Electric dark correction enabled: true
Nonlinearity correction enabled: false
Boxcar width: 0
XAxis mode: Wavelengths
Number of Pixels in Spectrum: 2048
>>>>>Begin Spectral Data<<<<<
341.393	5.76
341.776	5.76
342.16	5.76
342.543	-30.85
342.927	-57.96
343.31	-71.52
343.693	-54.57
344.077	-49.83
344.46	-44.41
344.843	-68.81
345.226	-50.96
345.61	-34.01
345.993	-25.88
346.376	-9.83
346.759	-5.31
347.142	32.65
347.525	51.86
347.908	33.33
348.291	74.01
348.674	109.94
349.057	113.33
349.44	127.79
349.823	159.43
350.206	163.27
350.588	198.75
350.971	212.99
351.354	220.22
351.737	234.68
352.119	250.73
352.502	259.99
352.884	282.59
353.267	282.82
353.65	303.16
354.032	288.02
354.414	295.7
354.797	321.91
355.179	331.63
355.562	315.81
355.944	337.51
356.326	332.53
356.709	349.26
357.091	328.01
357.473	350.84
357.855	359.43
358.238	351.97
358.62	327.11
359.002	346.32
359.384	331.63
359.766	345.41
360.148	344.28
360.53	341.57
360.912	360.78
361.294	339.54
361.676	332.31
362.057	342.93
362.439	330.05
362.821	320.33
363.203	326.66
363.584	304.96
363.966	330.27
364.348	334.34
364.729	318.75
365.111	322.36
365.493	322.36
365.874	291.4
366.256	335.7
366.637	308.35
367.019	327.11
367.4	298.86
367.781	311.97
368.163	325.3
368.544	313.1
368.925	313.78
369.306	329.14
369.688	328.92
370.069	303.16
370.45	324.4
370.831	331.86
371.212	298.18
371.593	327.79
371.974	328.47
372.355	297.51
372.736	315.58
373.117	310.39
373.498	297.73
373.879	309.94
374.26	312.65
374.641	314.91
375.021	292.53
375.402	311.07
375.783	328.01
376.163	330.05
376.544	344.51
376.925	342.02
377.305	335.02
377.686	300.44
378.066	322.36
378.447	320.78
378.827	339.77
379.208	327.56
379.588	341.35
379.968	317.17
380.349	342.48
380.729	333.44
381.109	329.6
381.489	332.76
381.87	335.7
382.25	321.69
382.63	341.8
383.01	338.64
383.39	355.13
383.77	346.54
384.15	368.46
384.53	362.14
384.91	340.89
385.29	325.98
385.67	348.58
386.049	353.32
386.429	354.23
386.809	351.52
387.189	338.18
387.568	338.41
387.948	365.08
388.328	358.07
388.707	369.82
389.087	362.82
389.466	382.25
389.846	361.91
390.225	375.24
390.605	378.18
390.984	376.15
391.363	358.3
391.743	353.55
392.122	371.85
392.501	358.07
392.881	373.21
393.26	387.67
393.639	355.81
394.018	374.34
394.397	369.59
394.776	384.96
395.155	381.35
395.534	376.83
395.913	382.48
396.292	381.12
396.671	370.27
397.05	378.63
397.429	399.2
397.808	377.28
398.186	384.51
398.565	365.53
398.944	389.26
399.323	397.16
399.701	391.74
400.08	390.39
400.458	419.76
400.837	404.85
401.215	394.9
401.594	378.86
401.972	384.74
402.351	387.67
402.729	383.83
403.107	417.05
403.486	400.33
403.864	412.76
404.242	429.71
404.62	415.7
404.999	420.67
405.377	408.46
405.755	401.91
406.133	409.82
406.511	412.76
406.889	418.86
407.267	414.79
407.645	421.8
408.023	419.09
408.401	427.45
408.779	450.72
409.156	437.62
409.534	445.75
409.912	445.53
410.29	427.45
410.667	423.6
411.045	436.26
411.422	446.43
411.8	444.85
412.178	434
412.555	429.93
412.933	463.38
413.31	451.85
413.687	470.61
414.065	471.74
414.442	454.79
414.819	460.89
415.197	484.39
415.574	456.15
415.951	466.54
416.328	499.31
416.705	469.25
417.082	466.09
417.46	488.69
417.837	497.95
418.214	488.91
418.591	495.69
418.967	514
419.344	493.89
419.721	487.78
420.098	526.65
420.475	520.33
420.852	516.03
421.228	517.61
421.605	509.25
421.982	512.19
422.358	525.97
422.735	509.25
423.111	542.7
423.488	527.56
423.864	533.43
424.241	536.82
424.617	529.36
424.994	536.6
425.37	537.5
425.746	552.64
426.123	547.22
426.499	573.88
426.875	548.57
427.251	534.11
427.627	567.78
428.003	546.77
428.379	551.96
428.756	585.63
429.132	574.34
429.507	577.72
429.883	610.49
430.259	589.25
430.635	587.89
431.011	609.36
431.387	596.48
431.763	611.4
432.138	618.63
432.514	611.17
432.89	635.12
433.265	628.8
433.641	630.83
434.016	639.42
434.392	648.46
434.767	642.58
435.143	630.6
435.518	657.72
435.894	645.75
436.269	665.86
436.644	666.54
437.02	655.69
437.395	678.51
437.77	680.77
438.145	684.84
438.52	678.06
438.895	699.08
439.271	676.03
439.646	688
440.021	710.15
440.395	716.7
440.77	709.92
441.145	711.28
441.52	720.77
441.895	735.69
442.27	722.58
442.645	742.92
443.019	731.85
443.394	772.75
443.769	740.66
444.143	735.01
444.518	746.76
444.892	742.01
445.267	728.23
445.641	758.51
446.016	740.66
446.39	754.67
446.764	777.95
447.139	763.71
447.513	774.56
447.887	784.73
448.262	758.29
448.636	782.01
449.01	781.34
449.384	807.1
449.758	815.01
450.132	813.2
450.506	811.39
450.88	822.24
451.254	816.14
451.628	816.36
452.002	824.05
452.376	835.35
452.75	844.16
453.123	843.48
453.497	859.75
453.871	869.69
454.244	876.02
454.618	877.6
454.992	895.91
455.365	871.05
455.739	878.73
456.112	911.28
456.486	901.78
456.859	922.35
457.232	943.14
457.606	926.19
457.979	915.8
458.352	944.04
458.725	926.87
459.099	952.4
459.472	959.86
459.845	981.33
460.218	990.37
460.591	997.37
460.964	996.47
461.337	1026.07
461.71	1014.32
462.083	1039.41
462.456	1036.92
462.829	1053.87
463.201	1051.84
463.574	1079.41
463.947	1072.4
464.32	1086.64
464.692	1099.75
465.065	1074.21
465.438	1146.07
465.81	1134.09
466.183	1155.11
466.555	1183.81
466.928	1150.59
467.3	1144.49
467.672	1176.58
468.045	1220.65
468.417	1248.44
468.789	1210.93
469.161	1226.97
469.534	1256.58
469.906	1269.91
470.278	1308.1
470.65	1289.57
471.022	1334.09
471.394	1347.2
471.766	1379.96
472.138	1365.05
472.51	1387.2
472.882	1413.41
473.253	1450.02
473.625	1453.86
473.997	1484.37
474.369	1501.09
474.74	1505.38
475.112	1521.65
475.484	1552.39
475.855	1597.36
476.227	1616.34
476.598	1654.76
476.97	1636.23
477.341	1670.58
477.713	1741.99
478.084	1729.56
478.455	1785.6
478.827	1821.08
479.198	1877.13
479.569	1872.83
479.94	1918.71
480.311	1951.47
480.682	2010.23
481.053	2039.83
481.424	2042.55
481.795	2066.27
482.166	2131.13
482.537	2146.05
482.908	2168.64
483.279	2191.47
483.65	2289.54
484.021	2299.49
484.391	2331.13
484.762	2365.02
485.133	2377
485.503	2414.96
485.874	2465.58
486.244	2511.01
486.615	2547.62
486.985	2581.74
487.356	2654.28
487.726	2655.41
488.097	2734.5
488.467	2741.06
488.837	2800.49
489.207	2851.56
489.578	2871.68
489.948	2894.05
490.318	2939.24
490.688	3003.42
491.058	3018.56
491.428	3102.63
491.798	3131.56
492.168	3188.96
492.538	3175.17
492.908	3221.27
493.278	3264.43
493.648	3286.58
494.017	3311.89
494.387	3389.18
494.757	3439.34
495.126	3459.46
495.496	3454.49
495.866	3504.43
496.235	3570.64
496.605	3575.16
496.974	3589.17
497.344	3625.78
497.713	3634.82
498.082	3705.78
498.452	3689.96
498.821	3767.47
499.19	3780.13
499.559	3813.57
499.928	3812.67
500.298	3838.66
500.667	3883.17
501.036	3886.79
501.405	3939.9
501.774	3898.09
502.143	3967.69
502.512	4027.58
502.88	4037.52
503.249	4018.31
503.618	4064.86
503.987	4083.62
504.356	4135.6
504.724	4137.86
505.093	4159.78
505.462	4188.93
505.83	4200.23
506.199	4238.19
506.567	4296.5
506.936	4257.85
507.304	4294.46
507.672	4284.97
508.041	4357.51
508.409	4358.19
508.777	4380.56
509.145	4442.03
509.514	4398.19
509.882	4462.37
510.25	4468.7
510.618	4475.93
510.986	4506.44
511.354	4536.49
511.722	4530.84
512.09	4557.28
512.458	4576.04
512.826	4590.95
513.193	4640.22
513.561	4639.54
513.929	4654
514.297	4670.05
514.664	4754.79
515.032	4709.37
515.4	4786.2
515.767	4747.33
516.135	4802.02
516.502	4774.68
516.869	4836.37
517.237	4843.83
517.604	4806.99
517.972	4882.24
518.339	4908.01
518.706	4898.52
519.073	4879.31
519.44	4903.49
519.808	5000.43
520.175	4922.7
520.542	5016.7
520.909	5010.6
521.276	4978.29
521.643	5046.53
522.009	5093.09
522.376	5094.67
522.743	5148
523.11	5165.4
523.477	5177.83
523.843	5209.69
524.21	5231.16
524.577	5284.27
524.943	5342.35
525.31	5298.73
525.676	5342.57
526.043	5363.36
526.409	5356.36
526.776	5382.8
527.142	5481.32
527.508	5485.17
527.874	5486.75
528.241	5516.8
528.607	5565.39
528.973	5582.57
529.339	5630.7
529.705	5679.06
530.071	5716.8
530.437	5700.08
530.803	5751.6
531.169	5788.89
531.535	5838.15
531.901	5778.27
532.267	5817.14
532.632	5812.62
532.998	5846.51
533.364	5876.34
533.73	5967.87
534.095	5962.22
534.461	5999.28
534.826	6050.12
535.192	6090.35
535.557	6093.96
535.923	6054.19
536.288	6121.31
536.653	6152.04
537.019	6168.99
537.384	6160.4
537.749	6166.05
538.114	6237.69
538.479	6213.06
538.845	6222.55
539.21	6282.66
539.575	6278.14
539.94	6333.96
540.305	6381.64
540.67	6339.16
541.034	6408.98
541.399	6422.09
541.764	6495.99
542.129	6457.8
542.494	6511.58
542.858	6540.51
543.223	6537.57
543.587	6591.35
543.952	6573.05
544.316	6643.78
544.681	6661.86
545.045	6694.17
545.41	6768.52
545.774	6776.88
546.138	6761.97
546.503	6782.08
546.867	6754.29
547.231	6839.48
547.595	6865.47
547.959	6883.32
548.324	6912.47
548.688	6962.64
549.052	6935.07
549.416	7001.28
549.779	7002.87
550.143	6996.99
550.507	7062.53
550.871	7146.82
551.235	7058.68
551.599	7109.3
551.962	7157.44
552.326	7168.74
552.689	7219.36
553.053	7145.24
553.417	7245.57
553.78	7318.56
554.143	7325.12
554.507	7314.27
554.87	7328.28
555.234	7357.89
555.597	7338
555.96	7389.98
556.323	7385.46
556.686	7446.7
557.05	7535.96
557.413	7490.76
557.776	7481.05
558.139	7586.35
558.502	7546.36
558.865	7571.21
559.228	7624.55
559.59	7630.42
559.953	7689.63
560.316	7759.23
560.679	7758.33
561.041	7766.24
561.404	7787.48
561.767	7838.32
562.129	7820.47
562.492	7851.66
562.854	7863.64
563.217	7851.88
563.579	7939.57
563.941	8004.2
564.304	8054.14
564.666	8002.84
565.028	8082.16
565.39	8091.65
565.753	8152.22
566.115	8156.51
566.477	8226.34
566.839	8198.09
567.201	8244.64
567.563	8335.71
567.925	8344.75
568.287	8320.8
568.648	8311.31
569.01	8416.84
569.372	8473.34
569.734	8390.4
570.095	8519.66
570.457	8588.36
570.819	8564.41
571.18	8578.64
571.542	8668.59
571.903	8649.83
572.265	8713.33
572.626	8749.71
572.987	8782.03
573.349	8858.19
573.71	8871.97
574.071	8945.64
574.432	8985.64
574.794	9052.76
575.155	9090.95
575.516	9106.31
575.877	9212.3
576.238	9275.12
576.599	9347.66
576.96	9394.89
577.32	9506.08
577.681	9581.33
578.042	9716.24
578.403	9732.96
578.763	9794.21
579.124	9816.58
579.485	10001.88
579.845	10161.65
580.206	10126.85
580.566	10306.06
580.927	10462.89
581.287	10585.82
581.648	10630.57
582.008	10835.08
582.368	10897
582.728	11039.82
583.089	11225.35
583.449	11381.96
583.809	11532.01
584.169	11680.03
584.529	11816.3
584.889	12142.62
585.249	12195.5
585.609	12374.93
585.969	12604.98
586.329	12792.09
586.688	13000.9
587.048	13169.94
587.408	13336.26
587.768	13667.1
588.127	13853.08
588.487	14115
588.846	14357.93
589.206	14583.01
589.565	14804.24
589.925	15020.06
590.284	15268.19
590.643	15589.53
591.003	15943.42
591.362	16183.19
591.721	16299.8
592.08	16674.02
592.44	17047.35
592.799	17320.79
593.158	17546.54
593.517	17822.92
593.876	18182.23
594.235	18405.05
594.593	18718.26
594.952	19013.85
595.311	19265.14
595.67	19592.37
596.029	20025.58
596.387	20375.62
596.746	20571.55
597.104	20872.78
597.463	21124.53
597.822	21537.63
598.18	21691.29
598.538	22030.49
598.897	22451.5
599.255	22599.97
599.613	23254.42
599.972	23304.58
600.33	23605.37
600.688	23808.3
601.046	24354.5
601.404	24674.72
601.762	24912.9
602.12	25288.71
602.478	25472.44
602.836	25797.85
603.194	25865.65
603.552	26355.13
603.91	26385.63
604.268	26865.85
604.625	27109.68
604.983	27440.07
605.341	27573.17
605.698	27863.11
606.056	28169.77
606.413	28365.69
606.771	28698.57
607.128	28985.79
607.485	29106.24
607.843	29442.73
608.2	29915.03
608.557	30065.99
608.914	30054.01
609.272	30571.96
609.629	30853.09
609.986	31045.62
610.343	31085.4
610.7	31496.69
611.057	31599.06
611.414	31939.16
611.771	32014.86
612.127	32453.5
612.484	32613.72
612.841	32795.63
613.198	32891
613.554	33188.84
613.911	33450.31
614.267	33505.45
614.624	33620.25
614.98	33909.5
615.337	34210.96
615.693	34227.69
616.05	34471.52
616.406	34613.67
616.762	34817.5
617.118	34874.9
617.475	35022.69
617.831	35306.3
618.187	35414.32
618.543	35683.24
618.899	35909
619.255	35919.17
619.611	35919.85
619.967	36448.65
620.323	36453.17
620.678	36457.23
621.034	36558.25
621.39	36638.02
621.746	36677.79
622.101	37246.37
622.457	36905.13
622.812	37055.41
623.168	37472.57
623.523	37501.5
623.879	37544.66
624.234	37300.38
624.589	37705.34
624.945	37764.77
625.3	37917.76
625.655	37940.58
626.01	37979.91
626.365	38054.93
626.72	38067.59
627.075	38184.42
627.43	38214.02
627.785	38214.7
628.14	38468.93
628.495	38348.03
628.85	38442.27
629.205	38474.13
629.559	38673.9
629.914	38524.98
630.269	38613.79
630.623	38604.07
630.978	38430.06
631.332	38821.01
631.687	39045.19
632.041	38850.16
632.396	38778.75
632.75	38679.32
633.104	38962.7
633.459	38782.14
633.813	38803.61
634.167	38872.99
634.521	38790.05
634.875	38905.08
635.229	38902.14
635.583	38711.19
635.937	38818.3
636.291	38743.73
636.645	38906.89
636.999	38780.79
637.352	38925.19
637.706	38688.36
638.06	38975.81
638.413	38907.79
638.767	38699.66
639.121	38877.51
639.474	38692.43
639.828	38797.06
640.181	38893.78
640.534	38778.08
640.888	38787.34
641.241	38576.05
641.594	38691.07
641.947	38745.53
642.301	38778.98
642.654	38871.18
643.007	38770.39
643.36	38787.57
643.713	38712.77
644.066	38781.69
644.419	38558.65
644.771	38324.53
645.124	37961.83
645.477	38048.15
645.83	37781.94
646.182	37698.33
646.535	37598.67
646.888	37695.62
647.24	37544.21
647.593	37757.09
647.945	37596.86
648.298	37554.61
648.65	37347.61
649.002	37377.66
649.355	37490.43
649.707	37502.63
650.059	37585.57
650.411	37969.51
650.763	37934.03
651.115	38427.13
651.467	38232.1
651.819	38245.89
652.171	38236.17
652.523	38211.99
652.875	38197.07
653.227	38067.13
653.578	38330.18
653.93	38107.59
654.282	38032.79
654.633	38007.25
654.985	38027.14
655.337	38138.55
655.688	37983.52
656.039	38226.9
656.391	37735.17
656.742	37898.78
657.094	37913.69
657.445	38039.34
657.796	37892.45
658.147	37903.3
658.498	37890.87
658.849	37967.93
659.2	37849.06
659.551	37798.44
659.902	37986.68
660.253	37920.25
660.604	37998.21
660.955	37777.65
661.306	37832.56
661.656	37804.32
662.007	37819.23
662.358	37727.71
662.708	37793.47
663.059	37779.46
663.409	37504.44
663.76	37812.45
664.11	37758.89
664.461	37889.06
664.811	37788.5
665.161	37844.99
665.511	37690.87
665.862	37699.46
666.212	37885.9
666.562	37887.48
666.912	37804.32
667.262	37811.77
667.612	37625.11
667.962	37642.74
668.312	37761.83
668.662	37718.67
669.011	37661.95
669.361	37679.12
669.711	37582.85
670.06	37568.39
670.41	37533.59
670.76	37533.14
671.109	37596.86
671.459	37567.94
671.808	37456.53
672.157	37560.71
672.507	37330.2
672.856	37425.8
673.205	37575.85
673.554	37599.58
673.904	37376.98
674.253	37547.15
674.602	37379.47
674.951	36950.1
675.3	36638.92
675.649	37395.51
675.998	37246.37
676.346	37243.43
676.695	37362.07
677.044	37106.48
677.393	37201.17
677.741	37215.86
678.09	37165.24
678.438	37180.15
678.787	37188.29
679.135	37215.86
679.484	36908.75
679.832	37099.7
680.181	36777.45
680.529	36984.9
680.877	36909.2
681.225	36843.89
681.573	37068.06
681.922	36734.74
682.27	36727.73
682.618	36690.45
682.966	36621.3
683.314	36662.43
683.661	36463.56
684.009	36397.57
684.357	36456.56
684.705	36184.7
685.053	36317.58
685.4	36244.36
685.748	36108.99
686.095	36200.97
686.443	35897.47
686.79	35933.18
687.138	35951.48
687.485	36000.07
687.832	35742
688.18	35716.91
688.527	35654.54
688.874	35638.5
689.221	35474.43
689.568	35436.02
689.915	35422.01
690.262	35379.3
690.609	35299.52
690.956	34948.12
691.303	35083.03
691.65	34909.03
691.997	34994.22
692.344	34732.76
692.69	34704.74
693.037	34813.89
693.383	34474.01
693.73	34826.32
694.077	34375.48
694.423	34419.09
694.769	34254.13
695.116	34180.46
695.462	34171.42
695.808	34191.3
696.155	34081.7
696.501	33827.92
696.847	33957.41
697.193	33574.6
697.539	33729.85
697.885	33501.83
698.231	33403.53
698.577	33427.71
698.923	33319.24
699.269	33139.13
699.614	33074.95
699.96	33052.35
700.306	33000.38
700.651	32848.51
700.997	32756.54
701.342	32726.03
701.688	32714.73
702.033	32704.56
702.379	32648.29
702.724	32451.92
703.069	32506.38
703.415	32171.02
703.76	32287.4
704.105	32135.77
704.45	32129.21
704.795	31976.67
705.14	31844.7
705.485	31760.18
705.83	31703.46
706.175	31730.13
706.52	31691.03
706.865	31588.89
707.209	31419.63
707.554	31387.54
707.899	31460.98
708.243	31225.96
708.588	31165.62
708.932	31070.03
709.277	31089.92
709.621	31063.25
709.966	30724.28
710.31	30888.57
710.654	30550.5
710.998	30705.75
711.342	30696.71
711.687	30556.6
712.031	30446.09
712.375	30318.19
712.719	30423.72
713.063	30359.31
713.407	30483.15
713.75	30314.57
714.094	30142.15
714.438	30064.18
714.782	30124.97
715.125	29956.61
715.469	30067.57
715.812	29808.37
716.156	29714.59
716.499	29654.02
716.843	29849.72
717.186	29588.26
717.53	29750.74
717.873	29687.24
718.216	29541.71
718.559	29386.91
718.902	29343.75
719.246	29329.74
719.589	29266.01
719.932	29231.66
720.275	29156.86
720.617	29176.29
720.96	29125.22
721.303	29003.42
721.646	29018.33
721.989	28794.38
722.331	28799.13
722.674	28798.68
723.016	28899.47
723.359	28699.7
723.701	28709.64
724.044	28542.64
724.386	28465.13
724.729	28649.53
725.071	28429.65
725.413	28424
725.755	28408.86
726.097	28385.81
726.439	28094.29
726.782	28286.37
727.124	28309.65
727.465	28153.05
727.807	28148.75
728.149	28148.75
728.491	28019.94
728.833	28027.17
729.175	27929.55
729.516	27887.74
729.858	27788.31
730.199	27871.02
730.541	27839.61
730.882	27750.8
731.224	27838.03
731.565	27586.05
731.906	27659.05
732.248	27592.61
732.589	27405.49
732.93	27452.05
733.271	27486.62
733.612	27457.02
733.953	27516
734.294	27377.47
734.635	27245.27
734.976	27265.84
735.317	27116.46
735.658	27139.74
735.999	27102.45
736.339	27192.17
736.68	27093.19
737.021	27016.13
737.361	27053.19
737.702	27136.8
738.042	27000.76
738.383	26943.59
738.723	26953.08
739.063	26814.78
739.404	26988.33
739.744	26829.69
740.084	26636.93
740.424	26778.17
740.764	26617.04
741.104	26759.18
741.444	26481.45
741.784	26562.8
742.124	26542.92
742.464	26552.86
742.804	26489.13
743.143	26453.88
743.483	26435.8
743.823	26334.56
744.162	26269.25
744.502	26259.76
744.841	26108.13
745.181	26326.43
745.52	26111.97
745.86	26103.16
746.199	26129.82
746.538	26068.81
746.877	26073.1
747.216	26049.15
747.556	25981.12
747.895	25932.99
748.234	25891.64
748.573	25855.93
748.911	25849.15
749.25	25759.89
749.589	25697.29
749.928	25663.17
750.267	25619.78
750.605	25742.71
750.944	25544.75
751.283	25532.1
751.621	25642.6
751.96	25511.98
752.298	25479.22
752.636	25410.74
752.975	25333.68
753.313	25161.03
753.651	25408.26
753.989	25141.82
754.327	25035.61
754.666	25038.32
755.004	25006.46
755.342	24978.44
755.679	24992.68
756.017	24824.77
756.355	24944.32
756.693	24679.92
757.031	24756.98
757.368	24655.51
757.706	24593.82
758.044	24513.14
758.381	24554.04
758.719	24443.31
759.056	24399.7
759.394	24300.27
759.731	24247.61
760.068	24163.09
760.405	24171.45
760.743	24161.74
761.08	24024.11
