Data from hue_190_FLMS001491_00025.txt Node
Date: Tue Feb 07 16:45:03 GMT 2017
User: dcchb
Spectrometer: FLMS00149
Trigger mode: 0
Integration Time (sec): 2.000000E-2
Scans to average: 10
Electric dark correction enabled: true
Nonlinearity correction enabled: false
Boxcar width: 0
XAxis mode: Wavelengths
Number of Pixels in Spectrum: 2048
>>>>>Begin Spectral Data<<<<<
341.393	6.68
341.776	6.68
342.16	6.68
342.543	-64.96
342.927	-66.09
343.31	-83.03
343.693	-72.41
344.077	-80.55
344.46	-58.4
344.843	-56.37
345.226	-30.61
345.61	-17.5
345.993	-45.52
346.376	-5.75
346.759	0.35
347.142	39.67
347.525	43.74
347.908	47.81
348.291	88.26
348.674	115.83
349.057	114.47
349.44	138.2
349.823	138.88
350.206	177.98
350.588	189.95
350.971	199.9
351.354	239.44
351.737	243.06
352.119	257.3
352.502	242.15
352.884	267.69
353.267	281.25
353.65	293
354.032	309.72
354.414	308.14
354.797	309.95
355.179	332.32
355.562	311.53
355.944	332.32
356.326	329.38
356.709	303.85
357.091	325.99
357.473	335.49
357.855	324.19
358.238	351.08
358.62	340.01
359.002	331.87
359.384	327.58
359.766	328.93
360.148	321.47
360.53	329.38
360.912	335.26
361.294	354.92
361.676	336.62
362.057	322.83
362.439	301.36
362.821	314.7
363.203	315.15
363.584	339.78
363.966	331.87
364.348	323.28
364.729	312.44
365.111	321.7
365.493	332.1
365.874	330.97
366.256	293.68
366.637	295.71
367.019	315.37
367.4	317.63
367.781	283.28
368.163	302.94
368.544	300.01
368.925	310.4
369.306	326.67
369.688	311.31
370.069	316.73
370.45	303.4
370.831	294.36
371.212	299.78
371.593	288.26
371.974	306.79
372.355	286.9
372.736	323.06
373.117	305.66
373.498	317.41
373.879	298.42
374.26	310.4
374.641	318.99
375.021	308.37
375.402	319.67
375.783	330.29
376.163	318.31
376.544	306.56
376.925	340.23
377.305	316.73
377.686	317.41
378.066	343.85
378.447	328.93
378.827	319.21
379.208	311.08
379.588	335.49
379.968	311.53
380.349	312.89
380.729	330.06
381.109	320.8
381.489	316.95
381.87	332.77
382.25	336.84
382.63	335.03
383.01	336.84
383.39	341.14
383.77	324.64
384.15	323.96
384.53	321.25
384.91	336.16
385.29	337.52
385.67	324.19
386.049	340.23
386.429	334.36
386.809	333
387.189	333
387.568	333.23
387.948	336.84
388.328	330.29
388.707	348.37
389.087	373.22
389.466	341.36
389.846	356.05
390.225	357.86
390.605	346.78
390.984	328.48
391.363	355.6
391.743	352.21
392.122	340.68
392.501	370.74
392.881	359.67
393.26	364.86
393.639	361.02
394.018	354.02
394.397	374.13
394.776	378.65
395.155	369.38
395.534	354.24
395.913	367.12
396.292	371.19
396.671	389.5
397.05	367.12
397.429	386.11
397.808	384.75
398.186	368.7
398.565	403.51
398.944	375.03
399.323	392.21
399.701	380
400.08	380.46
400.458	389.5
400.837	388.37
401.215	403.73
401.594	401.47
401.972	401.02
402.351	410.06
402.729	403.28
403.107	420.23
403.486	420.23
403.864	425.2
404.242	415.48
404.62	419.78
404.999	427.46
405.377	430.17
405.755	422.49
406.133	429.95
406.511	423.62
406.889	450.74
407.267	457.97
407.645	459.55
408.023	450.51
408.401	476.27
408.779	469.49
409.156	474.69
409.534	472.43
409.912	478.76
410.29	501.13
410.667	497.52
411.045	508.81
411.422	521.7
411.8	531.19
412.178	525.76
412.555	535.71
412.933	545.88
413.31	539.55
413.687	554.24
414.065	578.87
414.442	576.84
414.819	575.93
415.197	584.07
415.574	588.36
415.951	607.57
416.328	622.48
416.705	612.54
417.082	652.54
417.46	635.59
417.837	632.43
418.214	668.58
418.591	675.82
418.967	672.65
419.344	686.66
419.721	675.82
420.098	688.92
420.475	702.93
420.852	720.33
421.228	721.46
421.605	734.57
421.982	749.26
422.358	760.11
422.735	767.11
423.111	775.93
423.488	828.58
423.864	796.94
424.241	832.87
424.617	852.76
424.994	856.6
425.37	855.7
425.746	884.4
426.123	919.65
426.499	939.31
426.875	926.88
427.251	964.85
427.627	936.37
428.003	976.15
428.379	984.28
428.756	964.85
429.132	992.19
429.507	1038.52
429.883	1001
430.259	1039.87
430.635	1020.21
431.011	1043.04
431.387	1076.03
431.763	1089.36
432.138	1087.78
432.514	1107.67
432.89	1139.08
433.265	1143.37
433.641	1167.1
434.016	1190.83
434.392	1211.39
434.767	1220.66
435.143	1210.26
435.518	1264.5
435.894	1272.86
436.269	1321
436.644	1352.18
437.02	1353.54
437.395	1376.81
437.77	1394.21
438.145	1422.69
438.52	1451.84
438.895	1447.32
439.271	1497.26
439.646	1514.89
440.021	1516.7
440.395	1555.11
440.77	1564.61
441.145	1558.73
441.52	1611.61
441.895	1648.9
442.27	1668.78
442.645	1661.55
443.019	1685.51
443.394	1689.8
443.769	1722.12
444.143	1718.95
444.518	1749.01
444.892	1743.58
445.267	1779.52
445.641	1807.99
446.016	1788.78
446.39	1797.82
446.764	1835.79
447.139	1841.89
447.513	1913.07
447.887	1899.74
448.262	1912.85
448.636	1938.38
449.01	1930.25
449.384	1959.62
449.758	1961.88
450.132	1967.08
450.506	1993.3
450.88	2024.03
451.254	2024.25
451.628	2065.61
452.002	2076.68
452.376	2080.75
452.75	2112.39
453.123	2140.64
453.497	2153.52
453.871	2201.65
454.244	2204.59
454.618	2225.15
454.992	2253.63
455.365	2307.41
455.739	2322.1
456.112	2369.33
456.486	2400.29
456.859	2385.83
457.232	2434.41
457.606	2428.54
457.979	2511.47
458.352	2498.59
458.725	2503.56
459.099	2584.92
459.472	2589.44
459.845	2652.49
460.218	2626.5
460.591	2662.88
460.964	2712.82
461.337	2768.42
461.71	2774.07
462.083	2838.02
462.456	2847.96
462.829	2874.18
463.201	2886.6
463.574	2941.52
463.947	2976.32
464.32	3002.76
464.692	3057.22
465.065	3091.8
465.438	3159.14
465.81	3172.93
466.183	3221.06
466.555	3292.92
466.928	3302.87
467.3	3327.5
467.672	3350.32
468.045	3437.78
468.417	3485.46
468.789	3480.71
469.161	3551.67
469.534	3594.38
469.906	3626.92
470.278	3707.83
470.65	3751.67
471.022	3861.72
471.394	3910.08
471.766	3942.85
472.138	4031.89
472.51	4041.83
472.882	4116.86
473.253	4133.8
473.625	4201.82
473.997	4288.6
474.369	4360.46
474.74	4407.47
475.112	4463.29
475.484	4517.52
475.855	4661.47
476.227	4734.01
476.598	4838.42
476.97	4808.14
477.341	5022.14
477.713	4982.82
478.084	5057.17
478.455	5195.02
478.827	5262.59
479.198	5400.21
479.569	5376.26
479.94	5558.63
480.311	5582.35
480.682	5748.22
481.053	5871.39
481.424	5995.9
481.795	5951.38
482.166	6084.71
482.537	6166.74
482.908	6332.39
483.279	6356.57
483.65	6502.1
484.021	6609.44
484.391	6668.65
484.762	6736
485.133	6825.71
485.503	6913.84
485.874	7063.9
486.244	7148.64
486.615	7285.36
486.985	7304.57
487.356	7506.6
487.726	7532.81
488.097	7653.49
488.467	7641.28
488.837	7868.17
489.207	7919.24
489.578	8131.21
489.948	8141.83
490.318	8281.27
490.688	8248.27
491.058	8399.23
491.428	8508.38
491.798	8651.88
492.168	8756.73
492.538	8797.64
492.908	8875.83
493.278	8959.89
493.648	8958.08
494.017	9137.51
494.387	9165.99
494.757	9210.05
495.126	9288.02
495.496	9364.63
495.866	9415.92
496.235	9512.87
496.605	9558.52
496.974	9611.4
497.344	9653.88
497.713	9682.36
498.082	9702.47
498.452	9799.87
498.821	9880.32
499.19	9904.05
499.559	9925.74
499.928	10024.5
500.298	10003.25
500.667	10151.05
501.036	10068.11
501.405	10134.1
501.774	10140.65
502.143	10327.31
502.512	10266.3
502.88	10331.15
503.249	10337.71
503.618	10381.78
503.987	10436.91
504.356	10444.6
504.724	10423.13
505.093	10443.24
505.462	10537.48
505.83	10525.73
506.199	10641.2
506.567	10676.68
506.936	10637.36
507.304	10770.69
507.672	10757.36
508.041	10761.2
508.409	10847.3
508.777	10785.38
509.145	10915.09
509.514	10812.5
509.882	10890.46
510.25	10901.99
510.618	10938.6
510.986	10986.5
511.354	10976.34
511.722	10994.19
512.09	11087.97
512.458	11022.66
512.826	11110.8
513.193	11102.89
513.561	11110.8
513.929	11072.6
514.297	11115.09
514.664	11278.7
515.032	11195.54
515.4	11233.73
515.767	11265.82
516.135	11229.89
516.502	11075.99
516.869	11223.11
517.237	11228.76
517.604	11233.5
517.972	11278.02
518.339	11252.03
518.706	11178.82
519.073	11207.97
519.44	11253.62
519.808	11309.89
520.175	11223.33
520.542	11282.99
520.909	11298.59
521.276	11184.24
521.643	11238.93
522.009	11244.13
522.376	11341.07
522.743	11217.01
523.11	11377.68
523.477	11383.33
523.843	11416.32
524.21	11414.29
524.577	11390.79
524.943	11391.01
525.31	11381.97
525.676	11414.52
526.043	11464.68
526.409	11404.57
526.776	11406.15
527.142	11390.79
527.508	11393.73
527.874	11391.69
528.241	11297.23
528.607	11378.13
528.973	11306.27
529.339	11322.77
529.705	11315.08
530.071	11289.77
530.437	11258.81
530.803	11218.82
531.169	11241.41
531.535	11225.59
531.901	11085.26
532.267	11096.11
532.632	11113.06
532.998	11015.2
533.364	11056.11
533.73	10974.75
534.095	10992.15
534.461	10994.87
534.826	10899.28
535.192	10938.6
535.557	10817.24
535.923	10722.33
536.288	10780.63
536.653	10700.41
537.019	10642.33
537.384	10584.71
537.749	10474.88
538.114	10511.04
538.479	10472.17
538.845	10399.18
539.21	10320.08
539.575	10276.02
539.94	10224.04
540.305	10286.86
540.67	10173.64
541.034	10132.06
541.399	10160.76
541.764	10025.4
542.129	9964.38
542.494	9907.66
542.858	9947.21
543.223	9805.07
543.587	9837.83
543.952	9705.63
544.316	9691.17
544.681	9681.23
545.045	9605.07
545.41	9554.68
545.774	9517.39
546.138	9493.66
546.503	9395.36
546.867	9321.46
547.231	9317.4
547.595	9207.34
547.959	9249.15
548.324	9153.33
548.688	9111.75
549.052	9071.53
549.416	9030.62
549.779	8933.9
550.143	8926.67
550.507	8923.06
550.871	8864.3
551.235	8762.38
551.599	8770.97
551.962	8711.76
552.326	8611.2
552.689	8697.3
553.053	8483.07
553.417	8548.38
553.78	8576.17
554.143	8405.33
554.507	8468.15
554.87	8479
555.234	8344.09
555.597	8293.47
555.96	8238.33
556.323	8255.5
556.686	8209.63
557.05	8142.06
557.413	8143.19
557.776	8101.16
558.139	8111.55
558.502	8063.87
558.865	7982.97
559.228	7992.23
559.59	7990.88
559.953	7958.79
560.316	7997.2
560.679	7904.33
561.041	7888.96
561.404	7917.43
561.767	7949.97
562.129	7837.89
562.492	7887.38
562.854	7864.1
563.217	7810.54
563.579	7754.5
563.941	7750.88
564.304	7750.21
564.666	7824.1
565.028	7779.13
565.39	7751.34
565.753	7785.46
566.115	7778.45
566.477	7798.79
566.839	7733.71
567.201	7782.75
567.563	7696.65
567.925	7701.62
568.287	7684.22
568.648	7702.98
569.01	7690.77
569.372	7672.69
569.734	7658.91
570.095	7712.69
570.457	7686.7
570.819	7658.46
571.18	7588.63
571.542	7629.08
571.903	7658.68
572.265	7612.13
572.626	7619.59
572.987	7618.91
573.349	7591.79
573.71	7603.09
574.071	7627.5
574.432	7589.31
574.794	7609.42
575.155	7669.53
575.516	7563.09
575.877	7619.59
576.238	7566.71
576.599	7543.66
576.96	7548.63
577.32	7543.43
577.681	7557.44
578.042	7497.78
578.403	7492.13
578.763	7522.87
579.124	7522.64
579.485	7551.57
579.845	7511.79
580.206	7487.16
580.566	7505.24
580.927	7521.96
581.287	7521.51
581.648	7459.82
582.008	7463.66
582.368	7445.36
582.728	7475.41
583.089	7412.59
583.449	7417.11
583.809	7456.2
584.169	7430.89
584.529	7413.94
584.889	7432.93
585.249	7355.87
585.609	7328.3
585.969	7383.44
586.329	7283.55
586.688	7363.1
587.048	7307.73
587.408	7301.18
587.768	7323.32
588.127	7313.83
588.487	7244.68
588.846	7372.59
589.206	7226.38
589.565	7266.38
589.925	7247.62
590.284	7289.43
590.643	7186.38
591.003	7244
591.362	7295.75
591.721	7247.85
592.08	7223.44
592.44	7198.81
592.799	7232.93
593.158	7179.83
593.517	7235.19
593.876	7227.96
594.235	7141.41
594.593	7182.54
594.952	7134.4
595.311	7126.95
595.67	7132.82
596.029	7111.35
596.387	7158.13
596.746	7135.08
597.104	7142.09
597.463	7125.14
597.822	7091.92
598.18	7027.29
598.538	7046.5
598.897	7130.56
599.255	6965.14
599.613	7114.74
599.972	7095.08
600.33	7085.59
600.688	7056.44
601.046	7079.71
601.404	7104.12
601.762	7075.87
602.12	7096.21
602.478	7105.03
602.836	7032.48
603.194	7022.99
603.552	7040.62
603.91	6980.96
604.268	6999.94
604.625	7041.98
604.983	7060.96
605.341	6994.07
605.698	7051.69
606.056	7015.31
606.413	7005.37
606.771	7046.27
607.128	6969.44
607.485	6998.14
607.843	7037.23
608.2	7023.22
608.557	7047.4
608.914	6981.41
609.272	7007.17
609.629	7011.24
609.986	7058.02
610.343	7041.98
610.7	7056.89
611.057	6998.14
611.414	7022.77
611.771	7040.17
612.127	7022.09
612.484	7060.96
612.841	7022.54
613.198	6981.41
613.554	7015.08
613.911	7041.98
614.267	7030.68
614.624	7050.56
614.98	7071.58
615.337	7098.92
615.693	7050.11
616.05	7065.03
616.406	7073.16
616.762	7034.97
617.118	7025.03
617.475	7094.86
617.831	7100.05
618.187	7127.85
618.543	7067.74
618.899	7130.79
619.255	7104.57
619.611	7105.25
619.967	7057.34
620.323	7109.09
620.678	7162.2
621.034	7046.5
621.39	7128.98
621.746	7046.95
622.101	7204.68
622.457	7128.53
622.812	7061.18
623.168	7081.75
623.523	7106.15
623.879	7174.18
624.234	7096.66
624.589	7125.82
624.945	7128.53
625.3	7145.93
625.655	7111.13
626.01	7071.13
626.365	7090.34
626.72	7048.3
627.075	7113.16
627.43	7144.57
627.785	7031.81
628.14	7079.04
628.495	7088.53
628.85	7009.89
629.205	7027.51
629.559	7053.27
629.914	7065.93
630.269	7031.58
630.623	7038.13
630.978	7044.24
631.332	7046.27
631.687	7027.96
632.041	7009.43
632.396	6980.28
632.75	6992.26
633.104	7001.75
633.459	6954.07
633.813	7016.21
634.167	6974.63
634.521	6944.8
634.875	6996.33
635.229	6904.13
635.583	6911.13
635.937	6910.23
636.291	6867.97
636.645	6885.82
636.999	6864.35
637.352	6899.61
637.706	6850.79
638.06	6952.49
638.413	6886.27
638.767	6816.45
639.121	6860.06
639.474	6783.68
639.828	6778.03
640.181	6822.77
640.534	6819.16
640.888	6817.8
641.241	6759.5
641.594	6818.7
641.947	6789.33
642.301	6769.21
642.654	6809.21
643.007	6827.29
643.36	6752.94
643.713	6717.24
644.066	6758.14
644.419	6768.54
644.771	6693.28
645.124	6670.46
645.477	6684.7
645.83	6647.86
646.182	6607.41
646.535	6573.74
646.888	6583
647.24	6582.33
647.593	6617.13
647.945	6586.17
648.298	6549.11
648.65	6513.18
649.002	6536.68
649.355	6577.36
649.707	6565.6
650.059	6612.38
650.411	6643.79
650.763	6724.24
651.115	6759.05
651.467	6713.17
651.819	6681.31
652.171	6729.44
652.523	6735.54
652.875	6718.82
653.227	6671.59
653.578	6714.07
653.93	6697.35
654.282	6688.31
654.633	6725.37
654.985	6668.88
655.337	6681.76
655.688	6707.52
656.039	6734.41
656.391	6693.06
656.742	6757.92
657.094	6724.02
657.445	6706.17
657.796	6749.33
658.147	6713.4
658.498	6747.29
658.849	6738.93
659.2	6725.37
659.551	6711.59
659.902	6785.03
660.253	6752.94
660.604	6734.64
660.955	6762.66
661.306	6742.1
661.656	6719.5
662.007	6793.85
662.358	6784.36
662.708	6738.26
663.059	6754.3
663.409	6769.67
663.76	6815.99
664.11	6790.23
664.461	6824.35
664.811	6848.99
665.161	6830.91
665.511	6801.53
665.862	6876.33
666.212	6834.52
666.562	6834.98
666.912	6792.72
667.262	6845.82
667.612	6842.66
667.962	6851.25
668.312	6848.08
668.662	6851.47
669.011	6779.84
669.361	6818.03
669.711	6887.86
670.06	6876.78
670.41	6804.02
670.76	6783.23
671.109	6804.02
671.459	6836.33
671.808	6794.52
672.157	6809.21
672.507	6771.25
672.856	6790.68
673.205	6779.61
673.554	6788.65
673.904	6783.9
674.253	6749.55
674.602	6739.61
674.951	6620.29
675.3	6639.73
675.649	6779.61
675.998	6703.91
676.346	6717.69
676.695	6763.11
677.044	6686.05
677.393	6707.75
677.741	6673.85
678.09	6647.86
678.438	6635.43
678.787	6704.36
679.135	6700.06
679.484	6651.93
679.832	6643.12
680.181	6618.03
680.529	6611.93
680.877	6583.91
681.225	6584.36
681.573	6610.35
681.922	6590.24
682.27	6591.59
682.618	6505.94
682.966	6540.75
683.314	6565.38
683.661	6518.6
684.009	6470.01
684.357	6488.09
684.705	6456.91
685.053	6467.98
685.4	6455.1
685.748	6396.8
686.095	6391.6
686.443	6397.25
686.79	6357.93
687.138	6415.33
687.485	6318.61
687.832	6348.43
688.18	6341.66
688.527	6306.63
688.874	6282.45
689.221	6210.59
689.568	6249.68
689.915	6230.25
690.262	6295.78
690.609	6253.07
690.956	6147.99
691.303	6181.43
691.65	6143.69
691.997	6108.22
692.344	6056.92
692.69	6096.69
693.037	6095.56
693.383	5975.34
693.73	6013.3
694.077	5971.72
694.423	5992.06
694.769	5951.16
695.116	5964.04
695.462	5875
695.808	5847.43
696.155	5895.57
696.501	5857.37
696.847	5866.87
697.193	5771.5
697.539	5770.82
697.885	5725.63
698.231	5684.5
698.577	5736.7
698.923	5724.95
699.269	5674.33
699.614	5639.07
699.96	5598.17
700.306	5664.38
700.651	5630.04
700.997	5599.98
701.342	5570.6
701.688	5471.85
702.033	5491.28
702.379	5477.05
702.724	5437.05
703.069	5428.46
703.415	5402.47
703.76	5374.45
704.105	5393.66
704.45	5374.68
704.795	5287.22
705.14	5295.36
705.485	5298.07
705.83	5302.13
706.175	5311.63
706.52	5271.85
706.865	5261.01
707.209	5250.38
707.554	5181.46
707.899	5223.27
708.243	5183.95
708.588	5215.13
708.932	5108.69
709.277	5112.99
709.621	5147.56
709.966	5056.49
710.31	5139.2
710.654	5053.33
710.998	5068.24
711.342	5071.18
711.687	5053.78
712.031	5074.8
712.375	5032.54
712.719	5028.7
713.063	5015.59
713.407	5024.4
713.75	4985.53
714.094	4956.61
714.438	4938.08
714.782	4951.86
715.125	4944.86
715.469	4898.08
715.812	4963.84
716.156	4928.81
716.499	4872.32
716.843	4882.48
717.186	4881.35
717.53	4917.96
717.873	4888.81
718.216	4898.98
718.559	4891.98
718.902	4833.9
719.246	4878.87
719.589	4804.07
719.932	4858.76
720.275	4834.8
720.617	4806.55
720.96	4855.82
721.303	4840.68
721.646	4797.74
721.989	4802.94
722.331	4790.51
722.674	4818.76
723.016	4814.46
723.359	4799.1
723.701	4812.2
724.044	4801.13
724.386	4751.41
724.729	4745.54
725.071	4727.46
725.413	4777.63
725.755	4698.99
726.097	4766.56
726.439	4752.54
726.782	4729.04
727.124	4751.19
727.465	4736.05
727.807	4709.61
728.149	4736.73
728.491	4706.9
728.833	4662.83
729.175	4747.12
729.516	4716.16
729.858	4745.54
730.199	4701.02
730.541	4686.56
730.882	4739.21
731.224	4737.63
731.565	4734.01
731.906	4767.91
732.248	4748.02
732.589	4750.96
732.93	4744.64
733.271	4720.68
733.612	4779.21
733.953	4728.14
734.294	4764.3
734.635	4805.65
734.976	4825.31
735.317	4753.67
735.658	4786.67
735.999	4781.02
736.339	4800
736.68	4828.7
737.021	4790.51
737.361	4807.01
737.702	4836.38
738.042	4810.4
738.383	4806.1
738.723	4866.67
739.063	4846.78
739.404	4883.16
739.744	4897.4
740.084	4901.24
740.424	4906.21
740.764	4899.43
741.104	4943.73
741.444	4957.74
741.784	4950.51
742.124	4984.85
742.464	4970.62
742.804	5021.46
743.143	5028.47
743.483	5089.48
743.823	5079.32
744.162	5098.98
744.502	5115.7
744.841	5137.17
745.181	5141.01
745.52	5236.83
745.86	5291.51
746.199	5254.45
746.538	5320.67
746.877	5388.91
747.216	5432.07
747.556	5501.9
747.895	5504.39
748.234	5542.13
748.573	5583.03
748.911	5597.49
749.25	5673.88
749.589	5710.03
749.928	5825.06
750.267	5879.97
750.605	5959.74
750.944	6021.89
751.283	6090.59
751.621	6162
751.96	6270.02
752.298	6369.45
752.636	6476.57
752.975	6519.96
753.313	6594.76
753.651	6769.89
753.989	6887.63
754.327	6957.68
754.666	7026.61
755.004	7196.55
755.342	7323.32
755.679	7506.37
756.017	7561.06
756.355	7758.79
756.693	7860.71
757.031	8015.96
757.368	8159.01
757.706	8320.59
758.044	8448.72
758.381	8623.18
758.719	8770.74
759.056	8971.19
759.394	9096.16
759.731	9248.02
760.068	9411.63
760.405	9595.58
760.743	9768.46
761.08	9887.55
761.417	10070.82
761.754	10264.49
762.091	10476.01
762.428	10627.19
762.765	10703.8
763.102	11017.24
763.438	11170.45
763.775	11305.14
764.112	11515.53
764.449	11773.83
764.785	11866.48
765.122	11960.94
765.458	12182.86
765.795	12399.12
766.131	12434.83
766.467	12682.51
766.804	12853.12
767.14	12880.92
767.476	13193
