Data from hue_180_FLMS001491_00032.txt Node
Date: Tue Feb 07 16:46:53 GMT 2017
User: dcchb
Spectrometer: FLMS00149
Trigger mode: 0
Integration Time (sec): 2.000000E-2
Scans to average: 10
Electric dark correction enabled: true
Nonlinearity correction enabled: false
Boxcar width: 0
XAxis mode: Wavelengths
Number of Pixels in Spectrum: 2048
>>>>>Begin Spectral Data<<<<<
341.393	-2.78
341.776	-2.78
342.16	-2.78
342.543	-70.35
342.927	-48.66
343.31	-51.14
343.693	-83.46
344.077	-69.45
344.46	-54.98
344.843	-46.62
345.226	-59.28
345.61	-29
345.993	-23.8
346.376	-12.73
346.759	9.19
347.142	26.14
347.525	24.34
347.908	66.14
348.291	88.06
348.674	91.9
349.057	124.67
349.44	108.4
349.823	126.25
350.206	147.04
350.588	209.87
350.971	212.81
351.354	239.25
351.737	244.67
352.119	233.37
352.502	274.95
352.884	275.18
353.267	282.86
353.65	300.03
354.032	300.03
354.414	302.29
354.797	303.42
355.179	324.89
355.562	342.07
355.944	312.46
356.326	303.42
356.709	330.09
357.091	339.36
357.473	356.53
357.855	326.93
358.238	341.39
358.62	336.64
359.002	320.37
359.384	333.48
359.766	333.25
360.148	351.33
360.53	338.45
360.912	339.58
361.294	342.07
361.676	334.84
362.057	337.55
362.439	336.87
362.821	337.77
363.203	337.55
363.584	300.71
363.966	320.6
364.348	332.8
364.729	342.97
365.111	305.91
365.493	327.15
365.874	333.48
366.256	316.53
366.637	295.51
367.019	309.75
367.4	314.5
367.781	295.97
368.163	320.82
368.544	342.52
368.925	298.9
369.306	327.38
369.688	321.73
370.069	302.52
370.45	331.67
370.831	307.27
371.212	315.85
371.593	296.19
371.974	316.53
372.355	330.99
372.736	305.01
373.117	310.88
373.498	303.65
373.879	306.36
374.26	309.3
374.641	315.4
375.021	325.12
375.402	323.54
375.783	328.51
376.163	325.12
376.544	322.18
376.925	322.86
377.305	341.62
377.686	324.89
378.066	327.83
378.447	322.41
378.827	317.66
379.208	345.01
379.588	337.55
379.968	328.96
380.349	325.8
380.729	336.19
381.109	342.97
381.489	336.64
381.87	346.59
382.25	335.97
382.63	335.74
383.01	320.6
383.39	349.3
383.77	343.88
384.15	359.92
384.53	358.56
384.91	330.99
385.29	384.55
385.67	337.55
386.049	359.47
386.429	353.59
386.809	363.31
387.189	356.3
387.568	350.88
387.948	357.89
388.328	366.7
388.707	370.09
389.087	359.92
389.466	368.51
389.846	379.81
390.225	368.51
390.605	368.28
390.984	371.22
391.363	378.22
391.743	382.29
392.122	363.08
392.501	365.8
392.881	384.55
393.26	399.47
393.639	380.03
394.018	394.04
394.397	380.71
394.776	394.04
395.155	386.13
395.534	368.06
395.913	385.68
396.292	388.39
396.671	400.6
397.05	394.04
397.429	380.94
397.808	369.86
398.186	402.18
398.565	415.06
398.944	424.78
399.323	412.35
399.701	413.93
400.08	406.47
400.458	393.37
400.837	421.61
401.215	430.88
401.594	420.26
401.972	412.57
402.351	417.77
402.729	422.52
403.107	439.01
403.486	437.88
403.864	448.51
404.242	427.94
404.62	433.59
404.999	475.17
405.377	474.95
405.755	455.96
406.133	471.56
406.511	451.67
406.889	451.89
407.267	462.74
407.645	469.97
408.023	457.77
408.401	446.02
408.779	465.23
409.156	487.83
409.534	490.09
409.912	493.02
410.29	503.64
410.667	514.94
411.045	531.67
411.422	515.62
411.8	550.42
412.178	532.8
412.555	566.24
412.933	551.33
413.31	556.07
413.687	561.04
414.065	568.95
414.442	588.61
414.819	607.82
415.197	591.78
415.574	597.88
415.951	614.15
416.328	617.99
416.705	620.25
417.082	643.98
417.46	604.66
417.837	655.73
418.214	667.03
418.591	670.87
418.967	674.49
419.344	658.9
419.721	674.26
420.098	684.66
420.475	700.93
420.852	696.18
421.228	737.76
421.605	711.32
421.982	739.8
422.358	738.22
422.735	765.78
423.111	759.68
423.488	780.02
423.864	761.94
424.241	817.76
424.617	824.54
424.994	789.97
425.37	836.29
425.746	836.97
426.123	840.13
426.499	831.32
426.875	848.72
427.251	877.65
427.627	894.14
428.003	898.89
428.379	905.22
428.756	922.62
429.132	913.35
429.507	935.5
429.883	928.49
430.259	945.89
430.635	974.14
431.011	981.15
431.387	978.66
431.763	1029.96
432.138	1013.24
432.514	1015.95
432.89	1058.88
433.265	1071.31
433.641	1106.11
434.016	1103.63
434.392	1132.78
434.767	1109.73
435.143	1159.9
435.518	1163.06
435.894	1191.54
436.269	1201.93
436.644	1204.19
437.02	1242.16
437.395	1267.47
437.77	1291.87
438.145	1296.39
438.52	1287.81
438.895	1303.85
439.271	1315.15
439.646	1349.05
440.021	1376.62
440.395	1401.7
440.77	1384.75
441.145	1420.68
441.52	1456.61
441.895	1449.38
442.27	1452.77
442.645	1459.1
443.019	1488.93
443.394	1444.86
443.769	1511.08
444.143	1528.7
444.518	1513.34
444.892	1552.66
445.267	1547.69
445.641	1595.14
446.016	1570.74
446.39	1605.99
446.764	1609.15
447.139	1600.79
447.513	1604.86
447.887	1627.91
448.262	1628.14
448.636	1689.83
449.01	1705.42
449.384	1686.66
449.758	1717.85
450.132	1768.7
450.506	1752.88
450.88	1777.96
451.254	1763.05
451.628	1798.75
452.002	1834.68
452.376	1824.29
452.75	1862.93
453.123	1879.88
453.497	1887.11
453.871	1901.57
454.244	1965.3
454.618	1972.08
454.992	1968.47
455.365	1981.8
455.739	2052.3
456.112	2051.85
456.486	2097.5
456.859	2079.65
457.232	2133.21
457.606	2111.06
457.979	2177.73
458.352	2199.87
458.725	2270.15
459.099	2204.39
459.472	2313.09
459.845	2328.46
460.218	2326.2
460.591	2354.22
460.964	2354.9
461.337	2420.43
461.71	2450.71
462.083	2481.22
462.456	2532.97
462.829	2509.92
463.201	2590.82
463.574	2592.4
463.947	2650.26
464.32	2676.47
464.692	2738.16
465.065	2751.5
465.438	2780.2
465.81	2821.78
466.183	2885.96
466.555	2935.45
466.928	2955.11
467.3	2958.72
467.672	2991.49
468.045	3045.05
468.417	3094.99
468.789	3163.46
469.161	3158.72
469.534	3233.74
469.906	3311.48
470.278	3386.96
470.65	3361.42
471.022	3473.06
471.394	3532.04
471.766	3567.75
472.138	3635.99
472.51	3671.25
472.882	3735.88
473.253	3811.13
473.625	3835.31
473.997	3947.17
474.369	4022.42
474.74	4048.64
475.112	4120.27
475.484	4195.75
475.855	4313.71
476.227	4358.46
476.598	4484.33
476.97	4568.4
477.341	4628.51
477.713	4681.61
478.084	4739.24
478.455	4928.84
478.827	4948.5
479.198	5148.27
479.569	5133.13
479.94	5303.74
480.311	5382.39
480.682	5472.55
481.053	5611.31
481.424	5734.47
481.795	5805.65
482.166	5895.37
482.537	5946.44
482.908	6110.28
483.279	6197.05
483.65	6287.22
484.021	6464.84
484.391	6544.16
484.762	6602.69
485.133	6715.23
485.503	6802.01
485.874	6931.27
486.244	7031.38
486.615	7228.21
486.985	7344.82
487.356	7415.1
487.726	7507.75
488.097	7704.36
488.467	7754.08
488.837	7893.73
489.207	7996.56
489.578	8202.88
489.948	8201.97
490.318	8299.37
490.688	8428.41
491.058	8535.98
491.428	8627.5
491.798	8733.49
492.168	8895.51
492.538	8999.24
492.908	9096.87
493.278	9185.45
493.648	9209.18
494.017	9272.23
494.387	9401.26
494.757	9535.72
495.126	9586.8
495.496	9684.42
495.866	9700.47
496.235	9839.22
496.605	9908.14
496.974	9920.8
497.344	10083.73
497.713	10135.48
498.082	10148.59
498.452	10277.4
498.821	10261.58
499.19	10328.02
499.559	10392.2
499.928	10514.23
500.298	10532.99
500.667	10639.2
501.036	10623.15
501.405	10741.34
501.774	10750.83
502.143	10859.53
502.512	10825.86
502.88	10917.61
503.249	10963.03
503.618	11019.75
503.987	11026.53
504.356	11083.48
504.724	11087.32
505.093	11169.35
505.462	11202.57
505.83	11235.11
506.199	11302.91
506.567	11323.47
506.936	11445.28
507.304	11527.08
507.672	11534.77
508.041	11506.75
508.409	11590.13
508.777	11663.35
509.145	11719.62
509.514	11630.58
509.882	11763.01
510.25	11727.3
510.618	11827.19
510.986	11840.75
511.354	11861.54
511.722	11942.89
512.09	11970.01
512.458	11948.54
512.826	12019.95
513.193	12017.92
513.561	12090.46
513.929	12126.84
514.297	12143.34
514.664	12188.54
515.032	12163
515.4	12226.27
515.767	12235.99
516.135	12356.44
516.502	12177.24
516.869	12373.39
517.237	12460.39
517.604	12296.1
517.972	12352.15
518.339	12446.38
518.706	12332.49
519.073	12368.19
519.44	12436.89
519.808	12433.27
520.175	12480.28
520.542	12603.44
520.909	12602.54
521.276	12617.22
521.643	12567.06
522.009	12641.4
522.376	12597.11
522.743	12710.33
523.11	12760.95
523.477	12727.28
523.843	12759.14
524.21	12899.7
524.577	12837.56
524.943	12881.62
525.31	12915.52
525.676	12903.32
526.043	12887.5
526.409	12920.95
526.776	12996.2
527.142	12978.12
527.508	12970.21
527.874	13061.51
528.241	12976.54
528.607	13054.5
528.973	13084.33
529.339	12937.67
529.705	12965.01
530.071	13089.98
530.437	13037.78
530.803	13075.07
531.169	13002.07
531.535	12930.44
531.901	12978.8
532.267	12849.08
532.632	12902.87
532.998	12948.52
533.364	12905.13
533.73	12927.05
534.095	12874.85
534.461	12829.2
534.826	12784.23
535.192	12842.53
535.557	12902.87
535.923	12723.66
536.288	12764.34
536.653	12675.75
537.019	12619.26
537.384	12607.73
537.749	12647.96
538.114	12576.77
538.479	12492.71
538.845	12504.01
539.21	12381.07
539.575	12440.73
539.94	12434.63
540.305	12447.06
540.67	12329.32
541.034	12292.71
541.399	12316.67
541.764	12258.59
542.129	12199.61
542.494	12220.4
542.858	12093.4
543.223	12031.25
543.587	12080.29
543.952	11952.84
544.316	11994.42
544.681	11924.59
545.045	11844.82
545.41	11905.61
545.774	11847.75
546.138	11683.92
546.503	11718.49
546.867	11742.45
547.231	11736.34
547.595	11674.88
547.959	11628.1
548.324	11559.17
548.688	11557.59
549.052	11481.44
549.416	11485.28
549.779	11414.77
550.143	11374.77
550.507	11382.91
550.871	11397.14
551.235	11241.22
551.599	11276.24
551.962	11194.44
552.326	11234.44
552.689	11227.66
553.053	11038.51
553.417	11096.59
553.78	11169.58
554.143	11006.87
554.507	11127.09
554.87	10965.29
555.234	10975.23
555.597	10891.85
555.96	10937.72
556.323	10896.59
556.686	10902.24
557.05	10950.15
557.413	10923.03
557.776	10796.71
558.139	10898.85
558.502	10824.5
558.865	10816.14
559.228	10863.82
559.59	10851.85
559.953	10771.17
560.316	10868.12
560.679	10780.66
561.041	10820.21
561.404	10902.47
561.767	10801
562.129	10674.68
562.492	10783.83
562.854	10784.5
563.217	10745.18
563.579	10804.17
563.941	10769.59
564.304	10811.62
564.666	10848.68
565.028	10759.87
565.39	10738.63
565.753	10810.94
566.115	10728.23
566.477	10854.11
566.839	10800.32
567.201	10830.83
567.563	10848.91
567.925	10843.94
568.287	10800.55
568.648	10778.86
569.01	10873.77
569.372	10891.17
569.734	10826.09
570.095	10923.71
570.457	10925.74
570.819	10867.89
571.18	10888.46
571.542	10904.73
571.903	10915.12
572.265	10924.61
572.626	10932.98
572.987	10869.7
573.349	10986.76
573.71	10925.74
574.071	10978.85
574.432	10926.65
574.794	11055.91
575.155	10952.18
575.516	10938.85
575.877	10939.75
576.238	10902.47
576.599	10989.24
576.96	10952.18
577.32	10954.67
577.681	11032.86
578.042	11012.97
578.403	10961.45
578.763	10866.54
579.124	10937.72
579.485	10966.42
579.845	10970.94
580.206	10991.5
580.566	10982.69
580.927	10979.98
581.287	11009.81
581.648	10868.57
582.008	10992.63
582.368	10925.97
582.728	10908.8
583.089	10959.42
583.449	10917.38
583.809	10940.88
584.169	10895.24
584.529	10877.38
584.889	10925.74
585.249	10945.18
585.609	10994.89
585.969	10881.9
586.329	10862.24
586.688	10881.68
587.048	10862.47
587.408	10792.19
587.768	10798.97
588.127	10796.26
588.487	10810.27
588.846	10888.46
589.206	10762.13
589.565	10829.48
589.925	10861.34
590.284	10751.74
590.643	10789.93
591.003	10707.9
591.362	10761.91
591.721	10742.92
592.08	10766.43
592.44	10774.79
592.799	10686.65
593.158	10674
593.517	10732.53
593.876	10770.95
594.235	10753.09
594.593	10761.23
594.952	10688.24
595.311	10677.84
595.67	10681
596.029	10728.23
596.387	10693.66
596.746	10712.19
597.104	10686.2
597.463	10577.73
597.822	10662.93
598.18	10544.96
598.538	10617.96
598.897	10744.96
599.255	10520.78
599.613	10728.91
599.972	10647.33
600.33	10663.6
600.688	10597.16
601.046	10680.78
601.404	10595.36
601.762	10571.4
602.12	10704.51
602.478	10647.33
602.836	10640.78
603.194	10597.62
603.552	10625.64
603.91	10604.4
604.268	10629.48
604.625	10500.22
604.983	10652.08
605.341	10612.08
605.698	10609.59
606.056	10606.2
606.413	10624.06
606.771	10615.24
607.128	10647.33
607.485	10596.26
607.843	10631.74
608.2	10628.12
608.557	10642.36
608.914	10615.47
609.272	10720.33
609.629	10683.72
609.986	10739.08
610.343	10711.29
610.7	10786.54
611.057	10731.4
611.414	10727.56
611.771	10757.16
612.127	10712.87
612.484	10712.42
612.841	10759.87
613.198	10712.42
613.554	10804.84
613.911	10769.82
614.267	10753.54
614.624	10789.7
614.98	10767.33
615.337	10836.71
615.693	10762.13
616.05	10819.53
616.406	10878.06
616.762	10816.59
617.118	10808.91
617.475	10771.62
617.831	10832.19
618.187	10858.63
618.543	10811.85
618.899	10846.42
619.255	10893.43
619.611	10817.5
619.967	10878.51
620.323	10933.43
620.678	10841.45
621.034	10798.06
621.39	10909.02
621.746	10741.12
622.101	10935.46
622.457	10857.5
622.812	10864.28
623.168	10912.41
623.523	10870.83
623.879	10941.11
624.234	10817.27
624.589	10853.43
624.945	10843.03
625.3	10845.29
625.655	10865.18
626.01	10849.59
626.365	10876.25
626.72	10777.05
627.075	10901.56
627.43	10855.69
627.785	10893.88
628.14	10841.68
628.495	10841.9
628.85	10783.15
629.205	10776.37
629.559	10890.72
629.914	10675.13
630.269	10755.58
630.623	10847.55
630.978	10666.99
631.332	10784.73
631.687	10772.75
632.041	10719.65
632.396	10756.26
632.75	10739.76
633.104	10715.35
633.459	10604.17
633.813	10626.09
634.167	10588.13
634.521	10645.3
634.875	10605.07
635.229	10627.45
635.583	10483.27
635.937	10610.27
636.291	10545.64
636.645	10541.35
636.999	10483.27
637.352	10643.49
637.706	10466.77
638.06	10564.85
638.413	10522.59
638.767	10423.84
639.121	10485.98
639.474	10382.93
639.828	10452.99
640.181	10466.77
640.534	10397.17
640.888	10410.5
641.241	10343.16
641.594	10349.49
641.947	10429.03
642.301	10384.97
642.654	10384.29
643.007	10356.04
643.36	10340
643.713	10400.56
644.066	10362.37
644.419	10247.8
644.771	10266.55
645.124	10184.97
645.477	10139.55
645.83	10116.27
646.182	10078.31
646.535	9980.01
646.888	10055.71
647.24	9960.57
647.593	9965.32
647.945	9969.38
648.298	9964.41
648.65	10003.96
649.002	9934.58
649.355	9937.3
649.707	9953.79
650.059	10059.78
650.411	10154.01
650.763	10143.39
651.115	10283.5
651.467	10197.4
651.819	10190.17
652.171	10174.35
652.523	10138.87
652.875	10104.97
653.227	10132.09
653.578	10250.06
653.93	10145.88
654.282	10146.33
654.633	10085.77
654.985	10119.89
655.337	10145.65
655.688	10153.56
656.039	10233.78
656.391	10109.95
656.742	10148.59
657.094	10111.08
657.445	10220.45
657.796	10197.4
658.147	10189.49
658.498	10164.63
658.849	10166.22
659.2	10178.87
659.551	10150.17
659.902	10226.55
660.253	10200.79
660.604	10222.94
660.955	10189.04
661.306	10215.93
661.656	10103.62
662.007	10222.49
662.358	10268.59
662.708	10158.31
663.059	10175.48
663.409	10121.02
663.76	10288.25
664.11	10260.22
664.461	10212.32
664.811	10160.11
665.161	10215.71
665.511	10168.48
665.862	10264.07
666.212	10288.02
666.562	10231.3
666.912	10193.56
667.262	10171.19
667.612	10267.68
667.962	10227.01
668.312	10205.54
668.662	10269.26
669.011	10180
669.361	10174.8
669.711	10148.14
670.06	10170.96
670.41	10067.24
670.76	10133.22
671.109	10199.89
671.459	10168.25
671.808	10111.3
672.157	10152.2
672.507	10067.46
672.856	10062.04
673.205	10196.05
673.554	10098.87
673.904	10099.78
674.253	10207.34
674.602	10108.82
674.951	10066.56
675.3	9929.61
675.649	10081.25
675.998	10023.85
676.346	9983.85
676.695	10042.38
677.044	9941.59
677.393	9991.76
677.741	9998.54
678.09	9966.45
678.438	10010.29
678.787	9925.77
679.135	9979.33
679.484	9955.37
679.832	9936.39
680.181	9862.04
680.529	9925.32
680.877	9920.8
681.225	9846.45
681.573	9930.06
681.922	9839.44
682.27	9756.73
682.618	9785.43
682.966	9828.37
683.314	9831.76
683.661	9743.85
684.009	9798.32
684.357	9690.75
684.705	9689.39
685.053	9701.82
685.4	9649.17
685.748	9646.91
686.095	9548.38
686.443	9573.24
686.79	9579.34
687.138	9554.48
687.485	9453.24
687.832	9496.63
688.18	9451.88
688.527	9417.08
688.874	9373.24
689.221	9397.65
689.568	9367.14
689.915	9376.41
690.262	9382.51
690.609	9287.82
690.956	9307.48
691.303	9247.82
691.65	9195.62
691.997	9174.6
692.344	9139.58
692.69	9112.46
693.037	9113.59
693.383	9025
693.73	8987.72
694.077	9034.04
694.423	8941.62
694.769	8949.3
695.116	8936.19
695.462	8912.46
695.808	8856.42
696.155	8876.31
696.501	8776.87
696.847	8771.9
697.193	8671.79
697.539	8719.47
697.885	8622.98
698.231	8597.67
698.577	8663.2
698.923	8672.02
699.269	8592.92
699.614	8455.98
699.96	8410.1
700.306	8470.89
700.651	8393.61
700.997	8381.18
701.342	8415.3
701.688	8333.5
702.033	8348.18
702.379	8410.33
702.724	8297.56
703.069	8291.24
703.415	8221.63
703.76	8170.11
704.105	8152.71
704.45	8158.58
704.795	8091.47
705.14	8102.99
705.485	8059.83
705.83	7984.13
706.175	8036.33
706.52	7952.26
706.865	7929.66
707.209	7886.28
707.554	7942.77
707.899	7843.56
708.243	7946.61
708.588	7805.15
708.932	7786.62
709.277	7794.3
709.621	7767.63
709.966	7756.79
710.31	7730.35
710.654	7740.06
710.998	7734.87
711.342	7705.72
711.687	7637.69
712.031	7630.46
712.375	7561.99
712.719	7602.67
713.063	7555.44
713.407	7612.38
713.75	7536.91
714.094	7587.75
714.438	7517.47
714.782	7515.44
715.125	7466.17
715.469	7479.96
715.812	7388.21
716.156	7404.48
716.499	7418.72
716.843	7414.2
717.186	7416.91
717.53	7453.97
717.873	7427.53
718.216	7391.15
718.559	7317.7
718.902	7311.38
719.246	7369.68
719.589	7305.27
719.932	7279.51
720.275	7257.59
720.617	7243.81
720.96	7249
721.303	7258.5
721.646	7250.81
721.989	7216.24
722.331	7241.77
722.674	7209.01
723.016	7231.6
723.359	7170.36
723.701	7216.01
724.044	7234.99
724.386	7121.55
724.729	7175.79
725.071	7190.02
725.413	7156.8
725.755	7163.81
726.097	7115.22
726.439	7130.36
726.782	7124.26
727.124	7153.19
727.465	7126.97
727.807	7159.74
728.149	7164.71
728.491	7070.93
728.833	7074.32
729.175	7058.27
729.516	7045.17
729.858	7090.59
730.199	7081.33
730.541	7086.07
730.882	6999.75
731.224	7063.25
731.565	7074.55
731.906	7063.47
732.248	7075.68
732.589	7081.33
732.93	7034.55
733.271	7065.51
733.612	7038.84
733.953	7062.34
734.294	7052.4
734.635	7105.51
734.976	7025.28
735.317	6972.4
735.658	7075.9
735.999	7033.64
736.339	7013.76
736.68	7049.24
737.021	7104.6
737.361	7045.85
737.702	7076.58
738.042	7042.46
738.383	7094.21
738.723	7120.42
739.063	7128.78
739.404	7125.39
739.744	7152.28
740.084	7182.34
740.424	7157.03
740.764	7165.84
741.104	7226.63
741.444	7211.94
741.784	7189.12
742.124	7210.59
742.464	7213.53
742.804	7260.98
743.143	7268.89
743.483	7323.58
743.823	7273.41
744.162	7332.84
744.502	7358.15
744.841	7347.76
745.181	7358.38
745.52	7394.54
745.86	7446.29
746.199	7514.99
746.538	7465.27
746.877	7550.24
747.216	7659.39
747.556	7646.28
747.895	7684.47
748.234	7679.05
748.573	7769.44
748.911	7789.56
749.25	7870
749.589	7806.28
749.928	7959.95
750.267	8070
750.605	8070
750.944	8133.05
751.283	8199.04
751.621	8257.79
751.96	8353.61
752.298	8424.11
752.636	8529.42
752.975	8527.61
753.313	8713.6
753.651	8892.35
753.989	8905.46
754.327	8993.37
754.666	9034.72
755.004	9218.22
755.342	9354.49
755.679	9479
756.017	9571.66
756.355	9707.24
756.693	9832.89
757.031	9954.47
757.368	10028.82
757.706	10220.23
758.044	10306.1
758.381	10537.73
758.719	10676.26
759.056	10826.76
759.394	10892.98
759.731	11040.32
