Data from hue_110_FLMS001491_00028.txt Node
Date: Tue Feb 07 17:01:06 GMT 2017
User: dcchb
Spectrometer: FLMS00149
Trigger mode: 0
Integration Time (sec): 2.000000E-2
Scans to average: 10
Electric dark correction enabled: true
Nonlinearity correction enabled: false
Boxcar width: 0
XAxis mode: Wavelengths
Number of Pixels in Spectrum: 2048
>>>>>Begin Spectral Data<<<<<
341.393	-14.36
341.776	-14.36
342.16	-14.36
342.543	-64.31
342.927	-67.02
343.31	-65.44
343.693	-60.01
344.077	-85.1
344.46	-62.95
344.843	-60.24
345.226	-58.66
345.61	-33.35
345.993	-53.23
346.376	20.44
346.759	28.57
347.142	18.18
347.525	62.92
347.908	63.15
348.291	82.13
348.674	104.28
349.057	99.31
349.44	116.03
349.823	137.72
350.206	147.21
350.588	167.33
350.971	229.7
351.354	225.18
351.737	252.97
352.119	253.2
352.502	246.65
352.884	266.76
353.267	300.2
353.65	277.15
354.032	293.42
354.414	299.75
354.797	316.7
355.179	326.64
355.562	318.51
355.944	312.18
356.326	340.43
356.709	337.27
357.091	350.82
357.473	344.27
357.855	330.26
358.238	331.62
358.62	337.49
359.002	329.13
359.384	337.27
359.766	340.43
360.148	339.52
360.53	330.26
360.912	329.13
361.294	324.61
361.676	323.03
362.057	323.25
362.439	350.6
362.821	324.38
363.203	302.92
363.584	316.47
363.966	303.37
364.348	313.54
364.729	304.27
365.111	319.19
365.493	310.15
365.874	314.67
366.256	314.67
366.637	345.4
367.019	290.49
367.4	309.24
367.781	331.39
368.163	297.94
368.544	285.97
368.925	306.53
369.306	322.58
369.688	305.4
370.069	312.18
370.45	287.77
370.831	303.37
371.212	340.65
371.593	319.41
371.974	298.85
372.355	288
372.736	302.92
373.117	302.69
373.498	312.63
373.879	307.89
374.26	313.99
374.641	325.29
375.021	332.52
375.402	330.94
375.783	293.2
376.163	315.8
376.544	332.29
376.925	330.49
377.305	339.3
377.686	314.21
378.066	330.26
378.447	319.19
378.827	323.03
379.208	319.19
379.588	323.48
379.968	326.19
380.349	329.36
380.729	313.31
381.109	342.24
381.489	330.49
381.87	324.16
382.25	339.75
382.63	340.65
383.01	352.86
383.39	326.42
383.77	317.83
384.15	342.46
384.53	346.98
384.91	356.93
385.29	343.14
385.67	335.68
386.049	346.08
386.429	336.36
386.809	348.11
387.189	351.73
387.568	358.06
387.948	346.76
388.328	379.52
388.707	364.38
389.087	353.54
389.466	348.11
389.846	352.63
390.225	356.93
390.605	348.56
390.984	365.74
391.363	354.44
391.743	378.85
392.122	377.49
392.501	379.07
392.881	377.49
393.26	357.15
393.639	359.86
394.018	365.96
394.397	364.16
394.776	356.93
395.155	369.81
395.534	391.95
395.913	373.65
396.292	398.96
396.671	365.29
397.05	365.51
397.429	376.81
397.808	379.75
398.186	384.5
398.565	396.02
398.944	393.08
399.323	380.43
399.701	393.76
400.08	384.95
400.458	402.12
400.837	414.1
401.215	407.09
401.594	399.41
401.972	389.69
402.351	398.73
402.729	385.17
403.107	427.21
403.486	422.23
403.864	416.36
404.242	400.31
404.62	404.16
404.999	425.62
405.377	409.35
405.755	404.83
406.133	411.16
406.511	416.59
406.889	400.99
407.267	429.01
407.645	432.4
408.023	429.69
408.401	433.31
408.779	434.66
409.156	439.64
409.534	447.77
409.912	437.83
410.29	438.73
410.667	464.27
411.045	429.47
411.422	462.23
411.8	451.39
412.178	459.07
412.555	438.96
412.933	471.72
413.31	494.1
413.687	468.56
414.065	490.48
414.442	472.18
414.819	467.66
415.197	470.14
415.574	485.51
415.951	492.52
416.328	483.7
416.705	481.89
417.082	504.72
417.46	478.05
417.837	506.53
418.214	502.46
418.591	488
418.967	509.01
419.344	515.34
419.721	504.27
420.098	509.46
420.475	524.83
420.852	530.25
421.228	514.66
421.605	520.31
421.982	535.23
422.358	529.8
422.735	507.2
423.111	533.19
423.488	525.51
423.864	512.63
424.241	544.04
424.617	562.57
424.994	553.53
425.37	546.3
425.746	546.98
426.123	571.38
426.499	544.49
426.875	544.49
427.251	575.45
427.627	582.23
428.003	596.47
428.379	584.72
428.756	585.62
429.132	603.02
429.507	601.21
429.883	610.93
430.259	591.5
430.635	589.01
431.011	588.33
431.387	624.26
431.763	623.81
432.138	636.24
432.514	615.9
432.89	629.46
433.265	630.14
433.641	652.96
434.016	667.2
434.392	650.03
434.767	668.33
435.143	685.73
435.518	714.88
435.894	671.72
436.269	691.83
436.644	683.47
437.02	698.84
437.395	706.07
437.77	694.77
438.145	713.53
438.52	714.2
438.895	738.38
439.271	746.07
439.646	763.02
440.021	754.2
440.395	766.41
440.77	738.16
441.145	734.54
441.52	789.23
441.895	770.93
442.27	761.21
442.645	753.3
443.019	794.88
443.394	771.38
443.769	780.64
444.143	782.9
444.518	780.64
444.892	810.02
445.267	806.18
445.641	804.15
446.016	814.77
446.39	852.51
446.764	830.13
447.139	838.49
447.513	830.13
447.887	824.71
448.262	862.68
448.636	856.8
449.01	854.54
449.384	859.29
449.758	871.49
450.132	880.08
450.506	906.06
450.88	899.96
451.254	888.44
451.628	905.39
452.002	896.35
452.376	905.39
452.75	921.2
453.123	926.85
453.497	915.78
453.871	913.3
454.244	983.58
454.618	973.63
454.992	981.32
455.365	975.44
455.739	987.64
456.112	991.03
456.486	1035.55
456.859	1009.56
457.232	1047.53
457.606	1043.24
457.979	1059.96
458.352	1071.26
458.725	1064.93
459.099	1060.64
459.472	1112.84
459.845	1090.24
460.218	1139.73
460.591	1156.23
460.964	1142.89
461.337	1191.93
461.71	1200.75
462.083	1206.39
462.456	1206.39
462.829	1223.34
463.201	1227.19
463.574	1258.6
463.947	1275.77
464.32	1271.48
464.692	1344.02
465.065	1302.21
465.438	1331.82
465.81	1358.48
466.183	1358.71
466.555	1396.67
466.928	1417.24
467.3	1415.65
467.672	1454.3
468.045	1498.14
468.417	1491.81
468.789	1506.73
469.161	1523.22
469.534	1574.75
469.906	1605.03
470.278	1619.94
470.65	1648.19
471.022	1732.26
471.394	1721.41
471.766	1732.03
472.138	1767.06
472.51	1833.05
472.882	1833.95
473.253	1886.15
473.625	1948.97
473.997	1965.02
474.369	2016.54
474.74	2025.81
475.112	2058.58
475.484	2145.35
475.855	2173.15
476.227	2238.91
476.598	2320.04
476.97	2341.96
477.341	2447.94
477.713	2507.6
478.084	2535.17
478.455	2612.69
478.827	2688.84
479.198	2836.18
479.569	2803.19
479.94	2903.07
480.311	2957.99
480.682	3090.41
481.053	3197.75
481.424	3253.8
481.795	3302.16
482.166	3423.51
482.537	3499.67
482.908	3616.95
483.279	3720.45
483.65	3741.7
484.021	3951.86
484.391	4061.24
484.762	4150.95
485.133	4233.21
485.503	4330.83
485.874	4490.6
486.244	4588.9
486.615	4723.59
486.985	4838.16
487.356	5004.94
487.726	5081.1
488.097	5253.97
488.467	5317.93
488.837	5517.69
489.207	5613.74
489.578	5787.97
489.948	5866.16
490.318	6055.08
490.688	6073.39
491.058	6309.54
491.428	6420.5
491.798	6601.06
492.168	6730.09
492.538	6834.04
492.908	6980.25
493.278	7161.94
493.648	7255.5
494.017	7397.87
494.387	7508.83
494.757	7662.5
495.126	7790.85
495.496	7940.68
495.866	8110.85
496.235	8247.79
496.605	8310.84
496.974	8434.45
497.344	8538.86
497.713	8621.12
498.082	8773.88
498.452	8925.51
498.821	9009.58
499.19	9128.22
499.559	9217.03
499.928	9388.78
500.298	9506.74
500.667	9527.31
501.036	9638.04
501.405	9825.38
501.774	9869.22
502.143	9989.21
502.512	10007.52
502.88	10137.23
503.249	10242.54
503.618	10345.14
503.987	10405.02
504.356	10569.99
504.724	10560.05
505.093	10682.98
505.462	10752.58
505.83	10798.46
506.199	10918.91
506.567	11137.43
506.936	11057.89
507.304	11283.64
507.672	11342.85
508.041	11337.88
508.409	11508.95
508.777	11602.51
509.145	11632.34
509.514	11650.19
509.882	11756.17
510.25	11806.57
510.618	11906.9
510.986	11885.66
511.354	12006.11
511.722	12085.43
512.09	12113.23
512.458	12123.62
512.826	12280
513.193	12288.82
513.561	12354.35
513.929	12431.86
514.297	12505.31
514.664	12551.18
515.032	12562.71
515.4	12651.29
515.767	12600.9
516.135	12761.35
516.502	12595.47
516.869	12854.45
517.237	12848.12
517.604	12803.38
517.972	12934.67
518.339	12950.27
518.706	12913.88
519.073	12956.59
519.44	13023.03
519.808	13095.12
520.175	13083.6
520.542	13222.12
520.909	13350.71
521.276	13183.48
521.643	13353.42
522.009	13358.62
522.376	13380.31
522.743	13420.31
523.11	13469.58
523.477	13575.56
523.843	13579.18
524.21	13577.14
524.577	13738.04
524.943	13716.57
525.31	13720.19
525.676	13759.06
526.043	13882.67
526.409	13826.4
526.776	13970.35
527.142	13945.04
527.508	13924.03
527.874	13921.31
528.241	13960.64
528.607	14006.06
528.973	14026.85
529.339	13952.05
529.705	13979.84
530.071	14081.54
530.437	14114.98
530.803	14089.9
531.169	14182.78
531.535	14063.23
531.901	14021.43
532.267	14067.3
532.632	14119.05
532.998	14055.55
533.364	14069.79
533.73	14034.98
534.095	14160.63
534.461	14063.23
534.826	13999.28
535.192	13955.66
535.557	13962.9
535.923	13974.42
536.288	13967.64
536.653	14025.94
537.019	13895.33
537.384	13914.99
537.749	13964.7
538.114	13839.96
538.479	13880.86
538.845	13842.45
539.21	13788.89
539.575	13818.04
539.94	13816.68
540.305	13774.65
540.67	13687.42
541.034	13766.97
541.399	13734.43
541.764	13703.92
542.129	13632.73
542.494	13545.96
542.858	13569.69
543.223	13544.6
543.587	13545.73
543.952	13490.59
544.316	13446.07
544.681	13413.08
545.045	13406.07
545.41	13418.96
545.774	13390.03
546.138	13304.16
546.503	13252.63
546.867	13304.16
547.231	13319.3
547.595	13306.19
547.959	13204.05
548.324	13145.52
548.688	13166.08
549.052	13105.97
549.416	13150.71
549.779	13084.95
550.143	13019.64
550.507	13042.24
550.871	13066.2
551.235	13016.48
551.599	12982.81
551.962	12944.17
552.326	12914.34
552.689	12965.18
553.053	12851.06
553.417	12846.99
553.78	12898.97
554.143	12754.11
554.507	12800.44
554.87	12819.87
555.234	12831.85
555.597	12749.14
555.96	12736.94
556.323	12716.6
556.686	12697.39
557.05	12719.09
557.413	12733.78
557.776	12657.39
558.139	12763.38
558.502	12736.71
558.865	12677.73
559.228	12693.32
559.59	12730.61
559.953	12714.11
560.316	12714.11
560.679	12684.29
561.041	12694.68
561.404	12748.01
561.767	12781.23
562.129	12734.68
562.492	12800.89
562.854	12819.42
563.217	12728.58
563.579	12757.28
563.941	12819.2
564.304	12731.29
564.666	12785.3
565.028	12888.8
565.39	12810.38
565.753	12858.97
566.115	12863.72
566.477	12910.04
566.839	12874.56
567.201	12886.31
567.563	12906.43
567.925	12939.87
568.287	12941.91
568.648	12935.8
569.01	13000.21
569.372	13033.2
569.734	12944.84
570.095	13019.42
570.457	12992.98
570.819	12961.57
571.18	12990.04
571.542	13037.5
571.903	13081.79
572.265	13086.99
572.626	13074.33
572.987	13029.59
573.349	13152.52
573.71	13023.26
574.071	13088.57
574.432	13138.74
574.794	13183.48
575.155	13238.85
575.516	13127.66
575.877	13150.94
576.238	13174.22
576.599	13149.36
576.96	13156.36
577.32	13175.12
577.681	13183.71
578.042	13164.5
578.403	13175.57
578.763	13200.88
579.124	13160.66
579.485	13275.23
579.845	13284.5
580.206	13255.8
580.566	13202.92
580.927	13275.68
581.287	13222.12
581.648	13133.54
582.008	13238.17
582.368	13258.51
582.728	13217.83
583.089	13195.68
583.449	13178.96
583.809	13140.32
584.169	13200.43
584.529	13236.59
584.889	13201.79
585.249	13163.82
585.609	13044.95
585.969	13111.84
586.329	13138.96
586.688	13041.34
587.048	13080.43
587.408	13065.52
587.768	12989.36
588.127	13058.29
588.487	13056.7
588.846	13113.43
589.206	12984.16
589.565	13042.02
589.925	13120.88
590.284	13051.06
590.643	12952.53
591.003	13052.19
591.362	13093.31
591.721	13080.88
592.08	13074.11
592.44	13112.52
592.799	13058.96
593.158	13014.22
593.517	12971.74
593.876	13079.75
594.235	12959.08
594.593	12993.88
594.952	12977.38
595.311	12929.48
595.67	12943.26
596.029	12949.59
596.387	12961.57
596.746	13022.58
597.104	12916.6
597.463	12916.82
597.822	12963.37
598.18	12879.08
598.538	12925.63
598.897	12961.34
599.255	12800.21
599.613	13046.31
599.972	12915.92
600.33	12914.56
600.688	12891.96
601.046	12944.39
601.404	12915.01
601.762	12960.89
602.12	12959.53
602.478	13028.68
602.836	12908.69
603.194	12880.66
603.552	12911.62
603.91	12835.92
604.268	12979.87
604.625	12886.99
604.983	12970.83
605.341	12857.84
605.698	13013.32
606.056	12945.52
606.413	12999.53
606.771	13032.98
607.128	12982.81
607.485	12910.27
607.843	12927.67
608.2	13002.47
608.557	13002.69
608.914	12980.77
609.272	13060.77
609.629	13117.04
609.986	13065.07
610.343	13051.51
610.7	13003.6
611.057	13107.1
611.414	13049.02
611.771	13058.96
612.127	13093.54
612.484	13128.34
612.841	13131.05
613.198	13138.51
613.554	13110.26
613.911	13164.72
614.267	13121.56
614.624	13103.03
614.98	13187.55
615.337	13256.7
615.693	13137.15
616.05	13200.66
616.406	13261.22
616.762	13188
617.118	13158.4
617.475	13143.93
617.831	13183.93
618.187	13279.3
618.543	13289.01
618.899	13312.97
619.255	13281.11
619.611	13327.21
619.967	13366.75
620.323	13401.78
620.678	13362.91
621.034	13298.28
621.39	13310.26
621.746	13175.35
622.101	13484.49
622.457	13297.6
622.812	13309.58
623.168	13312.52
623.523	13354.32
623.879	13412.85
624.234	13292.18
624.589	13388.22
624.945	13362.46
625.3	13374.21
625.655	13357.26
626.01	13326.75
626.365	13340.54
626.72	13273.42
627.075	13258.28
627.43	13276.59
627.785	13259.64
628.14	13331.05
628.495	13307.09
628.85	13263.03
629.205	13240.88
629.559	13372.18
629.914	13267.32
630.269	13269.13
630.623	13253.31
630.978	13199.3
631.332	13207.44
631.687	13164.05
632.041	13171.05
632.396	13270.03
632.75	13107.1
633.104	13150.94
633.459	13150.04
633.813	13168.34
634.167	13102.13
634.521	13169.02
634.875	13134.22
635.229	13126.08
635.583	12985.52
635.937	12979.87
636.291	12994.56
636.645	13082.69
636.999	13051.51
637.352	13055.35
637.706	12962.92
638.06	13038.85
638.413	13018.74
638.767	12915.01
639.121	12938.06
639.474	12854.45
639.828	12848.12
640.181	12888.35
640.534	12824.39
640.888	12858.97
641.241	12795.24
641.594	12837.73
641.947	12911.17
642.301	12803.6
642.654	12844.96
643.007	12845.18
643.36	12768.8
643.713	12749.14
644.066	12813.1
644.419	12731.74
644.771	12648.35
645.124	12541.69
645.477	12594.8
645.83	12400.45
646.182	12425.31
646.535	12351.64
646.888	12386.44
647.24	12276.39
647.593	12494.91
647.945	12357.51
648.298	12307.57
648.65	12326.78
649.002	12273.9
649.355	12340.11
649.707	12308.48
650.059	12421.02
650.411	12517.51
650.763	12545.53
651.115	12632.31
651.467	12641.35
651.819	12611.52
652.171	12592.08
652.523	12581.69
652.875	12599.09
653.227	12508.92
653.578	12623.04
653.93	12590.95
654.282	12592.08
654.633	12571.29
654.985	12521.35
655.337	12630.5
655.688	12582.59
656.039	12622.37
656.391	12599.77
656.742	12585.76
657.094	12612.42
657.445	12634.79
657.796	12590.05
658.147	12586.43
658.498	12616.72
658.849	12732.42
659.2	12672.53
659.551	12615.13
659.902	12559.54
660.253	12639.54
660.604	12719.31
660.955	12617.85
661.306	12671.4
661.656	12637.73
662.007	12668.92
662.358	12710.27
662.708	12733.1
663.059	12712.76
663.409	12621.91
663.76	12750.05
664.11	12762.02
664.461	12672.53
664.811	12679.77
665.161	12744.17
665.511	12575.59
665.862	12745.98
666.212	12715.02
666.562	12737.17
666.912	12691.74
667.262	12644.74
667.612	12684.96
667.962	12739.42
668.312	12680.44
668.662	12707.34
669.011	12672.76
669.361	12637.05
669.711	12618.3
670.06	12582.59
670.41	12687
670.76	12662.59
671.109	12678.64
671.459	12669.6
671.808	12618.75
672.157	12673.44
672.507	12534.46
672.856	12553.89
673.205	12605.87
673.554	12571.07
673.904	12631.63
674.253	12648.35
674.602	12557.73
674.951	12436.38
675.3	12303.05
675.649	12534.01
675.998	12524.29
676.346	12500.11
676.695	12585.98
677.044	12434.35
677.393	12430.28
677.741	12410.62
678.09	12478.87
678.438	12407.68
678.787	12481.13
679.135	12468.92
679.484	12354.8
679.832	12403.39
680.181	12336.27
680.529	12371.75
680.877	12235.71
681.225	12275.26
681.573	12301.92
681.922	12154.58
682.27	12242.49
682.618	12171.3
682.966	12136.5
683.314	12228.03
683.661	12143.51
684.009	12120.23
684.357	12085.43
684.705	12023.51
685.053	12085.66
685.4	12076.39
685.748	11935.6
686.095	11973.8
686.443	11890.18
686.79	11947.58
687.138	11926.79
687.485	11872.56
687.832	11880.92
688.18	11843.4
688.527	11831.43
688.874	11788.04
689.221	11710.07
689.568	11730.41
689.915	11695.16
690.262	11623.07
690.609	11543.52
690.956	11514.15
691.303	11497.65
691.65	11455.84
691.997	11497.65
692.344	11415.84
692.69	11375.62
693.037	11421.04
693.383	11292.46
693.73	11225.57
694.077	11197.77
694.423	11185.79
694.769	11194.61
695.116	11077.55
695.462	11065.57
695.808	11010.88
696.155	11076.19
696.501	10974.73
696.847	10957.78
697.193	10897.89
697.539	10913.71
697.885	10885.24
698.231	10791.68
698.577	10779.48
698.923	10720.27
699.269	10740.38
699.614	10666.94
699.96	10671.68
700.306	10580.61
700.651	10541.74
700.997	10478.69
701.342	10520.73
701.688	10518.01
702.033	10424.46
702.379	10328.87
702.724	10344.01
703.069	10373.39
703.415	10279.15
703.76	10231.02
704.105	10228.76
704.45	10186.5
704.795	10089.78
705.14	10112.15
705.485	10082.09
705.83	10019.95
706.175	10043.9
706.52	10056.11
706.865	9966.39
707.209	9906.05
707.554	9940.18
707.899	9853.4
708.243	9886.62
708.588	9834.19
708.932	9781.54
709.277	9746.28
709.621	9815.66
709.966	9665.38
710.31	9716.68
710.654	9583.8
710.998	9582.45
711.342	9648.88
711.687	9517.36
712.031	9564.82
712.375	9480.08
712.719	9521.43
713.063	9483.47
713.407	9495.44
713.75	9434.65
714.094	9424.94
714.438	9477.36
714.782	9452.28
715.125	9332.28
715.469	9424.71
715.812	9382.23
716.156	9243.7
716.499	9262.91
716.843	9271.72
717.186	9249.8
717.53	9303.13
717.873	9250.03
718.216	9267.88
718.559	9236.01
718.902	9194.21
719.246	9223.13
719.589	9196.02
719.932	9153.76
720.275	9166.19
720.617	9181.1
720.96	9139.97
721.303	9124.15
721.646	9144.27
721.989	9064.04
722.331	9143.59
722.674	9023.36
723.016	9079.63
723.359	9030.6
723.701	9065.4
724.044	9076.24
724.386	9042.12
724.729	9035.79
725.071	9042.8
725.413	9060.88
725.755	8970.03
726.097	8987.89
726.439	8874.44
726.782	8927.55
727.124	8978.39
727.465	8926.87
727.807	8938.85
728.149	8917.6
728.491	8907.89
728.833	8910.83
729.175	8897.04
729.516	8852.07
729.858	8857.49
730.199	8930.49
730.541	8918.28
730.882	8871.96
731.224	8939.75
731.565	8805.29
731.906	8873.54
732.248	8934.1
732.589	8859.75
732.93	8815.69
733.271	8845.06
733.612	8836.93
733.953	8871.73
734.294	8915.8
734.635	8803.26
734.976	8851.17
735.317	8839.87
735.658	8868.57
735.999	8907.21
736.339	8865.18
736.68	8903.37
737.021	8857.72
737.361	8850.71
737.702	8928.9
738.042	8923.25
738.383	8905.85
738.723	8928.23
739.063	8894.1
739.404	8952.63
739.744	8877.61
740.084	8921.9
740.424	8960.09
740.764	8936.14
741.104	8980.65
741.444	8983.59
741.784	8957.15
742.124	9020.43
742.464	8991.5
742.804	9059.07
743.143	9077.83
743.483	9110.14
743.823	9079.41
744.162	9126.86
744.502	9209.35
744.841	9230.82
745.181	9248.67
745.52	9237.14
745.86	9259.74
746.199	9284.83
746.538	9380.64
746.877	9345.84
747.216	9429.23
747.556	9454.77
747.895	9512.62
748.234	9574.99
748.573	9613.18
748.911	9676
749.25	9741.76
749.589	9859.95
749.928	9880.97
750.267	9986.73
750.605	10050.68
750.944	10094.3
751.283	10202.09
751.621	10172.03
751.96	10359.15
752.298	10410.45
752.636	10569.31
752.975	10546.26
753.313	10650.89
753.651	10875.52
753.989	10893.37
754.327	11019.47
754.666	11128.39
755.004	11241.61
755.342	11374.04
755.679	11503.98
756.017	11591.21
756.355	11726.34
756.693	11758.66
757.031	12047.47
757.368	12133.11
757.706	12215.14
758.044	12439.77
758.381	12614.23
758.719	12702.59
