Data from hue_00_FLMS001491_8.txt Node
Date: Mon Feb 06 15:29:12 GMT 2017
User: dcchb
Spectrometer: FLMS00149
Trigger mode: 0
Integration Time (sec): 2.000000E-2
Scans to average: 10
Electric dark correction enabled: true
Nonlinearity correction enabled: false
Boxcar width: 0
XAxis mode: Wavelengths
Number of Pixels in Spectrum: 2048
>>>>>Begin Spectral Data<<<<<
341.393	-1.62
341.776	-1.62
342.16	-1.62
342.543	-36.88
342.927	-71
343.31	-76.2
343.693	-64
344.077	-71.68
344.46	-53.37
344.843	-36.65
345.226	-40.95
345.61	-31.68
345.993	-16.54
346.376	-5.47
346.759	-13.6
347.142	14.65
347.525	35.44
347.908	69.56
348.291	62.55
348.674	112.5
349.057	115.43
349.44	137.36
349.823	152.27
350.206	155.21
350.588	186.62
350.971	206.73
351.354	236.34
351.737	239.27
352.119	249.22
352.502	269.33
352.884	277.01
353.267	268.43
353.65	298.03
354.032	296.22
354.414	310.46
354.797	296.45
355.179	306.62
355.562	344.13
355.944	305.49
356.326	329.21
356.709	330.57
357.091	340.74
357.473	325.37
357.855	357.46
358.238	336.9
358.62	351.36
359.002	349.1
359.384	324.47
359.766	338.93
360.148	317.69
360.53	345.03
360.912	325.6
361.294	331.7
361.676	319.5
362.057	322.21
362.439	337.12
362.821	316.56
363.203	310.46
363.584	324.24
363.966	291.02
364.348	326.05
364.729	311.59
365.111	317.01
365.493	308.88
365.874	312.27
366.256	302.77
366.637	320.4
367.019	315.43
367.4	318.59
367.781	320.4
368.163	305.03
368.544	298.25
368.925	303.23
369.306	325.37
369.688	312.49
370.069	295.54
370.45	305.49
370.831	317.01
371.212	321.31
371.593	313.4
371.974	310.91
372.355	313.62
372.736	309.55
373.117	308.88
373.498	310.91
373.879	311.59
374.26	312.72
374.641	306.39
375.021	325.37
375.402	306.16
375.783	334.19
376.163	323.34
376.544	321.98
376.925	321.08
377.305	324.69
377.686	325.15
378.066	328.99
378.447	338.71
378.827	325.15
379.208	325.15
379.588	340.97
379.968	335.32
380.349	317.69
380.729	318.82
381.109	342.1
381.489	336.67
381.87	329.67
382.25	329.89
382.63	334.86
383.01	343.68
383.39	340.74
383.77	353.39
384.15	363.34
384.53	351.13
384.91	333.28
385.29	347.75
385.67	358.59
386.049	365.82
386.429	340.29
386.809	348.2
387.189	341.42
387.568	364.24
387.948	353.17
388.328	363.34
388.707	368.31
389.087	358.59
389.466	343.23
389.846	350.91
390.225	349.55
390.605	378.48
390.984	363.56
391.363	377.12
391.743	369.44
392.122	377.12
392.501	348.42
392.881	377.12
393.26	378.25
393.639	359.27
394.018	365.15
394.397	370.8
394.776	383.22
395.155	374.41
395.534	389.33
395.913	370.8
396.292	363.56
396.671	390.91
397.05	378.93
397.429	369.44
397.808	390.91
398.186	375.54
398.565	398.37
398.944	389.78
399.323	387.97
399.701	355.88
400.08	383.9
400.458	401.98
400.837	399.5
401.215	395.65
401.594	394.07
401.972	390.23
402.351	414.41
402.729	394.98
403.107	421.42
403.486	397.24
403.864	429.1
404.242	394.07
404.62	410.12
404.999	405.82
405.377	418.25
405.755	401.98
406.133	426.39
406.511	421.64
406.889	425.48
407.267	445.14
407.645	420.74
408.023	420.51
408.401	417.35
408.779	415.99
409.156	426.16
409.534	445.82
409.912	429.78
410.29	454.18
410.667	446.5
411.045	459.38
411.422	454.41
411.8	451.25
412.178	468.65
412.555	484.01
412.933	465.93
413.31	465.03
413.687	461.41
414.065	483.79
414.442	464.13
414.819	477.69
415.197	462.09
415.574	481.75
415.951	478.82
416.328	487.85
416.705	498.02
417.082	495.76
417.46	493.05
417.837	528.53
418.214	503
418.591	497.35
418.967	502.54
419.344	502.54
419.721	501.64
420.098	518.81
420.475	516.1
420.852	515.65
421.228	507.06
421.605	521.75
421.982	529.44
422.358	531.47
422.735	501.87
423.111	543.45
423.488	531.7
423.864	547.97
424.241	559.04
424.617	554.75
424.994	544.8
425.37	558.14
425.746	540.96
426.123	566.72
426.499	554.29
426.875	579.38
427.251	569.43
427.627	570.56
428.003	587.06
428.379	604.01
428.756	579.6
429.132	598.13
429.507	599.94
429.883	617.79
430.259	600.17
430.635	639.71
431.011	634.74
431.387	617.12
431.763	622.77
432.138	613.95
432.514	636.33
432.89	630.22
433.265	654.18
433.641	658.25
434.016	675.19
434.392	658.02
434.767	689.21
435.143	684.46
435.518	685.82
435.894	675.42
436.269	676.32
436.644	692.37
437.02	692.59
437.395	714.97
437.77	721.07
438.145	717.68
438.52	736.66
438.895	717.45
439.271	745.25
439.646	729.43
440.021	749.77
440.395	753.61
440.77	762.42
441.145	759.71
441.52	775.3
441.895	769.65
442.27	766.94
442.645	796.32
443.019	772.82
443.394	753.84
443.769	778.24
444.143	795.87
444.518	778.92
444.892	811.24
445.267	808.75
445.641	808.07
446.016	798.58
446.39	787.73
446.764	810.56
447.139	809.65
447.513	830.9
447.887	811.01
448.262	817.56
448.636	836.09
449.01	834.51
449.384	846.26
449.758	845.81
450.132	861.18
450.506	855.3
450.88	872.7
451.254	877
451.628	887.39
452.002	884.23
452.376	894.62
452.75	897.56
453.123	895.98
453.497	940.5
453.871	912.93
454.244	932.59
454.618	921.52
454.992	940.95
455.365	933.72
455.739	954.06
456.112	968.29
456.486	972.59
456.859	969.42
457.232	988.18
457.606	970.78
457.979	1006.03
458.352	1013.04
458.725	1054.62
459.099	1026.37
459.472	1059.59
459.845	1049.2
460.218	1055.3
460.591	1059.59
460.964	1069.76
461.337	1079.48
461.71	1086.48
462.083	1107.5
462.456	1112.92
462.829	1129.65
463.201	1130.55
463.574	1124.45
463.947	1154.05
464.32	1198.12
464.692	1203.77
465.065	1192.92
465.438	1208.29
465.81	1232.69
466.183	1232.69
466.555	1262.52
466.928	1243.77
467.3	1258.91
467.672	1274.73
468.045	1323.54
468.417	1335.74
468.789	1296.87
469.161	1331.45
469.534	1337.32
469.906	1369.87
470.278	1366.7
470.65	1408.06
471.022	1422.29
471.394	1458.68
471.766	1456.64
472.138	1489.41
472.51	1508.17
472.882	1524.44
473.253	1533.7
473.625	1553.36
473.997	1585.23
474.369	1598.33
474.74	1613.7
475.112	1655.51
475.484	1698.22
475.855	1681.95
476.227	1704.32
476.598	1745.22
476.97	1798.55
477.341	1815.5
477.713	1840.36
478.084	1841.72
478.455	1921.49
478.827	1908.16
479.198	1987.02
479.569	1987.7
479.94	2039.23
480.311	2021.15
480.682	2073.58
481.053	2126.68
481.424	2171.43
481.795	2162.39
482.166	2250.29
482.537	2252.33
482.908	2281.03
483.279	2322.16
483.65	2361.25
484.021	2412.78
484.391	2412.78
484.762	2447.58
485.133	2488.71
485.503	2545.2
485.874	2589.72
486.244	2592.43
486.615	2622.26
486.985	2702.03
487.356	2710.39
487.726	2755.59
488.097	2838.53
488.467	2836.95
488.837	2903.16
489.207	2949.94
489.578	2989.71
489.948	3029.03
490.318	3063.83
490.688	3083.04
491.058	3116.26
491.428	3193.32
491.798	3177.05
492.168	3243.26
492.538	3280.78
492.908	3308.57
493.278	3366.87
493.648	3358.29
494.017	3418.62
494.387	3456.59
494.757	3440.77
495.126	3513.09
495.496	3520.99
495.866	3530.49
496.235	3599.64
496.605	3592.86
496.974	3626.98
497.344	3652.29
497.713	3721.67
498.082	3704.72
498.452	3817.48
498.821	3795.56
499.19	3789.91
499.559	3837.14
499.928	3880.76
500.298	3894.32
500.667	3933.41
501.036	3923.24
501.405	3955.56
501.774	3998.5
502.143	4012.06
502.512	3977.25
502.88	4063.13
503.249	4042.56
503.618	4090.7
503.987	4125.05
504.356	4142.67
504.724	4127.08
505.093	4156.68
505.462	4187.87
505.83	4230.58
506.199	4244.59
506.567	4298.15
506.936	4294.53
507.304	4346.96
507.672	4380.41
508.041	4362.78
508.409	4442.55
508.777	4426.73
509.145	4457.92
509.514	4446.85
509.882	4471.48
510.25	4460.41
510.618	4539.27
510.986	4551.93
511.354	4605.03
511.722	4579.95
512.09	4604.36
512.458	4658.82
512.826	4688.65
513.193	4689.78
513.561	4699.72
513.929	4741.75
514.297	4719.38
514.664	4763.9
515.032	4795.31
515.4	4762.77
515.767	4807.29
516.135	4875.08
516.502	4793.96
516.869	4882.99
517.237	4908.3
517.604	4894.29
517.972	4950.56
518.339	5002.76
518.706	4965.7
519.073	5014.74
519.44	5013.84
519.808	5048.19
520.175	5056.32
520.542	5096.09
520.909	5069.2
521.276	5115.98
521.643	5188.07
522.009	5166.38
522.376	5275.3
522.743	5233.49
523.11	5284.34
523.477	5303.1
523.843	5332.02
524.21	5351.68
524.577	5431.45
524.943	5434.39
525.31	5479.14
525.676	5454.05
526.043	5491.79
526.409	5534.05
526.776	5579.7
527.142	5591
527.508	5632.8
527.874	5653.14
528.241	5665.12
528.607	5741.05
528.973	5742.18
529.339	5793.93
529.705	5817.21
530.071	5864.89
530.437	5829.86
530.803	5937.88
531.169	5933.59
531.535	5967.71
531.901	5995.05
532.267	5972
532.632	6060.59
532.998	6058.1
533.364	6088.61
533.73	6167.25
534.095	6177.2
534.461	6156.63
534.826	6209.29
535.192	6270.53
535.557	6276.85
535.923	6248.83
536.288	6331.32
536.653	6290.87
537.019	6293.8
537.384	6339.45
537.749	6387.59
538.114	6430.52
538.479	6504.65
538.845	6469.17
539.21	6392.78
539.575	6526.11
539.94	6482.95
540.305	6564.53
540.67	6566.11
541.034	6566.11
541.399	6607.47
541.764	6616.96
542.129	6688.14
542.494	6730.18
542.858	6712.32
543.223	6773.11
543.587	6817.63
543.952	6801.13
544.316	6837.74
544.681	6833
545.045	6840.46
545.41	6933.79
545.774	6930.62
546.138	6937.63
546.503	6972.88
546.867	7004.07
547.231	7113.89
547.595	7034.8
547.959	7070.96
548.324	7066.21
548.688	7098.53
549.052	7175.59
549.416	7174.68
549.779	7217.85
550.143	7209.49
550.507	7215.14
550.871	7307.11
551.235	7296.71
551.599	7337.62
551.962	7344.85
552.326	7394.34
552.689	7434.11
553.053	7420.55
553.417	7431.63
553.78	7463.94
554.143	7506.43
554.507	7520.66
554.87	7602.92
555.234	7581
555.597	7556.6
555.96	7662.81
556.323	7649.93
556.686	7658.74
557.05	7691.05
557.413	7697.61
557.776	7730.15
558.139	7784.39
558.502	7826.19
558.865	7853.31
559.228	7844.05
559.59	7897.38
559.953	7924.27
560.316	8014.89
560.679	7951.84
561.041	8040.42
561.404	8098.28
561.767	8137.82
562.129	8022.57
562.492	8188.44
562.854	8163.36
563.217	8164.94
563.579	8204.94
563.941	8239.29
564.304	8260.08
564.666	8303.69
565.028	8306.63
565.39	8363.58
565.753	8401.32
566.115	8427.31
566.477	8464.37
566.839	8487.42
567.201	8528.32
567.563	8576
567.925	8574.87
568.287	8658.49
568.648	8637.47
569.01	8689.22
569.372	8781.2
569.734	8751.37
570.095	8789.33
570.457	8760.41
570.819	8878.37
571.18	8913.4
571.542	8938.93
571.903	8989.78
572.265	9052.83
572.626	9122.43
572.987	9072.04
573.349	9113.62
573.71	9171.02
574.071	9258.7
574.432	9264.57
574.794	9368.3
575.155	9397.22
575.516	9410.11
575.877	9513.83
576.238	9566.49
576.599	9623.43
576.96	9601.74
577.32	9702.75
577.681	9740.94
578.042	9870.43
578.403	9920.37
578.763	9989.53
579.124	10142.97
579.485	10250.76
579.845	10254.6
580.206	10311.55
580.566	10445.11
580.927	10538.21
581.287	10595.39
581.648	10718.32
582.008	10830.63
582.368	11026.79
582.728	11107.46
583.089	11241.7
583.449	11337.74
583.809	11483.27
584.169	11685.53
584.529	11730.04
584.889	12063.37
585.249	12091.84
585.609	12168
585.969	12416.81
586.329	12521.21
586.688	12772.28
587.048	12826.51
587.408	13025.83
587.768	13339.27
588.127	13469.21
588.487	13588.53
588.846	13944.9
589.206	14081.17
589.565	14277.55
589.925	14572
590.284	14693.81
590.643	14927.25
591.003	15198.2
591.362	15508.93
591.721	15645.2
592.08	15905.3
592.44	16172.87
592.799	16393.2
593.158	16672.74
593.517	16838.16
593.876	17098.49
594.235	17300.07
594.593	17600.17
594.952	17812.37
595.311	18079.48
595.67	18366.48
596.029	18740.93
596.387	18925.79
596.746	19203.29
597.104	19371.88
597.463	19665.88
597.822	19956.04
598.18	20175.25
598.538	20318.52
598.897	20823.36
599.255	20958.5
599.613	21473.29
599.972	21544.7
600.33	21787.18
600.688	22033.95
601.046	22332.25
601.404	22688.4
601.762	22894.27
602.12	23142.17
602.478	23407.03
602.836	23623.29
603.194	23704.65
603.552	24120.91
603.91	24105.54
604.268	24548.92
604.625	24750.04
604.983	24993.88
605.341	25109.35
605.698	25463.69
606.056	25772.84
606.413	25955.21
606.771	26262.54
607.128	26460.96
607.485	26526.94
607.843	26676.09
608.2	27118.34
608.557	27235.4
608.914	27442.4
609.272	27794.26
609.629	27957.19
609.986	28195.6
610.343	28272.89
610.7	28642.59
611.057	28751.29
611.414	28945.64
611.771	29059.76
612.127	29297.49
612.484	29570.93
612.841	29659.29
613.198	29768.44
613.554	30048.21
613.911	30200.29
614.267	30424.02
614.624	30497.69
614.98	30680.28
615.337	31006.37
615.693	31066.94
616.05	31080.27
616.406	31471.67
616.762	31433.26
617.118	31439.13
617.475	31678.45
617.831	31867.59
618.187	32050.87
618.543	32112.11
618.899	32480.01
619.255	32483.62
619.611	32548.03
619.967	32715.03
620.323	32970.39
620.678	32966.77
621.034	32967.45
621.39	32983.72
621.746	33191.63
622.101	33501.45
622.457	33312.08
622.812	33474.56
623.168	33652.41
623.523	33629.36
623.879	33842.46
624.234	33830.93
624.589	33893.76
624.945	33976.69
625.3	34070.47
625.655	34160.64
626.01	34239.96
626.365	34285.61
626.72	34322.9
627.075	34405.38
627.43	34402.22
627.785	34350.92
628.14	34590.46
628.495	34694.19
628.85	34789.55
629.205	34724.47
629.559	34812.6
629.914	34778.25
630.269	34883.11
630.623	34797.46
630.978	34806.5
631.332	35016.66
631.687	35309.99
632.041	34839.04
632.396	35007.17
632.75	34868.42
633.104	35008.98
633.459	34786.84
633.813	35000.17
634.167	35035.19
634.521	34975.99
634.875	35028.87
635.229	35036.55
635.583	35075.42
635.937	34921.53
636.291	34921.3
636.645	35035.87
636.999	34913.39
637.352	35101.18
637.706	34982.31
638.06	35056.44
638.413	35046.72
638.767	35090.56
639.121	35084.68
639.474	34986.38
639.828	34839.04
640.181	35074.97
640.534	35104.8
640.888	34962.43
641.241	34754.75
641.594	35030.45
641.947	34978.7
642.301	34850.11
642.654	34961.3
643.007	35047.4
643.36	34867.52
643.713	34972.15
644.066	35043.33
644.419	34739.84
644.771	34531.25
645.124	34464.36
645.477	34283.8
645.83	34118.83
646.182	33875.68
646.535	33943.92
646.888	33962
647.24	33870.71
647.593	34045.62
647.945	33968.78
648.298	33685.17
648.65	33711.39
649.002	33695.34
649.355	33822.35
649.707	33754.32
650.059	33992.51
650.411	34302.56
650.763	34352.73
651.115	34612.83
651.467	34596.79
651.819	34632.49
652.171	34579.39
652.523	34424.36
652.875	34490.12
653.227	34277.7
653.578	34630.91
653.93	34330.35
654.282	34358.6
654.633	34313.41
654.985	34340.07
655.337	34379.39
655.688	34432.27
656.039	34439.28
656.391	34059.63
656.742	34194.99
657.094	34351.6
657.445	34365.83
657.796	34219.62
658.147	34210.58
658.498	34205.84
658.849	34403.57
659.2	34258.72
659.551	34256.01
659.902	34241.54
660.253	34301.43
660.604	34291.71
660.955	34156.35
661.306	34110.93
661.656	34123.35
662.007	34139.4
662.358	34188.44
662.708	34256.68
663.059	34087.42
663.409	33887.2
663.76	34239.51
664.11	34175.33
664.461	34157.48
664.811	34107.31
665.161	34088.1
665.511	34074.54
665.862	34123.58
666.212	34224.37
666.562	34167.87
666.912	34117.93
667.262	34139.4
667.612	34056.01
667.962	34177.14
668.312	34102.79
668.662	34141.88
669.011	34223.69
669.361	34097.59
669.711	33828.67
670.06	33971.04
670.41	33973.53
670.76	33881.33
671.109	34038.84
671.459	33968.1
671.808	33930.82
672.157	33994.32
672.507	33709.35
672.856	33720.43
673.205	33843.59
673.554	33846.07
673.904	33960.65
674.253	33899.63
674.602	33961.55
674.951	33328.12
675.3	33241.12
675.649	33861.44
675.998	33767.88
676.346	33716.81
676.695	33847.43
677.044	33626.64
677.393	33718.17
677.741	33767.43
678.09	33736.47
678.438	33560.66
678.787	33623.25
679.135	33741.67
679.484	33433.2
679.832	33513.2
680.181	33377.16
680.529	33503.71
680.877	33390.27
681.225	33469.36
681.573	33542.58
681.922	33355.69
682.27	33211.74
682.618	33272.3
682.966	33108.47
683.314	33249.25
683.661	33162.25
684.009	32828.92
684.357	32699.44
684.705	32833.44
685.053	32853.11
685.4	32753.67
685.748	32645.2
686.095	32578.54
686.443	32456.73
686.79	32542.83
687.138	32642.94
687.485	32598.42
687.832	32439.33
688.18	32463.06
688.527	32297.19
688.874	32285.44
689.221	32210.41
689.568	32244.99
689.915	32138.1
690.262	31997.53
690.609	31870.53
690.956	31833.92
691.303	31785.34
691.65	31712.12
691.997	31671.44
692.344	31477.55
692.69	31485.68
693.037	31609.75
693.383	31212.7
693.73	31448.17
694.077	31270.32
694.423	31207.27
694.769	31048.63
695.116	31012.02
695.462	31098.57
695.808	30842.31
696.155	30846.15
696.501	30805.02
696.847	30597.8
697.193	30402.77
697.539	30552.15
697.885	30352.38
698.231	30263.57
698.577	30271.93
698.923	30226.96
699.269	30078.26
699.614	30128.43
699.96	29993.07
700.306	29960.98
700.651	29801.21
700.997	29773.41
701.342	29716.92
701.688	29632.85
702.033	29599.41
702.379	29396.47
702.724	29408.9
703.069	29382.24
703.415	29163.48
703.76	29254.1
704.105	29115.12
704.45	29215.69
704.795	29003.71
705.14	28867.45
705.485	28836.94
705.83	28723.95
706.175	28796.26
706.52	28683.95
706.865	28543.16
707.209	28643.72
707.554	28490.06
707.899	28557.85
708.243	28401.7
708.588	28297.74
708.932	28140.46
709.277	28088.26
709.621	28185.66
709.966	27952.44
710.31	28104.98
710.654	27859.11
710.998	27906.12
711.342	27775.05
711.687	27830.41
712.031	27655.73
712.375	27655.5
712.719	27629.74
713.063	27471.1
713.407	27583.19
713.75	27390.42
714.094	27281.95
714.438	27169.64
714.782	27253.03
715.125	27039.92
715.469	27241.28
715.812	27136.42
716.156	26932.13
716.499	26912.7
716.843	26967.38
717.186	26747.05
717.53	26932.36
717.873	26945.92
718.216	26815.07
718.559	26709.31
718.902	26500.73
719.246	26538.47
719.589	26552.25
719.932	26376.67
720.275	26333.05
720.617	26350.9
720.96	26316.78
721.303	26296.22
721.646	26240.17
721.989	26156.33
722.331	26183.9
722.674	26056.67
723.016	26064.81
723.359	26066.39
723.701	26093.73
724.044	25945.26
724.386	25886.96
724.729	25953.17
725.071	25873.18
725.413	25855.55
725.755	25841.99
726.097	25705.95
726.439	25549.79
726.782	25662.79
727.124	25663.46
727.465	25619.17
727.807	25489
728.149	25522
728.491	25425.73
728.833	25556.35
729.175	25367.65
729.516	25276.81
729.858	25310.48
730.199	25355.45
730.541	25324.94
730.882	25213.53
731.224	25285.85
731.565	25106.64
731.906	25048.56
732.248	25108.22
732.589	24989.58
732.93	24813.77
733.271	24999.3
733.612	24950.04
733.953	24969.7
734.294	24800.21
734.635	24778.74
734.976	24788.91
735.317	24713.88
735.658	24556.83
735.999	24753.88
736.339	24656.26
736.68	24686.31
737.021	24644.73
737.361	24363.84
737.702	24673.43
738.042	24483.83
738.383	24439.54
738.723	24483.16
739.063	24242.71
739.404	24448.35
739.744	24249.49
740.084	24305.08
740.424	24223.5
740.764	24100.79
741.104	24268.7
741.444	24121.13
741.784	24087.01
742.124	24016.28
742.464	24054.24
742.804	24088.59
743.143	23877.97
743.483	23873.23
743.823	23820.35
744.162	23891.76
744.502	23858.77
744.841	23759.56
745.181	23845.66
745.52	23749.16
745.86	23754.81
746.199	23755.94
746.538	23696.96
746.877	23767.02
747.216	23650.18
747.556	23532.67
747.895	23551.43
748.234	23393.47
748.573	23491.77
748.911	23409.51
749.25	23385.11
749.589	23266.24
749.928	23352.34
750.267	23385.56
750.605	23255.17
750.944	23190.76
751.283	23047.94
751.621	23117.54
751.96	23019.69
752.298	23023.08
752.636	23037.32
752.975	22966.13
753.313	22874.38
753.651	22913.25
753.989	22791.67
754.327	22704.67
754.666	22687.04
755.004	22716.2
755.342	22818.57
755.679	22611.57
756.017	22567.5
756.355	22580.38
756.693	22421.51
757.031	22549.2
757.368	22346.04
757.706	22247.73
758.044	22235.76
758.381	22331.57
758.719	22148.75
759.056	22208.19
759.394	22078.47
759.731	21983.79
760.068	21966.84
760.405	21890.91
760.743	21837.35
761.08	21895.43
