Data from hue_34_FLMS001491_00033.txt Node
Date: Tue Feb 07 17:25:32 GMT 2017
User: dcchb
Spectrometer: FLMS00149
Trigger mode: 0
Integration Time (sec): 2.000000E-2
Scans to average: 10
Electric dark correction enabled: true
Nonlinearity correction enabled: false
Boxcar width: 0
XAxis mode: Wavelengths
Number of Pixels in Spectrum: 2048
>>>>>Begin Spectral Data<<<<<
341.393	2.12
341.776	2.12
342.16	2.12
342.543	-57.31
342.927	-61.83
343.31	-70.65
343.693	-74.04
344.077	-75.62
344.46	-69.74
344.843	-54.15
345.226	-39.24
345.61	-33.59
345.993	-24.32
346.376	-16.64
346.759	43.93
347.142	37.37
347.525	17.03
347.908	60.2
348.291	100.65
348.674	85.05
349.057	113.75
349.44	127.77
349.823	161.21
350.206	168.67
350.588	205.5
350.971	226.97
351.354	210.02
351.737	236.91
352.119	248.89
352.502	285.27
352.884	277.37
353.267	276.46
353.65	278.5
354.032	288.66
354.414	318.95
354.797	313.97
355.179	333.18
355.562	326.86
355.944	304.71
356.326	335.22
356.709	333.86
357.091	334.09
357.473	354.43
357.855	327.08
358.238	336.8
358.62	353.07
359.002	317.14
359.384	371.15
359.766	353.07
360.148	308.33
360.53	342.67
360.912	356.23
361.294	340.41
361.676	338.38
362.057	351.49
362.439	334.31
362.821	339.28
363.203	343.58
363.584	322.34
363.966	316.01
364.348	336.8
364.729	344.03
365.111	296.57
365.493	313.97
365.874	315.1
366.256	310.36
366.637	309.46
367.019	313.97
367.4	295.9
367.781	306.29
368.163	335.67
368.544	323.24
368.925	309.46
369.306	318.49
369.688	307.2
370.069	326.86
370.45	285.73
370.831	305.61
371.212	324.37
371.593	298.38
371.974	313.3
372.355	325.5
372.736	298.16
373.117	338.38
373.498	284.15
373.879	339.51
374.26	318.95
374.641	320.98
375.021	320.75
375.402	321.43
375.783	337.03
376.163	332.51
376.544	338.38
376.925	330.92
377.305	333.41
377.686	323.92
378.066	332.73
378.447	337.25
378.827	317.82
379.208	351.26
379.588	329.12
379.968	337.93
380.349	331.15
380.729	330.02
381.109	334.54
381.489	355.78
381.87	365.27
382.25	342.22
382.63	351.04
383.01	346.29
383.39	351.26
383.77	343.13
384.15	349.91
384.53	353.75
384.91	357.59
385.29	347.19
385.67	357.36
386.049	362.34
386.429	350.13
386.809	346.29
387.189	367.53
387.568	328.89
387.948	331.6
388.328	342.22
388.707	367.98
389.087	348.78
389.466	362.11
389.846	365.27
390.225	345.61
390.605	365.5
390.984	377.93
391.363	355.1
391.743	384.93
392.122	381.54
392.501	360.08
392.881	375.67
393.26	374.54
393.639	372.28
394.018	384.48
394.397	384.26
394.776	361.21
395.155	388.32
395.534	381.54
395.913	368.21
396.292	405.05
396.671	374.09
397.05	374.76
397.429	401.2
397.808	381.32
398.186	393.97
398.565	403.46
398.944	381.54
399.323	381.77
399.701	403.01
400.08	370.47
400.458	393.07
400.837	397.59
401.215	400.98
401.594	383.35
401.972	412.96
402.351	390.58
402.729	416.8
403.107	423.12
403.486	420.86
403.864	413.86
404.242	399.17
404.62	408.89
404.999	414.09
405.377	433.07
405.755	440.3
406.133	429.68
406.511	430.81
406.889	423.8
407.267	426.29
407.645	415.67
408.023	424.71
408.401	403.69
408.779	421.09
409.156	407.08
409.534	433.52
409.912	445.72
410.29	436.91
410.667	441.43
411.045	454.99
411.422	442.11
411.8	468.1
412.178	451.6
412.555	459.51
412.933	441.66
413.31	490.02
413.687	488.43
414.065	465.61
414.442	497.7
414.819	456.8
415.197	480.98
415.574	480.98
415.951	483.69
416.328	478.94
416.705	483.91
417.082	485.72
417.46	488.89
417.837	493.41
418.214	491.37
418.591	478.04
418.967	513.52
419.344	513.07
419.721	511.26
420.098	508.77
420.475	513.52
420.852	508.09
421.228	522.1
421.605	525.04
421.982	531.82
422.358	516.46
422.735	533.63
423.111	542.22
423.488	543.12
423.864	530.01
424.241	532.5
424.617	542.44
424.994	553.74
425.37	542.44
425.746	547.19
426.123	554.87
426.499	554.65
426.875	551.26
427.251	561.43
427.627	559.84
428.003	567.75
428.379	576.79
428.756	564.36
429.132	598.71
429.507	593.06
429.883	597.58
430.259	602.1
430.635	599.39
431.011	586.06
431.387	586.96
431.763	610.92
432.138	624.48
432.514	624.7
432.89	624.25
433.265	648.66
433.641	645.27
434.016	642.78
434.392	648.2
434.767	667.41
435.143	662.89
435.518	667.19
435.894	663.12
436.269	667.64
436.644	688.65
437.02	665.15
437.395	673.51
437.77	654.76
438.145	696.11
438.52	700.63
438.895	691.82
439.271	696.56
439.646	698.82
440.021	698.37
440.395	692.27
440.77	713.74
441.145	716
441.52	722.33
441.895	728.65
442.27	724.81
442.645	727.07
443.019	748.31
443.394	746.28
443.769	740.63
444.143	743.12
444.518	733.17
444.892	755.77
445.267	763.91
445.641	758.71
446.016	770.46
446.39	774.3
446.764	760.52
447.139	757.35
447.513	781.76
447.887	777.24
448.262	791.93
448.636	796
449.01	803.45
449.384	802.55
449.758	819.5
450.132	842.77
450.506	834.41
450.88	824.92
451.254	835.32
451.628	835.77
452.002	845.94
452.376	847.52
452.75	854.07
453.123	844.36
453.497	852.72
453.871	861.98
454.244	870.57
454.618	900.17
454.992	923.68
455.365	892.04
455.739	940.17
456.112	930.91
456.486	941.08
456.859	954.64
457.232	951.25
457.606	947.86
457.979	969.78
458.352	969.32
458.725	1002.09
459.099	993.28
459.472	1012.94
459.845	1021.3
460.218	1049.1
460.591	1009.55
460.964	1017.46
461.337	1059.49
461.71	1073.5
462.083	1097.46
462.456	1100.85
462.829	1107.63
463.201	1116.44
463.574	1101.52
463.947	1108.3
464.32	1146.95
464.692	1148.98
465.065	1179.04
465.438	1189.43
465.81	1197.57
466.183	1224.01
466.555	1220.62
466.928	1240.05
467.3	1253.61
467.672	1275.53
468.045	1275.53
468.417	1305.81
468.789	1308.98
469.161	1305.36
469.534	1381.52
469.906	1373.61
470.278	1421.29
470.65	1412.93
471.022	1418.35
471.394	1462.42
471.766	1498.35
472.138	1513.27
472.51	1548.52
472.882	1551
473.253	1591.91
473.625	1588.52
473.997	1663.32
474.369	1661.06
474.74	1692.02
475.112	1735.41
475.484	1749.19
475.855	1780.38
476.227	1810.66
476.598	1844.1
476.97	1885.01
477.341	1949.64
477.713	1998.68
478.084	2015.17
478.455	2102.18
478.827	2101.72
479.198	2176.98
479.569	2191.89
479.94	2249.29
480.311	2292.23
480.682	2384.2
481.053	2382.39
481.424	2493.35
481.795	2514.37
482.166	2611.09
482.537	2614.03
482.908	2693.57
483.279	2761.14
483.65	2842.27
484.021	2880.91
484.391	2960.46
484.762	2988.71
485.133	3087.46
485.503	3177.4
485.874	3230.51
486.244	3302.82
486.615	3388.92
486.985	3441.12
487.356	3528.81
487.726	3562.02
488.097	3653.32
488.467	3718.63
488.837	3838.63
489.207	3864.84
489.578	4007.44
489.948	4081.56
490.318	4116.81
490.688	4186.42
491.058	4346.19
491.428	4381.21
491.798	4458.5
492.168	4564.48
492.538	4604.48
492.908	4689.9
493.278	4759.96
493.648	4817.36
494.017	4958.82
494.387	5024.13
494.757	5029.78
495.126	5145.94
495.496	5209.21
495.866	5246.73
496.235	5354.97
496.605	5390.45
496.974	5408.53
497.344	5568.98
497.713	5606.04
498.082	5654.17
498.452	5788.86
498.821	5811.68
499.19	5880.61
499.559	5942.3
499.928	5957.67
500.298	6038.57
500.667	6139.81
501.036	6201.28
501.405	6280.15
501.774	6255.97
502.143	6320.14
502.512	6389.52
502.88	6431.33
503.249	6476.52
503.618	6497.99
503.987	6582.28
504.356	6648.05
504.724	6665.9
505.093	6712.45
505.462	6801.71
505.83	6829.96
506.199	6846.91
506.567	6995.16
506.936	6995.38
507.304	7055.04
507.672	7123.06
508.041	7144.98
508.409	7204.87
508.777	7238.09
509.145	7279.22
509.514	7349.04
509.882	7467.23
510.25	7413.45
510.618	7488.48
510.986	7558.08
511.354	7584.29
511.722	7700
512.09	7710.84
512.458	7776.6
512.826	7760.78
513.193	7861.35
513.561	7923.27
513.929	7952.64
514.297	7960.55
514.664	8048.46
515.032	8008.24
515.4	8107.44
515.767	8145.18
516.135	8238.29
516.502	8149.47
516.869	8257.95
517.237	8325.52
517.604	8294.78
517.972	8344.05
518.339	8429.92
518.706	8391.28
519.073	8477.38
519.44	8485.51
519.808	8604.38
520.175	8616.58
520.542	8677.82
520.909	8680.08
521.276	8660.42
521.643	8802.57
522.009	8846.86
522.376	8873.07
522.743	9003.01
523.11	9023.35
523.477	9100.18
523.843	9097.92
524.21	9206.85
524.577	9291.82
524.943	9261.31
525.31	9343.79
525.676	9432.61
526.043	9438.03
526.409	9518.7
526.776	9617.46
527.142	9556.22
527.508	9691.81
527.874	9805.02
528.241	9811.58
528.607	9800.96
528.973	9921.63
529.339	9946.26
529.705	10013.15
530.071	10017.67
530.437	10118.24
530.803	10155.3
531.169	10205.92
531.535	10222.19
531.901	10272.58
532.267	10295.63
532.632	10313.71
532.998	10415.18
533.364	10430.77
533.73	10507.83
534.095	10618.79
534.461	10605.23
534.826	10640.48
535.192	10678.22
535.557	10814.94
535.923	10737.66
536.288	10772.46
536.653	10813.81
537.019	10855.17
537.384	10877.76
537.749	11056.52
538.114	10998.67
538.479	11019.91
538.845	11084.54
539.21	11016.74
539.575	11141.71
539.94	11221.03
540.305	11316.85
540.67	11327.7
541.034	11316.4
541.399	11411.08
541.764	11384.19
542.129	11475.04
542.494	11518.65
542.858	11625.54
543.223	11595.71
543.587	11662.38
543.952	11597.75
544.316	11705.54
544.681	11831.19
545.045	11874.8
545.41	11845.87
545.774	11949.38
546.138	11944.63
546.503	11996.15
546.867	12008.58
547.231	12101.69
547.595	12169.71
547.959	12277.95
548.324	12191.18
548.688	12188.69
549.052	12263.49
549.416	12297.61
549.779	12389.14
550.143	12374.67
550.507	12487.21
550.871	12574.44
551.235	12552.3
551.599	12596.14
551.962	12711.16
552.326	12664.84
552.689	12778.05
553.053	12773.76
553.417	12808.79
553.78	12892.85
554.143	12879.75
554.507	12896.92
554.87	12977.6
555.234	13140.98
555.597	13017.82
555.96	13011.04
556.323	13094.66
556.686	13166.97
557.05	13221.66
557.413	13183.47
557.776	13277.02
558.139	13365.38
558.502	13403.57
558.865	13448.09
559.228	13403.35
559.59	13538.03
559.953	13587.07
560.316	13728.76
560.679	13667.52
561.041	13796.78
561.404	13833.39
561.767	13861.64
562.129	13866.39
562.492	14005.82
562.854	13932.37
563.217	14023.9
563.579	14043.11
563.941	14069.55
564.304	14212.14
564.666	14256.21
565.028	14224.57
565.39	14281.74
565.753	14387.05
566.115	14411.68
566.477	14511.12
566.839	14469.31
567.201	14595.18
567.563	14605.8
567.925	14768.06
568.287	14730.32
568.648	14777.55
569.01	14865.91
569.372	15007.15
569.734	14942.52
570.095	15001.95
570.457	15078.56
570.819	15096.64
571.18	15202.4
571.542	15274.71
571.903	15330.3
572.265	15357.87
572.626	15533.24
572.987	15491.88
573.349	15680.35
573.71	15660.69
574.071	15788.37
574.432	15861.81
574.794	16048.25
575.155	16063.17
575.516	16034.92
575.877	16197.4
576.238	16290.05
576.599	16338.41
576.96	16474.68
577.32	16616.15
577.681	16733.43
578.042	16817.04
578.403	16889.81
578.763	17010.48
579.124	17126.87
579.485	17377.03
579.845	17446.63
580.206	17602.56
580.566	17656.34
580.927	17873.97
581.287	18083.23
581.648	18171.58
582.008	18406.61
582.368	18558.69
582.728	18726.82
583.089	18841.85
583.449	19102.63
583.809	19283.87
584.169	19523.41
584.529	19601.38
584.889	19994.14
585.249	20073.23
585.609	20252.43
585.969	20468.25
586.329	20531.97
586.688	20966.09
587.048	21168.79
587.408	21402.69
587.768	21585.28
588.127	21926.29
588.487	21934.65
588.846	22353.4
589.206	22487.18
589.565	22865.7
589.925	23123.54
590.284	23314.05
590.643	23535.74
591.003	23922.39
591.362	24098.89
591.721	24244.87
592.08	24615.71
592.44	24887.11
592.799	25160.55
593.158	25422.24
593.517	25720.99
593.876	25971.61
594.235	26094.99
594.593	26445.27
594.952	26689.33
595.311	26888.42
595.67	27178.81
596.029	27570.66
596.387	27765.91
596.746	28152.56
597.104	28156.41
597.463	28438.89
597.822	28782.38
598.18	28847.69
598.538	29129.71
598.897	29533.77
599.255	29561.79
599.613	30213.3
599.972	30132.4
600.33	30513.41
600.688	30562.22
601.046	30959.27
601.404	31251.47
601.762	31298.24
602.12	31799.47
602.478	32025.46
602.836	32124.66
603.194	32187.26
603.552	32484.88
603.91	32450.53
604.268	32839.9
604.625	33047.35
604.983	33383.84
605.341	33346.33
605.698	33730.27
606.056	33924.62
606.413	34144.72
606.771	34429.46
607.128	34573.41
607.485	34553.75
607.843	34858.38
608.2	34946.96
608.557	35235.54
608.914	35302.21
609.272	35645.02
609.629	35812.93
609.986	36081.62
610.343	36107.61
610.7	36358.45
611.057	36452.69
611.414	36565
611.771	36748.27
612.127	36967.93
612.484	37049.96
612.841	37275.71
613.198	37180.58
613.554	37336.73
613.911	37739.66
614.267	37809.26
614.624	37841.58
614.98	38015.81
615.337	38247.44
615.693	38419.19
616.05	38508.45
616.406	38636.81
616.762	38646.07
617.118	38801.32
617.475	38809.46
617.831	39093.75
618.187	39185.04
618.543	39338.49
618.899	39518.82
619.255	39524.24
619.611	39626.16
619.967	39833.39
620.323	40041.74
620.678	39907.96
621.034	39879.26
621.39	39862.09
621.746	39894.18
622.101	40446.7
622.457	40216.65
622.812	40359.02
623.168	40340.27
623.523	40566.02
623.879	40683.08
624.234	40534.16
624.589	40809.63
624.945	40832.68
625.3	40915.39
625.655	40950.87
626.01	40948.39
626.365	41113.58
626.72	41095.95
627.075	41122.17
627.43	41107.7
627.785	41049.17
628.14	41178.89
628.495	41120.36
628.85	41324.65
629.205	41143.86
629.559	41410.52
629.914	41178.66
630.269	41440.8
630.623	41305.21
630.978	41153.8
631.332	41387.25
631.687	41524.19
632.041	41364.65
632.396	41464.98
632.75	41334.37
633.104	41474.7
633.459	41313.8
633.813	41343.4
634.167	41476.06
634.521	41355.16
634.875	41393.8
635.229	41349.73
635.583	41208.49
635.937	41266.34
636.291	41259.79
636.645	41228.83
636.999	41141.15
637.352	41349.28
637.706	40977.31
638.06	41300.02
638.413	41231.77
638.767	41221.83
639.121	41329.17
639.474	41156.97
639.828	41147.03
640.181	41152.22
640.534	41227.7
640.888	41054.37
641.241	40868.61
641.594	41147.7
641.947	41213.69
642.301	40979.8
642.654	41067.93
643.007	40988.84
643.36	41051.21
643.713	40886.47
644.066	41125.56
644.419	40805.57
644.771	40734.61
645.124	40300.72
645.477	40312.25
645.83	39993.16
646.182	39879.04
646.535	39747.97
646.888	39814.18
647.24	39740.96
647.593	39909.09
647.945	39853.05
648.298	39782.09
648.65	39818.02
649.002	39487.86
649.355	39732.15
649.707	39654.18
650.059	39857.79
650.411	40366.93
650.763	40427.5
651.115	40728.73
651.467	40580.26
651.819	40503.88
652.171	40544.1
652.523	40500.04
652.875	40430.89
653.227	40215.98
653.578	40605.12
653.93	40468.85
654.282	40264.79
654.633	40332.81
654.985	40350.21
655.337	40326.71
655.688	40344.11
656.039	40403.32
656.391	40214.62
656.742	40238.35
657.094	40301.4
657.445	40379.14
657.796	40247.16
658.147	40261.62
658.498	40199.48
658.849	40364.9
659.2	40213.49
659.551	40109.99
659.902	40328.52
660.253	40053.27
660.604	40310.89
660.955	40005.13
661.306	40385.92
661.656	40028.18
662.007	40180.95
662.358	39946.15
662.708	40106.15
663.059	40016.43
663.409	39855.08
663.76	40122.42
664.11	40072.48
664.461	40197.22
664.811	40052.82
665.161	40117.67
665.511	40012.14
665.862	39970.79
666.212	40089.88
666.562	40170.78
666.912	39963.33
667.262	39947.73
667.612	39969.66
667.962	39899.15
668.312	39965.59
668.662	40060.05
669.011	40124
669.361	39884.23
669.711	39837.91
670.06	39908.87
670.41	39923.1
670.76	39804.91
671.109	40079.48
671.459	39916.55
671.808	39718.14
672.157	39868.64
672.507	39497.13
672.856	39700.51
673.205	39700.74
673.554	39778.02
673.904	39636.1
674.253	39751.58
674.602	39662.32
674.951	39209.9
675.3	39124.71
675.649	39703.22
675.998	39592.72
676.346	39610.12
676.695	39713.39
677.044	39526.96
677.393	39396.11
677.741	39514.3
678.09	39576.67
678.438	39359.28
678.787	39494.64
679.135	39387.07
679.484	39077.25
679.832	39348.2
680.181	39117.47
680.529	39205.61
680.877	39215.32
681.225	39177.81
681.573	39406.05
681.922	39016.91
682.27	38924.49
682.618	38975.56
682.966	38933.52
683.314	38872.28
683.661	38778.5
684.009	38583.25
684.357	38734.43
684.705	38606.98
685.053	38613.31
685.4	38497.15
685.748	38388.91
686.095	38315.01
686.443	38238.63
686.79	38230.49
687.138	38240.21
687.485	38183.26
687.832	38045.19
688.18	38196.37
688.527	37967.22
688.874	37838.64
689.221	37801.58
689.568	37788.24
689.915	37623.95
690.262	37481.59
690.609	37553
690.956	37487.91
691.303	37426.22
691.65	37148.71
691.997	37270.29
692.344	37073.46
692.69	37031.43
693.037	37086.79
693.383	36720.93
693.73	36905.1
694.077	36672.79
694.423	36690.65
694.769	36547.37
695.116	36329.52
695.462	36448.17
695.808	36285.01
696.155	36454.95
696.501	35991.68
696.847	36013.15
697.193	35720.5
697.539	35915.3
697.885	35699.26
698.231	35652.93
698.577	35702.42
698.923	35522.77
699.269	35426.05
699.614	35243.9
699.96	35204.13
700.306	35175.21
700.651	35052.04
700.997	34976.11
701.342	34928.88
701.688	34812.5
702.033	34693.18
702.379	34653.18
702.724	34647.76
703.069	34719.62
703.415	34367.09
703.76	34352.18
704.105	34232.63
704.45	34196.7
704.795	34004.39
705.14	33971.39
705.485	33914.67
705.83	33745.64
706.175	33913.54
706.52	33677.84
706.865	33709.71
707.209	33638.97
707.554	33543.38
707.899	33518.07
708.243	33326.21
708.588	33251.19
708.932	33112.66
709.277	32986.11
709.621	33083.28
709.966	33000.57
710.31	32911.76
710.654	32722.84
710.998	32812.1
711.342	32824.76
711.687	32651.43
712.031	32385.9
712.375	32294.83
712.719	32438.78
713.063	32351.1
713.407	32403.75
713.75	32299.12
714.094	32403.07
714.438	32123.53
714.782	32179.58
715.125	32001.05
715.469	32187.94
715.812	31966.48
716.156	31669.76
716.499	31869.76
716.843	31799.02
717.186	31522.87
717.53	31743.2
717.873	31667.05
718.216	31694.62
718.559	31415.98
718.902	31383.21
719.246	31239.72
719.589	31147.51
719.932	31155.88
720.275	31229.09
720.617	31097.8
720.96	30983.45
721.303	30910.68
721.646	30989.33
721.989	30826.17
722.331	30867.07
722.674	30756.79
723.016	30856.22
723.359	30619.39
723.701	30889.44
724.044	30565.83
724.386	30544.37
724.729	30536.01
725.071	30474.09
725.413	30517.02
725.755	30301.89
726.097	30297.37
726.439	30085.4
726.782	30114.55
727.124	30395.44
727.465	30092.63
727.807	30111.38
728.149	30073.64
728.491	29970.37
728.833	30055.34
729.175	29840.43
729.516	29911.84
729.858	29828.45
730.199	29855.12
730.541	29764.73
730.882	29740.09
731.224	29710.49
731.565	29510.72
731.906	29669.14
732.248	29517.73
732.589	29465.3
732.93	29263.04
733.271	29337.84
733.612	29324.29
733.953	29452.19
734.294	29378.75
734.635	29220.33
734.976	29285.87
735.317	29086.1
735.658	29021.02
735.999	28960.23
736.339	29093.78
736.68	28974.92
737.021	28929.95
737.361	28796.39
737.702	28910.96
738.042	28841.36
738.383	28785.77
738.723	28749.84
739.063	28546.45
739.404	28825.77
739.744	28585.55
740.084	28541.26
740.424	28644.3
740.764	28580.35
741.104	28579.9
741.444	28506
741.784	28381.26
742.124	28368.38
742.464	28330.41
742.804	28283.63
743.143	28074.6
743.483	28259.68
743.823	28184.43
744.162	28080.48
744.502	28251.32
744.841	28132.45
745.181	28102.4
745.52	28006.81
745.86	28069.4
746.199	27981.27
746.538	27931.55
746.877	27992.57
747.216	27906.24
747.556	27870.99
747.895	27848.84
748.234	27755.29
748.573	27710.99
748.911	27587.83
749.25	27548.74
749.589	27347.84
749.928	27438.01
750.267	27492.02
750.605	27425.13
750.944	27252.7
751.283	27381.51
751.621	27351.46
751.96	27131.57
752.298	27167.51
752.636	27148.3
752.975	26967.29
753.313	26886.16
753.651	27051.8
753.989	26859.49
754.327	26753.51
754.666	26796.44
755.004	26748.53
755.342	26793.73
755.679	26635.09
756.017	26685.71
756.355	26637.58
756.693	26452.95
757.031	26586.5
757.368	26332.95
757.706	26376.34
758.044	26239.17
