Data from hue_10_FLMS001491_55.txt Node
Date: Mon Feb 06 15:32:09 GMT 2017
User: dcchb
Spectrometer: FLMS00149
Trigger mode: 0
Integration Time (sec): 2.000000E-2
Scans to average: 10
Electric dark correction enabled: true
Nonlinearity correction enabled: false
Boxcar width: 0
XAxis mode: Wavelengths
Number of Pixels in Spectrum: 2048
>>>>>Begin Spectral Data<<<<<
341.393	0.92
341.776	0.92
342.16	0.92
342.543	-55.13
342.927	-57.84
343.31	-64.84
343.693	-84.73
344.077	-64.39
344.46	-61.91
344.843	-53.09
345.226	-60.32
345.61	-10.16
345.993	-22.81
346.376	2.05
346.759	11.54
347.142	4.53
347.525	56.51
347.908	61.26
348.291	84.31
348.674	94.7
349.057	107.36
349.44	115.04
349.823	146.45
350.206	161.14
350.588	195.94
350.971	223.06
351.354	225.09
351.737	231.65
352.119	254.02
352.502	261.25
352.884	271.65
353.267	291.76
353.65	296.28
354.032	294.7
354.414	306.22
354.797	305.77
355.179	316.62
355.562	319.55
355.944	343.96
356.326	317.52
356.709	334.47
357.091	338.99
357.473	335.6
357.855	348.71
358.238	333.56
358.62	337.41
359.002	337.86
359.384	321.81
359.766	339.44
360.148	344.64
360.53	305.09
360.912	316.16
361.294	331.76
361.676	334.02
362.057	321.81
362.439	318.42
362.821	317.97
363.203	304.86
363.584	311.42
363.966	310.51
364.348	320.01
364.729	303.06
365.111	320.68
365.493	320.23
365.874	299.44
366.256	322.27
366.637	298.09
367.019	317.97
367.4	311.19
367.781	295.83
368.163	323.17
368.544	314.36
368.925	311.64
369.306	321.81
369.688	326.79
370.069	312.1
370.45	319.55
370.831	311.87
371.212	290.18
371.593	324.07
371.974	326.79
372.355	305.54
372.736	307.35
373.117	304.64
373.498	326.79
373.879	311.42
374.26	299.44
374.641	294.7
375.021	298.09
375.402	305.32
375.783	309.16
376.163	321.59
376.544	320.91
376.925	313.9
377.305	326.56
377.686	306.67
378.066	333.56
378.447	332.43
378.827	334.24
379.208	318.88
379.588	348.48
379.968	333.34
380.349	340.12
380.729	327.92
381.109	341.47
381.489	335.6
381.87	315.71
382.25	340.57
382.63	345.32
383.01	335.15
383.39	347.12
383.77	333.34
384.15	343.28
384.53	331.53
384.91	359.33
385.29	334.02
385.67	348.25
386.049	362.04
386.429	353.9
386.809	360.46
387.189	346.9
387.568	357.52
387.948	355.26
388.328	333.79
388.707	358.2
389.087	336.73
389.466	369.5
389.846	353.23
390.225	362.26
390.605	347.8
390.984	365.65
391.363	345.09
391.743	344.86
392.122	358.87
392.501	372.21
392.881	364.75
393.26	357.52
393.639	382.38
394.018	370.4
394.397	372.66
394.776	363.17
395.155	354.58
395.534	368.82
395.913	381.7
396.292	379.21
396.671	374.02
397.05	388.25
397.429	355.03
397.808	360.91
398.186	372.66
398.565	379.67
398.944	373.11
399.323	376.05
399.701	365.43
400.08	392.77
400.458	387.12
400.837	396.61
401.215	386.67
401.594	397.52
401.972	390.06
402.351	394.58
402.729	390.06
403.107	385.54
403.486	400.23
403.864	391.87
404.242	391.19
404.62	399.55
404.999	379.67
405.377	401.36
405.755	385.54
406.133	411.53
406.511	411.3
406.889	419.89
407.267	413.34
407.645	404.98
408.023	405.88
408.401	405.43
408.779	440.23
409.156	439.1
409.534	430.74
409.912	425.54
410.29	443.39
410.667	431.19
411.045	450.17
411.422	435.93
411.8	420.34
412.178	435.48
412.555	456.5
412.933	442.49
413.31	447.69
413.687	444.3
414.065	451.75
414.442	465.99
414.819	473
415.197	465.31
415.574	453.11
415.951	463.96
416.328	437.29
416.705	458.31
417.082	475.71
417.46	470.51
417.837	444.97
418.214	482.71
418.591	491.75
418.967	469.83
419.344	479.55
419.721	488.59
420.098	481.58
420.475	470.06
420.852	504.41
421.228	488.81
421.605	495.14
421.982	501.02
422.358	521.13
422.735	489.94
423.111	499.89
423.488	502.37
423.864	506.67
424.241	536.27
424.617	523.62
424.994	515.25
425.37	529.49
425.746	508.93
426.123	536.5
426.499	528.81
426.875	538.53
427.251	543.5
427.627	570.17
428.003	543.5
428.379	551.19
428.756	568.36
429.132	557.97
429.507	560.68
429.883	552.32
430.259	563.62
430.635	573.11
431.011	565.42
431.387	569.94
431.763	588.02
432.138	574.24
432.514	596.16
432.89	593.22
433.265	616.72
433.641	619.88
434.016	627.79
434.392	620.34
434.767	642.26
435.143	622.82
435.518	621.01
435.894	636.83
436.269	660.56
436.644	629.83
437.02	659.66
437.395	654.69
437.77	656.49
438.145	662.6
438.52	669.83
438.895	656.27
439.271	670.05
439.646	675.48
440.021	666.89
440.395	692.88
440.77	688.58
441.145	689.26
441.52	716.61
441.895	711.41
442.27	701.01
442.645	695.82
443.019	725.87
443.394	713.89
443.769	726.32
444.143	720.67
444.518	722.71
444.892	728.58
445.267	715.02
445.641	738.3
446.016	715.7
446.39	710.5
446.764	734.46
447.139	724.51
447.513	754.34
447.887	751.63
448.262	749.82
448.636	743.05
449.01	743.27
449.384	783.27
449.758	778.3
450.132	793.21
450.506	787.56
450.88	797.06
451.254	793.44
451.628	787.79
452.002	797.28
452.376	818.98
452.75	807.68
453.123	808.81
453.497	836.15
453.871	823.95
454.244	822.14
454.618	837.28
454.992	860.56
455.365	842.48
455.739	877.96
456.112	863.95
456.486	872.53
456.859	875.7
457.232	892.19
457.606	884.74
457.979	927.67
458.352	903.04
458.725	902.14
459.099	934.23
459.472	948.69
459.845	950.95
460.218	939.2
460.591	964.96
460.964	965.19
461.337	980.33
461.71	988.69
462.083	1028.01
462.456	1007.9
462.829	1023.72
463.201	1050.16
463.574	1043.38
463.947	1022.59
464.32	1067.1
464.692	1059.87
465.065	1070.95
465.438	1088.8
465.81	1097.61
466.183	1103.94
466.555	1123.83
466.928	1122.24
467.3	1134.9
467.672	1135.58
468.045	1160.44
468.417	1162.7
468.789	1154.56
469.161	1198.63
469.534	1225.52
469.906	1231.62
470.278	1252.18
470.65	1262.58
471.022	1284.05
471.394	1319.08
471.766	1307.55
472.138	1301.67
472.51	1369.92
472.882	1367.21
473.253	1384.61
473.625	1442.01
473.997	1429.58
474.369	1420.77
474.74	1468.9
475.112	1467.55
475.484	1504.16
475.855	1526.08
476.227	1538.05
476.598	1615.79
476.97	1588.45
477.341	1629.35
477.713	1674.32
478.084	1680.42
478.455	1703.47
478.827	1756.58
479.198	1758.84
479.569	1782.34
479.94	1836.8
480.311	1841.1
480.682	1899.63
481.053	1927.87
481.424	1980.98
481.795	2020.75
482.166	2007.87
482.537	2058.94
482.908	2102.56
483.279	2100.07
483.65	2143.69
484.021	2216
484.391	2253.29
484.762	2260.97
485.133	2273.63
485.503	2313.85
485.874	2352.04
486.244	2397.69
486.615	2444.02
486.985	2479.27
487.356	2550.91
487.726	2584.35
488.097	2623.22
488.467	2656.44
488.837	2700.96
489.207	2694.63
489.578	2755.2
489.948	2782.09
490.318	2821.41
490.688	2853.27
491.058	2922.2
491.428	2961.52
491.798	2988.86
492.168	3058.69
492.538	3075.87
492.908	3056.2
493.278	3118.58
493.648	3159.93
494.017	3191.79
494.387	3222.53
494.757	3278.8
495.126	3280.83
495.496	3327.16
495.866	3303.43
496.235	3369.42
496.605	3391.56
496.974	3406.25
497.344	3444.22
497.713	3471.56
498.082	3556.53
498.452	3557.43
498.821	3625.46
499.19	3598.79
499.559	3603.31
499.928	3627.72
500.298	3675.62
500.667	3672.91
501.036	3698.22
501.405	3739.12
501.774	3767.82
502.143	3753.81
502.512	3850.08
502.88	3829.74
503.249	3865.9
503.618	3826.81
503.987	3806.47
504.356	3916.07
504.724	3948.38
505.093	3942.96
505.462	3987.71
505.83	3955.84
506.199	4010.76
506.567	4050.08
506.936	4057.76
507.304	4097.08
507.672	4093.47
508.041	4120.36
508.409	4138.44
508.777	4146.57
509.145	4235.16
509.514	4243.07
509.882	4219.79
510.25	4215.72
510.618	4264.31
510.986	4279
511.354	4282.16
511.722	4301.37
512.09	4327.13
512.458	4326
512.826	4368.94
513.193	4429.95
513.561	4369.62
513.929	4430.63
514.297	4433.12
514.664	4478.31
515.032	4465.43
515.4	4528.03
515.767	4514.92
516.135	4605.09
516.502	4531.87
516.869	4573.91
517.237	4563.28
517.604	4558.99
517.972	4618.42
518.339	4635.15
518.706	4693.9
519.073	4625.2
519.44	4703.85
519.808	4742.26
520.175	4712.21
520.542	4826.33
520.909	4776.84
521.276	4815.25
521.643	4809.38
522.009	4851.41
522.376	4846.21
522.743	4890.28
523.11	4959.66
523.477	4932.09
523.843	4991.75
524.21	5000.79
524.577	5038.07
524.943	5052.54
525.31	5054.34
525.676	5102.93
526.043	5153.78
526.409	5163.49
526.776	5212.98
527.142	5262.02
527.508	5272.42
527.874	5287.78
528.241	5291.63
528.607	5310.83
528.973	5325.52
529.339	5364.17
529.705	5391.96
530.071	5417.5
530.437	5481.9
530.803	5485.75
531.169	5495.91
531.535	5518.74
531.901	5506.31
532.267	5572.52
532.632	5561
532.998	5631.5
533.364	5695.23
533.73	5640.54
534.095	5714.89
534.461	5696.59
534.826	5777.04
535.192	5775.68
535.557	5859.52
535.923	5822.69
536.288	5845.74
536.653	5930.48
537.019	5852.06
537.384	5870.59
537.749	5917.6
538.114	5970.03
538.479	5964.15
538.845	5926.64
539.21	5976.35
539.575	5999.4
539.94	6026.07
540.305	6064.94
540.67	6080.31
541.034	6092.28
541.399	6153.98
541.764	6150.59
542.129	6180.64
542.494	6227.87
542.858	6276.23
543.223	6249.79
543.587	6337.02
543.952	6306.51
544.316	6322.79
544.681	6331.83
545.045	6400.07
545.41	6360.75
545.774	6396.23
546.138	6447.98
546.503	6469.67
546.867	6481.43
547.231	6595.32
547.595	6538.83
547.959	6530.24
548.324	6602.55
548.688	6621.99
549.052	6629.9
549.416	6642.33
549.779	6629.9
550.143	6649.33
550.507	6671.03
550.871	6804.13
551.235	6693.4
551.599	6776.33
551.962	6766.16
552.326	6867.18
552.689	6887.06
553.053	6839.83
553.417	6832.15
553.78	7012.71
554.143	6909.44
554.507	7007.97
554.87	7014.52
555.234	7061.3
555.597	6988.08
555.96	7031.02
556.323	7044.57
556.686	7073.5
557.05	7178.13
557.413	7077.12
557.776	7132.03
558.139	7195.08
558.502	7222.42
558.865	7228.3
559.228	7248.19
559.59	7285.92
559.953	7330.22
560.316	7398.24
560.679	7378.58
561.041	7418.35
561.404	7428.52
561.767	7500.61
562.129	7456.32
562.492	7486.14
562.854	7490.21
563.217	7553.94
563.579	7570.21
563.941	7614.73
564.304	7637.55
564.666	7727.04
565.028	7680.26
565.39	7738.79
565.753	7712.81
566.115	7642.75
566.477	7834.38
566.839	7800.26
567.201	7799.13
567.563	7827.6
567.925	7904.44
568.287	7943.53
568.648	7966.58
569.01	8027.6
569.372	8112.12
569.734	7979.24
570.095	8110.31
570.457	8120.03
570.819	8125.22
571.18	8158.67
571.542	8224.2
571.903	8239.35
572.265	8320.93
572.626	8329.06
572.987	8415.39
573.349	8377.87
573.71	8472.56
574.071	8473.24
574.432	8535.83
574.794	8632.56
575.155	8684.76
575.516	8722.72
575.877	8740.12
576.238	8783.06
576.599	8861.7
576.96	8919.1
577.32	8952.32
577.681	9102.83
578.042	9120.9
578.403	9077.74
578.763	9266.89
579.124	9331.52
579.485	9471.4
579.845	9583.49
580.206	9577.39
580.566	9719.31
580.927	9790.94
581.287	9980.54
581.648	9985.74
582.008	10163.59
582.368	10230.71
582.728	10362.45
583.089	10528.32
583.449	10602.67
583.809	10778.26
584.169	10949.78
584.529	11050.12
584.889	11302.09
585.249	11349.32
585.609	11491.24
585.969	11756.09
586.329	11854.17
586.688	12032.92
587.048	12275.62
587.408	12475.39
587.768	12644.65
588.127	12888.94
588.487	13019.33
588.846	13274.92
589.206	13432.2
589.565	13666.1
589.925	13951.29
590.284	14129.36
590.643	14386.53
591.003	14634.43
591.362	14861.77
591.721	15039.84
592.08	15384.02
592.44	15606.16
592.799	15917.11
593.158	16099.25
593.517	16306.25
593.876	16593.48
594.235	16833.24
594.593	17150.75
594.952	17391.2
595.311	17725.2
595.67	18005.87
596.029	18345.97
596.387	18577.15
596.746	18905.73
597.104	19098.95
597.463	19366.06
597.822	19633.85
598.18	19813.28
598.538	20141.18
598.897	20518.8
599.255	20537.78
599.613	21139.8
599.972	21361.71
600.33	21562.16
600.688	21700.01
601.046	22146.32
601.404	22401.46
601.762	22573.43
602.12	23025.17
602.478	23194.43
602.836	23436.91
603.194	23573.63
603.552	24006.84
603.91	24102.88
604.268	24401.41
604.625	24600.27
604.983	24956.42
605.341	24995.97
605.698	25466.69
606.056	25724.08
606.413	25929.95
606.771	26168.59
607.128	26393.22
607.485	26570.61
607.843	26800.44
608.2	27246.3
608.557	27395.45
608.914	27449.46
609.272	27643.36
609.629	28048.09
609.986	28269.55
610.343	28245.15
610.7	28701.18
611.057	28858.92
611.414	28949.76
611.771	29167.16
612.127	29477.21
612.484	29585
612.841	29844.65
613.198	29917.87
613.554	30090.3
613.911	30501.81
614.267	30499.1
614.624	30738.41
614.98	30847.11
615.337	31123.26
615.693	31238.74
616.05	31336.14
616.406	31669.01
616.762	31608
617.118	31781.33
617.475	31840.76
617.831	32206.17
618.187	32315.1
618.543	32302.22
618.899	32677.35
619.255	32756.89
619.611	32864.46
619.967	32988.3
620.323	33172.02
620.678	33122.99
621.034	33069.65
621.39	33234.17
621.746	33289.76
622.101	33827.15
622.457	33598.45
622.812	33730.88
623.168	33980.82
623.523	34013.36
623.879	34179.68
624.234	33916.86
624.589	34250.64
624.945	34375.83
625.3	34413.8
625.655	34515.26
626.01	34605.88
626.365	34614.47
626.72	34632.78
627.075	34746.67
627.43	34881.13
627.785	34825.99
628.14	34869.61
628.495	34901.47
628.85	34995.03
629.205	34878.65
629.559	35209.71
629.914	35028.02
630.269	35247.22
630.623	35035.25
630.978	35056.04
631.332	35350.27
631.687	35440.21
632.041	35267.79
632.396	35386.88
632.75	35308.24
633.104	35279.09
633.459	35232.08
633.813	35268.47
634.167	35327.67
634.521	35406.77
634.875	35590.94
635.229	35491.74
635.583	35252.42
635.937	35318.63
636.291	35420.78
636.645	35381
636.999	35418.07
637.352	35531.51
637.706	35327.22
638.06	35462.13
638.413	35207
638.767	35323.15
639.121	35338.97
639.474	35277.05
639.828	35438.18
640.181	35333.55
640.534	35475.92
640.888	35300.55
641.241	35220.78
641.594	35319.09
641.947	35374
642.301	35407.9
642.654	35145.3
643.007	35336.26
643.36	35313.89
643.713	35149.82
644.066	35377.39
644.419	35231.63
644.771	34933.56
645.124	34628.03
645.477	34557.98
645.83	34349.85
646.182	34388.94
646.535	34168.83
646.888	34305.55
647.24	34185.1
647.593	34265.33
647.945	34235.27
648.298	34061.27
648.65	34057.88
649.002	33976.52
649.355	34183.75
649.707	34068.72
650.059	34260.58
650.411	34649.95
650.763	34630.52
651.115	35075.02
651.467	34825.99
651.819	34953.9
652.171	34826.44
652.523	34794.58
652.875	34833.67
653.227	34724.07
653.578	34900.79
653.93	34874.35
654.282	34749.61
654.633	34690.85
654.985	34753.22
655.337	34749.38
655.688	34653.11
656.039	34823.73
656.391	34503.29
656.742	34614.25
657.094	34534.02
657.445	34742.38
657.796	34660.8
658.147	34523.4
658.498	34542.61
658.849	34589.61
659.2	34528.82
659.551	34469.16
659.902	34739.21
660.253	34582.61
660.604	34680.01
660.955	34356.62
661.306	34555.26
661.656	34499.22
662.007	34604.75
662.358	34403.18
662.708	34491.08
663.059	34404.99
663.409	34384.19
663.76	34543.51
664.11	34516.62
664.461	34487.02
664.811	34460.35
665.161	34445.89
665.511	34354.14
665.862	34607.01
666.212	34444.98
666.562	34442.95
666.912	34496.06
667.262	34402.73
667.612	34431.88
667.962	34462.16
668.312	34395.49
668.662	34555.49
669.011	34510.29
669.361	34427.81
669.711	34414.7
670.06	34317.76
670.41	34258.77
670.76	34254.25
671.109	34411.54
671.459	34372.22
671.808	34220.36
672.157	34300.58
672.507	34025.56
672.856	34117.08
673.205	34170.64
673.554	34177.65
673.904	34012
674.253	34301.94
674.602	34153.69
674.951	33640.26
675.3	33488.85
675.649	34116.41
675.998	34123.18
676.346	34009.97
676.695	34238.66
677.044	33833.25
677.393	33893.36
677.741	34043.64
678.09	34000.25
678.438	33745.34
678.787	33973.81
679.135	33994.37
679.484	33623.76
679.832	33756.87
680.181	33593.03
680.529	33707.6
680.877	33547.15
681.225	33520.94
681.573	33856.75
681.922	33493.37
682.27	33446.14
682.618	33526.82
682.966	33343.54
683.314	33401.62
683.661	33358.23
684.009	33281.17
684.357	33256.99
684.705	33108.3
685.053	33091.35
685.4	33165.24
685.748	33012.03
686.095	33096.55
686.443	32881.86
686.79	32910.56
687.138	32889.77
687.485	32799.38
687.832	32686.39
688.18	32717.8
688.527	32580.17
688.874	32646.84
689.221	32493.85
689.568	32477.58
689.915	32356.23
690.262	32364.59
690.609	32270.8
690.956	32070.58
691.303	32129.11
691.65	31906.29
691.997	31987.2
692.344	31746.3
692.69	31814.09
693.037	31735.9
693.383	31513.08
693.73	31631.72
694.077	31451.16
694.423	31383.14
694.769	31328.91
695.116	31176.6
695.462	31273.99
695.808	31041.46
696.155	31156.03
696.501	30976.37
696.847	30903.61
697.193	30758.75
697.539	30815.7
697.885	30606.89
698.231	30387.46
698.577	30475.37
698.923	30403.51
699.269	30278.09
699.614	30159.22
699.96	30108.38
700.306	30119.67
700.651	30090.75
700.997	29967.36
701.342	29953.12
701.688	29846.69
702.033	29767.37
702.379	29768.95
702.724	29536.41
703.069	29650.31
703.415	29252.35
703.76	29380.48
704.105	29354.72
704.45	29208.51
704.795	29231.11
705.14	28979.59
705.485	28988.63
705.83	28814.17
706.175	28869.09
706.52	28861.4
706.865	28756.09
707.209	28807.84
707.554	28521.98
707.899	28614.4
708.243	28483.78
708.588	28498.93
708.932	28365.82
709.277	28319.04
709.621	28289.89
709.966	28096
710.31	28222.55
710.654	27863.01
710.998	27986.4
711.342	27936.23
711.687	27865.27
712.031	27797.48
712.375	27740.3
712.719	27740.08
713.063	27698.72
713.407	27728.55
713.75	27662.56
714.094	27557.26
714.438	27427.09
714.782	27575.33
715.125	27317.04
715.469	27503.92
715.812	27210.37
716.156	27171.05
716.499	27113.65
716.843	27185.29
717.186	27037.95
717.53	27115.01
717.873	27123.82
718.216	26981.45
718.559	26836.37
718.902	26703.94
719.246	26630.05
719.589	26673.89
719.932	26587.79
720.275	26570.84
720.617	26575.13
720.96	26541.92
721.303	26502.82
721.646	26379.21
721.989	26292.43
722.331	26279.78
722.674	26274.13
723.016	26171.76
723.359	26265.54
723.701	26231.41
724.044	26083.4
724.386	25902.16
724.729	26136.73
725.071	25990.52
725.413	25939.9
725.755	26017.64
726.097	25819
726.439	25745.55
726.782	25759.34
727.124	25671.2
727.465	25728.83
727.807	25626.68
728.149	25744.42
728.491	25465.11
728.833	25541.49
729.175	25486.8
729.516	25497.87
729.858	25419.01
730.199	25412.23
730.541	25329.29
730.882	25279.35
731.224	25370.19
731.565	25188.96
731.906	25225.79
732.248	25196.19
732.589	25172.69
732.93	24945.8
733.271	24972.01
733.612	25135.17
733.953	25093.82
734.294	25038.9
734.635	24864.67
734.976	24927.49
735.317	24894.27
735.658	24839.36
735.999	24852.69
736.339	24788.97
736.68	24786.48
737.021	24700.38
737.361	24739.02
737.702	24706.48
738.042	24678.46
738.383	24574.51
738.723	24617.9
739.063	24553.04
739.404	24571.12
739.744	24536.09
740.084	24321.41
740.424	24368.64
740.764	24497.68
741.104	24409.99
741.444	24214.52
741.784	24246.83
742.124	24239.83
742.464	24223.78
742.804	24191.24
743.143	24228.3
743.483	24090.68
743.823	24007.29
744.162	24011.81
744.502	24045.71
744.841	23932.04
745.181	24010
745.52	23944.7
745.86	24005.03
746.199	23895.21
746.538	23756.23
746.877	23866.51
747.216	23934.07
747.556	23722.78
747.895	23770.91
748.234	23633.07
748.573	23624.93
748.911	23633.07
749.25	23602.78
749.589	23391.04
749.928	23560.98
750.267	23486.18
750.605	23396.01
750.944	23393.75
751.283	23320.3
751.621	23322.11
751.96	23198.95
752.298	23129.35
752.636	23281.89
752.975	23114.43
753.313	23011.84
753.651	23124.6
753.989	23053.19
754.327	22938.17
754.666	22846.65
755.004	23003.48
755.342	22887.1
755.679	22943.37
756.017	22710.38
756.355	22881.45
756.693	22717.83
757.031	22766.87
757.368	22705.41
757.706	22687.55
758.044	22519.42
758.381	22727.78
758.719	22477.39
759.056	22508.35
759.394	22501.34
759.731	22285.08
760.068	22136.61
760.405	22252.76
760.743	22126.66
761.08	22161.01
761.417	21956.05
