Data from hue_140_FLMS001491_00083.txt Node
Date: Tue Feb 07 16:56:31 GMT 2017
User: dcchb
Spectrometer: FLMS00149
Trigger mode: 0
Integration Time (sec): 2.000000E-2
Scans to average: 10
Electric dark correction enabled: true
Nonlinearity correction enabled: false
Boxcar width: 0
XAxis mode: Wavelengths
Number of Pixels in Spectrum: 2048
>>>>>Begin Spectral Data<<<<<
341.393	-21.12
341.776	-21.12
342.16	-21.12
342.543	-70.38
342.927	-75.8
343.31	-65.63
343.693	-97.5
344.077	-50.04
344.46	-59.53
344.843	-47.1
345.226	-57.05
345.61	-22.25
345.993	-29.7
346.376	-16.37
346.759	8.94
347.142	18.66
347.525	50.75
347.908	67.92
348.291	74.25
348.674	114.25
349.057	110.41
349.44	108.82
349.823	157.86
350.206	158.09
350.588	172.78
350.971	209.39
351.354	221.59
351.737	237.41
352.119	255.04
352.502	273.57
352.884	257.97
353.267	279.67
353.65	282.38
354.032	300.91
354.414	297.29
354.797	313.34
355.179	324.64
355.562	293.45
355.944	306.33
356.326	347.46
356.709	329.61
357.091	327.12
357.473	334.13
357.855	325.77
358.238	337.07
358.62	340.68
359.002	341.14
359.384	329.61
359.766	359.67
360.148	343.17
360.53	325.99
360.912	330.97
361.294	344.3
361.676	338.42
362.057	334.81
362.439	349.5
362.821	330.06
363.203	321.7
363.584	323.51
363.966	342.04
364.348	309.95
364.729	303.17
365.111	311.08
365.493	304.3
365.874	315.83
366.256	315.83
366.637	300.68
367.019	311.31
367.4	296.62
367.781	311.31
368.163	308.82
368.544	315.83
368.925	302.04
369.306	317.18
369.688	282.38
370.069	310.4
370.45	299.55
370.831	309.95
371.212	320.34
371.593	321.93
371.974	300.91
372.355	304.98
372.736	311.98
373.117	302.94
373.498	331.64
373.879	318.54
374.26	318.31
374.641	298.65
375.021	281.7
375.402	322.38
375.783	318.08
376.163	309.5
376.544	313.11
376.925	315.83
377.305	329.84
377.686	313.57
378.066	293.45
378.447	336.16
378.827	329.16
379.208	298.88
379.588	309.27
379.968	319.89
380.349	342.72
380.729	332.77
381.109	327.8
381.489	323.06
381.87	322.38
382.25	317.18
382.63	316.05
383.01	338.65
383.39	339.78
383.77	334.13
384.15	351.76
384.53	331.19
384.91	342.94
385.29	344.98
385.67	320.57
386.049	326.9
386.429	326.67
386.809	344.98
387.189	328.03
387.568	334.13
387.948	374.58
388.328	346.56
388.707	366.67
389.087	368.03
389.466	354.24
389.846	371.42
390.225	363.51
390.605	345.65
390.984	356.5
391.363	342.27
391.743	362.15
392.122	383.39
392.501	355.37
392.881	388.82
393.26	358.76
393.639	371.19
394.018	379.55
394.397	360.57
394.776	374.58
395.155	384.75
395.534	366.45
395.913	363.28
396.292	389.5
396.671	378.87
397.05	375.71
397.429	380.91
397.808	373.9
398.186	381.81
398.565	376.61
398.944	397.4
399.323	376.61
399.701	385.65
400.08	406.22
400.458	403.05
400.837	395.14
401.215	395.14
401.594	391.3
401.972	405.09
402.351	398.53
402.729	399.66
403.107	400.34
403.486	403.51
403.864	412.77
404.242	400.57
404.62	405.31
404.999	405.77
405.377	395.82
405.755	425.88
406.133	413.22
406.511	421.58
406.889	421.58
407.267	434.92
407.645	432.88
408.023	421.36
408.401	417.07
408.779	434.24
409.156	441.25
409.534	442.38
409.912	423.62
410.29	449.38
410.667	436.05
411.045	468.14
411.422	439.66
411.8	455.71
412.178	466.56
412.555	466.33
412.933	469.27
413.31	464.07
413.687	464.52
414.065	458.19
414.442	458.65
414.819	448.48
415.197	471.75
415.574	497.29
415.951	480.57
416.328	506.55
416.705	503.39
417.082	469.27
417.46	478.76
417.837	523.96
418.214	496.61
418.591	492.32
418.967	493.67
419.344	514.69
419.721	494.35
420.098	522.37
420.475	516.95
420.852	518.08
421.228	495.48
421.605	504.29
421.982	520.34
422.358	512.88
422.735	528.02
423.111	532.32
423.488	542.94
423.864	520.11
424.241	534.8
424.617	546.55
424.994	531.86
425.37	556.04
425.746	554.01
426.123	572.99
426.499	559.43
426.875	575.03
427.251	582.26
427.627	573.22
428.003	572.09
428.379	580.68
428.756	568.7
429.132	603.28
429.507	595.14
429.883	602.15
430.259	616.16
430.635	619.55
431.011	613.67
431.387	614.12
431.763	634.01
432.138	628.59
432.514	656.61
432.89	643.27
433.265	653.22
433.641	644.18
434.016	660.22
434.392	646.44
434.767	710.39
435.143	677.85
435.518	676.49
435.894	688.7
436.269	670.17
436.644	689.6
437.02	691.63
437.395	715.14
437.77	703.39
438.145	737.28
438.52	712.65
438.895	708.81
439.271	733.44
439.646	734.8
440.021	747.23
440.395	739.54
440.77	767.56
441.145	749.71
441.52	766.43
441.895	756.04
442.27	774.57
442.645	763.5
443.019	788.13
443.394	798.75
443.769	787.23
444.143	801.01
444.518	827.68
444.892	796.04
445.267	811.18
445.641	812.99
446.016	815.7
446.39	837.17
446.764	836.49
447.139	824.51
447.513	834.68
447.887	849.82
448.262	845.75
448.636	870.84
449.01	871.74
449.384	847.79
449.758	859.54
450.132	904.74
450.506	868.8
450.88	889.37
451.254	928.46
451.628	916.49
452.002	893.44
452.376	907
452.75	940.22
453.123	926.88
453.497	950.38
453.871	951.29
454.244	968.01
454.618	988.8
454.992	995.81
455.365	998.29
455.739	995.13
456.112	1019.08
456.486	1005.3
456.859	1046.88
457.232	1064.28
457.606	1048.01
457.979	1079.42
458.352	1108.8
458.725	1091.4
459.099	1074.45
459.472	1111.74
459.845	1142.92
460.218	1136.37
460.591	1163.71
460.964	1148.35
461.337	1201.9
461.71	1216.37
462.083	1203.03
462.456	1229.02
462.829	1228.57
463.201	1239.64
463.574	1250.72
463.947	1276.93
464.32	1298.85
464.692	1344.95
465.065	1342.24
465.438	1346.08
465.81	1413.65
466.183	1424.72
466.555	1399.64
466.928	1431.05
467.3	1448.68
467.672	1469.69
468.045	1506.53
468.417	1512.86
468.789	1515.12
469.161	1560.31
469.534	1574.77
469.906	1611.16
470.278	1616.81
470.65	1687.77
471.022	1704.04
471.394	1738.84
471.766	1743.81
472.138	1817.93
472.51	1819.74
472.882	1893.18
473.253	1899.51
473.625	1964.14
473.997	1999.17
474.369	2045.05
474.74	2040.53
475.112	2086.17
475.484	2162.33
475.855	2194.87
476.227	2266.28
476.598	2332.72
476.97	2371.82
477.341	2435.77
477.713	2481.42
478.084	2533.62
478.455	2637.8
478.827	2718.7
479.198	2756.89
479.569	2787.85
479.94	2922.54
480.311	2942.87
480.682	3054.51
481.053	3155.52
481.424	3264
481.795	3295.63
482.166	3408.17
482.537	3441.84
482.908	3614.95
483.279	3651.33
483.65	3763.87
484.021	3886.35
484.391	3994.37
484.762	4067.36
485.133	4106.46
485.503	4264.42
485.874	4396.4
486.244	4494.47
486.615	4597.07
486.985	4754.35
487.356	4909.38
487.726	5002.48
488.097	5124.06
488.467	5154.12
488.837	5320.67
489.207	5502.13
489.578	5580.32
489.948	5708.68
490.318	5848.56
490.688	5940.99
491.058	6067.09
491.428	6263.01
491.798	6369
492.168	6551.59
492.538	6600.63
492.908	6756.33
493.278	6891.7
493.648	6985.93
494.017	7145.7
494.387	7252.14
494.757	7348.63
495.126	7562.87
495.496	7554.73
495.866	7763.54
496.235	7860.71
496.605	8006.02
496.974	8050.08
497.344	8182.28
497.713	8267.48
498.082	8391.54
498.452	8534.82
498.821	8616.85
499.19	8657.53
499.559	8826.56
499.928	8905.66
500.298	9038.08
500.667	9170.96
501.036	9216.61
501.405	9343.38
501.774	9376.83
502.143	9520.55
502.512	9538.18
502.88	9718.06
503.249	9729.59
503.618	9779.08
503.987	9862.92
504.356	9961.45
504.724	10011.39
505.093	10095.23
505.462	10159.18
505.83	10237.82
506.199	10305.17
506.567	10525.95
506.936	10455.45
507.304	10589.45
507.672	10600.75
508.041	10701.77
508.409	10730.69
508.777	10841.88
509.145	10988.31
509.514	10938.82
509.882	11001.65
510.25	11017.01
510.618	11115.32
510.986	11222.43
511.354	11236.22
511.722	11380.17
512.09	11412.48
512.458	11310.11
512.826	11359.83
513.193	11473.27
513.561	11512.37
513.929	11558.24
514.297	11652.93
514.664	11680.95
515.032	11778.57
515.4	11724.56
515.767	11778.12
516.135	11839.36
516.502	11806.14
516.869	11955.29
517.237	12005.69
517.604	11860.38
517.972	12017.66
518.339	11936.76
518.706	12060.6
519.073	12092.69
519.44	12088.85
519.808	12127.72
520.175	12172.69
520.542	12321.39
520.909	12293.14
521.276	12316.41
521.643	12371.1
522.009	12395.28
522.376	12425.34
522.743	12459.01
523.11	12501.72
523.477	12551.44
523.843	12634.82
524.21	12683.86
524.577	12690.19
524.943	12653.81
525.31	12653.81
525.676	12763.63
526.043	12770.86
526.409	12780.58
526.776	12863.97
527.142	12865.33
527.508	12800.02
527.874	12931.99
528.241	12906.45
528.607	12835.72
528.973	12973.8
529.339	12918.21
529.705	12964.76
530.071	12948.49
530.437	12962.95
530.803	13044.08
531.169	13018.77
531.535	12874.82
531.901	12914.59
532.267	12940.8
532.632	13023.97
532.998	12931.76
533.364	13006.11
533.73	12895.83
534.095	12994.59
534.461	12925.21
534.826	12917.3
535.192	12917.75
535.557	12993.68
535.923	12840.24
536.288	12822.84
536.653	12869.39
537.019	12767.93
537.384	12760.02
537.749	12766.57
538.114	12724.31
538.479	12631.21
538.845	12696.52
539.21	12687.93
539.575	12629.4
539.94	12632.34
540.305	12614.71
540.67	12576.07
541.034	12638.44
541.399	12536.97
541.764	12540.59
542.129	12479.8
542.494	12397.54
542.858	12392.8
543.223	12355.51
543.587	12369.75
543.952	12347.15
544.316	12307.15
544.681	12231.67
545.045	12284.55
545.41	12237.09
545.774	12153.25
546.138	12182.18
546.503	12112.8
546.867	12106.48
547.231	12105.35
547.595	12092.46
547.959	12135.85
548.324	11964.56
548.688	11942.86
549.052	11948.06
549.416	11904.9
549.779	11957.55
550.143	11838.91
550.507	11881.62
550.871	11850.66
551.235	11779.7
551.599	11811.12
551.962	11744.9
552.326	11707.84
552.689	11757.78
553.053	11682.76
553.417	11635.53
553.78	11719.37
554.143	11633.95
554.507	11587.17
554.87	11689.99
555.234	11635.98
555.597	11452.93
555.96	11508.07
556.323	11504.68
556.686	11553.72
557.05	11652.02
557.413	11547.85
557.776	11495.64
558.139	11616.77
558.502	11491.12
558.865	11434.18
559.228	11512.59
559.59	11512.59
559.953	11483.22
560.316	11601.18
560.679	11521.18
561.041	11492.93
561.404	11510.78
561.767	11557.34
562.129	11456.55
562.492	11554.17
562.854	11631.01
563.217	11518.24
563.579	11501.29
563.941	11629.88
564.304	11567.05
564.666	11645.92
565.028	11542.65
565.39	11600.05
565.753	11649.31
566.115	11645.02
566.477	11628.07
566.839	11607.96
567.201	11683.21
567.563	11612.25
567.925	11701.29
568.287	11622.87
568.648	11588.97
569.01	11690.89
569.372	11639.14
569.734	11663.55
570.095	11715.3
570.457	11745.36
570.819	11724.11
571.18	11750.1
571.542	11812.25
571.903	11837.78
572.265	11839.82
572.626	11873.26
572.987	11797.33
573.349	11870.55
573.71	11853.6
574.071	11817.44
574.432	11837.56
574.794	11969.3
575.155	11860.83
575.516	11848.4
575.877	11886.14
576.238	11935.86
576.599	11875.75
576.96	11894.5
577.32	11889.08
577.681	11904.45
578.042	11900.83
578.403	11869.19
578.763	11931.56
579.124	11900.38
579.485	11922.53
579.845	11948.97
580.206	12052.01
580.566	11870.1
580.927	11898.35
581.287	11950.1
581.648	11865.8
582.008	12028.96
582.368	11972.24
582.728	11988.96
583.089	11947.38
583.449	11997.1
583.809	11936.99
584.169	11885.01
584.529	11909.19
584.889	11880.72
585.249	11813.83
585.609	11862.64
585.969	11913.49
586.329	11835.3
586.688	11846.6
587.048	11800.95
587.408	11763.89
587.768	11843.21
588.127	11833.26
588.487	11809.53
588.846	11800.04
589.206	11726.6
589.565	11783.09
589.925	11767.95
590.284	11774.73
590.643	11812.02
591.003	11707.16
591.362	11845.69
591.721	11725.92
592.08	11766.6
592.44	11731.12
592.799	11752.81
593.158	11773.6
593.517	11759.37
593.876	11779.93
594.235	11732.47
594.593	11650.22
594.952	11682.53
595.311	11658.13
595.67	11694.06
596.029	11760.5
596.387	11745.81
596.746	11797.56
597.104	11648.63
597.463	11631.69
597.822	11696.54
598.18	11600.05
598.538	11647.28
598.897	11668.75
599.255	11576.77
599.613	11744.68
599.972	11704.9
600.33	11683.66
600.688	11553.04
601.046	11705.36
601.404	11741.51
601.762	11749.42
602.12	11784.22
602.478	11644.34
602.836	11716.66
603.194	11641.18
603.552	11699.71
603.91	11632.59
604.268	11694.28
604.625	11640.05
604.983	11681.85
605.341	11629.88
605.698	11721.17
606.056	11676.43
606.413	11681.4
606.771	11739.25
607.128	11755.98
607.485	11670.55
607.843	11659.93
608.2	11686.83
608.557	11795.52
608.914	11706.49
609.272	11791
609.629	11770.44
609.986	11820.61
610.343	11762.08
610.7	11795.3
611.057	11774.96
611.414	11754.62
611.771	11786.03
612.127	11835.07
612.484	11825.8
612.841	11878.23
613.198	11781.29
613.554	11797.56
613.911	11830.78
614.267	11850.21
614.624	11873.71
614.98	11831.68
615.337	11870.55
615.693	11835.07
616.05	11813.6
616.406	11935.41
616.762	11869.65
617.118	11938.57
617.475	11896.99
617.831	11934.05
618.187	11912.13
618.543	11977.21
618.899	12000.26
619.255	11847.73
619.611	11964.78
619.967	12014.73
620.323	11928.18
620.678	11956.87
621.034	11966.82
621.39	11975.18
621.746	11952.36
622.101	12038.91
622.457	11941.28
622.812	12046.82
623.168	12052.69
623.523	12049.3
623.879	12049.53
624.234	12037.1
624.589	12023.54
624.945	11986.93
625.3	12047.27
625.655	11961.17
626.01	12019.47
626.365	12061.05
626.72	12037.55
627.075	11977.44
627.43	12014.05
627.785	11956.42
628.14	12054.05
628.495	11987.83
628.85	11936.99
629.205	12006.14
629.559	12011.56
629.914	11955.74
630.269	11971.79
630.623	11916.65
630.978	11955.74
631.332	11991.22
631.687	11960.94
632.041	11886.14
632.396	11922.07
632.75	11850.44
633.104	11906.93
633.459	11854.28
633.813	11836.2
634.167	11774.96
634.521	11772.02
634.875	11811.34
635.229	11741.74
635.583	11825.13
635.937	11755.98
636.291	11746.71
636.645	11772.47
636.999	11675.75
637.352	11738.35
637.706	11656.54
638.06	11680.72
638.413	11748.97
638.767	11602.08
639.121	11635.08
639.474	11650.44
639.828	11592.59
640.181	11505.81
640.534	11617.22
640.888	11501.75
641.241	11527.96
641.594	11487.51
641.947	11527.96
642.301	11546.04
642.654	11574.96
643.007	11520.5
643.36	11529.99
643.713	11491.12
644.066	11589.88
644.419	11397.12
644.771	11423.33
645.124	11305.37
645.477	11254.75
645.83	11167.29
646.182	11204.13
646.535	11127.29
646.888	11134.75
647.24	11070.12
647.593	11109.89
647.945	11092.72
648.298	11056.79
648.65	11016.33
649.002	11029.89
649.355	11141.98
649.707	11135.65
650.059	11165.94
650.411	11259.72
650.763	11321.19
651.115	11407.06
651.467	11383.1
651.819	11402.54
652.171	11434.4
652.523	11339.04
652.875	11323.9
653.227	11305.14
653.578	11392.14
653.93	11300.62
654.282	11334.97
654.633	11382.88
654.985	11322.99
655.337	11322.09
655.688	11251.36
656.039	11331.58
656.391	11257.23
656.742	11384.69
657.094	11332.94
657.445	11377
657.796	11339.49
658.147	11342.88
658.498	11328.87
658.849	11336.1
659.2	11366.16
659.551	11393.73
659.902	11420.17
660.253	11322.09
660.604	11342.65
660.955	11312.37
661.306	11308.08
661.656	11413.84
662.007	11338.13
662.358	11348.76
662.708	11347.4
663.059	11286.38
663.409	11368.87
663.76	11426.72
664.11	11427.85
664.461	11351.69
664.811	11437.57
665.161	11317.8
665.511	11410
665.862	11436.66
666.212	11395.31
666.562	11335.2
666.912	11444.12
667.262	11403.9
667.612	11374.74
667.962	11454.97
668.312	11387.85
668.662	11479.37
669.011	11450.67
669.361	11450.45
669.711	11344.91
670.06	11383.78
670.41	11348.98
670.76	11358.25
671.109	11372.71
671.459	11295.88
671.808	11381.97
672.157	11302.43
672.507	11212.94
672.856	11249.32
673.205	11220.17
673.554	11355.76
673.904	11305.82
674.253	11345.59
674.602	11288.19
674.951	11152.83
675.3	11033.28
675.649	11218.36
675.998	11252.94
676.346	11185.6
676.695	11205.93
677.044	11092.04
677.393	11121.42
677.741	11168.65
678.09	11139.04
678.438	11085.71
678.787	11157.57
679.135	11129.1
679.484	11074.41
679.832	11135.43
680.181	11065.37
680.529	11106.95
680.877	11028.09
681.225	11011.81
681.573	11060.63
681.922	10988.54
682.27	11001.19
682.618	10936.56
682.966	10893.85
683.314	10917.58
683.661	10914.87
684.009	10852.72
684.357	10866.51
684.705	10817.02
685.053	10765.95
685.4	10788.32
685.748	10806.17
686.095	10797.13
686.443	10671.26
686.79	10653.86
687.138	10702.67
687.485	10726.62
687.832	10695.89
688.18	10675.55
688.527	10577.25
688.874	10565.95
689.221	10590.36
689.568	10410.02
689.915	10426.75
690.262	10498.61
690.609	10404.6
690.956	10372.28
691.303	10365.5
691.65	10308.1
691.997	10210.03
692.344	10248.67
692.69	10218.62
693.037	10180.2
693.383	10028.34
693.73	10191.5
694.077	10065.4
694.423	10032.86
694.769	10021.56
695.116	9952.63
695.462	9999.86
695.808	9847.55
696.155	9961.22
696.501	9802.58
696.847	9871.28
697.193	9802.81
697.539	9843.48
697.885	9723.26
698.231	9716.03
698.577	9615.47
698.923	9671.51
699.269	9661.12
699.614	9550.16
699.96	9490.27
700.306	9485.53
700.651	9408.24
700.997	9449.6
701.342	9399.65
701.688	9412.76
702.033	9285.31
702.379	9317.4
702.724	9277.85
703.069	9333.67
703.415	9220.22
703.76	9171.86
704.105	9126.89
704.45	9137.74
704.795	9086.22
705.14	9042.38
705.485	9073.11
705.83	9013.68
706.175	9046.44
706.52	8931.19
706.865	8940.68
707.209	8933.9
707.554	8902.49
707.899	8912.66
708.243	8825.21
708.588	8855.04
708.932	8738.43
709.277	8742.95
709.621	8707.47
709.966	8724.87
710.31	8686.68
710.654	8620.01
710.998	8686
711.342	8589.96
711.687	8601.26
712.031	8624.76
712.375	8533.01
712.719	8568.49
713.063	8515.16
713.407	8601.71
713.75	8497.53
714.094	8562.61
714.438	8483.29
714.782	8491.66
715.125	8416.85
715.469	8414.82
715.812	8433.58
716.156	8331.21
716.499	8350.87
716.843	8407.14
717.186	8265.45
717.53	8388.16
717.873	8345.9
718.216	8309.29
718.559	8228.61
718.902	8257.09
719.246	8270.87
719.589	8248.72
719.932	8229.97
720.275	8198.56
720.617	8125.34
720.96	8156.3
721.303	8135.51
721.646	8154.04
721.989	8136.41
722.331	8178.9
722.674	8173.25
723.016	8100.93
723.359	8178.67
723.701	8125.34
724.044	8064.77
724.386	8102.74
724.729	8152.91
725.071	8126.69
725.413	8105.45
725.755	8095.28
726.097	8110.65
726.439	8006.02
726.782	8097.09
727.124	8078.33
727.465	8088.95
727.807	8071.33
728.149	8038.33
728.491	7998.11
728.833	8062.06
729.175	8057.99
729.516	7987.71
729.858	7976.87
730.199	8047.6
730.541	8003.31
730.882	7956.75
731.224	8035.62
731.565	7998.56
731.906	8019.8
732.248	8012.57
732.589	7952.46
732.93	7949.3
733.271	8043.08
733.612	7942.29
733.953	7973.25
734.294	7947.94
734.635	7961.73
734.976	7987.49
735.317	7964.66
735.658	7898
735.999	7890.99
736.339	7943.65
736.68	7984.32
737.021	7979.13
737.361	7952.23
737.702	8051.44
738.042	8049.86
738.383	7945.91
738.723	7985.23
739.063	7981.61
739.404	8050.31
739.744	8005.34
740.084	7984.55
740.424	8150.87
740.764	7991.1
741.104	8094.6
741.444	8031.1
741.784	8024.1
742.124	8100.25
742.464	8059.35
742.804	8076.75
743.143	8130.08
743.483	8142.06
743.823	8173.7
744.162	8122.85
744.502	8168.05
744.841	8204.21
745.181	8317.87
745.52	8321.94
745.86	8301.38
746.199	8411.43
746.538	8426.57
746.877	8509.28
747.216	8475.16
747.556	8512.67
747.895	8535.27
748.234	8576.4
748.573	8639.22
748.911	8671.54
749.25	8742.95
749.589	8757.64
749.928	8844.87
750.267	8993.56
750.605	9021.36
750.944	9030.4
751.283	9081.7
751.621	9229.26
751.96	9287.79
752.298	9415.7
752.636	9445.08
752.975	9481.23
753.313	9657.73
753.651	9708.8
753.989	9847.33
754.327	9885.06
754.666	9934.33
755.004	10136.58
755.342	10199.86
755.679	10338.39
756.017	10491.15
756.355	10580.41
756.693	10781.09
757.031	10878.03
757.368	10988.09
757.706	11048.65
758.044	11195.99
758.381	11332.03
758.719	11508.53
759.056	11715.98
759.394	11861.74
759.731	11901.28
