Data from hue_26_FLMS001491_00014.txt Node
Date: Tue Feb 07 17:13:37 GMT 2017
User: dcchb
Spectrometer: FLMS00149
Trigger mode: 0
Integration Time (sec): 2.000000E-2
Scans to average: 10
Electric dark correction enabled: true
Nonlinearity correction enabled: false
Boxcar width: 0
XAxis mode: Wavelengths
Number of Pixels in Spectrum: 2048
>>>>>Begin Spectral Data<<<<<
341.393	-9.77
341.776	-9.77
342.16	-9.77
342.543	-75.53
342.927	-80.28
343.31	-70.11
343.693	-83.67
344.077	-61.3
344.46	-50.68
344.843	-64.46
345.226	-46.16
345.61	-28.08
345.993	-24.01
346.376	19.38
346.759	6.72
347.142	38.36
347.525	51.24
347.908	40.85
348.291	67.29
348.674	87.62
349.057	117
349.44	143.67
349.823	140.73
350.206	164.68
350.588	208.98
350.971	222.99
351.354	215.76
351.737	231.8
352.119	246.72
352.502	260.73
352.884	281.97
353.267	291.24
353.65	296.66
354.032	314.51
354.414	312.48
354.797	293.27
355.179	328.52
355.562	314.51
355.944	326.94
356.326	332.82
356.709	324
357.091	317.45
357.473	346.83
357.855	340.27
358.238	340.05
358.62	349.54
359.002	322.87
359.384	341.18
359.766	342.08
360.148	353.61
360.53	354.06
360.912	335.98
361.294	308.18
361.676	330.56
362.057	359.03
362.439	337.56
362.821	341.63
363.203	325.58
363.584	332.59
363.966	317.9
364.348	318.35
364.729	324.68
365.111	321.74
365.493	331.69
365.874	311.35
366.256	339.37
366.637	305.92
367.019	343.89
367.4	307.96
367.781	330.56
368.163	313.38
368.544	309.54
368.925	304.79
369.306	340.95
369.688	328.75
370.069	300.95
370.45	319.03
370.831	316.77
371.212	328.75
371.593	295.53
371.974	334.4
372.355	317.9
372.736	329.43
373.117	328.3
373.498	310.22
373.879	308.86
374.26	339.14
374.641	325.36
375.021	328.97
375.402	319.94
375.783	317.9
376.163	331.01
376.544	347.73
376.925	335.98
377.305	329.88
377.686	328.97
378.066	344.57
378.447	335.08
378.827	335.53
379.208	354.51
379.588	322.42
379.968	323.55
380.349	338.01
380.729	316.32
381.109	329.43
381.489	330.56
381.87	325.81
382.25	335.98
382.63	341.18
383.01	328.75
383.39	334.17
383.77	339.14
384.15	368.97
384.53	361.74
384.91	331.01
385.29	344.79
385.67	349.54
386.049	355.41
386.429	365.13
386.809	343.66
387.189	347.73
387.568	347.96
387.948	362.42
388.328	363.55
388.707	365.81
389.087	352.25
389.466	363.32
389.846	364.45
390.225	391.35
390.605	371.23
390.984	357.67
391.363	388.41
391.743	381.4
392.122	360.39
392.501	373.27
392.881	384.11
393.26	371.46
393.639	376.66
394.018	366.49
394.397	383.21
394.776	388.18
395.155	389.09
395.534	410.33
395.913	401.74
396.292	383.44
396.671	396.77
397.05	373.04
397.429	375.3
397.808	410.55
398.186	401.74
398.565	394.28
398.944	396.54
399.323	405.81
399.701	411.46
400.08	411.01
400.458	401.29
400.837	411.01
401.215	425.24
401.594	410.1
401.972	430.89
402.351	404.9
402.729	405.36
403.107	415.07
403.486	421.63
403.864	428.41
404.242	432.02
404.62	425.02
404.999	426.15
405.377	400.61
405.755	436.99
406.133	411.01
406.511	439.93
406.889	468.63
407.267	445.58
407.645	443.77
408.023	446.49
408.401	440.16
408.779	453.26
409.156	442.87
409.534	460.72
409.912	475.64
410.29	470.89
410.667	470.44
411.045	439.03
411.422	453.26
411.8	461.85
412.178	480.83
412.555	473.83
412.933	473.83
413.31	483.09
413.687	479.25
414.065	493.26
414.442	490.55
414.819	493.49
415.197	487.61
415.574	516.77
415.951	502.3
416.328	529.65
416.705	507.5
417.082	508.4
417.46	525.13
417.837	524
418.214	511.34
418.591	511.12
418.967	544.79
419.344	545.01
419.721	528.29
420.098	541.85
420.475	535.3
420.852	525.81
421.228	539.82
421.605	550.44
421.982	529.2
422.358	541.4
422.735	559.25
423.111	545.24
423.488	553.83
423.864	556.77
424.241	575.97
424.617	580.27
424.994	602.19
425.37	591.34
425.746	580.27
426.123	589.53
426.499	591.34
426.875	585.69
427.251	603.32
427.627	622.53
428.003	587.5
428.379	610.77
428.756	612.58
429.132	640.15
429.507	636.54
429.883	617.1
430.259	630.66
430.635	644.67
431.011	630.66
431.387	651
431.763	642.86
432.138	665.91
432.514	663.88
432.89	689.42
433.265	693.94
433.641	690.55
434.016	657.1
434.392	696.42
434.767	725.35
435.143	685.12
435.518	716.53
435.894	738.91
436.269	733.94
436.644	745.01
437.02	749.75
437.395	752.24
437.77	719.92
438.145	743.43
438.52	742.97
438.895	767.83
439.271	764.22
439.646	775.52
440.021	766.93
440.395	752.01
440.77	771.67
441.145	805.35
441.52	802.18
441.895	813.48
442.27	815.06
442.645	816.42
443.019	822.07
443.394	829.75
443.769	813.71
444.143	807.61
444.518	830.2
444.892	804.44
445.267	822.97
445.641	847.15
446.016	843.54
446.39	845.57
446.764	862.52
447.139	851.9
447.513	874.5
447.887	870.43
448.262	881.28
448.636	892.58
449.01	888.73
449.384	881.28
449.758	900.71
450.132	917.21
450.506	912.24
450.88	908.62
451.254	907.04
451.628	909.07
452.002	934.61
452.376	921.5
452.75	935.96
453.123	927.15
453.497	965.79
453.871	965.57
454.244	966.92
454.618	981.16
454.992	989.3
455.365	991.33
455.739	1027.71
456.112	999.92
456.486	1032.68
456.859	1034.94
457.232	1044.21
457.606	1043.08
457.979	1078.33
458.352	1078.79
458.725	1078.56
459.099	1111.55
459.472	1098.45
459.845	1138.9
460.218	1132.34
460.591	1121.27
460.964	1178.9
461.337	1156.75
461.71	1157.43
462.083	1177.99
462.456	1196.75
462.829	1180.48
463.201	1223.19
463.574	1229.29
463.947	1273.58
464.32	1278.78
464.692	1288.72
465.065	1282.17
465.438	1321.04
465.81	1326.46
466.183	1332.79
466.555	1354.71
466.928	1387.7
467.3	1402.62
467.672	1406.23
468.045	1396.29
468.417	1418.66
468.789	1420.7
469.161	1445.1
469.534	1500.47
469.906	1496.85
470.278	1523.07
470.65	1537.76
471.022	1555.16
471.394	1592.67
471.766	1591.31
472.138	1633.8
472.51	1645.55
472.882	1715.83
473.253	1688.03
473.625	1721.71
473.997	1756.06
474.369	1766.22
474.74	1801.7
475.112	1815.26
475.484	1844.19
475.855	1900.01
476.227	1900.01
476.598	1991.53
476.97	1986.33
477.341	2024.75
477.713	2057.29
478.084	2070.17
478.455	2141.13
478.827	2176.38
479.198	2231.75
479.569	2248.92
479.94	2288.47
480.311	2334.8
480.682	2379.09
481.053	2443.95
481.424	2452.76
481.795	2502.25
482.166	2579.31
482.537	2610.95
482.908	2673.77
483.279	2704.51
483.65	2751.74
484.021	2769.81
484.391	2828.12
484.762	2879.87
485.133	2925.97
485.503	2986.98
485.874	3007.55
486.244	3089.81
486.615	3130.93
486.985	3181.1
487.356	3252.51
487.726	3295.45
488.097	3376.13
488.467	3419.97
488.837	3480.98
489.207	3527.08
489.578	3570.02
489.948	3594.2
490.318	3715.78
490.688	3730.47
491.058	3734.31
491.428	3777.02
491.798	3821.09
492.168	3938.15
492.538	3975.66
492.908	4008.65
493.278	4076.45
493.648	4101.76
494.017	4165.03
494.387	4200.74
494.757	4233.28
495.126	4295.88
495.496	4362.31
495.866	4392.6
496.235	4408.64
496.605	4432.14
496.974	4472.82
497.344	4563.44
497.713	4553.04
498.082	4614.74
498.452	4692.02
498.821	4656.54
499.19	4709.88
499.559	4753.04
499.928	4776.99
500.298	4805.69
500.667	4903.54
501.036	4859.48
501.405	4895.18
501.774	4942.64
502.143	5004.56
502.512	5066.02
502.88	5075.97
503.249	5107.83
503.618	5071.67
503.987	5124.1
504.356	5207.26
504.724	5186.47
505.093	5266.92
505.462	5233.93
505.83	5299.92
506.199	5342.63
506.567	5405.23
506.936	5419.01
507.304	5450.87
507.672	5462.4
508.041	5517.31
508.409	5561.38
508.777	5592.11
509.145	5587.37
509.514	5617.87
509.882	5670.98
510.25	5657.2
510.618	5684.77
510.986	5711.88
511.354	5700.36
511.722	5771.77
512.09	5834.14
512.458	5823.07
512.826	5878.21
513.193	5906.68
513.561	5967.24
513.929	5936.51
514.297	5986.9
514.664	5988.49
515.032	6037.07
515.4	6049.28
515.767	6103.51
516.135	6155.49
516.502	6106.22
516.869	6219.89
517.237	6204.98
517.604	6222.6
517.972	6301.92
518.339	6351.19
518.706	6297.18
519.073	6382.37
519.44	6341.25
519.808	6424.41
520.175	6416.72
520.542	6501.24
520.909	6513.44
521.276	6480.45
521.643	6519.09
522.009	6573.78
522.376	6638.19
522.743	6680.9
523.11	6719.54
523.477	6730.16
523.843	6745.3
524.21	6866.2
524.577	6847.67
524.943	6827.11
525.31	6911.63
525.676	7016.03
526.043	6996.6
526.409	7086.08
526.776	7125.18
527.142	7117.95
527.508	7203.82
527.874	7256.02
528.241	7202.47
528.607	7253.09
528.973	7331.28
529.339	7311.84
529.705	7433.19
530.071	7469.8
530.437	7465.51
530.803	7582.12
531.169	7542.12
531.535	7561.1
531.901	7623.92
532.267	7628.9
532.632	7652.17
532.998	7693.3
533.364	7799.74
533.73	7829.57
534.095	7865.05
534.461	7793.18
534.826	7947.08
535.192	8002.67
535.557	8043.35
535.923	8018.04
536.288	8029.56
536.653	8084.25
537.019	8106.17
537.384	8106.85
537.749	8181.65
538.114	8144.59
538.479	8141.2
538.845	8205.15
539.21	8241.99
539.575	8243.57
539.94	8307.3
540.305	8406.05
540.67	8380.06
541.034	8460.96
541.399	8447.18
541.764	8482.66
542.129	8556.1
542.494	8503.45
542.858	8684.01
543.223	8629.55
543.587	8605.59
543.952	8662.31
544.316	8739.83
544.681	8712.26
545.045	8811.01
545.41	8821.86
545.774	8898.47
546.138	8849.43
546.503	8921.74
546.867	8960.61
547.231	8973.04
547.595	9035.86
547.959	9085.35
548.324	9085.35
548.688	9086.26
549.052	9096.2
549.416	9155.86
549.779	9087.61
550.143	9210.77
550.507	9226.14
550.871	9260.49
551.235	9332.35
551.599	9322.64
551.962	9405.35
552.326	9429.3
552.689	9476.76
553.053	9479.92
553.417	9479.69
553.78	9623.19
554.143	9525.12
554.507	9622.29
554.87	9646.92
555.234	9778.44
555.597	9669.07
555.96	9646.24
556.323	9719.24
556.686	9690.76
557.05	9804.88
557.413	9838.78
557.776	9932.79
558.139	9952.9
558.502	9925.78
558.865	9966.01
559.228	10048.04
559.59	10080.81
559.953	10129.17
560.316	10212.78
560.679	10155.16
561.041	10254.14
561.404	10220.01
561.767	10285.77
562.129	10309.28
562.492	10414.81
562.854	10407.13
563.217	10401.25
563.579	10419.33
563.941	10522.83
564.304	10540.68
564.666	10586.78
565.028	10620.68
565.39	10618.65
565.753	10764.63
566.115	10708.59
566.477	10714.46
566.839	10747.01
567.201	10901.13
567.563	10899.54
567.925	11068.13
568.287	10963.05
568.648	10944.06
569.01	11067.9
569.372	11087.11
569.734	11119.65
570.095	11188.8
570.457	11223.6
570.819	11307.44
571.18	11355.8
571.542	11322.58
571.903	11434.67
572.265	11439.42
572.626	11523.03
572.987	11578.62
573.349	11571.39
573.71	11636.93
574.071	11672.18
574.432	11799.41
574.794	11927.77
575.155	11870.82
575.516	11889.57
575.877	12047.76
576.238	12023.13
576.599	12209.57
576.96	12250.69
577.32	12307.64
577.681	12470.35
578.042	12550.35
578.403	12609.78
578.763	12748.76
579.124	12822.43
579.485	13000.73
579.845	13083.22
580.206	13085.7
580.566	13255.41
580.927	13347.16
581.287	13517.33
581.648	13610.43
582.008	13859.92
582.368	13925.23
582.728	14160.7
583.089	14168.38
583.449	14390.3
583.809	14498.32
584.169	14751.65
584.529	14784.64
584.889	15044.07
585.249	15216.04
585.609	15377.17
585.969	15624.39
586.329	15823.03
586.688	16014.89
587.048	16236.35
587.408	16389.57
587.768	16610.58
588.127	16867.97
588.487	17055.54
588.846	17427.28
589.206	17520.84
589.565	17786.82
589.925	18154.72
590.284	18315.62
590.643	18634.26
591.003	18924.87
591.362	19237.86
591.721	19410.05
592.08	19729.37
592.44	20138.85
592.799	20339.52
593.158	20502.68
593.517	20835.55
593.876	21182.66
594.235	21502.65
594.593	21735.42
594.952	22049.99
595.311	22347.15
595.67	22616.3
596.029	23096.51
596.387	23379.44
596.746	23737.17
597.104	23881.12
597.463	24128.12
597.822	24519.3
598.18	24644.95
598.538	25098.04
598.897	25630.46
599.255	25565.15
599.613	26220.5
599.972	26410.1
600.33	26721.27
600.688	26856.86
601.046	27261.15
601.404	27655.04
601.762	27848.48
602.12	28280.56
602.478	28495.01
602.836	28806.42
603.194	28867.66
603.552	29238.04
603.91	29503.57
604.268	29794.87
604.625	29955.77
604.983	30405.92
605.341	30414.29
605.698	30935.85
606.056	31265.11
606.413	31502.39
606.771	31683.86
607.128	31987.35
607.485	32025.54
607.843	32385.08
608.2	32750.72
608.557	33062.58
608.914	33073.42
609.272	33565.61
609.629	33709.34
609.986	34134.41
610.343	34081.99
610.7	34642.42
611.057	34615.98
611.414	34925.58
611.771	35013.03
612.127	35411.22
612.484	35544.32
612.841	35796.29
613.198	35791.77
613.554	36122.16
613.911	36401.7
614.267	36571.41
614.624	36685.98
614.98	36821.57
615.337	37300.88
615.693	37338.4
616.05	37334.56
616.406	37839.63
616.762	37810.93
617.118	37890.47
617.475	37970.47
617.831	38231.03
618.187	38424.92
618.543	38502.66
618.899	38716.44
619.255	38778.36
619.611	38983.78
619.967	39203.66
620.323	39288.85
620.678	39399.13
621.034	39476.87
621.39	39602.29
621.746	39709.41
622.101	40171.99
622.457	40023.07
622.812	40159.34
623.168	40218.55
623.523	40367.02
623.879	40450.41
624.234	40339.22
624.589	40638.65
624.945	40675.94
625.3	40860.11
625.655	40826.67
626.01	40878.19
626.365	40990.28
626.72	40935.36
627.075	41056.94
627.43	41143.49
627.785	41127.45
628.14	41245.19
628.495	41383.71
628.85	41375.35
629.205	41278.63
629.559	41584.61
629.914	41423.49
630.269	41489.93
630.623	41453.54
630.978	41449.25
631.332	41729.47
631.687	41802.69
632.041	41588.45
632.396	41700.99
632.75	41633.65
633.104	41772.63
633.459	41666.64
633.813	41643.37
634.167	41788.68
634.521	41835
634.875	41849.01
635.229	41805.85
635.583	41691.05
635.937	41579.19
636.291	41730.15
636.645	41707.1
636.999	41634.1
637.352	41828.67
637.706	41672.75
638.06	41735.12
638.413	41765.62
638.767	41631.39
639.121	41701.9
639.474	41624.39
639.828	41638.62
640.181	41740.77
640.534	41733.08
640.888	41635.68
641.241	41538.29
641.594	41561.11
641.947	41631.62
642.301	41554.33
642.654	41635.91
643.007	41649.47
643.36	41601.79
643.713	41519.3
644.066	41567.44
644.419	41446.31
644.771	41172.42
645.124	40745.09
645.477	40900.11
645.83	40565.88
646.182	40406.34
646.535	40261.26
646.888	40456.05
647.24	40221.94
647.593	40443.63
647.945	40375.83
648.298	40342.16
648.65	40224.2
649.002	40038.66
649.355	40292.44
649.707	40241.15
650.059	40310.97
650.411	40724.07
650.763	40899.43
651.115	41309.14
651.467	41299.65
651.819	41214.45
652.171	41050.62
652.523	41134.91
652.875	41035.47
653.227	40877.29
653.578	41258.97
653.93	41154.34
654.282	41011.52
654.633	40869.83
654.985	40967.91
655.337	40963.61
655.688	40983.5
656.039	41092.65
656.391	40841.58
656.742	40896.04
657.094	40887
657.445	40889.49
657.796	40939.66
658.147	40934.01
658.498	40750.74
658.849	40754.35
659.2	40791.87
659.551	40699.89
659.902	40913.67
660.253	40668.48
660.604	40873.9
660.955	40595.71
661.306	40812.2
661.656	40681.36
662.007	40706.22
662.358	40737.4
662.708	40796.38
663.059	40788.48
663.409	40562.27
663.76	40775.37
664.11	40782.15
664.461	40829.38
664.811	40788.93
665.161	40726.56
665.511	40685.2
665.862	40562.04
666.212	40727.01
666.562	40726.1
666.912	40750.74
667.262	40649.5
667.612	40623.73
667.962	40781.24
668.312	40611.31
668.662	40786.89
669.011	40710.74
669.361	40538.09
669.711	40449.73
670.06	40551.42
670.41	40371.99
670.76	40393.46
671.109	40589.38
671.459	40520.23
671.808	40436.85
672.157	40575.15
672.507	40251.54
672.856	40310.3
673.205	40349.62
673.554	40438.2
673.904	40366.34
674.253	40545.09
674.602	40442.5
674.951	39852.23
675.3	39691.78
675.649	40350.29
675.998	40259.9
676.346	40444.98
676.695	40256.06
677.044	40101.04
677.393	40258.32
677.741	40240.92
678.09	40177.64
678.438	40023.07
678.787	40176.51
679.135	40212.67
679.484	39927.48
679.832	40037.08
680.181	39756.41
680.529	39906.24
680.877	39729.07
681.225	39598.9
681.573	39908.95
681.922	39621.73
682.27	39509.19
682.618	39497.89
682.966	39450.66
683.314	39565
683.661	39416.31
684.009	39405.69
684.357	39377.67
684.705	39179.7
685.053	39338.12
685.4	39070.33
685.748	39069.88
686.095	39139.03
686.443	38898.58
686.79	38851.13
687.138	38895.87
687.485	38748.98
687.832	38690.23
688.18	38707.17
688.527	38528.42
688.874	38495.88
689.221	38401.19
689.568	38456.56
689.915	38352.16
690.262	38436.22
690.609	38195.32
690.956	38068.77
691.303	38215.66
691.65	37953.07
691.997	37949.45
692.344	37669.24
692.69	37582.46
693.037	37622.46
693.383	37258.62
693.73	37539.52
694.077	37258.17
694.423	37245.07
694.769	37161
695.116	37027.22
695.462	37101.79
695.808	36952.87
696.155	36926.88
696.501	36573.9
696.847	36641.24
697.193	36460.45
697.539	36485.76
697.885	36231.08
698.231	36267.46
698.577	36295.94
698.923	36159.44
699.269	35935.72
699.614	35765.33
699.96	35756.29
700.306	35835.84
700.651	35600.14
700.997	35479.01
701.342	35365.34
701.688	35380.71
702.033	35322.4
702.379	35370.99
702.724	35093.71
703.069	35254.16
703.415	34673.61
703.76	34816.2
704.105	34834.28
704.45	34752.25
704.795	34540.5
705.14	34616.43
705.485	34434.52
705.83	34373.73
706.175	34373.28
706.52	34164.24
706.865	34087.18
707.209	34136
707.554	34013.96
707.899	33990.01
708.243	33837.92
708.588	33799.96
708.932	33683.13
709.277	33595.67
709.621	33596.57
709.966	33450.59
710.31	33492.4
710.654	33218.96
710.998	33240.65
711.342	33302.12
711.687	33230.71
712.031	32996.14
712.375	32969.47
712.719	32938.29
713.063	32923.82
713.407	32974.44
713.75	32872.3
714.094	32820.78
714.438	32615.58
714.782	32652.19
715.125	32442.25
715.469	32445.64
715.812	32293.56
716.156	32211.75
716.499	32290.62
716.843	32301.02
717.186	31990.97
717.53	32275.93
717.873	32087.46
718.216	32062.6
718.559	31905.77
718.902	31768.15
719.246	31835.49
719.589	31661.03
719.932	31645.21
720.275	31497.42
720.617	31634.37
720.96	31507.82
721.303	31480.7
721.646	31589.62
721.989	31246.13
722.331	31450.42
722.674	31220.14
723.016	31299.01
723.359	31207.03
723.701	31352.34
724.044	30999.35
724.386	30956.19
724.729	31111.22
725.071	30979.24
725.413	30976.98
725.755	30939.92
726.097	30732.24
726.439	30540.38
726.782	30692.7
727.124	30799.81
727.465	30642.3
727.807	30506.26
728.149	30516.66
728.491	30331.8
728.833	30460.61
729.175	30428.97
729.516	30257.68
729.858	30159.15
730.199	30283.22
730.541	30134.29
730.882	30163.9
731.224	30236.66
731.565	29887.07
731.906	30028.53
732.248	29960.51
732.589	29849.78
732.93	29795.32
733.271	29763.23
733.612	29905.37
733.953	29826.5
734.294	29658.37
734.635	29654.53
734.976	29824.92
735.317	29490.47
735.658	29590.8
735.999	29559.84
736.339	29381.32
736.68	29606.85
737.021	29433.29
737.361	29392.62
737.702	29589.45
738.042	29259.74
738.383	29304.71
738.723	29288.21
739.063	29097.48
739.404	29193.07
739.744	29247.08
740.084	29031.72
740.424	29145.84
740.764	29046.19
741.104	29143.58
741.444	28791.05
741.784	28931.16
742.124	28929.8
742.464	28807.1
742.804	28674.22
743.143	28699.3
743.483	28642.58
743.823	28583.82
744.162	28728
744.502	28568.23
744.841	28476.48
745.181	28603.71
745.52	28400.55
745.86	28456.37
746.199	28433.32
746.538	28330.5
746.877	28448.01
747.216	28312.42
747.556	28245.75
747.895	28283.72
748.234	28136.83
748.573	28097.06
748.911	28051.18
749.25	28136.38
749.589	28001.47
749.928	27992.2
750.267	28043.27
750.605	27890.28
750.944	27932.77
751.283	27763.28
751.621	27849.83
751.96	27669.5
752.298	27686.22
752.636	27676.05
752.975	27567.13
753.313	27363.97
753.651	27550.41
753.989	27511.99
754.327	27423.63
754.666	27177.31
755.004	27301.6
755.342	27251.88
755.679	27204.43
756.017	27054.15
756.355	27093.69
756.693	27082.62
757.031	27027.71
757.368	26937.31
757.706	26867.49
758.044	26769.41
758.381	26762.4
758.719	26587.94
759.056	26685.12
759.394	26653.93
759.731	26321.29
