Data from hue_290_FLMS001491_00029.txt Node
Date: Tue Feb 07 15:52:32 GMT 2017
User: dcchb
Spectrometer: FLMS00149
Trigger mode: 0
Integration Time (sec): 2.000000E-2
Scans to average: 10
Electric dark correction enabled: true
Nonlinearity correction enabled: false
Boxcar width: 0
XAxis mode: Wavelengths
Number of Pixels in Spectrum: 2048
>>>>>Begin Spectral Data<<<<<
341.393	-13.12
341.776	-13.12
342.16	-13.12
342.543	-47.7
342.927	-61.03
343.31	-70.07
343.693	-60.35
344.077	-66.45
344.46	-49.96
344.843	-64.42
345.226	-25.1
345.61	-30.52
345.993	-36.62
346.376	4.73
346.759	27.56
347.142	24.62
347.525	28.91
347.908	55.8
348.291	74.56
348.674	79.53
349.057	107.78
349.44	109.81
349.823	136.48
350.206	161.34
350.588	176.25
350.971	180.55
351.354	217.38
351.737	223.03
352.119	242.69
352.502	248.11
352.884	260.09
353.267	282.01
353.65	275.91
354.032	275.23
354.414	298.96
354.797	299.64
355.179	320.2
355.562	306.19
355.944	326.98
356.326	288.11
356.709	322.01
357.091	305.51
357.473	333.99
357.855	313.65
358.238	352.52
358.62	338.73
359.002	335.34
359.384	322.92
359.766	338.51
360.148	342.35
360.53	332.86
360.912	327.66
361.294	352.52
361.676	338.51
362.057	321.56
362.439	321.11
362.821	309.81
363.203	317.04
363.584	308.45
363.966	315.46
364.348	293.54
364.729	314.1
365.111	332.63
365.493	297.61
365.874	293.54
366.256	298.51
366.637	323.59
367.019	293.54
367.4	308.23
367.781	317.04
368.163	297.61
368.544	301.67
368.925	303.71
369.306	305.97
369.688	314.33
370.069	317.49
370.45	307.55
370.831	308.9
371.212	308
371.593	308.68
371.974	307.32
372.355	308.9
372.736	305.06
373.117	293.99
373.498	317.72
373.879	312.29
374.26	307.1
374.641	338.28
375.021	323.37
375.402	318.17
375.783	310.26
376.163	317.94
376.544	300.09
376.925	316.59
377.305	312.97
377.686	319.75
378.066	322.24
378.447	326.98
378.827	334.21
379.208	333.54
379.588	329.02
379.968	324.27
380.349	300.77
380.729	333.99
381.109	335.34
381.489	331.5
381.87	340.54
382.25	328.56
382.63	335.34
383.01	322.46
383.39	327.43
383.77	331.5
384.15	329.47
384.53	341.22
384.91	337.6
385.29	356.13
385.67	341.22
386.049	347.32
386.429	352.74
386.809	329.02
387.189	350.71
387.568	323.14
387.948	343.25
388.328	344.84
388.707	359.98
389.087	340.32
389.466	356.81
389.846	341.22
390.225	361.78
390.605	366.98
390.984	359.52
391.363	369.24
391.743	365.4
392.122	365.85
392.501	364.04
392.881	369.47
393.26	379.41
393.639	380.99
394.018	379.64
394.397	378.51
394.776	378.96
395.155	390.94
395.534	384.83
395.913	377.6
396.292	369.47
396.671	392.74
397.05	406.98
397.429	398.85
397.808	363.59
398.186	363.59
398.565	382.57
398.944	378.96
399.323	411.95
399.701	392.07
400.08	406.53
400.458	399.98
400.837	413.76
401.215	425.74
401.594	419.41
401.972	417.83
402.351	442.69
402.729	422.12
403.107	419.18
403.486	412.18
403.864	435.68
404.242	421.67
404.62	437.26
404.999	439.07
405.377	443.82
405.755	441.1
406.133	443.14
406.511	454.66
406.889	456.02
407.267	483.59
407.645	458.73
408.023	487.66
408.401	486.3
408.779	494.66
409.156	495.79
409.534	478.39
409.912	507.54
410.29	522.46
410.667	533.98
411.045	520.65
411.422	520.65
411.8	553.42
412.178	572.17
412.555	559.75
412.933	557.03
413.31	580.08
413.687	556.36
414.065	581.89
414.442	611.5
414.819	602.46
415.197	588.9
415.574	623.02
415.951	619.63
416.328	626.41
416.705	625.96
417.082	635.68
417.46	663.92
417.837	670.48
418.214	659.63
418.591	665.28
418.967	680.19
419.344	672.06
419.721	658.5
420.098	684.71
420.475	725.84
420.852	695.79
421.228	730.36
421.605	721.55
421.982	732.4
422.358	753.86
422.735	751.83
423.111	762.9
423.488	771.27
423.864	769.46
424.241	791.83
424.617	839.74
424.994	807.42
425.37	813.3
425.746	786.86
426.123	836.8
426.499	860.53
426.875	857.82
427.251	863.92
427.627	880.19
428.003	884.48
428.379	893.07
428.756	889
429.132	900.53
429.507	926.97
429.883	944.37
430.259	953.63
430.635	942.33
431.011	975.78
431.387	975.55
431.763	1013.97
432.138	984.37
432.514	1024.14
432.89	1034.31
433.265	1035.44
433.641	1048.32
434.016	1058.94
434.392	1088.32
434.767	1112.95
435.143	1096.91
435.518	1137.58
435.894	1119.73
436.269	1143.46
436.644	1168.54
437.02	1145.04
437.395	1173.06
437.77	1211.25
438.145	1198.37
438.52	1230.46
438.895	1237.47
439.271	1248.09
439.646	1263.46
440.021	1251.7
440.395	1290.8
440.77	1259.84
441.145	1315.66
441.52	1313.4
441.895	1301.87
442.27	1302.32
442.645	1305.26
443.019	1320.18
443.394	1333.74
443.769	1334.64
444.143	1351.81
444.518	1338.71
444.892	1364.7
445.267	1360.85
445.641	1364.7
446.016	1402.21
446.39	1405.15
446.764	1420.51
447.139	1422.32
447.513	1400.63
447.887	1407.41
448.262	1441.53
448.636	1423.45
449.01	1438.59
449.384	1476.78
449.758	1453.51
450.132	1486.5
450.506	1479.04
450.88	1493.73
451.254	1480.4
451.628	1473.62
452.002	1502.32
452.376	1511.36
452.75	1529.89
453.123	1520.62
453.497	1575.09
453.871	1554.52
454.244	1606.27
454.618	1583.22
454.992	1619.15
455.365	1603.33
455.739	1620.73
456.112	1643.33
456.486	1663.44
456.859	1641.3
457.232	1672.71
457.606	1671.35
457.979	1710
458.352	1733.27
458.725	1750.9
459.099	1760.39
459.472	1772.82
459.845	1782.54
460.218	1771.69
460.591	1797.23
460.964	1794.97
461.337	1872.25
461.71	1839.94
462.083	1884.91
462.456	1885.36
462.829	1896.43
463.201	1928.07
463.574	1928.75
463.947	1924.46
464.32	1992.93
464.692	1981.85
465.065	1991.12
465.438	1991.8
465.81	2023.66
466.183	2052.81
466.555	2075.86
466.928	2089.87
467.3	2080.61
467.672	2103.66
468.045	2158.57
468.417	2156.77
468.789	2126.03
469.161	2187.27
469.534	2227.5
469.906	2228.4
470.278	2215.97
470.65	2242.64
471.022	2265.69
471.394	2317.44
471.766	2323.09
472.138	2334.39
472.51	2382.97
472.882	2450.32
473.253	2450.32
473.625	2417.32
473.997	2506.81
474.369	2463.88
474.74	2502.07
475.112	2563.31
475.484	2591.78
475.855	2611.67
476.227	2627.26
476.598	2679.92
476.97	2672.68
477.341	2718.78
477.713	2761.72
478.084	2758.11
478.455	2827.71
478.827	2881.94
479.198	2932.11
479.569	2932.11
479.94	2994.26
480.311	2967.14
480.682	3039
481.053	3067.25
481.424	3125.55
481.795	3161.94
482.166	3184.99
482.537	3196.74
482.908	3275.61
483.279	3280.35
483.65	3308.37
484.021	3388.15
484.391	3373.23
484.762	3434.02
485.133	3439.44
485.503	3455.04
485.874	3528.48
486.244	3554.69
486.615	3602.6
486.985	3624.3
487.356	3636.5
487.726	3673.11
488.097	3765.08
488.467	3770.96
488.837	3808.93
489.207	3858.19
489.578	3876.72
489.948	3922.14
490.318	3940.9
490.688	3947.23
491.058	4040.33
491.428	4104.28
491.798	4095.25
492.168	4118.75
492.538	4163.27
492.908	4208.69
493.278	4248.69
493.648	4273.77
494.017	4252.53
494.387	4310.38
494.757	4327.78
495.126	4369.14
495.496	4345.63
495.866	4412.07
496.235	4419.98
496.605	4460.66
496.974	4477.38
497.344	4527.78
497.713	4568.91
498.082	4561.45
498.452	4627.21
498.821	4596.48
499.19	4604.84
499.559	4642.8
499.928	4682.12
500.298	4698.85
500.667	4719.18
501.036	4701.78
501.405	4790.59
501.774	4769.8
502.143	4749.24
502.512	4760.31
502.88	4852.51
503.249	4808.45
503.618	4803.48
503.987	4828.11
504.356	4877.82
504.724	4848.45
505.093	4915.34
505.462	4894.55
505.83	4944.71
506.199	4992.85
506.567	5007.31
506.936	4991.95
507.304	5089.12
507.672	5037.37
508.041	5104.26
508.409	5120.76
508.777	5144.71
509.145	5167.08
509.514	5205.72
509.882	5174.99
510.25	5172.73
510.618	5190.36
510.986	5226.97
511.354	5270.81
511.722	5290.02
512.09	5289.34
512.458	5300.41
512.826	5337.02
513.193	5318.72
513.561	5303.35
513.929	5378.38
514.297	5395.32
514.664	5412.05
515.032	5377.7
515.4	5436.23
515.767	5446.4
516.135	5433.74
516.502	5465.6
516.869	5501.99
517.237	5490.01
517.604	5501.76
517.972	5552.38
518.339	5562.1
518.706	5584.02
519.073	5606.62
519.44	5640.52
519.808	5624.92
520.175	5693.4
520.542	5695.88
520.909	5694.75
521.276	5712.38
521.643	5744.24
522.009	5774.98
522.376	5786.73
522.743	5803
523.11	5818.82
523.477	5863.56
523.843	5941.98
524.21	5924.8
524.577	5985.37
524.943	5990.79
525.31	6000.96
525.676	6050.45
526.043	6037.12
526.409	6107.17
526.776	6134.97
527.142	6153.04
527.508	6110.33
527.874	6192.59
528.241	6221.74
528.607	6227.84
528.973	6239.6
529.339	6247.51
529.705	6302.19
530.071	6321.4
530.437	6372.02
530.803	6389.42
531.169	6440.04
531.535	6401.17
531.901	6410.89
532.267	6485.01
532.632	6487.72
532.998	6535.86
533.364	6550.1
533.73	6540.38
534.095	6612.02
534.461	6609.98
534.826	6653.82
535.192	6671.22
535.557	6717.1
535.923	6709.64
536.288	6745.12
536.653	6746.93
537.019	6721.62
537.384	6737.89
537.749	6722.29
538.114	6839.58
538.479	6812.69
538.845	6860.82
539.21	6831.22
539.575	6854.27
539.94	6892.69
540.305	6890.88
540.67	6892.23
541.034	6955.96
541.399	6991.89
541.764	6987.15
542.129	7007.94
542.494	6999.35
542.858	7034.83
543.223	7044.32
543.587	7113.02
543.952	7107.82
544.316	7125.45
544.681	7086.35
545.045	7176.97
545.41	7177.65
545.774	7201.83
546.138	7226.01
546.503	7289.96
546.867	7219.01
547.231	7279.12
547.595	7316.86
547.959	7310.3
548.324	7386.46
548.688	7325.89
549.052	7321.83
549.416	7392.56
549.779	7359.79
550.143	7403.63
550.507	7505.55
550.871	7511.88
551.235	7429.17
551.599	7552.56
551.962	7482.5
552.326	7534.48
552.689	7595.72
553.053	7520.69
553.417	7498.32
553.78	7670.52
554.143	7644.3
554.507	7651.99
554.87	7606.11
555.234	7786.67
555.597	7627.58
555.96	7673.46
556.323	7736.05
556.686	7656.28
557.05	7756.84
557.413	7791.65
557.776	7779.67
558.139	7839.33
558.502	7802.72
558.865	7869.38
559.228	7944.86
559.59	7898.99
559.953	7965.88
560.316	7976.73
560.679	7934.47
561.041	8046.1
561.404	8030.06
561.767	8103.95
562.129	8087.68
562.492	8122.26
562.854	8141.92
563.217	8136.27
563.579	8150.28
563.941	8126.33
564.304	8225.76
564.666	8299.2
565.028	8287.9
565.39	8320.22
565.753	8361.35
566.115	8352.99
566.477	8411.74
566.839	8367
567.201	8392.76
567.563	8502.81
567.925	8500.33
568.287	8515.24
568.648	8566.77
569.01	8544.17
569.372	8621.23
569.734	8588.69
570.095	8632.08
570.457	8730.15
570.819	8733.32
571.18	8686.54
571.542	8771.28
571.903	8842.47
572.265	8877.94
572.626	8893.54
572.987	8902.58
573.349	8955.23
573.71	8980.77
574.071	9027.55
574.432	9079.3
574.794	9157.94
575.155	9056.47
575.516	9166.07
575.877	9216.47
576.238	9299.18
576.599	9282.68
576.96	9321.32
577.32	9440.87
577.681	9502.79
578.042	9520.87
578.403	9556.34
578.763	9537.81
579.124	9729.22
579.485	9772.38
579.845	9764.93
580.206	9890.12
580.566	9950.23
580.927	10073.39
581.287	10081.98
581.648	10143
582.008	10286.95
582.368	10253.95
582.728	10426.83
583.089	10527.17
583.449	10557
583.809	10648.97
584.169	10780.27
584.529	10857.55
584.889	11029.3
585.249	11045.35
585.609	11128.28
585.969	11289.86
586.329	11425.45
586.688	11489.18
587.048	11607.82
587.408	11660.7
587.768	11809.62
588.127	11930.07
588.487	12101.14
588.846	12317.18
589.206	12229.49
589.565	12417.96
589.925	12650.73
590.284	12751.06
590.643	12790.61
591.003	12987.89
591.362	13147.44
591.721	13267.66
592.08	13405.28
592.44	13515.11
592.799	13703.81
593.158	13777.48
593.517	13921.88
593.876	14112.38
594.235	14166.85
594.593	14293.17
594.952	14525.03
595.311	14510.11
595.67	14716.44
596.029	15022.87
596.387	15095.41
596.746	15240.26
597.104	15330.43
597.463	15442.74
597.822	15596.86
598.18	15709.86
598.538	15796.41
598.897	15992.33
599.255	16005.44
599.613	16318.88
599.972	16351.42
600.33	16467.12
600.688	16572.66
601.046	16727.91
601.404	16952.76
601.762	17060.33
602.12	17149.59
602.478	17194.79
602.836	17363.6
603.194	17306.42
603.552	17492.63
603.91	17425.74
604.268	17717.03
604.625	17745.51
604.983	17808.11
605.341	17912.96
605.698	18096.69
606.056	18217.59
606.413	18275.89
606.771	18394.53
607.128	18474.08
607.485	18443.79
607.843	18637.46
608.2	18726.05
608.557	18836.78
608.914	18825.25
609.272	19029.32
609.629	19110.9
609.986	19178.69
610.343	19174.85
610.7	19391.11
611.057	19392.02
611.414	19475.18
611.771	19438.8
612.127	19649.41
612.484	19735.74
612.841	19865.23
613.198	19780.48
613.554	19963.3
613.911	20106.12
614.267	20090.76
614.624	20063.64
614.98	20166.46
615.337	20295.72
615.693	20354.93
616.05	20343.63
616.406	20616.17
616.762	20409.17
617.118	20519.67
617.475	20599.44
617.831	20695.49
618.187	20749.72
618.543	20796.73
618.899	20959.89
619.255	20937.51
619.611	20932.54
619.967	20953.79
620.323	21065.87
620.678	21007.57
621.034	21022.71
621.39	21034.69
621.746	21048.92
622.101	21393.1
622.457	21234.68
622.812	21296.38
623.168	21433.32
623.523	21455.47
623.879	21516.26
624.234	21293.89
624.589	21366.2
624.945	21491.62
625.3	21613.43
625.655	21519.65
626.01	21537.5
626.365	21575.69
626.72	21564.62
627.075	21559.87
627.43	21476.26
627.785	21592.41
628.14	21591.28
628.495	21624.73
628.85	21619.08
629.205	21555.13
629.559	21792.63
629.914	21573.88
630.269	21703.14
630.623	21615.46
630.978	21491.85
631.332	21661.11
631.687	21656.14
632.041	21627.21
632.396	21596.03
632.75	21643.03
633.104	21674.44
633.459	21575.69
633.813	21507.44
634.167	21572.98
634.521	21463.6
634.875	21526.88
635.229	21638.74
635.583	21442.36
635.937	21544.05
636.291	21585.18
636.645	21466.09
636.999	21649.59
637.352	21607.78
637.706	21425.86
638.06	21542.7
638.413	21466.09
638.767	21473.55
639.121	21423.15
639.474	21294.79
639.828	21354.23
640.181	21415.47
640.534	21428.12
640.888	21297.73
641.241	21307.9
641.594	21321.91
641.947	21351.06
642.301	21279.88
642.654	21266.77
643.007	21313.55
643.36	21341.35
643.713	21170.95
644.066	21310.84
644.419	21179.77
644.771	21098.41
645.124	20838.76
645.477	20934.12
645.83	20664.98
646.182	20678.09
646.535	20651.87
646.888	20682.61
647.24	20554.02
647.593	20661.14
647.945	20601.48
648.298	20607.81
648.65	20558.99
649.002	20507.02
649.355	20605.55
649.707	20556.73
650.059	20701.36
650.411	20987
650.763	20984.74
651.115	21213.44
651.467	21136.61
651.819	21156.04
652.171	21120.56
652.523	21122.37
652.875	21100.67
653.227	21031.07
653.578	21184.06
653.93	21196.04
654.282	21078.53
654.633	21003.28
654.985	21070.39
655.337	21180.67
655.688	21117.4
656.039	21239.2
656.391	21105.87
656.742	21099.54
657.094	20986.55
657.445	21187.23
657.796	21061.58
658.147	21041.24
658.498	21078.75
658.849	21004.18
659.2	21028.13
659.551	21039.88
659.902	21097.51
660.253	21032.88
660.604	21077.17
660.955	21083.27
661.306	21175.25
661.656	21054.35
662.007	21161.01
662.358	21107.23
662.708	21153.78
663.059	21269.48
663.409	21040.56
663.76	21138.64
664.11	21180.22
664.461	21203.27
664.811	21297.96
665.161	21077.85
665.511	21102.71
665.862	21134.35
666.212	21144.74
666.562	21246.88
666.912	21179.54
667.262	21137.51
667.612	21051.86
667.962	21056.83
668.312	21043.73
668.662	21215.47
669.011	21018.19
669.361	21109.26
669.711	21029.04
670.06	21081.69
670.41	21081.92
670.76	20997.85
671.109	21175.25
671.459	21101.13
671.808	21038.3
672.157	21092.76
672.507	20897.74
672.856	20954.24
673.205	21004.86
673.554	21066.1
673.904	20945.88
674.253	21052.09
674.602	20930.06
674.951	20661.14
675.3	20622.04
675.649	20913.56
675.998	20908.14
676.346	20897.06
676.695	20908.14
677.044	20799.44
677.393	20789.72
677.741	20856.16
678.09	20851.19
678.438	20680.12
678.787	20790.85
679.135	20914.46
679.484	20695.26
679.832	20732.77
680.181	20582.04
680.529	20646.22
680.877	20617.52
681.225	20530.75
681.573	20684.41
681.922	20535.72
682.27	20394.48
682.618	20436.96
682.966	20402.84
683.314	20490.97
683.661	20287.14
684.009	20357.19
684.357	20184.77
684.705	20167.37
685.053	20259.57
685.4	20283.29
685.748	20044.88
686.095	19987.48
686.443	19968.95
686.79	20019.35
687.138	19814.38
687.485	19943.19
687.832	19892.57
688.18	19823.87
688.527	19802.86
688.874	19773.7
689.221	19673.37
689.568	19677.66
689.915	19559.47
690.262	19528.74
690.609	19531.22
690.956	19473.15
691.303	19359.7
691.65	19303.43
691.997	19328.97
692.344	19224.79
692.69	19216.2
693.037	19169.2
693.383	19015.98
693.73	19061.63
694.077	18854.41
694.423	18789.32
694.769	18838.81
695.116	18805.82
695.462	18675.43
695.808	18614.19
696.155	18635.2
696.501	18545.03
696.847	18544.58
697.193	18273.4
697.539	18490.8
697.885	18285.61
698.231	18208.32
698.577	18267.98
698.923	18181.2
699.269	18060.08
699.614	17951.15
699.96	17934.66
700.306	17901.89
700.651	17824.38
700.997	17838.61
701.342	17774.89
701.688	17787.31
702.033	17611.5
702.379	17657.37
702.724	17636.81
703.069	17644.27
703.415	17309.36
703.76	17340.32
704.105	17347.1
704.45	17349.13
704.795	17235.92
705.14	17149.82
705.485	17174.22
705.83	17050.39
706.175	16968.13
706.52	16990.73
706.865	16965.87
707.209	16901.69
707.554	16816.94
707.899	16889.03
708.243	16730.62
708.588	16728.36
708.932	16578.53
709.277	16636.84
709.621	16686.33
709.966	16482.72
710.31	16460.57
710.654	16327.01
710.998	16364.3
711.342	16371.98
711.687	16330.63
712.031	16193.91
712.375	16134.7
712.719	16233.46
713.063	16149.62
713.407	16162.05
713.75	16102.16
714.094	16185.77
714.438	16007.25
714.782	15985.1
715.125	16009.73
715.469	15962.5
715.812	15916.18
716.156	15809.74
716.499	15797.54
716.843	15813.58
717.186	15680.03
717.53	15799.8
717.873	15823.75
718.216	15802.96
718.559	15792.56
718.902	15536.75
719.246	15677.31
719.589	15589.63
719.932	15569.75
720.275	15599.58
720.617	15534.04
720.96	15511.22
721.303	15482.74
721.646	15491.56
721.989	15398.23
722.331	15513.7
722.674	15452.46
723.016	15410.2
723.359	15402.29
723.701	15481.84
724.044	15327.94
724.386	15244.33
724.729	15267.83
725.071	15303.54
725.413	15232.81
725.755	15211.79
726.097	15219.92
726.439	15117.78
726.782	15133.15
727.124	15170.66
727.465	15096.09
727.807	15119.59
728.149	15148.97
728.491	15202.52
728.833	15142.86
729.175	15031.46
729.516	15012.47
729.858	14977.9
730.199	15099.02
730.541	14962.98
730.882	15028.97
731.224	15057.67
731.565	14968.18
731.906	15048.86
732.248	15035.3
732.589	14991.68
732.93	14890.67
733.271	14957.78
733.612	15055.86
733.953	15049.31
734.294	14902.19
734.635	14947.39
734.976	14925.24
735.317	14947.39
735.658	14942.87
735.999	14949.42
736.339	14905.13
736.68	14949.2
737.021	14903.32
737.361	14809.09
737.702	14901.06
738.042	14910.1
738.383	14875.07
738.723	14972.93
739.063	14965.69
739.404	14865.58
739.744	14838.69
740.084	14846.15
740.424	14938.35
740.764	14989.2
741.104	14995.75
741.444	14939.25
741.784	14963.21
742.124	15024.68
742.464	15003.66
742.804	14949.2
743.143	14941.06
743.483	14994.62
743.823	14999.59
744.162	15006.6
744.502	15095.63
744.841	15042.98
745.181	15223.31
745.52	15082.53
745.86	15188.29
746.199	15214.5
746.538	15230.32
746.877	15336.98
747.216	15370.88
747.556	15386.47
747.895	15308.96
748.234	15389.86
748.573	15478
748.911	15543.08
749.25	15524.78
749.589	15633.02
749.928	15689.74
750.267	15857.2
750.605	15868.5
750.944	15840.02
751.283	16016.51
751.621	16051.54
751.96	16087.47
752.298	16166.34
752.636	16346.45
752.975	16297.86
753.313	16388.03
753.651	16565.65
753.989	16594.8
754.327	16677.97
754.666	16767.45
755.004	16917.73
755.342	16964.06
755.679	17127.22
756.017	17162.25
756.355	17359.98
756.693	17418.06
757.031	17562.01
757.368	17514.33
757.706	17678.39
758.044	17743.7
758.381	17824.83
758.719	18023.24
759.056	18101.2
759.394	18051.71
