Data from hue_290_FLMS001491_00006.txt Node
Date: Tue Feb 07 15:52:07 GMT 2017
User: dcchb
Spectrometer: FLMS00149
Trigger mode: 0
Integration Time (sec): 2.000000E-2
Scans to average: 10
Electric dark correction enabled: true
Nonlinearity correction enabled: false
Boxcar width: 0
XAxis mode: Wavelengths
Number of Pixels in Spectrum: 2048
>>>>>Begin Spectral Data<<<<<
341.393	-30.45
341.776	-30.45
342.16	-30.45
342.543	-54.18
342.927	-61.18
343.31	-61.64
343.693	-78.36
344.077	-61.41
344.46	-25.71
344.843	-81.07
345.226	-34.52
345.61	-43.56
345.993	-11.69
346.376	-10.11
346.759	13.16
347.142	32.82
347.525	28.98
347.908	50.9
348.291	84.35
348.674	78.7
349.057	119.15
349.44	116.44
349.823	126.61
350.206	149.21
350.588	179.03
350.971	209.09
351.354	219.03
351.737	221.52
352.119	227.17
352.502	250.67
352.884	274.17
353.267	259.48
353.65	278.69
354.032	267.85
354.414	302.2
354.797	302.87
355.179	305.36
355.562	313.95
355.944	321.18
356.326	316.21
356.709	334.96
357.091	311.91
357.473	334.51
357.855	329.54
358.238	333.16
358.62	328.41
359.002	333.83
359.384	331.12
359.766	331.12
360.148	329.09
360.53	325.92
360.912	322.76
361.294	335.19
361.676	321.63
362.057	320.5
362.439	344
362.821	311.23
363.203	309.88
363.584	311.01
363.966	321.4
364.348	309.43
364.729	320.5
365.111	320.73
365.493	298.58
365.874	308.52
366.256	295.64
366.637	314.62
367.019	315.75
367.4	295.42
367.781	329.31
368.163	334.96
368.544	303.1
368.925	294.51
369.306	311.69
369.688	323.89
370.069	315.75
370.45	282.08
370.831	311.69
371.212	314.17
371.593	294.06
371.974	301.07
372.355	282.76
372.736	323.66
373.117	305.59
373.498	312.14
373.879	298.81
374.26	298.58
374.641	284.12
375.021	303.55
375.402	310.56
375.783	299.94
376.163	330.22
376.544	335.64
376.925	328.64
377.305	315.98
377.686	317.11
378.066	305.59
378.447	334.96
378.827	317.11
379.208	320.95
379.588	338.35
379.968	341.06
380.349	319.37
380.729	312.14
381.109	341.97
381.489	325.02
381.87	313.72
382.25	362.08
382.63	335.19
383.01	339.93
383.39	323.89
383.77	325.25
384.15	342.65
384.53	343.55
384.91	334.28
385.29	327.51
385.67	351.46
386.049	344
386.429	351.69
386.809	361.18
387.189	357.56
387.568	346.26
387.948	351.46
388.328	341.74
388.707	362.76
389.087	358.92
389.466	362.53
389.846	363.21
390.225	355.08
390.605	353.27
390.984	374.51
391.363	375.19
391.743	387.16
392.122	351.23
392.501	366.15
392.881	370.44
393.26	375.19
393.639	347.84
394.018	388.97
394.397	371.8
394.776	365.92
395.155	409.76
395.534	378.8
395.913	414.96
396.292	411.12
396.671	420.84
397.05	390.78
397.429	387.16
397.808	415.41
398.186	402.76
398.565	398.46
398.944	405.7
399.323	409.54
399.701	403.44
400.08	407.28
400.458	414.73
400.837	410.89
401.215	402.31
401.594	410.44
401.972	415.64
402.351	424.9
402.729	435.98
403.107	437.56
403.486	428.07
403.864	451.34
404.242	435.07
404.62	458.35
404.999	473.26
405.377	449.54
405.755	459.71
406.133	458.8
406.511	473.04
406.889	471
407.267	466.26
407.645	474.62
408.023	474.62
408.401	513.72
408.779	478.91
409.156	490.67
409.534	523.88
409.912	520.95
410.29	506.48
410.667	534.28
411.045	492.47
411.422	548.06
411.8	529.76
412.178	565.01
412.555	543.09
412.933	588.97
413.31	572.02
413.687	572.24
414.065	595.75
414.442	603.88
414.819	612.47
415.197	596.2
415.574	597.33
415.951	625.8
416.328	617.44
416.705	639.14
417.082	643.88
417.46	658.34
417.837	668.74
418.214	654.95
418.591	657.21
418.967	671.68
419.344	679.36
419.721	698.8
420.098	701.96
420.475	720.72
420.852	712.81
421.228	709.64
421.605	737.89
421.982	739.7
422.358	743.09
422.735	746.48
423.111	749.42
423.488	800.94
423.864	801.17
424.241	793.03
424.617	796.42
424.994	822.86
425.37	828.06
425.746	844.1
426.123	832.8
426.499	836.42
426.875	859.47
427.251	877.55
427.627	891.78
428.003	884.55
428.379	913.48
428.756	898.79
429.132	918
429.507	932.01
429.883	946.47
430.259	939.47
430.635	960.94
431.011	985.34
431.387	976.53
431.763	997.54
432.138	1011.1
432.514	1021.72
432.89	1008.84
433.265	1066.7
433.641	1070.99
434.016	1085
434.392	1080.71
434.767	1116.64
435.143	1126.35
435.518	1143.08
435.894	1144.66
436.269	1143.3
436.644	1160.48
437.02	1157.31
437.395	1170.65
437.77	1195.51
438.145	1192.57
438.52	1235.05
438.895	1221.27
439.271	1242.51
439.646	1244.77
440.021	1252
440.395	1286.35
440.77	1269.63
441.145	1300.36
441.52	1320.25
441.895	1290.42
442.27	1306.01
442.645	1327.93
443.019	1347.82
443.394	1323.64
443.769	1371.32
444.143	1337.42
444.518	1373.35
444.892	1381.04
445.267	1373.58
445.641	1420.81
446.016	1378.78
446.39	1387.59
446.764	1396.86
447.139	1420.13
447.513	1409.06
447.887	1406.8
448.262	1419.68
448.636	1392.56
449.01	1455.84
449.384	1471.66
449.758	1448.15
450.132	1445.89
450.506	1482.73
450.88	1492.9
451.254	1484.76
451.628	1500.58
452.002	1521.82
452.376	1524.99
452.75	1540.81
453.123	1538.77
453.497	1548.49
453.871	1557.08
454.244	1570.18
454.618	1610.86
454.992	1622.16
455.365	1595.72
455.739	1655.38
456.112	1661.93
456.486	1661.93
456.859	1686.11
457.232	1683.4
457.606	1700.8
457.979	1693.57
458.352	1725.66
458.725	1741.71
459.099	1755.49
459.472	1763.63
459.845	1800.91
460.218	1793.91
460.591	1841.36
460.964	1815.15
461.337	1842.49
461.71	1859.89
462.083	1901.93
462.456	1865.09
462.829	1903.28
463.201	1925.88
463.574	1926.56
463.947	1928.37
464.32	1975.6
464.692	1970.4
465.065	1992.32
465.438	1994.81
465.81	2034.35
466.183	2056.27
466.555	2089.27
466.928	2101.02
467.3	2062.83
467.672	2120.68
468.045	2179.89
468.417	2157.74
468.789	2178.98
469.161	2180.11
469.534	2210.85
469.906	2249.49
470.278	2232.77
470.65	2280.67
471.022	2339.43
471.394	2356.6
471.766	2318.64
472.138	2375.81
472.51	2378.75
472.882	2438.86
473.253	2445.87
473.625	2477.51
473.997	2529.03
474.369	2533.1
474.74	2548.69
475.112	2579.65
475.484	2612.64
475.855	2635.69
476.227	2642.47
476.598	2722.24
476.97	2719.98
477.341	2777.61
477.713	2794.79
478.084	2823.03
478.455	2870.26
478.827	2814.67
479.198	2932.41
479.569	2940.09
479.94	3010.15
480.311	3037.04
480.682	3065.29
481.053	3119.52
481.424	3166.53
481.795	3158.17
482.166	3213.76
482.537	3246.98
482.908	3266.64
483.279	3329.69
483.65	3369.91
484.021	3389.12
484.391	3421.89
484.762	3419.85
485.133	3472.28
485.503	3527.2
485.874	3554.99
486.244	3565.16
486.615	3623.92
486.985	3657.81
487.356	3704.82
487.726	3747.08
488.097	3780.07
488.467	3792.27
488.837	3863.91
489.207	3882.44
489.578	3946.85
489.948	3949.56
490.318	3973.06
490.688	4024.81
491.058	4034.3
491.428	4083.79
491.798	4140.06
492.168	4155.43
492.538	4219.61
492.908	4214.86
493.278	4279.27
493.648	4223.67
494.017	4311.81
494.387	4334.63
494.757	4374.63
495.126	4366.27
495.496	4347.51
495.866	4439.49
496.235	4450.79
496.605	4495.08
496.974	4487.4
497.344	4510.9
497.713	4557.22
498.082	4608.52
498.452	4627.51
498.821	4665.92
499.19	4689.88
499.559	4695.07
499.928	4659.82
500.298	4704.11
500.667	4787.5
501.036	4744.56
501.405	4814.39
501.774	4791.34
502.143	4812.81
502.512	4867.95
502.88	4859.14
503.249	4856.65
503.618	4848.97
503.987	4860.72
504.356	4912.92
504.724	4965.58
505.093	4956.31
505.462	4982.98
505.83	4983.65
506.199	5025.91
506.567	5091
506.936	5063.65
507.304	5131.67
507.672	5137.77
508.041	5145.01
508.409	5155.85
508.777	5142.29
509.145	5175.29
509.514	5224.78
509.882	5205.12
510.25	5213.48
510.618	5260.71
510.986	5300.26
511.354	5319.69
511.722	5314.27
512.09	5377.32
512.458	5330.31
512.826	5352.23
513.193	5388.62
513.561	5427.26
513.929	5393.36
514.297	5471.1
514.664	5457.09
515.032	5507.26
515.4	5556.52
515.767	5559.01
516.135	5528.05
516.502	5516.97
516.869	5590.87
517.237	5620.25
517.604	5546.35
517.972	5659.12
518.339	5686.46
518.706	5661.6
519.073	5673.35
519.44	5658.21
519.808	5730.3
520.175	5675.16
520.542	5764.65
520.909	5726.46
521.276	5774.37
521.643	5780.92
522.009	5845.33
522.376	5876.74
522.743	5841.71
523.11	5931.65
523.477	5961.03
523.843	5949.5
524.21	5997.19
524.577	6061.14
524.943	6012.78
525.31	6069.5
525.676	6099.78
526.043	6128.71
526.409	6177.75
526.776	6221.36
527.142	6203.96
527.508	6255.94
527.874	6264.75
528.241	6277.41
528.607	6319.21
528.973	6353.56
529.339	6354.47
529.705	6401.24
530.071	6429.72
530.437	6410.51
530.803	6485.54
531.169	6528.7
531.535	6484.63
531.901	6505.87
532.267	6551.3
532.632	6621.58
532.998	6607.79
533.364	6621.8
533.73	6663.16
534.095	6688.92
534.461	6714.23
534.826	6717.62
535.192	6748.58
535.557	6789.03
535.923	6784.06
536.288	6804.62
536.653	6779.99
537.019	6811.85
537.384	6829.93
537.749	6891.85
538.114	6920.33
538.479	6917.84
538.845	6966.43
539.21	6929.14
539.575	6977.05
539.94	6991.96
540.305	7064.73
540.67	6988.35
541.034	7012.98
541.399	7069.7
541.764	7094.11
542.129	7092.98
542.494	7127.78
542.858	7163.48
543.223	7157.38
543.587	7227.66
543.952	7215.69
544.316	7217.49
544.681	7218.4
545.045	7241.67
545.41	7317.83
545.774	7285.51
546.138	7345.4
546.503	7319.41
546.867	7309.24
547.231	7409.81
547.595	7426.3
547.959	7450.48
548.324	7420.43
548.688	7431.73
549.052	7492.06
549.416	7462.01
549.779	7510.82
550.143	7593.53
550.507	7571.61
550.871	7559.86
551.235	7607.31
551.599	7653.19
551.962	7593.76
552.326	7587.65
552.689	7603.7
553.053	7613.19
553.417	7658.61
553.78	7767.31
554.143	7778.61
554.507	7789.91
554.87	7756.91
555.234	7760.98
555.597	7788.1
555.96	7765.95
556.323	7832.39
556.686	7885.95
557.05	7946.51
557.413	7897.25
557.776	7877.82
558.139	7911.03
558.502	7949.9
558.865	7963.91
559.228	8016.79
559.59	8057.02
559.953	8017.02
560.316	8094.53
560.679	8154.64
561.041	8123.68
561.404	8203.23
561.767	8231.25
562.129	8200.52
562.492	8251.82
562.854	8256.56
563.217	8304.47
563.579	8274.64
563.941	8286.39
564.304	8359.16
564.666	8362.1
565.028	8445.26
565.39	8473.73
565.753	8513.73
566.115	8500.4
566.477	8521.64
566.839	8583.56
567.201	8564.8
567.563	8617.23
567.925	8713.73
568.287	8663.33
568.648	8756.89
569.01	8749.66
569.372	8802.76
569.734	8762.99
570.095	8800.28
570.457	8870.56
570.819	8939.03
571.18	8916.88
571.542	8932.93
571.903	8982.87
572.265	9000.5
572.626	9059.03
572.987	9035.53
573.349	9209.98
573.71	9123.21
574.071	9181.28
574.432	9195.75
574.794	9342.86
575.155	9396.19
575.516	9294.05
575.877	9404.55
576.238	9452.01
576.599	9497.21
576.96	9560.26
577.32	9513.7
577.681	9612.23
578.042	9673.02
578.403	9734.04
578.763	9775.84
579.124	9847.48
579.485	9846.58
579.845	10035.05
580.206	10051.32
580.566	10061.71
580.927	10103.52
581.287	10273.01
581.648	10261.93
582.008	10355.72
582.368	10470.97
582.728	10505.99
583.089	10608.82
583.449	10707.35
583.809	10876.83
584.169	10886.32
584.529	10993.89
584.889	11154.79
585.249	11181.91
585.609	11257.39
585.969	11437.27
586.329	11453.09
586.688	11573.54
587.048	11715
587.408	11776.47
587.768	11901.89
588.127	11997.48
588.487	12066.18
588.846	12404.48
589.206	12404.02
589.565	12550.69
589.925	12704.81
590.284	12698.93
590.643	12974.18
591.003	13139.6
591.362	13298.24
591.721	13349.08
592.08	13542.75
592.44	13658.91
592.799	13729.86
593.158	13844.21
593.517	14055.28
593.876	14214.82
594.235	14188.61
594.593	14326.23
594.952	14521.03
595.311	14630.41
595.67	14886.22
596.029	15030.62
596.387	15121.92
596.746	15218.64
597.104	15371.63
597.463	15499.31
597.822	15722.35
598.18	15785.63
598.538	15812.07
598.897	16027.21
599.255	16007.32
599.613	16478.04
599.972	16447.99
600.33	16496.35
600.688	16610.92
601.046	16740.86
601.404	16908.09
601.762	17000.74
602.12	17100.17
602.478	17317.34
602.836	17354.85
603.194	17335.87
603.552	17481.63
603.91	17586.26
604.268	17713.26
604.625	17739.48
604.983	18034.61
605.341	17850.43
605.698	18150.77
606.056	18258.11
606.413	18276.64
606.771	18386.24
607.128	18525.45
607.485	18448.16
607.843	18532.45
608.2	18761.15
608.557	18808.15
608.914	18891.31
609.272	18990.74
609.629	19121.59
609.986	19280.91
610.343	19340.34
610.7	19345.31
611.057	19505.31
611.414	19406.78
611.771	19670.95
612.127	19678.64
612.484	19737.62
612.841	19858.97
613.198	19775.58
613.554	19935.8
613.911	20053.09
614.267	20129.7
614.624	20128.79
614.98	20210.82
615.337	20366.75
615.693	20313.87
616.05	20328.79
616.406	20529.01
616.762	20398.62
617.118	20525.62
617.475	20487.43
617.831	20677.48
618.187	20645.62
618.543	20865.95
618.899	20915.44
619.255	20874.99
619.611	20860.75
619.967	20895.55
620.323	21110.01
620.678	20974.87
621.034	21000.86
621.39	21001.76
621.746	21088.54
622.101	21454.63
622.457	21149.78
622.812	21276.33
623.168	21363.79
623.523	21352.94
623.879	21520.85
624.234	21339.61
624.589	21483.11
624.945	21446.95
625.3	21563.33
625.655	21540.28
626.01	21475.88
626.365	21538.25
626.72	21575.31
627.075	21504.8
627.43	21499.83
627.785	21507.29
628.14	21564.24
628.495	21613.27
628.85	21591.81
629.205	21631.8
629.559	21609.21
629.914	21563.33
630.269	21597.91
630.623	21543.67
630.978	21608.98
631.332	21638.13
631.687	21665.02
632.041	21501.64
632.396	21532.15
632.75	21502.54
633.104	21567.85
633.459	21523.78
633.813	21478.36
634.167	21542.77
634.521	21441.07
634.875	21538.47
635.229	21525.37
635.583	21458.7
635.937	21367.4
636.291	21460.74
636.645	21434.97
636.999	21362.43
637.352	21410.12
637.706	21341.42
638.06	21410.12
638.413	21295.32
638.767	21304.81
639.121	21273.62
639.474	21262.55
639.828	21228.65
640.181	21250.35
640.534	21238.59
640.888	21233.17
641.241	21105.26
641.594	21241.31
641.947	21236.33
642.301	21188.2
642.654	21293.96
643.007	21342.09
643.36	21195.43
643.713	21218.26
644.066	21228.88
644.419	21064.59
644.771	21082.44
645.124	20824.37
645.477	20905.72
645.83	20720.19
646.182	20737.14
646.535	20664.82
646.888	20686.52
647.24	20516.35
647.593	20722.9
647.945	20523.58
648.298	20560.42
648.65	20460.08
649.002	20482.23
649.355	20436.13
649.707	20475.45
650.059	20578.27
650.411	20925.38
650.763	20906.17
651.115	21063.01
651.467	21100.74
651.819	21003.57
652.171	21040.18
652.523	20936.68
652.875	20961.77
653.227	20913.63
653.578	20973.74
653.93	21016.45
654.282	20915.66
654.633	20927.64
654.985	20954.31
655.337	20860.3
655.688	20977.36
656.039	21022.1
656.391	20924.93
656.742	20901.88
657.094	20866.4
657.445	21036.79
657.796	21021.2
658.147	20935.33
658.498	20905.27
658.849	21018.94
659.2	20926.51
659.551	20809.68
659.902	20987.75
660.253	21031.37
660.604	21036.57
660.955	20934.2
661.306	21101.42
661.656	21053.06
662.007	20982.33
662.358	21026.4
662.708	21011.71
663.059	21024.81
663.409	20916.12
663.76	21062.1
664.11	21073.85
664.461	21119.95
664.811	21095.32
665.161	21133.29
665.511	21050.35
665.862	21001.31
666.212	21184.13
666.562	21187.75
666.912	21098.94
667.262	21018.03
667.612	20963.12
667.962	21098.71
668.312	21020.07
668.662	21168.54
669.011	21075.21
669.361	21030.69
669.711	20920.41
670.06	20946.85
670.41	20985.49
670.76	20925.16
671.109	20965.83
671.459	21000.86
671.808	21034.76
672.157	20973.97
672.507	20851.71
672.856	20826.85
673.205	20998.83
673.554	20846.97
673.904	20844.03
674.253	21028.66
674.602	20893.07
674.951	20635.22
675.3	20498.95
675.649	20842.22
675.998	20828.66
676.346	20740.98
676.695	20863.69
677.044	20679.51
677.393	20808.55
677.741	20753.86
678.09	20625.05
678.438	20633.86
678.787	20662.56
679.135	20707.31
679.484	20467.54
679.832	20538.27
680.181	20386.41
680.529	20541.44
680.877	20460.08
681.225	20416.47
681.573	20600.19
681.922	20434.77
682.27	20317.26
682.618	20384.61
682.966	20212.41
683.314	20248.79
683.661	20216.93
684.009	20162.92
684.357	20088.34
684.705	20130.15
685.053	20104.16
685.4	20090.38
685.748	19966.31
686.095	19959.98
686.443	19854.45
686.79	19823.72
687.138	19890.15
687.485	19895.13
687.832	19726.54
688.18	19819.42
688.527	19755.92
688.874	19649.94
689.221	19704.85
689.568	19664.17
689.915	19505.76
690.262	19500.11
690.609	19415.14
690.956	19253.56
691.303	19323.84
691.65	19239.1
691.997	19248.36
692.344	19029.16
692.69	19021.03
693.037	19064.19
693.383	18856.74
693.73	18995.26
694.077	18823.97
694.423	18866.68
694.769	18814.7
695.116	18622.39
695.462	18716.85
695.808	18568.38
696.155	18638.21
696.501	18467.59
696.847	18432.34
697.193	18267.15
697.539	18361.16
697.885	18278.45
698.231	18161.39
698.577	18150.54
698.923	18155.06
699.269	18025.57
699.614	17927.95
699.96	17760.95
700.306	17867.84
700.651	17746.71
700.997	17662.19
701.342	17619.93
701.688	17649.99
702.033	17597.79
702.379	17511.23
702.724	17446.38
703.069	17447.06
703.415	17245.7
703.76	17231.24
704.105	17259.04
704.45	17235.31
704.795	17096.56
705.14	17042.55
705.485	17052.94
705.83	16933.85
706.175	16993.06
706.52	16890.01
706.865	16831.93
707.209	16736.57
707.554	16762.55
707.899	16765.72
708.243	16623.35
708.588	16677.81
708.932	16511.03
709.277	16447.99
709.621	16464.48
709.966	16358.72
710.31	16436.46
710.654	16249.8
710.998	16311.27
711.342	16321.89
711.687	16227.43
712.031	16146.52
712.375	16141.1
712.719	16138.39
713.063	16102.46
713.407	16160.54
713.75	16009.81
714.094	15993.08
714.438	15838.06
714.782	16035.12
715.125	15974.33
715.469	15928
715.812	15831.73
716.156	15707.89
716.499	15745.86
716.843	15761.9
717.186	15711.73
717.53	15706.76
717.873	15742.69
718.216	15687.78
718.559	15534.11
718.902	15544.73
719.246	15588.12
719.589	15591.28
719.932	15424.28
720.275	15402.14
720.617	15437.16
720.96	15433.32
721.303	15479.2
721.646	15427.9
721.989	15383.38
722.331	15405.3
722.674	15245.53
723.016	15315.81
723.359	15288.69
723.701	15269.49
724.044	15243.05
724.386	15146.55
724.729	15204.4
725.071	15104.97
725.413	15264.06
725.755	15145.42
726.097	15117.4
726.439	15101.13
726.782	15028.14
727.124	15204.4
727.465	15025.42
727.807	15073.78
728.149	14937.06
728.491	15056.38
728.833	15020.9
729.175	14912.43
729.516	14990.62
729.858	14948.59
730.199	14955.37
730.541	14956.27
730.882	15011.19
731.224	15019.32
731.565	14874.24
731.906	14907.91
732.248	14885.99
732.589	14842.38
732.93	14838.08
733.271	14861.36
733.612	14951.3
733.953	14883.05
734.294	14858.65
734.635	14882.15
734.976	14827.01
735.317	14854.36
735.658	14828.82
735.999	14822.04
736.339	14833.11
736.68	14831.53
737.021	14867.69
737.361	14827.24
737.702	14942.04
738.042	14882.38
738.383	14843.73
738.723	14848.71
739.063	14833.34
739.404	14884.41
739.744	14869.27
740.084	14870.4
740.424	14909.27
740.764	14849.61
741.104	14911.3
741.444	14876.73
741.784	14870.63
742.124	14917.18
742.464	14930.74
742.804	14794.02
743.143	14899.55
743.483	14920.34
743.823	14921.7
744.162	14945.65
744.502	14973.67
744.841	14965.54
745.181	15123.95
745.52	15089.6
745.86	15086.44
746.199	15092.32
746.538	15135.25
746.877	15220.45
747.216	15262.71
747.556	15306.77
747.895	15342.03
748.234	15345.87
748.573	15414.57
748.911	15434.68
749.25	15561.46
749.589	15565.3
749.928	15670.83
750.267	15668.57
750.605	15795.35
750.944	15767.78
751.283	15873.76
751.621	15965.74
751.96	16055.23
752.298	16078.28
752.636	16147.65
752.975	16256.13
753.313	16294.54
753.651	16534.76
753.989	16520.75
754.327	16607.76
754.666	16641.88
755.004	16821.99
755.342	16941.98
755.679	17019.27
756.017	17096.33
756.355	17215.88
756.693	17291.35
757.031	17430.33
757.368	17547.39
757.706	17624
758.044	17741.51
758.381	17889.98
758.719	17879.81
759.056	18118.45
