Data from hue_00_FLMS001491_4.txt Node
Date: Mon Feb 06 15:29:11 GMT 2017
User: dcchb
Spectrometer: FLMS00149
Trigger mode: 0
Integration Time (sec): 2.000000E-2
Scans to average: 10
Electric dark correction enabled: true
Nonlinearity correction enabled: false
Boxcar width: 0
XAxis mode: Wavelengths
Number of Pixels in Spectrum: 2048
>>>>>Begin Spectral Data<<<<<
341.393	-2.27
341.776	-2.27
342.16	-2.27
342.543	-61.71
342.927	-39.56
343.31	-71.2
343.693	-57.64
344.077	-48.37
344.46	-43.18
344.843	-51.76
345.226	-41.14
345.61	-35.95
345.993	-22.84
346.376	-11.09
346.759	8.35
347.142	22.58
347.525	44.05
347.908	66.2
348.291	54.22
348.674	72.75
349.057	115.01
349.44	138.74
349.823	164.05
350.206	170.15
350.588	189.81
350.971	212.41
351.354	227.1
351.737	243.37
352.119	235.69
352.502	259.41
352.884	269.58
353.267	286.31
353.65	298.96
354.032	287.21
354.414	298.96
354.797	318.17
355.179	327.43
355.562	321.33
355.944	315.68
356.326	348.23
356.709	329.24
357.091	346.19
357.473	333.76
357.855	321.56
358.238	348.68
358.62	340.99
359.002	342.35
359.384	343.71
359.766	354.1
360.148	352.07
360.53	338.06
360.912	338.51
361.294	351.39
361.676	329.69
362.057	343.93
362.439	332.86
362.821	316.14
363.203	316.81
363.584	328.34
363.966	321.33
364.348	330.37
364.729	335.57
365.111	305.97
365.493	322.24
365.874	333.76
366.256	299.86
366.637	323.14
367.019	326.53
367.4	331.95
367.781	315.23
368.163	300.77
368.544	312.75
368.925	304.16
369.306	318.62
369.688	332.18
370.069	301.9
370.45	332.86
370.831	322.92
371.212	318.85
371.593	317.04
371.974	317.49
372.355	320.43
372.736	322.92
373.117	315.68
373.498	324.27
373.879	308.45
374.26	305.74
374.641	318.17
375.021	310.26
375.402	327.89
375.783	298.96
376.163	322.24
376.544	321.11
376.925	348
377.305	342.12
377.686	338.51
378.066	317.94
378.447	333.31
378.827	335.8
379.208	344.84
379.588	331.73
379.968	337.83
380.349	339.19
380.729	338.96
381.109	344.16
381.489	331.95
381.87	338.06
382.25	330.15
382.63	345.97
383.01	336.25
383.39	345.06
383.77	335.57
384.15	343.03
384.53	336.7
384.91	330.15
385.29	366.98
385.67	333.31
386.049	331.28
386.429	333.54
386.809	369.24
387.189	355.46
387.568	338.06
387.948	355.68
388.328	359.3
388.707	360.2
389.087	323.37
389.466	358.62
389.846	359.52
390.225	352.29
390.605	352.29
390.984	343.71
391.363	367.21
391.743	355.46
392.122	365.85
392.501	367.21
392.881	387.32
393.26	373.99
393.639	360.88
394.018	381.44
394.397	374.67
394.776	367.66
395.155	383.7
395.534	366.08
395.913	373.54
396.292	371.73
396.671	395.91
397.05	373.08
397.429	376.47
397.808	374.21
398.186	382.8
398.565	373.99
398.944	371.28
399.323	383.03
399.701	399.75
400.08	401.56
400.458	374.44
400.837	388.9
401.215	382.35
401.594	405.62
401.972	380.77
402.351	411.5
402.729	409.01
403.107	378.96
403.486	414.21
403.864	400.65
404.242	402.46
404.62	427.55
404.999	411.05
405.377	408.34
405.755	410.82
406.133	420.09
406.511	411.73
406.889	423.93
407.267	435.68
407.645	418.96
408.023	438.62
408.401	438.62
408.779	470.71
409.156	453.99
409.534	456.92
409.912	423.7
410.29	448.56
410.667	448.79
411.045	460.09
411.422	452.18
411.8	463.02
412.178	486.3
412.555	462.57
412.933	486.3
413.31	466.19
413.687	476.13
414.065	478.39
414.442	492.85
414.819	478.17
415.197	489.69
415.574	493.08
415.951	492.4
416.328	490.37
416.705	498.05
417.082	496.24
417.46	479.75
417.837	495.34
418.214	493.76
418.591	497.83
418.967	490.14
419.344	530.59
419.721	498.73
420.098	522.01
420.475	515
420.852	528.11
421.228	505.28
421.605	520.2
421.982	538.05
422.358	508
422.735	550.25
423.111	536.02
423.488	541.21
423.864	551.38
424.241	561.78
424.617	542.34
424.994	575.11
425.37	568.56
425.746	558.16
426.123	572.85
426.499	581.21
426.875	577.37
427.251	566.3
427.627	567.65
428.003	586.86
428.379	578.5
428.756	609.24
429.132	608.56
429.507	634.32
429.883	606.98
430.259	620.31
430.635	633.42
431.011	639.97
431.387	644.04
431.763	640.87
432.138	630.03
432.514	658.27
432.89	627.77
433.265	658.95
433.641	677.26
434.016	664.15
434.392	671.83
434.767	689.01
435.143	680.19
435.518	682
435.894	693.53
436.269	704.37
436.644	677.71
437.02	725.62
437.395	706.63
437.77	700.08
438.145	723.81
438.52	696.69
438.895	750.47
439.271	750.02
439.646	708.67
440.021	728.55
440.395	767.2
440.77	747.54
441.145	761.32
441.52	751.38
441.895	766.75
442.27	752.51
442.645	773.3
443.019	773.07
443.394	762.9
443.769	812.17
444.143	788.89
444.518	799.96
444.892	798.16
445.267	787.54
445.641	830.02
446.016	800.87
446.39	811.94
446.764	823.69
447.139	830.7
447.513	828.21
447.887	823.02
448.262	816.24
448.636	839.96
449.01	863.01
449.384	845.16
449.758	840.87
450.132	866.86
450.506	874.99
450.88	851.94
451.254	870.7
451.628	882.9
452.002	866.63
452.376	872.51
452.75	892.84
453.123	902.79
453.497	906.85
453.871	906.63
454.244	927.65
454.618	926.74
454.992	914.54
455.365	924.48
455.739	973.29
456.112	968.55
456.486	970.58
456.859	959.28
457.232	970.36
457.606	1007.64
457.979	982.78
458.352	1008.77
458.725	1010.81
459.099	1026.85
459.472	1049
459.845	1053.52
460.218	1049.9
460.591	1092.16
460.964	1067.75
461.337	1126.96
461.71	1110.24
462.083	1137.58
462.456	1091.71
462.829	1119.28
463.201	1118.15
463.574	1121.09
463.947	1127.41
464.32	1162.89
464.692	1183.91
465.065	1202.89
465.438	1225.04
465.81	1221.87
466.183	1242.67
466.555	1245.38
466.928	1244.92
467.3	1279.5
467.672	1291.93
468.045	1307.97
468.417	1318.6
468.789	1334.19
469.161	1329.67
469.534	1355.43
469.906	1373.74
470.278	1362.66
470.65	1379.16
471.022	1427.52
471.394	1443.79
471.766	1481.3
472.138	1443.79
472.51	1529.21
472.882	1519.72
473.253	1546.39
473.625	1575.09
473.997	1606.95
474.369	1593.39
474.74	1597.01
475.112	1632.71
475.484	1670.45
475.855	1661.64
476.227	1707.51
476.598	1741.41
476.97	1771.24
477.341	1813.95
477.713	1836.32
478.084	1845.81
478.455	1908.86
478.827	1926.71
479.198	1953.61
479.569	1958.35
479.94	2045.36
480.311	2070.67
480.682	2093.26
481.053	2151.57
481.424	2185.47
481.795	2173.04
482.166	2245.12
482.537	2247.84
482.908	2304.56
483.279	2330.09
483.65	2351.56
484.021	2442.18
484.391	2436.53
484.762	2466.59
485.133	2515.17
485.503	2540.94
485.874	2589.07
486.244	2616.19
486.615	2669.97
486.985	2730.99
487.356	2746.13
487.726	2806.24
488.097	2829.74
488.467	2830.87
488.837	2908.38
489.207	2908.16
489.578	2952.9
489.948	2974.37
490.318	3037.42
490.688	3038.32
491.058	3121.03
491.428	3153.58
491.798	3177.3
492.168	3228.83
492.538	3267.7
492.908	3335.04
493.278	3341.82
493.648	3366.9
494.017	3411.2
494.387	3448.03
494.757	3436.73
495.126	3501.14
495.496	3528.48
495.866	3574.58
496.235	3624.3
496.605	3609.38
496.974	3676.95
497.344	3655.03
497.713	3695.93
498.082	3739.77
498.452	3781.36
498.821	3806.67
499.19	3799.21
499.559	3784.97
499.928	3847.12
500.298	3918.98
500.667	3901.8
501.036	3961.24
501.405	3957.17
501.774	3953.78
502.143	4004.4
502.512	4024.96
502.88	4057.28
503.249	4095.47
503.618	4070.61
503.987	4110.39
504.356	4167.56
504.724	4152.42
505.093	4179.76
505.462	4176.37
505.83	4236.26
506.199	4267.67
506.567	4272.87
506.936	4289.36
507.304	4336.14
507.672	4373.43
508.041	4418.4
508.409	4383.37
508.777	4456.37
509.145	4425.63
509.514	4453.65
509.882	4503.14
510.25	4511.05
510.618	4519.87
510.986	4518.96
511.354	4555.8
511.722	4600.77
512.09	4655.68
512.458	4629.02
512.826	4673.99
513.193	4692.29
513.561	4699.98
513.929	4697.72
514.297	4803.02
514.664	4770.03
515.032	4799.41
515.4	4791.27
515.767	4812.06
516.135	4832.85
516.502	4844.15
516.869	4903.36
517.237	4890.48
517.604	4898.39
517.972	4980.19
518.339	5000.76
518.706	4996.46
519.073	4993.98
519.44	5068.55
519.808	5060.87
520.175	5054.77
520.542	5143.13
520.909	5116.91
521.276	5120.98
521.643	5174.77
522.009	5203.01
522.376	5246.18
522.743	5234.88
523.11	5257.47
523.477	5298.15
523.843	5330.69
524.21	5349.22
524.577	5418.37
524.943	5488.88
525.31	5459.28
525.676	5525.49
526.043	5528.2
526.409	5527.3
526.776	5591.93
527.142	5603.45
527.508	5634.41
527.874	5675.77
528.241	5669.89
528.607	5652.04
528.973	5796.67
529.339	5731.81
529.705	5800.29
530.071	5883.67
530.437	5882.54
530.803	5933.62
531.169	5984.01
531.535	5970.22
531.901	6013.61
532.267	6023.1
532.632	6055.65
532.998	6093.61
533.364	6103.78
533.73	6103.55
534.095	6162.31
534.461	6197.79
534.826	6242.31
535.192	6257
535.557	6283.44
535.923	6299.48
536.288	6317.79
536.653	6330.89
537.019	6374.96
537.384	6425.81
537.749	6414.96
538.114	6386.26
538.479	6405.69
538.845	6505.35
539.21	6405.92
539.575	6492.24
539.94	6574.5
540.305	6572.47
540.67	6584.9
541.034	6561.85
541.399	6642.52
541.764	6641.39
542.129	6651.34
542.494	6678
542.858	6704.67
543.223	6739.24
543.587	6833.25
543.952	6762.29
544.316	6857.66
544.681	6813.59
545.045	6891.33
545.41	6910.31
545.774	6936.53
546.138	6896.3
546.503	7027.6
546.867	6992.57
547.231	7089.52
547.595	7058.33
547.959	7087.03
548.324	7105.79
548.688	7147.59
549.052	7180.59
549.416	7149.85
549.779	7172.45
550.143	7213.13
550.507	7287.03
550.871	7289.96
551.235	7315.95
551.599	7334.93
551.962	7343.07
552.326	7418.77
552.689	7433.01
553.053	7404.08
553.417	7428.04
553.78	7532.22
554.143	7463.07
554.507	7511.2
554.87	7566.11
555.234	7646.34
555.597	7520.01
555.96	7577.41
556.323	7658.32
556.686	7622.84
557.05	7721.59
557.413	7735.38
557.776	7729.27
558.139	7796.62
558.502	7799.55
558.865	7823.73
559.228	7836.62
559.59	7924.98
559.953	7888.59
560.316	8026.89
560.679	8010.85
561.041	8021.7
561.404	8133.56
561.767	8147.57
562.129	8118.64
562.492	8177.17
562.854	8217.85
563.217	8212.65
563.579	8133.56
563.941	8249.94
564.304	8227.11
564.666	8316.15
565.028	8354.34
565.39	8342.82
565.753	8410.16
566.115	8462.81
566.477	8451.06
566.839	8478.63
567.201	8496.03
567.563	8548.01
567.925	8596.82
568.287	8618.29
568.648	8674.33
569.01	8663.26
569.372	8798.17
569.734	8743.26
570.095	8827.78
570.457	8831.39
570.819	8821.9
571.18	8856.48
571.542	8920.88
571.903	8963.14
572.265	8987.09
572.626	9098.28
572.987	9091.95
573.349	9182.34
573.71	9226.18
574.071	9251.49
574.432	9255.79
574.794	9365.16
575.155	9345.28
575.516	9412.62
575.877	9536.46
576.238	9515.22
576.599	9624.59
576.96	9646.96
577.32	9752.27
577.681	9816.68
578.042	9865.72
578.403	9892.61
578.763	10037.91
579.124	10107.29
579.485	10197.46
579.845	10309.32
580.206	10230
580.566	10420.5
580.927	10571.69
581.287	10608.75
581.648	10648.07
582.008	10876.76
582.368	10965.12
582.728	11089.41
583.089	11156.3
583.449	11316.52
583.809	11537.99
584.169	11584.54
584.529	11779.34
584.889	12026.79
585.249	12086.45
585.609	12135.49
585.969	12441.92
586.329	12534.35
586.688	12682.14
587.048	12862.92
587.408	13092.52
587.768	13306.3
588.127	13478.95
588.487	13694.09
588.846	13854.08
589.206	14048.2
589.565	14146.96
589.925	14513.73
590.284	14692.48
590.643	14949.65
591.003	15159.36
591.362	15444.1
591.721	15708.5
592.08	15900.58
592.44	16096.51
592.799	16445.66
593.158	16548.7
593.517	16811.52
593.876	17049.03
594.235	17392.75
594.593	17613.08
594.952	17882
595.311	18109.57
595.67	18470.23
596.029	18786.61
596.387	19059.6
596.746	19270.21
597.104	19479.25
597.463	19653.93
597.822	19923.08
598.18	20178.89
598.538	20421.82
598.897	20815.71
599.255	20967.8
599.613	21460.44
599.972	21591.51
600.33	21918.96
600.688	22057.48
601.046	22396.46
601.404	22644.14
601.762	22777.47
602.12	23062.43
602.478	23405.47
602.836	23630.78
603.194	23669.19
603.552	24049.07
603.91	24132.23
604.268	24522.5
604.625	24672.11
604.983	24952.1
605.341	25178.31
605.698	25487.23
606.056	25599.99
606.413	25927.67
606.771	26276.13
607.128	26450.82
607.485	26553.19
607.843	26822.78
608.2	26987.75
608.557	27397.91
608.914	27319.72
609.272	27635.42
609.629	27942.53
609.986	28135.29
610.343	28159.7
610.7	28651.66
611.057	28690.76
611.414	28766.01
611.771	29066.34
612.127	29415.48
612.484	29439.66
612.841	29739.54
613.198	29733.22
613.554	29900.67
613.911	30297.95
614.267	30421.11
614.624	30497.72
614.98	30612.97
615.337	30852.28
615.693	31025.61
616.05	31063.35
616.406	31443
616.762	31341.99
617.118	31559.61
617.475	31604.35
617.831	31770.9
618.187	32013.38
618.543	32179.7
618.899	32576.08
619.255	32489.53
619.611	32553.25
619.967	32776.53
620.323	32886.35
620.678	32762.97
621.034	32925.9
621.39	33094.93
621.746	33066.24
622.101	33489.05
622.457	33274.37
622.812	33507.13
623.168	33603.85
623.523	33738.53
623.879	33837.29
624.234	33680.23
624.589	33943.27
624.945	34034.12
625.3	34199.99
625.655	34220.33
626.01	34172.42
626.365	34371.74
626.72	34333.55
627.075	34493.99
627.43	34513.43
627.785	34453.32
628.14	34546.65
628.495	34718.4
628.85	34697.38
629.205	34581.22
629.559	34913.64
629.914	34753.65
630.269	34841.33
630.623	34769.24
630.978	34808.34
631.332	35011.27
631.687	35062.57
632.041	34942.57
632.396	35088.55
632.75	34922.91
633.104	35036.13
633.459	34966.52
633.813	35002.23
634.167	34945.28
634.521	35008.33
634.875	35176.46
635.229	35147.99
635.583	34966.98
635.937	35097.37
636.291	35050.82
636.645	35136.92
636.999	35021.89
637.352	35219.62
637.706	34926.98
638.06	35171.49
638.413	35039.06
638.767	35070.02
639.121	35140.08
639.474	34873.42
639.828	34886.07
640.181	35058.73
640.534	34945.73
640.888	34984.6
641.241	34814.66
641.594	34841.56
641.947	35142.34
642.301	34901.22
642.654	34997.03
643.007	34944.6
643.36	34859.63
643.713	34840.88
644.066	34989.57
644.419	34888.79
644.771	34596.82
645.124	34308.69
645.477	34284.73
645.83	34045.87
646.182	33941.24
646.535	33885.65
646.888	33904.18
647.24	33905.08
647.593	34035.02
647.945	33976.27
648.298	33793.22
648.65	33671.64
649.002	33868.7
649.355	33843.62
649.707	33911.18
650.059	33979.66
650.411	34389.36
650.763	34312.76
651.115	34661.45
651.467	34599.3
651.819	34582.13
652.171	34556.82
652.523	34449.48
652.875	34578.96
653.227	34395.01
653.578	34527.21
653.93	34478.4
654.282	34373.55
654.633	34367.44
654.985	34401.57
655.337	34376.48
655.688	34331.29
656.039	34467.78
656.391	34160.67
656.742	34308.91
657.094	34295.58
657.445	34413.32
657.796	34278.41
658.147	34246.77
658.498	34340.78
658.849	34305.07
659.2	34379.65
659.551	34181.46
659.902	34304.17
660.253	34228.69
660.604	34289.93
660.955	34042.25
661.306	34283.6
661.656	34169.93
662.007	34214.23
662.358	34093.1
662.708	34119.09
663.059	34057.85
663.409	34036.83
663.76	34272.53
664.11	34136.49
664.461	34228.69
664.811	34132.2
665.161	34081.12
665.511	34045.64
665.862	34168.8
666.212	34245.87
666.562	34246.99
666.912	34073.89
667.262	34198.86
667.612	34034.12
667.962	34129.94
668.312	34014.23
668.662	34215.58
669.011	34131.97
669.361	34100.33
669.711	34032.54
670.06	33968.81
670.41	34071.41
670.76	33999.77
671.109	34056.94
671.459	34047.9
671.808	33820.79
672.157	34111.18
672.507	33802.94
672.856	33740.57
673.205	33765.2
673.554	33928.81
673.904	33850.4
674.253	34016.27
674.602	33824.86
674.951	33358.43
675.3	33368.83
675.649	33865.99
675.998	33731.08
676.346	33628.03
676.695	33882.03
677.044	33569.72
677.393	33656.28
677.741	33879.1
678.09	33685.65
678.438	33500.57
678.787	33626.45
679.135	33658.08
679.484	33353.01
679.832	33560.91
680.181	33279.79
680.529	33515.04
680.877	33462.16
681.225	33371.31
681.573	33663.96
681.922	33303.52
682.27	33106.23
682.618	33263.74
682.966	33179.23
683.314	33228.72
683.661	33043.18
684.009	32929.74
684.357	32863.3
684.705	32740.59
685.053	32981.27
685.4	32828.5
685.748	32692.46
686.095	32616.98
686.443	32584.67
686.79	32513.71
687.138	32632.35
687.485	32570.2
687.832	32463.09
688.18	32474.16
688.527	32264
688.874	32205.69
689.221	32193.49
689.568	32226.26
689.915	32093.15
690.262	32109.42
690.609	31898.13
690.956	31759.38
691.303	31787.85
691.65	31696.55
691.997	31739.26
692.344	31391.25
692.69	31511.7
693.037	31518.03
693.383	31200.07
693.73	31371.14
694.077	31205.04
694.423	31215.89
694.769	31035.33
695.116	30961.66
695.462	31034.42
695.808	30790.81
696.155	30884.6
696.501	30773.87
696.847	30727.54
697.193	30424.04
697.539	30562.57
697.885	30345.18
698.231	30320.32
698.577	30322.35
698.923	30330.49
699.269	30073.09
699.614	29947.67
699.96	29915.13
700.306	29938.41
700.651	29887.11
700.997	29752.65
701.342	29684.86
701.688	29690.96
702.033	29476.5
702.379	29530.73
702.724	29412.55
703.069	29408.93
703.415	29205.32
703.76	29108.37
704.105	29119.22
704.45	29048.94
704.795	28975.27
705.14	28851.66
705.485	28876.74
705.83	28854.37
706.175	28654.6
706.52	28648.72
706.865	28512.91
707.209	28596.07
707.554	28397.66
707.899	28536.41
708.243	28351.1
708.588	28387.49
708.932	28179.81
709.277	28142.75
709.621	28034.28
709.966	27978.23
710.31	28146.36
710.654	27739.82
710.998	27902.3
711.342	27756.32
711.687	27777.11
712.031	27674.51
712.375	27509.77
712.719	27571.01
713.063	27518.13
713.407	27569.88
713.75	27342.32
714.094	27427.51
714.438	27263
714.782	27386.84
715.125	27173.96
715.469	27274.07
715.812	27096
716.156	26933.06
716.499	27070.23
716.843	27035.43
717.186	26825.04
717.53	26821.65
717.873	26890.8
718.216	26783.46
718.559	26738.04
718.902	26483.58
719.246	26575.56
719.589	26517.48
719.932	26350.48
720.275	26368.78
720.617	26467.76
720.96	26380.08
721.303	26193.87
721.646	26330.14
721.989	26174.44
722.331	26248.34
722.674	26143.25
723.016	26086.53
723.359	26072.52
723.701	26098.51
724.044	25936.25
724.386	25831.85
724.729	25996.36
725.071	25833.2
725.413	25816.93
725.755	25826.88
726.097	25746.88
726.439	25630.72
726.782	25680.89
727.124	25733.77
727.465	25585.75
727.807	25653.55
728.149	25455.81
728.491	25458.75
728.833	25576.04
729.175	25294.69
729.516	25329.26
729.858	25313.22
730.199	25351.18
730.541	25239.55
730.882	25178.76
731.224	25294.46
731.565	25073.68
731.906	25160
732.248	25114.13
732.589	25066.22
732.93	24852.44
733.271	24972.66
733.612	24889.5
733.953	24920.23
734.294	24819.9
734.635	24795.04
734.976	24870.74
735.317	24763.18
735.658	24753.01
735.999	24708.26
736.339	24586.46
736.68	24687.7
737.021	24590.07
737.361	24370.42
737.702	24544.2
738.042	24470.75
738.383	24438.67
738.723	24371.32
739.063	24425.33
739.404	24366.8
739.744	24308.73
740.084	24230.31
740.424	24178.79
740.764	24253.13
741.104	24216.07
741.444	24213.36
741.784	23964.78
742.124	24124.32
742.464	24061.27
742.804	23958.68
743.143	24005.91
743.483	23973.59
743.823	23886.14
744.162	23910.77
744.502	23882.75
744.841	23788.06
745.181	23801.39
745.52	23809.76
745.86	23735.63
746.199	23755.29
746.538	23606.14
746.877	23792.58
747.216	23662.64
747.556	23509.42
747.895	23621.74
748.234	23510.1
748.573	23405.47
748.911	23495.87
749.25	23417
749.589	23260.17
749.928	23309.66
750.267	23300.16
750.605	23224.46
750.944	23153.95
751.283	23061.53
751.621	23207.06
751.96	22979.04
752.298	23147.17
752.636	23136.78
752.975	22905.15
753.313	22824.02
753.651	22885.94
753.989	22828.31
754.327	22861.53
754.666	22687.07
755.004	22746.73
755.342	22800.97
755.679	22620.86
756.017	22516.23
756.355	22530.01
756.693	22485.95
757.031	22585.15
757.368	22358.95
757.706	22302.68
758.044	22310.59
758.381	22268.33
758.719	22213.87
759.056	22259.29
759.394	22071.5
759.731	22067.2
760.068	22004.38
760.405	21937.49
760.743	21813.88
