Data from hue_90_FLMS001491_84.txt Node
Date: Mon Feb 06 15:25:47 GMT 2017
User: dcchb
Spectrometer: FLMS00149
Trigger mode: 0
Integration Time (sec): 2.000000E-2
Scans to average: 10
Electric dark correction enabled: true
Nonlinearity correction enabled: false
Boxcar width: 0
XAxis mode: Wavelengths
Number of Pixels in Spectrum: 2048
>>>>>Begin Spectral Data<<<<<
341.393	-3.98
341.776	-3.98
342.16	-3.98
342.543	-58.9
342.927	-56.86
343.31	-66.58
343.693	-59.35
344.077	-69.07
344.46	-67.26
344.843	-44.43
345.226	-31.33
345.61	-28.16
345.993	-47.15
346.376	-8.28
346.759	-12.12
347.142	38.05
347.525	57.71
347.908	50.48
348.291	69.01
348.674	99.97
349.057	118.5
349.44	110.36
349.823	143.81
350.206	181.1
350.588	194.66
350.971	222.9
351.354	246.86
351.737	239.17
352.119	240.3
352.502	247.54
352.884	283.02
353.267	280.98
353.65	283.92
354.032	287.53
354.414	294.54
354.797	302.68
355.179	330.02
355.562	340.87
355.944	295.9
356.326	335.9
356.709	316.91
357.091	340.41
357.473	345.39
357.855	335.44
358.238	340.19
358.62	327.31
359.002	339.06
359.384	332.05
359.766	340.41
360.148	353.97
360.53	324.6
360.912	339.51
361.294	318.49
361.676	322.11
362.057	308.78
362.439	320.75
362.821	342
363.203	343.58
363.584	341.09
363.966	321.88
364.348	333.86
364.729	328.89
365.111	332.96
365.493	328.66
365.874	318.49
366.256	298.61
366.637	307.42
367.019	313.97
367.4	302.68
367.781	302.22
368.163	311.26
368.544	313.52
368.925	334.54
369.306	326.63
369.688	302.9
370.069	297.48
370.45	309.91
370.831	304.48
371.212	299.51
371.593	332.05
371.974	321.66
372.355	301.55
372.736	314.65
373.117	316.23
373.498	330.02
373.879	330.47
374.26	309
374.641	311.71
375.021	304.48
375.402	330.7
375.783	315.33
376.163	316.91
376.544	336.12
376.925	328.44
377.305	322.34
377.686	311.71
378.066	345.39
378.447	333.41
378.827	320.3
379.208	340.41
379.588	327.31
379.968	347.42
380.349	337.93
380.729	334.09
381.109	318.27
381.489	354.65
381.87	344.26
382.25	335.67
382.63	334.31
383.01	350.36
383.39	364.82
383.77	367.31
384.15	354.65
384.53	341.32
384.91	356.01
385.29	335.22
385.67	356.46
386.049	364.14
386.429	359.4
386.809	365.27
387.189	343.8
387.568	346.06
387.948	363.47
388.328	379.96
388.707	365.72
389.087	370.02
389.466	377.02
389.846	362.34
390.225	364.37
390.605	366.18
390.984	365.05
391.363	366.63
391.743	375.22
392.122	379.06
392.501	361.21
392.881	383.58
393.26	382.67
393.639	370.92
394.018	379.28
394.397	384.93
394.776	387.87
395.155	377.93
395.534	389.45
395.913	385.16
396.292	399.4
396.671	407.08
397.05	386.52
397.429	396.91
397.808	407.76
398.186	401.88
398.565	410.47
398.944	420.19
399.323	425.16
399.701	377.7
400.08	407.08
400.458	406.63
400.837	422.45
401.215	410.02
401.594	417.47
401.972	411.37
402.351	408.21
402.729	423.8
403.107	416.8
403.486	438.72
403.864	426.51
404.242	425.61
404.62	433.97
404.999	436.46
405.377	435.55
405.755	432.62
406.133	444.82
406.511	444.59
406.889	458.6
407.267	441.66
407.645	462.45
408.023	445.72
408.401	447.76
408.779	462.22
409.156	438.72
409.534	473.74
409.912	465.38
410.29	474.2
410.667	471.71
411.045	479.85
411.422	474.87
411.8	477.81
412.178	475.33
412.555	510.81
412.933	479.17
413.31	495.66
413.687	497.47
414.065	490.24
414.442	503.57
414.819	527.3
415.197	504.03
415.574	527.75
415.951	530.69
416.328	524.36
416.705	514.42
417.082	513.07
417.46	551.48
417.837	529.79
418.214	531.37
418.591	545.61
418.967	526.62
419.344	541.77
419.721	569.56
420.098	551.48
420.475	548.54
420.852	555.55
421.228	560.3
421.605	561.65
421.982	568.66
422.358	570.92
422.735	560.52
423.111	580.63
423.488	565.04
423.864	605.27
424.241	608.88
424.617	599.17
424.994	602.55
425.37	596.91
425.746	617.7
426.123	608.66
426.499	616.57
426.875	649.79
427.251	627.64
427.627	630.8
428.003	635.77
428.379	645.72
428.756	629.45
429.132	640.29
429.507	671.25
429.883	685.04
430.259	671.03
430.635	664.02
431.011	690.69
431.387	693.85
431.763	690.01
432.138	687.3
432.514	706.51
432.89	701.08
433.265	720.29
433.641	726.85
434.016	737.47
434.392	747.18
434.767	726.85
435.143	765.04
435.518	743.34
435.894	781.08
436.269	774.08
436.644	782.66
437.02	763.23
437.395	778.6
437.77	810.91
438.145	810.68
438.52	809.33
438.895	809.33
439.271	810.01
439.646	826.28
440.021	820.4
440.395	815.88
440.77	821.98
441.145	849.78
441.52	881.64
441.895	867.18
442.27	888.2
442.645	874.64
443.019	887.07
443.394	868.99
443.769	862.89
444.143	906.5
444.518	880.74
444.892	910.57
445.267	913.51
445.641	892.04
446.016	914.86
446.39	904.24
446.764	920.96
447.139	928.87
447.513	933.85
447.887	962.77
448.262	955.09
448.636	952.15
449.01	967.29
449.384	958.93
449.758	970.91
450.132	975.65
450.506	988.31
450.88	1009.32
451.254	987.86
451.628	1009.78
452.002	1019.94
452.376	1017.23
452.75	1024.46
453.123	1056.78
453.497	1052.26
453.871	1080.06
454.244	1061.75
454.618	1073.05
454.992	1107.63
455.365	1122.09
455.739	1120.06
456.112	1134.07
456.486	1148.76
456.859	1167.06
457.232	1194.4
457.606	1193.73
457.979	1175.2
458.352	1204.12
458.725	1234.63
459.099	1248.19
459.472	1279.83
459.845	1273.72
460.218	1283.21
460.591	1279.37
460.964	1308.07
461.337	1323.89
461.71	1315.3
462.083	1364.79
462.456	1387.39
462.829	1386.49
463.201	1397.79
463.574	1421.06
463.947	1426.26
464.32	1454.51
464.692	1477.33
465.065	1513.04
465.438	1521.4
465.81	1555.75
466.183	1551.46
466.555	1596.88
466.928	1631.68
467.3	1601.4
467.672	1645.24
468.045	1705.35
468.417	1731.56
468.789	1711.45
469.161	1759.36
469.534	1770.21
469.906	1778.57
470.278	1838.68
470.65	1871.22
471.022	1896.08
471.394	1931.11
471.766	1991.44
472.138	2002.52
472.51	2039.35
472.882	2065.12
473.253	2126.36
473.625	2173.36
473.997	2209.29
474.369	2256.97
474.74	2292.68
475.112	2324.32
475.484	2388.72
475.855	2450.87
476.227	2473.01
476.598	2575.16
476.97	2604.76
477.341	2644.08
477.713	2704.65
478.084	2771.54
478.455	2898.09
478.827	2900.8
479.198	3026.67
479.569	3047.69
479.94	3189.38
480.311	3226.21
480.682	3352.76
481.053	3465.53
481.424	3482.71
481.795	3556.15
482.166	3690.16
482.537	3735.35
482.908	3846.54
483.279	3957.95
483.65	4082.24
484.021	4162.46
484.391	4270.03
484.762	4369.24
485.133	4432.96
485.503	4521.55
485.874	4668.89
486.244	4773.52
486.615	4841.31
486.985	4996.79
487.356	5123.11
487.726	5278.82
488.097	5438.59
488.467	5459.38
488.837	5640.84
489.207	5793.15
489.578	5946.14
489.948	6025.46
490.318	6105.46
490.688	6211.22
491.058	6376.41
491.428	6510.2
491.798	6651.66
492.168	6834.48
492.538	6901.6
492.908	7097.53
493.278	7230.18
493.648	7274.47
494.017	7464.07
494.387	7498.19
494.757	7703.84
495.126	7812.76
495.496	7965.07
495.866	8012.76
496.235	8183.82
496.605	8311.05
496.974	8350.83
497.344	8565.74
497.713	8627.43
498.082	8736.8
498.452	8793.3
498.821	8958.04
499.19	9101.31
499.559	9154.65
499.928	9229.67
500.298	9367.97
500.667	9547.18
501.036	9482.32
501.405	9658.14
501.774	9754.18
502.143	9831.46
502.512	9884.34
502.88	10014.51
503.249	10110.55
503.618	10169.08
503.987	10271.45
504.356	10344.45
504.724	10386.25
505.093	10514.38
505.462	10588.96
505.83	10619.24
506.199	10760.25
506.567	10873.92
506.936	10903.3
507.304	11004.54
507.672	11080.47
508.041	11239.79
508.409	11227.59
508.777	11312.33
509.145	11421.03
509.514	11440.91
509.882	11502.83
510.25	11560.46
510.618	11583.96
510.986	11742.37
511.354	11738.08
511.722	11835.93
512.09	12003.38
512.458	11965.87
512.826	12024.18
513.193	11993.89
513.561	12109.37
513.929	12199.09
514.297	12318.18
514.664	12337.84
515.032	12398.85
515.4	12498.74
515.767	12522.47
516.135	12507.33
516.502	12458.97
516.869	12655.35
517.237	12673.42
517.604	12652.18
517.972	12731.5
518.339	12872.51
518.706	12798.84
519.073	12894.89
519.44	12934.66
519.808	13025.28
520.175	12969.24
520.542	13079.29
520.909	13162.68
521.276	13140.3
521.643	13199.74
522.009	13323.35
522.376	13297.81
522.743	13383.24
523.11	13542.55
523.477	13508.88
523.843	13619.61
524.21	13599.05
524.577	13669.1
524.943	13712.49
525.31	13738.93
525.676	13848.76
526.043	13878.14
526.409	13867.74
526.776	13916.55
527.142	13992.03
527.508	13937.8
527.874	14050.56
528.241	14098.25
528.607	14041.52
528.973	14093.05
529.339	14064.8
529.705	14185.93
530.071	14262.31
530.437	14203.1
530.803	14285.58
531.169	14368.29
531.535	14273.83
531.901	14230.45
532.267	14319.03
532.632	14240.61
532.998	14346.37
533.364	14308.86
533.73	14323.32
534.095	14341.85
534.461	14350.22
534.826	14396.32
535.192	14426.15
535.557	14449.2
535.923	14334.17
536.288	14383.66
536.653	14375.3
537.019	14287.84
537.384	14252.59
537.749	14382.53
538.114	14293.04
538.479	14298.24
538.845	14244.23
539.21	14234.29
539.575	14245.59
539.94	14174.4
540.305	14243.55
540.67	14264.12
541.034	14177.34
541.399	14167.4
541.764	14142.31
542.129	14186.15
542.494	14155.19
542.858	14182.76
543.223	14138.47
543.587	14129.66
543.952	14079.26
544.316	14044.69
544.681	13982.99
545.045	13989.32
545.41	14004.01
545.774	13925.82
546.138	13956.33
546.503	13950.23
546.867	13938.02
547.231	14008.98
547.595	13939.61
547.959	13942.32
548.324	13901.19
548.688	13818.7
549.052	13809.44
549.416	13835.2
549.779	13785.48
550.143	13753.4
550.507	13783.45
550.871	13747.52
551.235	13718.59
551.599	13789.1
551.962	13668.2
552.326	13686.5
552.689	13775.09
553.053	13590.46
553.417	13647.41
553.78	13770.12
554.143	13590.01
554.507	13623
554.87	13614.42
555.234	13735.32
555.597	13581.2
555.96	13584.36
556.323	13704.58
556.686	13548.2
557.05	13632.04
557.413	13633.85
557.776	13651.7
558.139	13744.58
558.502	13678.82
558.865	13650.57
559.228	13707.97
559.59	13694.19
559.953	13682.44
560.316	13730.12
560.679	13783
561.041	13772.6
561.404	13871.81
561.767	13841.3
562.129	13658.71
562.492	13854.41
562.854	13801.3
563.217	13780.51
563.579	13792.26
563.941	13874.07
564.304	13924.01
564.666	13877.01
565.028	13912.04
565.39	13891.7
565.753	13923.11
566.115	13997.23
566.477	13923.33
566.839	14062.09
567.201	14052.82
567.563	13957.46
567.925	14091.01
568.287	14000.85
568.648	14051.69
569.01	14147.06
569.372	14133.95
569.734	14078.58
570.095	14215.98
570.457	14154.29
570.819	14353.61
571.18	14162.42
571.542	14213.5
571.903	14259.82
572.265	14335.08
572.626	14293.95
572.987	14321.74
573.349	14354.06
573.71	14361.97
574.071	14363.55
574.432	14432.93
574.794	14533.49
575.155	14372.81
575.516	14437.22
575.877	14477.22
576.238	14540.49
576.599	14549.76
576.96	14484
577.32	14478.35
577.681	14400.61
578.042	14584.56
578.403	14431.12
578.763	14503.66
579.124	14542.98
579.485	14564
579.845	14613.94
580.206	14479.48
580.566	14526.03
580.927	14544.11
581.287	14541.85
581.648	14587.27
582.008	14636.08
582.368	14574.16
582.728	14632.02
583.089	14556.54
583.449	14585.92
583.809	14572.36
584.169	14505.24
584.529	14613.26
584.889	14655.74
585.249	14564.67
585.609	14442.42
585.969	14593.6
586.329	14495.97
586.688	14501.17
587.048	14433.83
587.408	14389.54
587.768	14409.42
588.127	14462.98
588.487	14353.83
588.846	14564.22
589.206	14363.32
589.565	14356.32
589.925	14505.01
590.284	14401.06
590.643	14415.75
591.003	14422.53
591.362	14475.86
591.721	14443.77
592.08	14409.2
592.44	14372.14
592.799	14347.73
593.158	14296.21
593.517	14392.25
593.876	14321.52
594.235	14363.77
594.593	14352.93
594.952	14385.7
595.311	14312.48
595.67	14297.79
596.029	14421.4
596.387	14364.68
596.746	14384.34
597.104	14347.73
597.463	14385.7
597.822	14355.64
598.18	14302.53
598.538	14276.32
598.897	14442.64
599.255	14201.29
599.613	14466.82
599.972	14420.95
600.33	14453.04
600.688	14335.98
601.046	14355.64
601.404	14396.09
601.762	14411.23
602.12	14364.9
602.478	14404
602.836	14404.45
603.194	14279.03
603.552	14314.96
603.91	14317.22
604.268	14405.58
604.625	14230.67
604.983	14346.15
605.341	14256.89
605.698	14378.92
606.056	14440.16
606.413	14421.17
606.771	14375.75
607.128	14414.85
607.485	14349.99
607.843	14294.17
608.2	14398.58
608.557	14495.07
608.914	14411.46
609.272	14453.26
609.629	14443.09
609.986	14476.99
610.343	14420.95
610.7	14554.96
611.057	14520.61
611.414	14555.86
611.771	14555.86
612.127	14626.82
612.484	14551.11
612.841	14597.89
613.198	14547.27
613.554	14514.73
613.911	14589.76
614.267	14556.99
614.624	14649.87
614.98	14668.85
615.337	14682.18
615.693	14638.34
616.05	14708.62
616.406	14714.5
616.762	14693.48
617.118	14657.55
617.475	14666.14
617.831	14635.86
618.187	14751.34
618.543	14754.5
618.899	14813.71
619.255	14732.35
619.611	14733.03
619.967	14803.99
620.323	14829.07
620.678	14772.8
621.034	14732.58
621.39	14737.32
621.746	14723.99
622.101	14907.26
622.457	14794.95
622.812	14840.15
623.168	14904.33
623.523	14837.21
623.879	14853.25
624.234	14741.39
624.589	14916.08
624.945	14794.05
625.3	14836.53
625.655	14798.34
626.01	14816.42
626.365	14812.8
626.72	14783.88
627.075	14852.35
627.43	14871.11
627.785	14730.09
628.14	14766.48
628.495	14781.39
628.85	14711.34
629.205	14725.8
629.559	14785.46
629.914	14727.38
630.269	14710.21
630.623	14741.62
630.978	14662.3
631.332	14698.46
631.687	14787.27
632.041	14731.45
632.396	14671.79
632.75	14635.41
633.104	14688.96
633.459	14603.09
633.813	14611.23
634.167	14622.98
634.521	14593.83
634.875	14569.65
635.229	14573.49
635.583	14492.13
635.937	14469.08
636.291	14449.42
636.645	14462.08
636.999	14402.19
637.352	14435.64
637.706	14360.39
638.06	14431.34
638.413	14351.12
638.767	14343.44
639.121	14396.77
639.474	14271.12
639.828	14248.07
640.181	14291.91
640.534	14293.27
640.888	14283.33
641.241	14224.12
641.594	14210.78
641.947	14216.43
642.301	14247.39
642.654	14196.1
643.007	14100.5
643.36	14233.16
643.713	14127.62
644.066	14187.28
644.419	14092.37
644.771	13973.28
645.124	13939.15
645.477	13847.63
645.83	13799.95
646.182	13770.8
646.535	13685.6
646.888	13730.35
647.24	13642.89
647.593	13764.92
647.945	13729.22
648.298	13578.26
648.65	13604.47
649.002	13543.46
649.355	13608.31
649.707	13608.99
650.059	13726.28
650.411	13832.49
650.763	13884.92
651.115	13981.19
651.467	13938.7
651.819	14007.17
652.171	14025.93
652.523	13853.73
652.875	13925.37
653.227	13910.68
653.578	13910.23
653.93	13921.07
654.282	13852.38
654.633	13883.34
654.985	13937.57
655.337	13933.28
655.688	13878.14
656.039	13950.23
656.391	13745.49
656.742	13884.24
657.094	13897.57
657.445	13974.18
657.796	13909.32
658.147	13954.75
658.498	13895.31
658.849	13877.91
659.2	14003.11
659.551	13904.8
659.902	13931.7
660.253	13966.5
660.604	13960.17
660.955	13870.23
661.306	14051.47
661.656	13898.48
662.007	13953.84
662.358	13874.52
662.708	13995.2
663.059	13875.2
663.409	13910.23
663.76	13956.55
664.11	13968.08
664.461	14017.8
664.811	13915.2
665.161	13965.59
665.511	13869.1
665.862	13919.72
666.212	13997.91
666.562	13953.16
666.912	13966.5
667.262	13910.45
667.612	14072.26
667.962	13944.35
668.312	13968.08
668.662	14011.69
669.011	14022.09
669.361	13952.26
669.711	13933.96
670.06	13850.12
670.41	13804.69
670.76	13811.02
671.109	13861.64
671.459	13855.99
671.808	13784.58
672.157	13819.16
672.507	13779.61
672.856	13784.13
673.205	13771.7
673.554	13743.23
673.904	13757.92
674.253	13764.92
674.602	13751.14
674.951	13665.71
675.3	13531.48
675.649	13751.36
675.998	13757.92
676.346	13806.95
676.695	13703.45
677.044	13697.58
677.393	13745.03
677.741	13666.62
678.09	13706.84
678.438	13619.39
678.787	13724.92
679.135	13624.59
679.484	13575.77
679.832	13571.03
680.181	13491.03
680.529	13601.31
680.877	13602.21
681.225	13610.12
681.573	13599.05
681.922	13531.25
682.27	13421.65
682.618	13517.7
682.966	13345.27
683.314	13308.21
683.661	13335.1
684.009	13318.15
684.357	13251.04
684.705	13212.84
685.053	13233.41
685.4	13192.05
685.748	13112.06
686.095	13166.07
686.443	13119.51
686.79	13005.62
687.138	13126.07
687.485	13026.63
687.832	12941.67
688.18	12961.1
688.527	12900.31
688.874	12911.84
689.221	12891.27
689.568	12812.18
689.915	12871.84
690.262	12828.45
690.609	12697.6
690.956	12725.4
691.303	12743.48
691.65	12626.87
691.997	12617.61
692.344	12499.64
692.69	12432.75
693.037	12544.39
693.383	12376.48
693.73	12388.23
694.077	12325.64
694.423	12353.66
694.769	12300.33
695.116	12209.48
695.462	12223.04
695.808	12147.79
696.155	12180.56
696.501	12026.21
696.847	12034.12
697.193	11896.04
697.539	12021.46
697.885	11917.29
698.231	11862.37
698.577	11868.47
698.923	11791.19
699.269	11792.77
699.614	11629.16
699.96	11640
700.306	11642.72
700.651	11614.92
700.997	11540.12
701.342	11522.49
701.688	11548.48
702.033	11447.47
702.379	11504.87
702.724	11395.72
703.069	11372.22
703.415	11299.22
703.76	11277.75
704.105	11263.52
704.45	11301.03
704.795	11152.33
705.14	11141.03
705.485	11169.51
705.83	11081.83
706.175	11049.29
706.52	11044.99
706.865	11026.46
707.209	10939.91
707.554	10931.32
707.899	10953.24
708.243	10859.01
708.588	10805
708.932	10711.44
709.277	10726.81
709.621	10704.66
709.966	10707.37
710.31	10663.53
710.654	10626.25
710.998	10642.29
711.342	10589.86
711.687	10598.68
712.031	10519.36
712.375	10443.2
712.719	10452.47
713.063	10478.23
713.407	10521.16
713.75	10489.53
714.094	10368.17
714.438	10333.37
714.782	10404.56
715.125	10282.75
715.469	10306.48
715.812	10277.1
716.156	10280.94
716.499	10251.34
716.843	10233.94
717.186	10229.65
717.53	10200.72
717.873	10325.01
718.216	10260.61
718.559	10174.51
718.902	10146.03
719.246	10139.71
719.589	10107.16
719.932	10052.25
720.275	10086.15
720.617	10104.9
720.96	10099.71
721.303	10023.1
721.646	9986.26
721.989	10007.05
722.331	10044.34
722.674	9998.24
723.016	9938.35
723.359	9953.95
723.701	9995.53
724.044	9993.27
724.386	9880.95
724.729	9869.66
725.071	9841.41
725.413	9850.67
725.755	9887.28
726.097	9824.23
726.439	9735.65
726.782	9781.07
727.124	9796.21
727.465	9811.8
727.807	9774.74
728.149	9783.56
728.491	9762.31
728.833	9768.42
729.175	9771.58
729.516	9690
729.858	9733.39
730.199	9783.78
730.541	9738.81
730.882	9778.13
731.224	9804.35
731.565	9678.47
731.906	9738.59
732.248	9644.12
732.589	9684.58
732.93	9705.37
733.271	9692.26
733.612	9686.84
733.953	9752.6
734.294	9707.17
734.635	9640.28
734.976	9687.06
735.317	9681.86
735.658	9693.62
735.999	9670.34
736.339	9626.72
736.68	9674.86
737.021	9697.68
737.361	9612.49
737.702	9639.83
738.042	9675.08
738.383	9674.18
738.723	9717.34
739.063	9585.82
739.404	9640.51
739.744	9645.93
740.084	9600.28
740.424	9727.29
740.764	9608.87
741.104	9780.84
741.444	9645.03
741.784	9732.94
742.124	9756.44
742.464	9685.93
742.804	9732.03
743.143	9764.57
743.483	9822.88
743.823	9774.07
744.162	9748.98
744.502	9879.6
744.841	9820.39
745.181	9889.54
745.52	9903.33
745.86	9916.66
746.199	9963.66
746.538	10047.73
746.877	10077.11
747.216	10088.63
747.556	10110.33
747.895	10209.76
748.234	10199.36
748.573	10157.11
748.911	10217.9
749.25	10299.02
749.589	10240.04
749.928	10365.01
750.267	10505.35
750.605	10460.15
750.944	10564.1
751.283	10565
751.621	10700.82
751.96	10699.46
752.298	10879.8
752.636	10976.75
752.975	10983.75
753.313	11065.33
753.651	11130.41
753.989	11221.48
754.327	11266
754.666	11335.38
755.004	11529.27
755.342	11573.57
755.679	11715.26
756.017	11814.46
756.355	11909.15
756.693	11939.66
757.031	12211.29
757.368	12218.07
757.706	12312.98
