Data from hue_180_FLMS001491_00020.txt Node
Date: Tue Feb 07 16:46:38 GMT 2017
User: dcchb
Spectrometer: FLMS00149
Trigger mode: 0
Integration Time (sec): 2.000000E-2
Scans to average: 10
Electric dark correction enabled: true
Nonlinearity correction enabled: false
Boxcar width: 0
XAxis mode: Wavelengths
Number of Pixels in Spectrum: 2048
>>>>>Begin Spectral Data<<<<<
341.393	2.16
341.776	2.16
342.16	2.16
342.543	-50.27
342.927	-48.91
343.31	-66.54
343.693	-66.54
344.077	-70.61
344.46	-52.53
344.843	-43.49
345.226	-59.76
345.61	-35.13
345.993	1.71
346.376	-5.3
346.759	-2.13
347.142	24.08
347.525	45.55
347.908	63.4
348.291	78.77
348.674	81.48
349.057	107.02
349.44	137.3
349.823	147.24
350.206	150.63
350.588	187.69
350.971	218.88
351.354	232.66
351.737	238.99
352.119	233.79
352.502	271.76
352.884	293.45
353.267	290.74
353.65	286.22
354.032	305.88
354.414	296.16
354.797	301.36
355.179	314.24
355.562	312.21
355.944	332.55
356.326	332.32
356.709	358.54
357.091	339.33
357.473	348.82
357.855	340.23
358.238	347.91
358.62	354.69
359.002	344.75
359.384	333.45
359.766	349.72
360.148	319.89
360.53	351.3
360.912	359.21
361.294	325.32
361.676	330.51
362.057	329.16
362.439	339.78
362.821	329.61
363.203	324.41
363.584	322.15
363.966	333
364.348	336.84
364.729	330.51
365.111	308.59
365.493	350.4
365.874	343.39
366.256	328.93
366.637	322.83
367.019	318.31
367.4	329.61
367.781	315.6
368.163	322.83
368.544	333.23
368.925	323.96
369.306	317.86
369.688	317.41
370.069	294.81
370.45	314.02
370.831	320.12
371.212	317.41
371.593	317.63
371.974	332.77
372.355	311.76
372.736	307.69
373.117	318.54
373.498	339.1
373.879	317.41
374.26	311.76
374.641	327.8
375.021	331.87
375.402	328.93
375.783	314.02
376.163	330.06
376.544	340.46
376.925	310.63
377.305	337.52
377.686	332.32
378.066	316.95
378.447	336.16
378.827	325.77
379.208	312.89
379.588	349.5
379.968	344.52
380.349	340.91
380.729	331.19
381.109	330.97
381.489	351.08
381.87	359.21
382.25	353.79
382.63	348.59
383.01	358.99
383.39	349.04
383.77	352.21
384.15	350.17
384.53	360.8
384.91	337.52
385.29	354.69
385.67	336.62
386.049	373.45
386.429	345.43
386.809	367.12
387.189	360.57
387.568	368.03
387.948	370.96
388.328	341.14
388.707	363.51
389.087	380.91
389.466	376.61
389.846	369.61
390.225	360.34
390.605	369.61
390.984	376.84
391.363	372.32
391.743	349.27
392.122	395.14
392.501	375.03
392.881	388.82
393.26	378.65
393.639	372.55
394.018	381.36
394.397	369.16
394.776	391.76
395.155	405.77
395.534	375.94
395.913	391.53
396.292	390.85
396.671	385.65
397.05	393.79
397.429	389.27
397.808	405.77
398.186	401.7
398.565	401.25
398.944	384.98
399.323	411.87
399.701	408.93
400.08	408.25
400.458	405.77
400.837	435.37
401.215	403.96
401.594	422.49
401.972	434.24
402.351	410.74
402.729	413.68
403.107	431.53
403.486	438.08
403.864	417.29
404.242	445.54
404.62	442.6
404.999	460.45
405.377	434.47
405.755	457.74
406.133	452.32
406.511	450.06
406.889	489.38
407.267	469.72
407.645	481.24
408.023	477.85
408.401	473.11
408.779	477.63
409.156	517.4
409.534	502.94
409.912	511.75
410.29	505.65
410.667	505.88
411.045	534.12
411.422	526.21
411.8	545.88
412.178	545.2
412.555	556.5
412.933	558.76
413.31	569.83
413.687	562.15
414.065	566.21
414.442	585.42
414.819	574.35
415.197	601.69
415.574	610.96
415.951	616.16
416.328	611.86
416.705	629.94
417.082	631.97
417.46	630.84
417.837	628.81
418.214	663.84
418.591	645.99
418.967	667.91
419.344	667
419.721	697.28
420.098	684.63
420.475	690.5
420.852	727.34
421.228	714.91
421.605	742.03
421.982	732.99
422.358	758.3
422.735	744.29
423.111	754.91
423.488	783.16
423.864	779.09
424.241	809.37
424.617	815.25
424.994	830.39
425.37	847.56
425.746	849.37
426.123	836.49
426.499	850.5
426.875	859.99
427.251	898.41
427.627	885.08
428.003	917.39
428.379	928.92
428.756	924.85
429.132	915.13
429.507	931.18
429.883	942.93
430.259	980.67
430.635	973.21
431.011	978.63
431.387	982.47
431.763	997.62
432.138	1014.34
432.514	1029.03
432.89	1028.35
433.265	1075.13
433.641	1097.73
434.016	1095.01
434.392	1106.76
434.767	1136.59
435.143	1134.33
435.518	1146.31
435.894	1178.18
436.269	1213.65
436.644	1211.17
437.02	1219.98
437.395	1233.09
437.77	1241.22
438.145	1313.54
438.52	1278.74
438.895	1307.66
439.271	1341.11
439.646	1365.97
440.021	1398.96
440.395	1379.53
440.77	1363.71
441.145	1402.12
441.52	1445.74
441.895	1453.65
442.27	1453.42
442.645	1468.56
443.019	1464.5
443.394	1502.01
443.769	1475.57
444.143	1510.6
444.518	1523.02
444.892	1529.8
445.267	1551.05
445.641	1577.03
446.016	1584.49
446.39	1577.94
446.764	1594.66
447.139	1601.44
447.513	1617.26
447.887	1641.21
448.262	1663.81
448.636	1655.22
449.01	1677.82
449.384	1690.93
449.758	1697.94
450.132	1718.05
450.506	1729.12
450.88	1751.27
451.254	1746.97
451.628	1801.89
452.002	1782.91
452.376	1845.95
452.75	1833.53
453.123	1836.91
453.497	1904.48
453.871	1892.28
454.244	1916.91
454.618	1979.51
454.992	1976.12
455.365	1954.2
455.739	2016.35
456.112	2027.19
456.486	2086.4
456.859	2123.01
457.232	2121.65
457.606	2115.33
457.979	2147.64
458.352	2178.15
458.725	2210.01
459.099	2256.79
459.472	2318.26
459.845	2290.69
460.218	2301.99
460.591	2375.66
460.964	2343.57
461.337	2438.26
461.71	2466.73
462.083	2493.17
462.456	2534.75
462.829	2511.25
463.201	2558.93
463.574	2590.12
463.947	2612.71
464.32	2668.53
464.692	2699.04
465.065	2698.36
465.438	2774.29
465.81	2778.36
466.183	2855.42
466.555	2913.04
466.928	2923.67
467.3	2951.24
467.672	3004.79
468.045	3103.1
468.417	3074.4
468.789	3125.02
469.161	3134.51
469.534	3197.11
469.906	3230.1
470.278	3293.6
470.65	3320.94
471.022	3449.3
471.394	3505.8
471.766	3523.42
472.138	3600.26
472.51	3654.49
472.882	3736.53
473.253	3764.77
473.625	3857.2
473.997	3898.1
474.369	3937.88
474.74	3991.43
475.112	4068.04
475.484	4143.75
475.855	4216.97
476.227	4276.62
476.598	4394.36
476.97	4465.09
477.341	4548.03
477.713	4659.67
478.084	4668.7
478.455	4819.44
478.827	4871.41
479.198	5005.65
479.569	5018.07
479.94	5182.82
480.311	5261.01
480.682	5411.96
481.053	5520.66
481.424	5576.48
481.795	5670.71
482.166	5796.81
482.537	5842.69
482.908	5963.36
483.279	6030.7
483.65	6171.04
484.021	6269.79
484.391	6380.3
484.762	6480.18
485.133	6539.16
485.503	6662.78
485.874	6815.77
486.244	6883.34
486.615	7036.1
486.985	7112.03
487.356	7277
487.726	7350.67
488.097	7498.69
488.467	7599.02
488.837	7702.75
489.207	7754.73
489.578	7979.58
489.948	8013.7
490.318	8130.08
490.688	8249.85
491.058	8376.18
491.428	8487.81
491.798	8548.83
492.168	8760.12
492.538	8723.74
492.908	8775.94
493.278	9024.97
493.648	9009.16
494.017	9121.92
494.387	9230.84
494.757	9250.05
495.126	9403.5
495.496	9376.15
495.866	9515.81
496.235	9563.04
496.605	9684.17
496.974	9665.41
497.344	9791.28
497.713	9808.23
498.082	9910.83
498.452	10018.17
498.821	10060.43
499.19	10132.74
499.559	10209.8
499.928	10276.24
500.298	10284.83
500.667	10365.05
501.036	10293.42
501.405	10472.62
501.774	10481.89
502.143	10651.37
502.512	10584.48
502.88	10634.42
503.249	10672.84
503.618	10782.89
503.987	10810.24
504.356	10796.23
504.724	10846.17
505.093	10930.01
505.462	10842.78
505.83	10987.63
506.199	11043.9
506.567	11099.95
506.936	11132.04
507.304	11172.71
507.672	11221.53
508.041	11264.24
508.409	11325.71
508.777	11368.19
509.145	11448.41
509.514	11326.16
509.882	11444.57
510.25	11481.86
510.618	11513.27
510.986	11496.55
511.354	11554.85
511.722	11666.71
512.09	11764.79
512.458	11639.14
512.826	11734.51
513.193	11760.27
513.561	11798.23
513.929	11874.62
514.297	11939.25
514.664	11889.08
515.032	11895.63
515.4	11933.82
515.767	12018.34
516.135	11984.22
516.502	11874.84
516.869	12108.06
517.237	12022.64
517.604	12005.24
517.972	12058.57
518.339	12092.92
518.706	12047.72
519.073	12129.98
519.44	12056.99
519.808	12202.97
520.175	12208.39
520.542	12269.41
520.909	12313.02
521.276	12258.34
521.643	12286.36
522.009	12302.18
522.376	12329.29
522.743	12318
523.11	12391.44
523.477	12510.53
523.843	12430.08
524.21	12477.54
524.577	12477.31
524.943	12599.34
525.31	12514.15
525.676	12560.93
526.043	12516.63
526.409	12631.43
526.776	12647.93
527.142	12649.74
527.508	12645.9
527.874	12732.22
528.241	12642.73
528.607	12581.94
528.973	12661.72
529.339	12626.46
529.705	12696.97
530.071	12652.45
530.437	12651.55
530.803	12632.11
531.169	12742.16
531.535	12520.93
531.901	12520.93
532.267	12497.65
532.632	12487.26
532.998	12563.64
533.364	12513.7
533.73	12457.65
534.095	12510.98
534.461	12463.75
534.826	12475.05
535.192	12501.27
535.557	12509.18
535.923	12412.23
536.288	12312.35
536.653	12413.59
537.019	12270.09
537.384	12317.54
537.749	12266.7
538.114	12181.28
538.479	12192.12
538.845	12121.16
539.21	11968.4
539.575	12041.39
539.94	12040.94
540.305	12044.56
540.67	11952.58
541.034	11969.3
541.399	11900.15
541.764	11878.91
542.129	11862.64
542.494	11806.6
542.858	11755.98
543.223	11750.1
543.587	11689.09
543.952	11583.1
544.316	11630.56
544.681	11548.52
545.045	11528.19
545.41	11570.67
545.774	11446.61
546.138	11346.95
546.503	11397.57
546.867	11253.62
547.231	11311.02
547.595	11237.57
547.959	11261.98
548.324	11162.55
548.688	11152.15
549.052	11127.29
549.416	11125.48
549.779	10968.43
550.143	11005.04
550.507	10976.11
550.871	10958.94
551.235	10903.34
551.599	10813.85
551.962	10895.89
552.326	10847.53
552.689	10804.81
553.053	10746.29
553.417	10654.54
553.78	10766.62
554.143	10569.34
554.507	10677.36
554.87	10679.62
555.234	10612.05
555.597	10544.48
555.96	10520.75
556.323	10513.07
556.686	10499.74
557.05	10518.72
557.413	10442.34
557.776	10419.06
558.139	10498.61
558.502	10349.01
558.865	10383.13
559.228	10429.23
559.59	10378.61
559.953	10338.16
560.316	10390.14
560.679	10393.98
561.041	10432.4
561.404	10385.84
561.767	10403.24
562.129	10289.8
562.492	10405.96
562.854	10302.91
563.217	10391.04
563.579	10351.95
563.941	10330.48
564.304	10393.53
564.666	10388.1
565.028	10322.79
565.39	10372.06
565.753	10339.97
566.115	10297.03
566.477	10371.15
566.839	10356.69
567.201	10399.18
567.563	10377.93
567.925	10404.15
568.287	10391.04
568.648	10465.84
569.01	10414.54
569.372	10471.49
569.734	10315.56
570.095	10426.75
570.457	10433.98
570.819	10435.11
571.18	10465.39
571.542	10424.03
571.903	10405.28
572.265	10452.51
572.626	10470.36
572.987	10381.78
573.349	10435.33
573.71	10428.1
574.071	10545.39
574.432	10465.84
574.794	10469.46
575.155	10469
575.516	10472.17
575.877	10505.61
576.238	10444.15
576.599	10507.65
576.96	10436.91
577.32	10432.4
577.681	10491.38
578.042	10533.64
578.403	10473.98
578.763	10437.59
579.124	10544.71
579.485	10554.88
579.845	10434.2
580.206	10530.7
580.566	10461.55
580.927	10481.21
581.287	10449.12
581.648	10453.86
582.008	10470.36
582.368	10475.56
582.728	10425.39
583.089	10420.64
583.449	10520.53
583.809	10424.26
584.169	10414.77
584.529	10418.16
584.889	10488.44
585.249	10325.73
585.609	10295
585.969	10407.99
586.329	10382.23
586.688	10313.08
587.048	10346.3
587.408	10365.96
587.768	10331.38
588.127	10258.39
588.487	10265.39
588.846	10345.17
589.206	10292.96
589.565	10268.78
589.925	10322.12
590.284	10269.91
590.643	10260.2
591.003	10240.76
591.362	10256.81
591.721	10255
592.08	10219.52
592.44	10205.73
592.799	10264.26
593.158	10184.72
593.517	10162.35
593.876	10146.3
594.235	10199.18
594.593	10169.35
594.952	10137.49
595.311	10179.75
595.67	10191.72
596.029	10177.71
596.387	10174.55
596.746	10236.92
597.104	10170.93
597.463	10154.66
597.822	10196.47
598.18	10135
598.538	10094.32
598.897	10148.56
599.255	10057.72
599.613	10182.68
599.972	10139.97
600.33	10106.53
600.688	10019.98
601.046	10176.58
601.404	10140.43
601.762	10174.32
602.12	10115.57
602.478	10132.06
602.836	10158.73
603.194	10067.21
603.552	10115.34
603.91	10074.44
604.268	10127.09
604.625	10050.03
604.983	10124.15
605.341	9997.15
605.698	10121.67
606.056	10037.6
606.413	10052.52
606.771	10134.1
607.128	10102.46
607.485	10028.56
607.843	10106.53
608.2	10135.45
608.557	10236.24
608.914	10126.87
609.272	10175.68
609.629	10160.99
609.986	10165.28
610.343	10097.71
610.7	10222.01
611.057	10189.24
611.414	10161.67
611.771	10148.33
612.127	10232.4
612.484	10194.89
612.841	10247.99
613.198	10230.59
613.554	10180.42
613.911	10246.41
614.267	10230.14
614.624	10219.29
614.98	10252.29
615.337	10360.53
615.693	10270.59
616.05	10219.52
616.406	10275.34
616.762	10282.34
617.118	10238.95
617.475	10256.81
617.831	10270.59
618.187	10320.99
618.543	10309.01
618.899	10405.73
619.255	10395.11
619.611	10384.94
619.967	10374.77
620.323	10293.42
620.678	10353.98
621.034	10324.38
621.39	10322.57
621.746	10278.05
622.101	10460.42
622.457	10320.76
622.812	10303.59
623.168	10442.56
623.523	10276.24
623.879	10398.27
624.234	10306.07
624.589	10352.85
624.945	10401.66
625.3	10324.83
625.655	10318.95
626.01	10369.35
626.365	10360.31
626.72	10339.29
627.075	10313.08
627.43	10358.27
627.785	10322.34
628.14	10262.46
628.495	10354.88
628.85	10282.12
629.205	10266.3
629.559	10280.08
629.914	10220.88
630.269	10252.06
630.623	10221.55
630.978	10199.41
631.332	10292.96
631.687	10298.39
632.041	10235.79
632.396	10268.56
632.75	10077.83
633.104	10146.98
633.459	10151.27
633.813	10115.79
634.167	10134.78
634.521	10133.65
634.875	10105.4
635.229	10082.8
635.583	10062.01
635.937	10024.72
636.291	10036.25
636.645	10097.04
636.999	10019.98
637.352	10004.16
637.706	9989.24
638.06	10008.68
638.413	10043.03
638.767	9949.92
639.121	9923.71
639.474	9920.32
639.828	9949.02
640.181	9927.1
640.534	9944.27
640.888	9935.46
641.241	9863.14
641.594	9968.68
641.947	9934.78
642.301	9849.36
642.654	9915.35
643.007	9851.62
643.36	9865.86
643.713	9847.78
644.066	9895.01
644.419	9809.36
644.771	9798.97
645.124	9669.03
645.477	9641.23
645.83	9645.52
646.182	9575.47
646.535	9467.45
646.888	9545.64
647.24	9420.22
647.593	9560.55
647.945	9533.21
648.298	9469.26
648.65	9532.08
649.002	9449.14
649.355	9537.5
649.707	9493.44
650.059	9500.67
650.411	9563.72
650.763	9675.35
651.115	9760.1
651.467	9776.82
651.819	9680.78
652.171	9719.65
652.523	9636.48
652.875	9663.6
653.227	9631.96
653.578	9735.69
653.93	9669.48
654.282	9651.17
654.633	9601.23
654.985	9661.12
655.337	9795.12
655.688	9685.07
656.039	9746.54
656.391	9643.26
656.742	9655.92
657.094	9752.19
657.445	9722.13
657.796	9812.75
658.147	9630.16
658.498	9724.84
658.849	9707.89
659.2	9685.52
659.551	9697.5
659.902	9746.54
660.253	9681
660.604	9784.28
660.955	9677.61
661.306	9674.67
661.656	9716.93
662.007	9749.25
662.358	9763.71
662.708	9656.14
663.059	9753.32
663.409	9678.74
663.76	9743.6
664.11	9786.54
664.461	9728.91
664.811	9759.19
665.161	9722.58
665.511	9672.64
665.862	9819.98
666.212	9738.63
666.562	9812.3
666.912	9710.38
667.262	9709.93
667.612	9778.63
667.962	9813.2
668.312	9711.51
668.662	9763.26
669.011	9752.19
669.361	9784.28
669.711	9765.07
670.06	9777.05
670.41	9753.77
670.76	9698.4
671.109	9779.76
671.459	9708.57
671.808	9691.4
672.157	9689.82
672.507	9640.78
672.856	9663.83
673.205	9689.14
673.554	9709.48
673.904	9651.17
674.253	9652.75
674.602	9704.96
674.951	9556.71
675.3	9546.77
675.649	9664.28
675.998	9580.21
676.346	9574.11
676.695	9631.51
677.044	9531.63
677.393	9633.77
677.741	9596.26
678.09	9572.08
678.438	9516.94
678.787	9530.72
679.135	9564.17
679.484	9459.09
679.832	9514.91
680.181	9390.61
680.529	9485.08
680.877	9428.35
681.225	9415.47
681.573	9394.23
681.922	9347
682.27	9397.85
682.618	9349.49
682.966	9367.34
683.314	9350.84
683.661	9299.32
684.009	9226.78
684.357	9299.54
684.705	9254.8
685.053	9228.36
685.4	9253.67
685.748	9179.32
686.095	9168.02
686.443	9179.09
686.79	9116.95
687.138	9092.77
687.485	9147.91
687.832	9042.15
688.18	9083.5
688.527	8980.91
688.874	9005.99
689.221	8969.38
689.568	8948.14
689.915	8943.17
690.262	8933.23
690.609	8921.47
690.956	8865.88
691.303	8824.75
691.65	8813
691.997	8780.24
692.344	8759.44
692.69	8703.4
693.037	8708.82
693.383	8591.99
693.73	8613.01
694.077	8580.24
694.423	8553.12
694.769	8603.06
695.116	8503.41
695.462	8471.99
695.808	8461.6
696.155	8453.92
696.501	8371.43
696.847	8415.05
697.193	8312.45
697.539	8342.51
697.885	8287.37
698.231	8237.65
698.577	8295.05
698.923	8190.19
699.269	8214.15
699.614	8147.03
699.96	8081.95
700.306	8060.25
700.651	8040.14
700.997	8057.54
701.342	7997.2
701.688	7960.37
702.033	7966.92
702.379	7923.08
702.724	7905.91
703.069	7897.55
703.415	7811
703.76	7900.26
704.105	7764.67
704.45	7795.18
704.795	7739.13
705.14	7683.09
705.485	7679.25
705.83	7542.75
706.175	7629.76
706.52	7628.4
706.865	7587.27
707.209	7578.46
707.554	7494.39
707.899	7525.58
708.243	7455.07
708.588	7443.55
708.932	7419.37
709.277	7377.33
709.621	7380.95
709.966	7385.7
710.31	7383.21
710.654	7304.12
710.998	7310.22
711.342	7328.97
711.687	7277.22
712.031	7272.7
712.375	7248.52
712.719	7249.43
713.063	7203.78
713.407	7223.21
713.75	7184.57
714.094	7191.12
714.438	7135.08
714.782	7101.18
715.125	7098.02
715.469	7156.32
715.812	7077
716.156	7042.88
716.499	7040.85
716.843	7081.97
717.186	7051.92
717.53	7013.95
717.873	7006.5
718.216	7013.73
718.559	6992.94
718.902	6953.62
719.246	6968.76
719.589	6932.37
719.932	7009.21
720.275	6960.17
720.617	6960.17
720.96	6910.68
721.303	6919.04
721.646	6964.92
721.989	6898.48
722.331	6951.13
722.674	6917.91
723.016	6929.21
723.359	6919.95
723.701	6867.29
724.044	6865.71
724.386	6808.08
724.729	6860.06
725.071	6885.14
725.413	6886.73
725.755	6838.59
726.097	6827.29
726.439	6780.97
726.782	6792.49
727.124	6801.3
727.465	6803.56
727.807	6757.46
728.149	6797.46
728.491	6766.05
728.833	6798.14
729.175	6789.78
729.516	6773.73
729.858	6826.61
730.199	6775.99
730.541	6754.3
730.882	6748.88
731.224	6743
731.565	6740.51
731.906	6745.03
732.248	6723.11
732.589	6728.99
732.93	6681.08
733.271	6737.8
733.612	6746.16
733.953	6786.39
734.294	6704.58
734.635	6680.4
734.976	6778.25
735.317	6717.46
735.658	6696.22
735.999	6726.73
736.339	6679.73
736.68	6803.11
737.021	6775.99
737.361	6754.75
737.702	6745.03
738.042	6789.1
738.383	6734.41
738.723	6820.29
739.063	6818.25
739.404	6768.08
739.744	6816.22
740.084	6806.5
740.424	6837.24
740.764	6863.45
741.104	6870
741.444	6848.31
741.784	6881.08
742.124	6914.52
742.464	6914.75
742.804	6920.4
743.143	6884.01
743.483	6981.64
743.823	6921.75
744.162	6999.49
744.502	7015.99
744.841	7068.87
745.181	7121.97
745.52	7085.14
745.86	7172.82
746.199	7170.33
746.538	7221.86
746.877	7258.02
747.216	7238.35
747.556	7335.53
747.895	7356.32
748.234	7449.65
748.573	7416.66
748.911	7538.69
749.25	7567.39
749.589	7601.51
749.928	7674.05
750.267	7750.88
750.605	7825.23
750.944	7904.55
751.283	7951.1
751.621	8000.59
751.96	8095.28
752.298	8182.28
752.636	8284.2
752.975	8376.4
753.313	8432.9
753.651	8544.99
753.989	8635.15
754.327	8750.41
754.666	8836.73
755.004	8905.88
755.342	9140.45
755.679	9202.82
756.017	9267.91
756.355	9393.1
756.693	9586.09
757.031	9729.59
757.368	9779.98
757.706	9943.37
758.044	9965.51
758.381	10274.21
758.719	10341.55
759.056	10618.6
759.394	10741.99
759.731	10756.68
760.068	10927.07
760.405	11023.11
760.743	11281.86
761.08	11485.93
761.417	11577
761.754	11705.81
762.091	11831.91
