Data from hue_100_FLMS001491_00064.txt Node
Date: Tue Feb 07 17:03:30 GMT 2017
User: dcchb
Spectrometer: FLMS00149
Trigger mode: 0
Integration Time (sec): 2.000000E-2
Scans to average: 10
Electric dark correction enabled: true
Nonlinearity correction enabled: false
Boxcar width: 0
XAxis mode: Wavelengths
Number of Pixels in Spectrum: 2048
>>>>>Begin Spectral Data<<<<<
341.393	-13.76
341.776	-13.76
342.16	-13.76
342.543	-67.09
342.927	-46.52
343.31	-78.39
343.693	-51.95
344.077	-75
344.46	-56.92
344.843	-47.65
345.226	-42
345.61	-20.76
345.993	-24.6
346.376	-6.98
346.759	9.07
347.142	21.27
347.525	42.06
347.908	47.94
348.291	87.03
348.674	88.39
349.057	108.5
349.44	128.84
349.823	131.1
350.206	167.71
350.588	217.88
350.971	199.35
351.354	220.59
351.737	255.61
352.119	251.1
352.502	273.02
352.884	286.8
353.267	291.77
353.65	314.14
354.032	287.93
354.414	294.71
354.797	304.43
355.179	299.23
355.562	322.96
355.944	321.15
356.326	334.03
356.709	327.48
357.091	335.16
357.473	347.14
357.855	335.61
358.238	356.4
358.62	343.97
359.002	333.13
359.384	354.82
359.766	338.55
360.148	338.32
360.53	350.53
360.912	326.8
361.294	338.55
361.676	341.71
362.057	357.98
362.439	328.83
362.821	327.48
363.203	341.94
363.584	317.31
363.966	319.79
364.348	331.32
364.729	336.74
365.111	334.03
365.493	340.81
365.874	327.25
366.256	320.02
366.637	310.53
367.019	315.05
367.4	318.44
367.781	315.27
368.163	314.14
368.544	302.62
368.925	339.68
369.306	349.85
369.688	323.41
370.069	316.63
370.45	302.39
370.831	322.51
371.212	303.98
371.593	321.6
371.974	317.53
372.355	324.54
372.736	326.12
373.117	318.21
373.498	306.23
373.879	345.33
374.26	305.1
374.641	303.3
375.021	302.39
375.402	323.64
375.783	321.15
376.163	347.82
376.544	324.54
376.925	339
377.305	310.98
377.686	318.66
378.066	322.28
378.447	332.67
378.827	335.84
379.208	328.16
379.588	357.08
379.968	331.09
380.349	339.91
380.729	350.53
381.109	335.84
381.489	343.3
381.87	345.1
382.25	346.91
382.63	350.75
383.01	352.34
383.39	339.45
383.77	361.6
384.15	341.94
384.53	360.47
384.91	361.15
385.29	366.35
385.67	358.66
386.049	364.76
386.429	376.52
386.809	369.28
387.189	348.95
387.568	376.97
387.948	358.89
388.328	360.02
388.707	359.34
389.087	370.87
389.466	368.61
389.846	379.45
390.225	386.91
390.605	372.22
390.984	367.25
391.363	385.55
391.743	379.45
392.122	373.8
392.501	388.27
392.881	397.53
393.26	397.76
393.639	404.09
394.018	382.84
394.397	401.37
394.776	405.67
395.155	396.63
395.534	387.81
395.913	395.5
396.292	418.55
396.671	416.51
397.05	413.58
397.429	413.8
397.808	390.53
398.186	394.82
398.565	404.76
398.944	425.78
399.323	427.59
399.701	448.83
400.08	419.9
400.458	418.77
400.837	409.06
401.215	443.86
401.594	415.84
401.972	432.56
402.351	445.44
402.729	422.16
403.107	414.71
403.486	441.37
403.864	421.26
404.242	460.81
404.62	438.21
404.999	442.73
405.377	452.45
405.755	435.95
406.133	439.11
406.511	439.11
406.889	437.98
407.267	475.5
407.645	448.15
408.023	484.31
408.401	465.1
408.779	477.53
409.156	477.76
409.534	479.11
409.912	482.5
410.29	488.15
410.667	487.93
411.045	493.12
411.422	490.18
411.8	498.55
412.178	504.87
412.555	525.66
412.933	505.33
413.31	486.12
413.687	495.61
414.065	521.14
414.442	506.68
414.819	517.75
415.197	530.86
415.574	535.38
415.951	534.7
416.328	530.41
416.705	531.09
417.082	534.25
417.46	515.49
417.837	539.68
418.214	539.22
418.591	549.62
418.967	529.96
419.344	562.5
419.721	572.89
420.098	557.08
420.475	546.45
420.852	572.89
421.228	588.49
421.605	568.37
421.982	583.29
422.358	595.27
422.735	593.23
423.111	601.14
423.488	618.54
423.864	605.89
424.241	616.74
424.617	615.15
424.994	596.4
425.37	646.34
425.746	626
426.123	618.32
426.499	642.72
426.875	637.07
427.251	629.39
427.627	644.76
428.003	651.99
428.379	664.87
428.756	672.33
429.132	680.69
429.507	650.63
429.883	685.43
430.259	697.86
430.635	713.68
431.011	697.41
431.387	703.96
431.763	709.39
432.138	729.05
432.514	734.7
432.89	728.82
433.265	740.8
433.641	733.79
434.016	737.18
434.392	783.51
434.767	781.02
435.143	776.73
435.518	766.34
435.894	810.18
436.269	776.51
436.644	823.74
437.02	806.79
437.395	816.5
437.77	815.15
438.145	839.78
438.52	829.38
438.895	832.77
439.271	864.41
439.646	862.15
440.021	881.59
440.395	864.19
440.77	865.54
441.145	849.27
441.52	870.51
441.895	877.75
442.27	887.46
442.645	915.94
443.019	912.32
443.394	910.96
443.769	916.16
444.143	928.14
444.518	949.83
444.892	942.38
445.267	942.15
445.641	952.55
446.016	968.59
446.39	959.55
446.764	982.83
447.139	967.69
447.513	961.58
447.887	981.47
448.262	984.86
448.636	1001.36
449.01	1000.91
449.384	1011.3
449.758	1008.36
450.132	1031.41
450.506	1023.96
450.88	1023.5
451.254	1042.49
451.628	1044.07
452.002	1080
452.376	1066.21
452.75	1115.03
453.123	1067.57
453.497	1104.63
453.871	1094.24
454.244	1149.83
454.618	1140.56
454.992	1138.08
455.365	1142.15
455.739	1187.57
456.112	1184.18
456.486	1202.26
456.859	1211.75
457.232	1247
457.606	1224.18
457.979	1268.02
458.352	1273.89
458.725	1282.71
459.099	1311.86
459.472	1353.89
459.845	1352.08
460.218	1329.71
460.591	1362.48
460.964	1378.07
461.337	1442.02
461.71	1423.27
462.083	1461.68
462.456	1461.23
462.829	1447.45
463.201	1489.71
463.574	1469.82
463.947	1498.29
464.32	1548.91
464.692	1549.82
465.065	1590.27
465.438	1585.98
465.81	1625.07
466.183	1639.08
466.555	1686.54
466.928	1714.11
467.3	1760.43
467.672	1729.25
468.045	1805.4
468.417	1806.31
468.789	1792.52
469.161	1857.38
469.534	1900.77
469.906	1948.23
470.278	1938.51
470.65	1976.25
471.022	2062.57
471.394	2056.02
471.766	2104.83
472.138	2114.1
472.51	2213.76
472.882	2253.98
473.253	2263.7
473.625	2364.71
473.997	2358.16
474.369	2411.72
474.74	2448.1
475.112	2548.66
475.484	2596.34
475.855	2648.77
476.227	2730.35
476.598	2800.63
476.97	2824.81
477.341	2919.73
477.713	2983
478.084	3067.74
478.455	3137.8
478.827	3236.55
479.198	3357.68
479.569	3350.9
479.94	3512.48
480.311	3595.87
480.682	3718.35
481.053	3845.35
481.424	3974.16
481.795	3973.71
482.166	4080.6
482.537	4213.48
482.908	4388.39
483.279	4438.56
483.65	4586.35
484.021	4713.12
484.391	4830.18
484.762	4975.26
485.133	5041.93
485.503	5154.69
485.874	5383.16
486.244	5507.91
486.615	5659.31
486.985	5755.81
487.356	5930.95
487.726	6096.82
488.097	6257.26
488.467	6344.72
488.837	6558.05
489.207	6690.7
489.578	6886.63
489.948	7065.61
490.318	7215.88
490.688	7335.2
491.058	7462.2
491.428	7647.74
491.798	7873.27
492.168	8099.02
492.538	8131.11
492.908	8242.3
493.278	8525.23
493.648	8622.17
494.017	8782.4
494.387	8986.01
494.757	9181.03
495.126	9323.4
495.496	9420.8
495.866	9536.5
496.235	9709.83
496.605	9972.42
496.974	10027.11
497.344	10165.18
497.713	10320.21
498.082	10419.64
498.452	10603.14
498.821	10833.87
499.19	10865.96
499.559	10996.12
499.928	11159.28
500.298	11255.33
500.667	11515.43
501.036	11472.49
501.405	11658.93
501.774	11733.73
502.143	11845.59
502.512	11914.97
502.88	12108.86
503.249	12230.67
503.618	12255.53
503.987	12422.98
504.356	12486.48
504.724	12610.09
505.093	12661.62
505.462	12755.17
505.83	12885.34
506.199	12998.78
506.567	13189.29
506.936	13153.81
507.304	13402.39
507.672	13496.4
508.041	13546.34
508.409	13642.83
508.777	13766.45
509.145	13782.72
509.514	13825.2
509.882	13883.51
510.25	14036.04
510.618	14111.52
510.986	14095.02
511.354	14325.53
511.722	14392.64
512.09	14473.32
512.458	14423.6
512.826	14568.91
513.193	14672.18
513.561	14694.56
513.929	14753.99
514.297	14907.66
514.664	14912.86
515.032	14937.94
515.4	15023.81
515.767	15031.27
516.135	15189.91
516.502	15106.52
516.869	15370.25
517.237	15342.9
517.604	15300.19
517.972	15487.53
518.339	15478.27
518.706	15461.54
519.073	15569.34
519.44	15607.08
519.808	15658.37
520.175	15650.24
520.542	15804.81
520.909	15771.36
521.276	15872.61
521.643	16011.13
522.009	16056.33
522.376	15998.7
522.743	15982.43
523.11	16133.84
523.477	16250
523.843	16259.04
524.21	16375.87
524.577	16526.15
524.943	16475.53
525.31	16490.67
525.676	16605.02
526.043	16643.88
526.409	16585.58
526.776	16745.8
527.142	16823.09
527.508	16767.05
527.874	16833.71
528.241	16832.58
528.607	16821.05
528.973	16961.84
529.339	16954.61
529.705	16910.09
530.071	17004.1
530.437	16978.56
530.803	16994.16
531.169	17104.44
531.535	16972.69
531.901	16975.85
532.267	17063.31
532.632	16959.58
532.998	17035.06
533.364	17064.44
533.73	16995.97
534.095	17100.37
534.461	16981.73
534.826	17030.77
535.192	17056.08
535.557	17069.64
535.923	17032.57
536.288	16993.48
536.653	17070.54
537.019	16973.82
537.384	16943.31
537.749	16889.98
538.114	16931.79
538.479	16835.74
538.845	16878.23
539.21	16704.67
539.575	16692.92
539.94	16765.92
540.305	16767.05
540.67	16758.46
541.034	16678.46
541.399	16630.78
541.764	16648.86
542.129	16664.67
542.494	16508.07
542.858	16590.33
543.223	16602.53
543.587	16543.55
543.952	16524.34
544.316	16430.1
544.681	16364.8
545.045	16409.99
545.41	16403.21
545.774	16299.49
546.138	16310.56
546.503	16191.69
546.867	16155.08
547.231	16284.57
547.595	16117.57
547.959	16220.84
548.324	16061.53
548.688	16079.15
549.052	15988.53
549.416	15998.48
549.779	16010.23
550.143	15907.63
550.507	15961.87
550.871	15955.09
551.235	15785.6
551.599	15865.6
551.962	15825.15
552.326	15834.87
552.689	15823.57
553.053	15675.1
553.417	15688.88
553.78	15837.13
554.143	15709.45
554.507	15647.98
554.87	15678.94
555.234	15843.91
555.597	15641.2
555.96	15561.88
556.323	15659.5
556.686	15561.2
557.05	15563.01
557.413	15563.23
557.776	15481.43
558.139	15605.04
558.502	15535.44
558.865	15579.73
559.228	15554.87
559.59	15580.18
559.953	15501.77
560.316	15643.91
560.679	15607.3
561.041	15710.8
561.404	15631.26
561.767	15758.71
562.129	15588.77
562.492	15693.85
562.854	15616.79
563.217	15408.66
563.579	15616.79
563.941	15579.73
564.304	15666.51
564.666	15699.95
565.028	15678.03
565.39	15695.43
565.753	15830.35
566.115	15797.13
566.477	15734.08
566.839	15799.61
567.201	15891.14
567.563	15800.29
567.925	15812.72
568.287	15822.89
568.648	15839.61
569.01	15951.93
569.372	15988.31
569.734	15892.94
570.095	15986.5
570.457	15988.99
570.819	15983.34
571.18	15945.15
571.542	16006.61
571.903	16102.66
572.265	16003
572.626	16001.42
572.987	16008.42
573.349	16095.42
573.71	16178.81
574.071	16102.43
574.432	16153.5
574.794	16237.34
575.155	16146.04
575.516	16173.39
575.877	16127.97
576.238	16164.57
576.599	16180.85
576.96	16172.71
577.32	16094.07
577.681	16302.42
578.042	16177.91
578.403	16163.9
578.763	16122.09
579.124	16149.89
579.485	16192.14
579.845	16184.46
580.206	16108.98
580.566	16196.44
580.927	16237.57
581.287	16308.53
581.648	16204.57
582.008	16181.75
582.368	16120.51
582.728	16180.62
583.089	16181.98
583.449	16193.95
583.809	16225.59
584.169	16207.51
584.529	16172.03
584.889	16280.28
585.249	16057.01
585.609	16102.2
585.969	16115.54
586.329	16082.54
586.688	16088.64
587.048	16122.09
587.408	15964.58
587.768	16053.84
588.127	16003.9
588.487	15927.52
588.846	16061.3
589.206	15975.43
589.565	15982.88
589.925	16076.22
590.284	15986.05
590.643	16065.14
591.003	16041.41
591.362	16093.39
591.721	16026.05
592.08	16017.01
592.44	15953.28
592.799	15989.21
593.158	15977.46
593.517	15935.2
593.876	15953.28
594.235	15890.91
594.593	15870.8
594.952	15925.26
595.311	15912.38
595.67	15879.38
596.029	15934.75
596.387	15945.37
596.746	15967.74
597.104	15886.16
597.463	15844.36
597.822	15924.13
598.18	15831.7
598.538	15837.35
598.897	15917.35
599.255	15739.95
599.613	16016.56
599.972	15876.22
600.33	15907.41
600.688	15829.44
601.046	15873.28
601.404	15837.8
601.762	15923
602.12	15907.18
602.478	15958.25
602.836	15848.65
603.194	15862.44
603.552	15864.47
603.91	15820.63
604.268	15930.46
604.625	15765.72
604.983	15960.96
605.341	15838.03
605.698	15889.1
606.056	15885.49
606.413	15942.43
606.771	15850.91
607.128	15916.45
607.485	15930.23
607.843	15899.72
608.2	15936.11
608.557	15964.81
608.914	15928.42
609.272	15981.98
609.629	16029.89
609.986	16082.32
610.343	16029.21
610.7	16158.02
611.057	16077.8
611.414	16078.48
611.771	16041.19
612.127	16125.03
612.484	16098.81
612.841	16168.87
613.198	16086.61
613.554	16155.54
613.911	16148.76
614.267	16155.08
614.624	16071.24
614.98	16179.26
615.337	16199.83
615.693	16098.59
616.05	16238.02
616.406	16402.08
616.762	16257
617.118	16197.34
617.475	16136.55
617.831	16254.29
618.187	16357.79
618.543	16238.47
618.899	16279.37
619.255	16350.78
619.611	16291.35
619.967	16355.08
620.323	16385.13
620.678	16297.23
621.034	16331.8
621.39	16357.34
621.746	16318.92
622.101	16494.74
622.457	16356.89
622.812	16328.86
623.168	16343.1
623.523	16411.57
623.879	16503.55
624.234	16317.11
624.589	16383.55
624.945	16348.52
625.3	16388.07
625.655	16405.47
626.01	16431.23
626.365	16366.38
626.72	16372.25
627.075	16354.17
627.43	16351.69
627.785	16334.29
628.14	16358.02
628.495	16266.72
628.85	16346.49
629.205	16293.16
629.559	16305.14
629.914	16257.91
630.269	16188.53
630.623	16256.32
630.978	16124.58
631.332	16245.48
631.687	16234.86
632.041	16238.02
632.396	16226.04
632.75	16170.45
633.104	16113.95
633.459	16178.81
633.813	16132.94
634.167	16155.08
634.521	16098.81
634.875	16106.5
635.229	16149.43
635.583	16038.02
635.937	16031.92
636.291	15997.8
636.645	16020.85
636.999	15897.69
637.352	15990.12
637.706	15829.67
638.06	15852.49
638.413	15946.28
638.767	15855.88
639.121	15927.75
639.474	15800.06
639.828	15785.38
640.181	15747.86
640.534	15842.1
640.888	15681.65
641.241	15616.57
641.594	15750.57
641.947	15799.84
642.301	15760.97
642.654	15657.7
643.007	15769.33
643.36	15708.32
643.713	15688.66
644.066	15737.24
644.419	15616.79
644.771	15513.29
645.124	15480.75
645.477	15415.22
645.83	15351.49
646.182	15257.93
646.535	15293.19
646.888	15194.88
647.24	15071.04
647.593	15247.54
647.945	15133.64
648.298	15088.9
648.65	15166.41
649.002	15045.73
649.355	15158.73
649.707	15177.71
650.059	15157.37
650.411	15356.23
650.763	15279.4
651.115	15532.05
651.467	15427.65
651.819	15464.03
652.171	15443.01
652.523	15424.71
652.875	15409.57
653.227	15403.01
653.578	15500.19
653.93	15469
654.282	15394.43
654.633	15397.82
654.985	15479.62
655.337	15457.7
655.688	15526.63
656.039	15554.2
656.391	15430.81
656.742	15472.39
657.094	15542.9
657.445	15536.79
657.796	15479.85
658.147	15423.35
658.498	15420.19
658.849	15412.05
659.2	15458.15
659.551	15456.57
659.902	15394.88
660.253	15476.01
660.604	15525.72
660.955	15395.56
661.306	15542.67
661.656	15508.1
662.007	15489.79
662.358	15507.19
662.708	15570.92
663.059	15530.02
663.409	15499.73
663.76	15567.53
664.11	15478.27
664.461	15473.97
664.811	15450.47
665.161	15484.59
665.511	15456.12
665.862	15495.44
666.212	15633.52
666.562	15525.95
666.912	15585.16
667.262	15456.57
667.612	15445.95
667.962	15637.81
668.312	15563.46
668.662	15637.36
669.011	15524.37
669.361	15534.99
669.711	15505.84
670.06	15530.69
670.41	15419.74
670.76	15433.29
671.109	15479.17
671.459	15524.82
671.808	15485.04
672.157	15481.2
672.507	15343.81
672.856	15395.78
673.205	15479.62
673.554	15429.45
673.904	15342.22
674.253	15359.4
674.602	15353.52
674.951	15133.87
675.3	15040.08
675.649	15341.32
675.998	15273.98
676.346	15284.82
676.695	15331.6
677.044	15178.84
677.393	15165.73
677.741	15294.99
678.09	15224.49
678.438	15143.36
678.787	15178.39
679.135	15291.6
679.484	14991.95
679.832	15156.92
680.181	15038.05
680.529	15159.18
680.877	14963.48
681.225	14977.94
681.573	15071.5
681.922	14967.77
682.27	14955.12
682.618	14932.97
682.966	14922.8
683.314	14929.81
683.661	14895.46
684.009	14683.26
684.357	14687.33
684.705	14748.79
685.053	14615.92
685.4	14730.94
685.748	14588.57
686.095	14624.5
686.443	14506.31
686.79	14473.55
687.138	14540.21
687.485	14488.46
687.832	14504.96
688.18	14484.17
688.527	14344.06
688.874	14358.52
689.221	14293.44
689.568	14289.14
689.915	14270.61
690.262	14184.74
690.609	14180.22
690.956	14098.19
691.303	14148.81
691.65	13984.75
691.997	14046.44
692.344	13964.18
692.69	13902.49
693.037	13902.71
693.383	13892.77
693.73	13816.61
694.077	13730.74
694.423	13656.39
694.769	13689.39
695.116	13640.57
695.462	13535.72
695.808	13487.13
696.155	13560.58
696.501	13410.3
696.847	13435.61
697.193	13292.11
697.539	13373.01
697.885	13258.21
698.231	13183.41
698.577	13217.53
698.923	13167.82
699.269	13070.65
699.614	13073.81
699.96	13036.75
700.306	12971.44
700.651	12871.55
700.997	12840.37
701.342	12833.14
701.688	12711.78
702.033	12731.44
702.379	12700.03
702.724	12615.52
703.069	12623.43
703.415	12570.32
703.76	12492.36
704.105	12451.9
704.45	12482.86
704.795	12366.71
705.14	12333.94
705.485	12341.62
705.83	12214.62
706.175	12294.85
706.52	12222.53
706.865	12131.01
707.209	12138.01
707.554	12020.5
707.899	12098.47
708.243	11988.19
708.588	11906.83
708.932	11893.05
709.277	11863.45
709.621	11853.73
709.966	11794.75
710.31	11775.54
710.654	11740.28
710.998	11733.51
711.342	11772.15
711.687	11757.23
712.031	11659.16
712.375	11552.27
712.719	11583.45
713.063	11583.68
713.407	11604.47
713.75	11528.54
714.094	11549.33
714.438	11426.62
714.782	11474.08
715.125	11470.46
715.469	11465.94
715.812	11354.98
716.156	11330.13
716.499	11300.3
716.843	11314.08
717.186	11282.67
717.53	11301.65
717.873	11280.86
718.216	11299.62
718.559	11240.18
718.902	11162.45
719.246	11147.53
719.589	11080.19
719.932	11133.52
720.275	11034.54
720.617	11098.04
720.96	11119.06
721.303	11126.74
721.646	11035.22
721.989	11058.49
722.331	11091.04
722.674	11026.86
723.016	11074.09
723.359	10973.98
723.701	11063.01
724.044	10941.44
724.386	10929.23
724.729	10959.74
725.071	10982.79
725.413	10981.21
725.755	10956.8
726.097	10913.64
726.439	10830.93
726.782	10855.11
727.124	10963.36
727.465	10787.09
727.807	10891.95
728.149	10884.04
728.491	10822.34
728.833	10838.16
729.175	10912.74
729.516	10809.24
729.858	10846.75
730.199	10858.73
730.541	10793.64
730.882	10859.86
731.224	10833.64
731.565	10815.79
731.906	10807.88
732.248	10749.35
732.589	10764.72
732.93	10736.02
733.271	10744.83
733.612	10792.06
733.953	10760.65
734.294	10792.51
734.635	10745.51
734.976	10749.12
735.317	10747.09
735.658	10742.12
735.999	10755.45
736.339	10780.76
736.68	10858.27
737.021	10800.2
737.361	10783.93
737.702	10827.09
738.042	10801.78
738.383	10803.36
738.723	10842.46
739.063	10802.46
739.404	10872.51
739.744	10795.9
740.084	10827.31
740.424	10910.02
740.764	10933.07
741.104	10934.2
741.444	10852.4
741.784	10890.36
742.124	10959.29
742.464	10964.94
742.804	11029.57
743.143	11029.12
743.483	11055.56
743.823	10984.82
744.162	11050.13
744.502	11089.45
744.841	11070.47
745.181	11163.12
745.52	11231.15
745.86	11328.54
746.199	11335.78
746.538	11369.45
746.877	11434.3
747.216	11551.36
747.556	11627.29
747.895	11557.24
748.234	11641.53
748.573	11703.45
748.911	11774.86
749.25	11792.03
749.589	11833.16
749.928	11975.31
750.267	12138.92
750.605	12177.56
750.944	12195.19
751.283	12249.2
751.621	12391.79
751.96	12481.51
752.298	12569.87
752.636	12671.33
752.975	12758.34
753.313	12896.86
753.651	13041.49
753.989	13162.17
754.327	13239.45
754.666	13335.72
755.004	13537.07
755.342	13662.04
755.679	13838.53
756.017	13878.76
