Data from hue_50_FLMS001491_27.txt Node
Date: Mon Feb 06 15:09:49 GMT 2017
User: dcchb
Spectrometer: FLMS00149
Trigger mode: 0
Integration Time (sec): 2.000000E-2
Scans to average: 10
Electric dark correction enabled: true
Nonlinearity correction enabled: false
Boxcar width: 0
XAxis mode: Wavelengths
Number of Pixels in Spectrum: 2048
>>>>>Begin Spectral Data<<<<<
341.393	-10.66
341.776	-10.66
342.16	-10.66
342.543	-59.48
342.927	-83.66
343.31	-54.73
343.693	-78.46
344.077	-64.67
344.46	-58.12
344.843	-65.8
345.226	-33.26
345.61	-19.7
345.993	-18.35
346.376	-3.88
346.759	18.71
347.142	29.56
347.525	39.96
347.908	61.88
348.291	53.74
348.674	86.51
349.057	106.62
349.44	138.49
349.823	141.2
350.206	152.95
350.588	186.62
350.971	205.6
351.354	215.09
351.737	222.78
352.119	248.09
352.502	257.13
352.884	252.38
353.267	274.75
353.65	276.79
354.032	281.98
354.414	298.25
354.797	314.53
355.179	335.32
355.562	317.24
355.944	331.7
356.326	341.87
356.709	327.41
357.091	339.38
357.473	351.59
357.855	334.64
358.238	329.89
358.62	336.9
359.002	329.21
359.384	353.17
359.766	332.38
360.148	344.36
360.53	346.62
360.912	342.55
361.294	349.1
361.676	336.22
362.057	357.24
362.439	331.47
362.821	309.1
363.203	335.99
363.584	316.33
363.966	343.45
364.348	321.31
364.729	327.86
365.111	312.49
365.493	324.02
365.874	312.04
366.256	316.79
366.637	300.51
367.019	309.33
367.4	298.71
367.781	300.74
368.163	288.76
368.544	309.78
368.925	305.71
369.306	327.41
369.688	312.94
370.069	315.43
370.45	297.58
370.831	309.55
371.212	295.54
371.593	295.09
371.974	332.83
372.355	305.49
372.736	315.66
373.117	319.27
373.498	293.06
373.879	314.53
374.26	320.4
374.641	319.72
375.021	320.85
375.402	311.81
375.783	310.01
376.163	323.34
376.544	315.2
376.925	320.18
377.305	308.2
377.686	316.56
378.066	319.95
378.447	332.83
378.827	340.74
379.208	348.2
379.588	324.92
379.968	342.77
380.349	328.31
380.729	318.14
381.109	345.49
381.489	325.82
381.87	337.35
382.25	330.12
382.63	319.72
383.01	338.03
383.39	335.77
383.77	314.98
384.15	326.95
384.53	345.49
384.91	340.97
385.29	342.77
385.67	345.03
386.049	341.19
386.429	345.03
386.809	354.52
387.189	347.29
387.568	345.03
387.948	353.62
388.328	349.55
388.707	334.86
389.087	330.8
389.466	368.31
389.846	353.62
390.225	339.16
390.605	353.39
390.984	359.5
391.363	348.2
391.743	359.04
392.122	359.04
392.501	371.7
392.881	382.09
393.26	372.6
393.639	383.68
394.018	377.35
394.397	379.38
394.776	357.01
395.155	361.98
395.534	356.78
395.913	367.86
396.292	379.16
396.671	370.57
397.05	340.51
397.429	385.26
397.808	376.67
398.186	381.64
398.565	363.56
398.944	369.67
399.323	368.76
399.701	379.61
400.08	353.62
400.458	370.12
400.837	371.93
401.215	396.78
401.594	400.4
401.972	382.09
402.351	386.16
402.729	382.32
403.107	396.33
403.486	384.58
403.864	372.83
404.242	410.34
404.62	380.06
404.999	399.72
405.377	396.56
405.755	393.85
406.133	405.6
406.511	396.78
406.889	418.93
407.267	399.72
407.645	419.16
408.023	404.69
408.401	406.95
408.779	422.09
409.156	421.64
409.534	410.12
409.912	423.45
410.29	424.13
410.667	418.7
411.045	427.52
411.422	426.39
411.8	439.49
412.178	434.3
412.555	441.98
412.933	453.73
413.31	432.26
413.687	437.69
414.065	450.34
414.442	442.43
414.819	467.97
415.197	463.9
415.574	455.54
415.951	452.15
416.328	471.13
416.705	474.07
417.082	458.93
417.46	463
417.837	471.81
418.214	447.4
418.591	487.85
418.967	474.52
419.344	516.1
419.721	495.31
420.098	474.52
420.475	484.92
420.852	493.73
421.228	488.31
421.605	491.47
421.982	506.38
422.358	511.81
422.735	499.15
423.111	514.75
423.488	522.88
423.864	518.36
424.241	518.81
424.617	533.28
424.994	507.51
425.37	511.58
425.746	512.49
426.123	533.28
426.499	528.08
426.875	524.69
427.251	554.52
427.627	525.14
428.003	564.69
428.379	557.23
428.756	555.88
429.132	540.73
429.507	562.88
429.883	557.01
430.259	568.53
430.635	582.54
431.011	568.53
431.387	572.37
431.763	594.97
432.138	584.58
432.514	614.63
432.89	569.43
433.265	617.79
433.641	620.96
434.016	598.36
434.392	617.79
434.767	642.88
435.143	638.58
435.518	634.97
435.894	641.07
436.269	657.34
436.644	662.54
437.02	667.96
437.395	650.79
437.77	673.61
438.145	654.18
438.52	669.54
438.895	661.41
439.271	668.19
439.646	676.78
440.021	685.36
440.395	695.31
440.77	665.93
441.145	712.03
441.52	701.18
441.895	686.04
442.27	714.06
442.645	720.39
443.019	725.59
443.394	712.26
443.769	708.64
444.143	718.13
444.518	737.34
444.892	729.43
445.267	731.01
445.641	733.27
446.016	730.11
446.39	729.2
446.764	724.23
447.139	761.52
447.513	746.15
447.887	757.9
448.262	743.89
448.636	763.78
449.01	780.95
449.384	787.73
449.758	796.77
450.132	782.99
450.506	808.75
450.88	778.92
451.254	818.69
451.628	830.67
452.002	814.4
452.376	833.16
452.75	820.95
453.123	848.3
453.497	833.16
453.871	830.22
454.244	844.46
454.618	848.3
454.992	860.95
455.365	863.44
455.739	897.79
456.112	878.8
456.486	908.41
456.859	949.54
457.232	909.76
457.606	917.9
457.979	913.83
458.352	936.66
458.725	939.37
459.099	970.55
459.472	948.18
459.845	978.69
460.218	998.58
460.591	989.31
460.964	979.14
461.337	1019.59
461.71	1029.99
462.083	1061.85
462.456	1055.98
462.829	1057.33
463.201	1086.03
463.574	1078.35
463.947	1116.09
464.32	1111.57
464.692	1127.84
465.065	1170.77
465.438	1151.79
465.81	1182.3
466.183	1175.97
466.555	1198.8
466.928	1211.9
467.3	1228.63
467.672	1245.8
468.045	1289.87
468.417	1286.7
468.789	1302.97
469.161	1319.7
469.534	1375.51
469.906	1386.59
470.278	1381.62
470.65	1425.68
471.022	1453.25
471.394	1470.43
471.766	1484.44
472.138	1490.09
472.51	1530.54
472.882	1549.97
473.253	1579.58
473.625	1619.35
473.997	1666.13
474.369	1700.93
474.74	1719.69
475.112	1770.08
475.484	1793.58
475.855	1856.18
476.227	1886.24
476.598	1948.61
476.97	1956.29
477.341	2043.75
477.713	2114.93
478.084	2109.28
478.455	2210.07
478.827	2225.89
479.198	2362.16
479.569	2351.31
479.94	2456.39
480.311	2526.67
480.682	2583.84
481.053	2643.5
481.424	2751.07
481.795	2785.2
482.166	2864.52
482.537	2955.59
482.908	3045.3
483.279	3124.85
483.65	3190.83
484.021	3302.02
484.391	3377.04
484.762	3455.69
485.133	3574.78
485.503	3614.55
485.874	3765.28
486.244	3798.05
486.615	3949.68
486.985	4055.67
487.356	4155.1
487.726	4272.16
488.097	4441.87
488.467	4522.32
488.837	4641.87
489.207	4746.95
489.578	4865.14
489.948	4982.65
490.318	5108.52
490.688	5169.31
491.058	5312.13
491.428	5458.8
491.798	5562.52
492.168	5765.23
492.538	5894.04
492.908	5971.78
493.278	6103.98
493.648	6177.65
494.017	6335.16
494.387	6468.94
494.757	6571.76
495.126	6736.28
495.496	6799.78
495.866	6933.79
496.235	7049.94
496.605	7192.76
496.974	7350.72
497.344	7468.24
497.713	7511.4
498.082	7633.66
498.452	7924.27
498.821	7883.59
499.19	8057.15
499.559	8191.83
499.928	8274.09
500.298	8395.9
500.667	8586.4
501.036	8585.27
501.405	8703.68
501.774	8747.07
502.143	8865.71
502.512	9018.7
502.88	9171.69
503.249	9198.59
503.618	9366.04
503.987	9412.59
504.356	9541.85
504.724	9704.79
505.093	9713.83
505.462	9830.43
505.83	9969.41
506.199	10063.42
506.567	10250.08
506.936	10286.47
507.304	10486.01
507.672	10524.88
508.041	10647.81
508.409	10711.77
508.777	10844.42
509.145	10997.86
509.514	10964.64
509.882	11117.18
510.25	11224.75
510.618	11362.37
510.986	11422.71
511.354	11542.03
511.722	11599.88
512.09	11800.78
512.458	11663.61
512.826	11874.67
513.193	12025.18
513.561	12066.31
513.929	12188.79
514.297	12310.37
514.664	12412.51
515.032	12485.28
515.4	12580.87
515.767	12669.46
516.135	12813.41
516.502	12723.46
516.869	12951.93
517.237	13143.79
517.604	13079.61
517.972	13204.36
518.339	13293.62
518.706	13326.61
519.073	13498.36
519.44	13494.29
519.808	13751.69
520.175	13697.45
520.542	13927.28
520.909	13900.61
521.276	14073.49
521.643	14165.46
522.009	14268.51
522.376	14417.21
522.743	14506.24
523.11	14729.97
523.477	14722.96
523.843	14802.51
524.21	14974.48
524.577	15092.22
524.943	15178.32
525.31	15243.4
525.676	15434.58
526.043	15582.15
526.409	15574.92
526.776	15781.01
527.142	15823.5
527.508	15900.56
527.874	16027.78
528.241	16151.62
528.607	16173.54
528.973	16314.78
529.339	16361.11
529.705	16497.6
530.071	16704.6
530.437	16820.98
530.803	16823.02
531.169	16906.18
531.535	16920.87
531.901	17024.37
532.267	17114.08
532.632	17251.48
532.998	17297.81
533.364	17465.26
533.73	17479.95
534.095	17695.54
534.461	17651.24
534.826	17768.3
535.192	17804.24
535.557	17872.26
535.923	17839.94
536.288	18033.38
536.653	18098.92
537.019	18113.38
537.384	18213.04
537.749	18329.87
538.114	18394.28
538.479	18400.6
538.845	18428.4
539.21	18434.28
539.575	18612.35
539.94	18667.26
540.305	18683.76
540.67	18762.18
541.034	18843.3
541.399	19025.9
541.764	19105.22
542.129	19100.02
542.494	19140.92
542.858	19144.31
543.223	19185.67
543.587	19330.97
543.952	19264.76
544.316	19415.49
544.681	19446.9
545.045	19553.79
545.41	19675.6
545.774	19716.05
546.138	19748.36
546.503	19857.97
546.867	19828.14
547.231	19945.42
547.595	20035.36
547.959	20104.06
548.324	20170.27
548.688	20179.99
549.052	20277.62
549.416	20259.76
549.779	20450.49
550.143	20400.78
550.507	20588.57
550.871	20636.93
551.235	20616.14
551.599	20784.72
551.962	20775.23
552.326	20893.65
552.689	21035.56
553.053	20894.1
553.417	21025.62
553.78	21290.02
554.143	21260.64
554.507	21343.35
554.87	21430.35
555.234	21588.54
555.597	21406.17
555.96	21626.28
556.323	21705.38
556.686	21679.84
557.05	21945.6
557.413	21918.93
557.776	22084.12
558.139	22207.96
558.502	22262.65
558.865	22160.5
559.228	22444.79
559.59	22414.28
559.953	22525.02
560.316	22698.57
560.679	22804.33
561.041	22901.05
561.404	23068.28
561.767	23025.34
562.129	23055.17
562.492	23349.4
562.854	23269.18
563.217	23280.02
563.579	23439.34
563.941	23657.41
564.304	23589.62
564.666	23858.99
565.028	23897.41
565.39	23984.19
565.753	24122.94
566.115	24147.35
566.477	24253.11
566.839	24377.62
567.201	24416.04
567.563	24423.5
567.925	24676.6
568.287	24725.41
568.648	24717.5
569.01	24831.4
569.372	24899.64
569.734	24909.59
570.095	25106.19
570.457	25272.06
570.819	25227.09
571.18	25421.44
571.542	25531.04
571.903	25544.6
572.265	25603.35
572.626	25861.65
572.987	25735.33
573.349	25950.01
573.71	26060.29
574.071	26110.91
574.432	26294.86
574.794	26470
575.155	26428.42
575.516	26451.24
575.877	26497.11
576.238	26644.91
576.599	26755.19
576.96	26743.44
577.32	26935.07
577.681	26932.58
578.042	27066.36
578.403	27069.53
578.763	27112.24
579.124	27298.45
579.485	27432
579.845	27519.91
580.206	27569.63
580.566	27623.41
580.927	27787.25
581.287	27987.92
581.648	27868.83
582.008	28118.54
582.368	28228.37
582.728	28259.33
583.089	28215.49
583.449	28347.69
583.809	28556.95
584.169	28705.64
584.529	28653.44
584.889	28999.42
585.249	28865.19
585.609	28953.55
585.969	29167.78
586.329	29213.43
586.688	29346.76
587.048	29296.14
587.408	29378.62
587.768	29525.06
588.127	29716.24
588.487	29585.85
588.846	29931.6
589.206	29777.48
589.565	30020.86
589.925	30270.8
590.284	30209.33
590.643	30340.85
591.003	30484.35
591.362	30676.67
591.721	30666.95
592.08	30802.54
592.44	30892.93
592.799	30939.71
593.158	30910.78
593.517	31030.55
593.876	31268.06
594.235	31207.05
594.593	31386.25
594.952	31388.06
595.311	31431.67
595.67	31609.75
596.029	31889.06
596.387	32024.65
596.746	32030.53
597.104	31964.54
597.463	32097.87
597.822	32256.51
598.18	32215.38
598.538	32232.78
598.897	32529.5
599.255	32382.38
599.613	32921.35
599.972	32711.41
600.33	32839.09
600.688	32782.6
601.046	33042.93
601.404	33110.27
601.762	33122.48
602.12	33385.52
602.478	33390.72
602.836	33427.55
603.194	33228.46
603.552	33463.26
603.91	33410.83
604.268	33716.59
604.625	33620.77
604.983	33808.79
605.341	33734.21
605.698	34018.95
606.056	34165.84
606.413	34110.02
606.771	34175.78
607.128	34406.96
607.485	34082.9
607.843	34383.01
608.2	34503.68
608.557	34696.45
608.914	34707.07
609.272	34746.16
609.629	34737.58
609.986	35044.46
610.343	34764.92
610.7	35208.52
611.057	35088.53
611.414	35183.44
611.771	35172.82
612.127	35403.32
612.484	35484.9
612.841	35488.06
613.198	35423.21
613.554	35472.47
613.911	35839.92
614.267	35707.72
614.624	35688.96
614.98	35860.94
615.337	36031.1
615.693	36012.8
616.05	35901.39
616.406	36252.34
616.762	36140.93
617.118	36161.94
617.475	36315.84
617.831	36371.66
618.187	36395.16
618.543	36561.71
618.899	36669.95
619.255	36659.33
619.611	36807.13
619.967	36816.84
620.323	36994.69
620.678	36877.86
621.034	36820.68
621.39	36780.23
621.746	36900.46
622.101	37310.39
622.457	37001.47
622.812	37126.44
623.168	37143.16
623.523	37099.32
623.879	37260.67
624.234	37098.42
624.589	37226.78
624.945	37180.22
625.3	37435.13
625.655	37419.76
626.01	37307
626.365	37339.09
626.72	37347.68
627.075	37285.98
627.43	37449.82
627.785	37381.12
628.14	37268.13
628.495	37436.49
628.85	37338.41
629.205	37276.04
629.559	37500.44
629.914	37418.86
630.269	37452.76
630.623	37318.75
630.978	37227.91
631.332	37489.82
631.687	37598.07
632.041	37330.95
632.396	37397.84
632.75	37272.2
633.104	37401.01
633.459	37281.24
633.813	37213.22
634.167	37292.31
634.521	37349.71
634.875	37389.03
635.229	37307.45
635.583	37119.43
635.937	37164.86
636.291	37083.5
636.645	37173.9
636.999	37059.55
637.352	37200.56
637.706	37041.7
638.06	37106.33
638.413	37104.07
638.767	37001.7
639.121	36999.66
639.474	36908.82
639.828	36897.07
640.181	36911.76
640.534	36894.35
640.888	36743.4
641.241	36575.27
641.594	36805.54
641.947	36888.71
642.301	36739.56
642.654	36698.65
643.007	36776.17
643.36	36747.69
643.713	36775.49
644.066	36867.01
644.419	36433.58
644.771	36294.14
645.124	36056.41
645.477	35984.77
645.83	35735.74
646.182	35717.21
646.535	35525.58
646.888	35726.02
647.24	35470.66
647.593	35798.11
647.945	35446.94
648.298	35424.56
648.65	35356.32
649.002	35214.62
649.355	35493.04
649.707	35383.66
650.059	35564.45
650.411	35876.3
650.763	35982.29
651.115	36368.27
651.467	36225.9
651.819	36199.23
652.171	36046.92
652.523	36055.96
652.875	35962.18
653.227	36082.17
653.578	36120.36
653.93	35992.46
654.282	35783.42
654.633	35813.93
654.985	35800.37
655.337	35861.61
655.688	35792.69
656.039	36021.16
656.391	35731.67
656.742	35801.5
657.094	35673.37
657.445	35847.38
657.796	35782.52
658.147	35696.65
658.498	35630.43
658.849	35803.99
659.2	35740.71
659.551	35731
659.902	35801.05
660.253	35850.31
660.604	35755.18
660.955	35653.26
661.306	35808.06
661.656	35671.79
662.007	35586.37
662.358	35685.8
662.708	35658.68
663.059	35648.74
663.409	35453.49
663.76	35598.34
664.11	35672.47
664.461	35546.37
664.811	35575.29
665.161	35556.99
665.511	35497.33
665.862	35651.22
666.212	35722.86
666.562	35665.23
666.912	35589.3
667.262	35568.97
667.612	35547.72
667.962	35521.06
668.312	35542.3
668.662	35596.31
669.011	35557.21
669.361	35538.68
669.711	35336.88
670.06	35335.75
670.41	35332.81
670.76	35292.59
671.109	35463.88
671.459	35385.02
671.808	35336.2
672.157	35593.37
672.507	35244.23
672.856	35309.54
673.205	35407.16
673.554	35453.49
673.904	35274.51
674.253	35387.28
674.602	35281.74
674.951	34765.82
675.3	34710.91
675.649	35158.36
675.998	35202.65
676.346	35261.18
676.695	35354.51
677.044	35078.36
677.393	35186.83
677.741	35255.08
678.09	35097.57
678.438	34963.56
678.787	34946.16
679.135	34994.52
679.484	34742.77
679.832	34893.28
680.181	34657.8
680.529	34773.28
680.877	34592.49
681.225	34657.58
681.573	34837.23
681.922	34471.37
682.27	34472.27
682.618	34455.32
682.966	34365.83
683.314	34520.18
683.661	34423.23
684.009	34231.15
684.357	34155.44
684.705	34195.22
685.053	34153.41
685.4	34054.2
685.748	33971.27
686.095	33934.43
686.443	33842.46
686.79	33851.72
687.138	33891.72
687.485	33876.58
687.832	33751.84
688.18	33819.86
688.527	33606.53
688.874	33518.4
689.221	33593.42
689.568	33448.12
689.915	33326.54
690.262	33405.63
690.609	33347.1
690.956	33102.36
691.303	33151.18
691.65	33038.18
691.997	32953.67
692.344	32814.69
692.69	32792.32
693.037	32843.39
693.383	32552.55
693.73	32654.69
694.077	32471.65
694.423	32432.33
694.769	32309.39
695.116	32270.52
695.462	32234.14
695.808	32085.89
696.155	32185.55
696.501	32033.69
696.847	31948.5
697.193	31756.18
697.539	31861.04
697.885	31671.67
698.231	31491.78
698.577	31480.71
698.923	31491.56
699.269	31343.99
699.614	31195.07
699.96	31226.48
700.306	31157.56
700.651	31009.31
700.997	30881.86
701.342	30886.15
701.688	30852.25
702.033	30802.76
702.379	30707.85
702.724	30650
703.069	30561.19
703.415	30348.76
703.76	30345.37
704.105	30225.83
704.45	30344.47
704.795	30143.35
705.14	30001.43
705.485	30045.04
705.83	29852.73
706.175	29927.98
706.52	29749.91
706.865	29698.61
707.209	29590.14
707.554	29536.58
707.899	29617.48
708.243	29360.09
708.588	29361.22
708.932	29198.06
709.277	29063.83
709.621	29266.98
709.966	29007.33
710.31	29077.39
710.654	28777.28
710.998	28954.9
711.342	29019.76
711.687	28784.74
712.031	28638.98
712.375	28558.75
712.719	28578.87
713.063	28496.61
713.407	28638.75
713.75	28548.13
714.094	28598.08
714.438	28346.78
714.782	28447.35
715.125	28171.87
715.469	28312.66
715.812	28110.86
716.156	28075.15
716.499	28138.88
716.843	27977.75
717.186	28010.75
717.53	27972.1
717.873	27894.82
718.216	27857.53
718.559	27780.02
718.902	27492.34
719.246	27665.9
719.589	27551.78
719.932	27530.99
720.275	27415.51
720.617	27446.47
720.96	27450.99
721.303	27403.08
721.646	27291.22
721.989	27229.07
722.331	27178.45
722.674	27237.66
723.016	27133.93
723.359	27091.9
723.701	27096.65
724.044	26923.77
724.386	26804.9
724.729	26976.65
725.071	26749.99
725.413	26789.99
725.755	26899.14
726.097	26654.17
726.439	26586.6
726.782	26614.4
727.124	26663.21
727.465	26473.16
727.807	26544.34
728.149	26368.53
728.491	26416.89
728.833	26453.27
729.175	26266.61
729.516	26331.47
729.858	26274.52
730.199	26289.21
730.541	26172.15
730.882	26094.41
731.224	26205.37
731.565	26109.55
731.906	26032.27
732.248	26088.99
732.589	25962.89
732.93	25885.83
733.271	25919.05
733.612	25879.96
733.953	25851.48
734.294	25739.85
734.635	25639.06
734.976	25699.17
735.317	25553.18
735.658	25582.56
735.999	25579.62
736.339	25507.31
736.68	25643.8
737.021	25506.63
737.361	25300.31
737.702	25542.34
738.042	25344.15
738.383	25401.55
738.723	25326.98
739.063	25334.21
739.404	25298.5
739.744	25220.76
740.084	25178.73
740.424	25170.82
740.764	25136.92
741.104	25080.2
741.444	25050.6
741.784	24961.34
742.124	24976.48
742.464	24963.82
742.804	24868.46
743.143	24858.06
743.483	24771.51
743.823	24676.14
744.162	24709.14
744.502	24846.99
744.841	24642.47
745.181	24832.07
745.52	24598.86
745.86	24697.61
746.199	24518.86
746.538	24453.55
746.877	24501.91
747.216	24553.89
747.556	24420.11
747.895	24514.34
748.234	24406.32
748.573	24293.1
748.911	24247
749.25	24183.5
749.589	24079.55
749.928	24138.53
750.267	24211.07
750.605	24091.08
750.944	24010.85
751.283	23857.64
751.621	24045.2
751.96	23769.28
752.298	23794.36
752.636	23744.87
752.975	23680.24
753.313	23586.23
753.651	23765.66
753.989	23479.34
754.327	23485.44
754.666	23346.01
755.004	23469.62
755.342	23493.8
755.679	23404.31
756.017	23369.29
756.355	23295.84
756.693	23319.12
757.031	23336.97
