Data from hue_26_FLMS001491_00040.txt Node
Date: Tue Feb 07 17:13:55 GMT 2017
User: dcchb
Spectrometer: FLMS00149
Trigger mode: 0
Integration Time (sec): 2.000000E-2
Scans to average: 10
Electric dark correction enabled: true
Nonlinearity correction enabled: false
Boxcar width: 0
XAxis mode: Wavelengths
Number of Pixels in Spectrum: 2048
>>>>>Begin Spectral Data<<<<<
341.393	-27.06
341.776	-27.06
342.16	-27.06
342.543	-61.41
342.927	-79.04
343.31	-74.74
343.693	-73.16
344.077	-48.98
344.46	-53.5
344.843	-65.03
345.226	-47.4
345.61	-16.44
345.993	-12.37
346.376	-6.27
346.759	14.97
347.142	24.46
347.525	44.8
347.908	46.16
348.291	65.82
348.674	89.77
349.057	111.92
349.44	124.12
349.823	133.39
350.206	158.47
350.588	200.05
350.971	206.38
351.354	242.08
351.737	229.2
352.119	260.16
352.502	260.39
352.884	270.11
353.267	278.24
353.65	298.81
354.032	289.99
354.414	318.69
354.797	308.52
355.179	310.1
355.562	307.85
355.944	299.48
356.326	318.01
356.709	337.67
357.091	340.39
357.473	347.62
357.855	320.27
358.238	323.66
358.62	323.89
359.002	331.57
359.384	331.8
359.766	338.35
360.148	329.54
360.53	318.92
360.912	341.29
361.294	312.82
361.676	327.51
362.057	339.26
362.439	334.28
362.821	319.6
363.203	311.46
363.584	329.99
363.966	309.88
364.348	332.48
364.729	293.38
365.111	307.17
365.493	337.67
365.874	318.24
366.256	326.38
366.637	302.2
367.019	308.75
367.4	334.28
367.781	323.44
368.163	295.42
368.544	294.74
368.925	316.88
369.306	321.4
369.688	295.87
370.069	311.23
370.45	301.97
370.831	319.14
371.212	308.75
371.593	320.05
371.974	315.08
372.355	307.85
372.736	326.38
373.117	310.78
373.498	321.63
373.879	317.79
374.26	318.92
374.641	324.12
375.021	329.54
375.402	325.7
375.783	316.88
376.163	313.95
376.544	328.18
376.925	318.69
377.305	331.8
377.686	321.86
378.066	338.13
378.447	306.94
378.827	351.46
379.208	330.9
379.588	333.16
379.968	336.54
380.349	321.18
380.729	316.66
381.109	325.7
381.489	332.7
381.87	333.61
382.25	335.64
382.63	346.94
383.01	327.28
383.39	349.2
383.77	330.22
384.15	346.04
384.53	324.12
384.91	334.96
385.29	367.28
385.67	329.09
386.049	373.15
386.429	368.18
386.809	353.27
387.189	360.72
387.568	351.91
387.948	353.72
388.328	360.95
388.707	366.6
389.087	361.18
389.466	365.47
389.846	377.45
390.225	374.28
390.605	378.58
390.984	387.39
391.363	367.28
391.743	351.01
392.122	358.24
392.501	363.44
392.881	391.91
393.26	363.44
393.639	360.05
394.018	366.83
394.397	393.72
394.776	374.96
395.155	390.1
395.534	377.9
395.913	392.14
396.292	362.76
396.671	381.52
397.05	376.09
397.429	382.87
397.808	371.35
398.186	399.37
398.565	388.52
398.944	395.3
399.323	395.75
399.701	397.79
400.08	396.66
400.458	396.43
400.837	399.14
401.215	419.48
401.594	405.92
401.972	382.87
402.351	399.14
402.729	398.46
403.107	397.56
403.486	419.48
403.864	407.5
404.242	424.23
404.62	427.62
404.999	423.32
405.377	413.6
405.755	423.1
406.133	440.72
406.511	427.16
406.889	452.02
407.267	431.01
407.645	436.88
408.023	437.11
408.401	430.55
408.779	443.89
409.156	460.84
409.534	429.88
409.912	465.35
410.29	449.08
410.667	451.8
411.045	459.71
411.422	460.61
411.8	462.64
412.178	446.82
412.555	472.59
412.933	468.97
413.31	478.01
413.687	474.17
414.065	505.58
414.442	471
414.819	471.68
415.197	481.17
415.574	496.31
415.951	480.04
416.328	497.44
416.705	479.82
417.082	496.31
417.46	520.27
417.837	504.45
418.214	504.9
418.591	508.74
418.967	509.87
419.344	530.21
419.721	528.86
420.098	518.23
420.475	497.67
420.852	506.26
421.228	543.09
421.605	527.27
421.982	541.06
422.358	544
422.735	530.21
423.111	563.21
423.488	558.01
423.864	533.6
424.241	569.53
424.617	549.87
424.994	565.92
425.37	568.4
425.746	565.92
426.123	568.18
426.499	563.88
426.875	590.32
427.251	582.87
427.627	591.91
428.003	593.49
428.379	582.19
428.756	604.56
429.132	600.49
429.507	595.97
429.883	612.92
430.259	617.67
430.635	611.34
431.011	609.31
431.387	634.84
431.763	623.99
432.138	637.78
432.514	670.1
432.89	644.33
433.265	662.64
433.641	674.84
434.016	652.24
434.392	679.59
434.767	677.78
435.143	681.85
435.518	704.22
435.894	686.82
436.269	677.78
436.644	723.65
437.02	708.51
437.395	716.42
437.77	703.31
438.145	710.55
438.52	766.36
438.895	734.27
439.271	755.06
439.646	757.32
440.021	760.94
440.395	766.36
440.77	755.97
441.145	757.78
441.52	793.03
441.895	777.89
442.27	773.82
442.645	758
443.019	778.34
443.394	779.25
443.769	790.09
444.143	800.26
444.518	814.72
444.892	814.72
445.267	802.52
445.641	822.18
446.016	806.59
446.39	816.31
446.764	841.16
447.139	863.76
447.513	844.78
447.887	840.03
448.262	839.13
448.636	849.07
449.01	839.13
449.384	844.1
449.758	857.66
450.132	862.86
450.506	862.86
450.88	885.46
451.254	897.89
451.628	908.73
452.002	883.42
452.376	923.87
452.75	908.96
453.123	937.43
453.497	921.39
453.871	933.37
454.244	944.44
454.618	952.35
454.992	972.46
455.365	968.62
455.739	1000.48
456.112	1000.71
456.486	1013.36
456.859	1037.77
457.232	1035.74
457.606	1012.69
457.979	1005
458.352	1046.36
458.725	1054.49
459.099	1079.35
459.472	1083.42
459.845	1054.04
460.218	1104.21
460.591	1111.44
460.964	1117.77
461.337	1137.65
461.71	1147.6
462.083	1158.67
462.456	1189.18
462.829	1169.74
463.201	1172.91
463.574	1195.05
463.947	1203.64
464.32	1254.26
464.692	1257.65
465.065	1259.68
465.438	1289.06
465.81	1270.08
466.183	1303.07
466.555	1320.7
466.928	1357.31
467.3	1354.15
467.672	1344.43
468.045	1354.82
468.417	1381.49
468.789	1390.98
469.161	1440.7
469.534	1439.34
469.906	1466.91
470.278	1487.93
470.65	1463.75
471.022	1518.43
471.394	1539.45
471.766	1576.74
472.138	1588.94
472.51	1619.22
472.882	1624.87
473.253	1658.09
473.625	1692.89
473.997	1747.36
474.369	1749.39
474.74	1756.17
475.112	1759.78
475.484	1820.35
475.855	1855.83
476.227	1868.03
476.598	1892.44
476.97	1952.32
477.341	2002.04
477.713	2025.99
478.084	2051.3
478.455	2124.29
478.827	2127.23
479.198	2161.58
479.569	2171.98
479.94	2246.1
480.311	2293.1
480.682	2285.19
481.053	2375.14
481.424	2420.11
481.795	2483.38
482.166	2481.57
482.537	2562.93
482.908	2583.27
483.279	2642.25
483.65	2662.81
484.021	2789.59
484.391	2767.44
484.762	2843.82
485.133	2889.47
485.503	2936.48
485.874	2978.96
486.244	2985.06
486.615	3087.88
486.985	3157.71
487.356	3181.67
487.726	3236.58
488.097	3324.49
488.467	3334.88
488.837	3409.68
489.207	3468.89
489.578	3505.28
489.948	3606.74
490.318	3641.99
490.688	3652.16
491.058	3763.8
491.428	3785.72
491.798	3816.68
492.168	3913.63
492.538	3906.17
492.908	3997.69
493.278	4053.06
493.648	4077.92
494.017	4115.88
494.387	4150.46
494.757	4199.04
495.126	4274.75
495.496	4299.83
495.866	4314.29
496.235	4368.98
496.605	4414.18
496.974	4450.79
497.344	4491.69
497.713	4552.03
498.082	4558.35
498.452	4613.49
498.821	4651.01
499.19	4698.24
499.559	4726.49
499.928	4780.72
500.298	4792.25
500.667	4832.47
501.036	4844.67
501.405	4882.64
501.774	4907.72
502.143	4949.53
502.512	4978.91
502.88	5021.17
503.249	5076.53
503.618	5077.89
503.987	5103.43
504.356	5154.72
504.724	5201.95
505.093	5174.38
505.462	5189.52
505.83	5210.54
506.199	5287.38
506.567	5338.67
506.936	5340.26
507.304	5372.12
507.672	5408.5
508.041	5452.34
508.409	5512.45
508.777	5501.38
509.145	5544.32
509.514	5540.02
509.882	5616.63
510.25	5598.78
510.618	5700.02
510.986	5640.81
511.354	5655.73
511.722	5721.26
512.09	5778.66
512.458	5813.01
512.826	5858.43
513.193	5836.06
513.561	5856.4
513.929	5872.22
514.297	5924.19
514.664	5996.06
515.032	6028.6
515.4	6026.11
515.767	6099.33
516.135	6046.23
516.502	6019.79
516.869	6124.64
517.237	6159.44
517.604	6179.56
517.972	6227.46
518.339	6284.19
518.706	6264.52
519.073	6282.83
519.44	6305.2
519.808	6389.72
520.175	6400.57
520.542	6417.74
520.909	6460.45
521.276	6424.52
521.643	6500.9
522.009	6513.33
522.376	6559.66
522.743	6578.19
523.11	6649.15
523.477	6682.82
523.843	6710.39
524.21	6808.24
524.577	6794.23
524.943	6810.5
525.31	6877.16
525.676	6908.35
526.043	6960.33
526.409	6908.58
526.776	7068.57
527.142	7047.1
527.508	7112.19
527.874	7139.08
528.241	7192.64
528.607	7195.57
528.973	7278.96
529.339	7228.57
529.705	7299.98
530.071	7340.2
530.437	7390.37
530.803	7445.96
531.169	7475.57
531.535	7494.55
531.901	7497.26
532.267	7554.43
532.632	7591.27
532.998	7641.44
533.364	7663.13
533.73	7695.67
534.095	7759.4
534.461	7714.2
534.826	7821.32
535.192	7814.77
535.557	7920.75
535.923	7886.63
536.288	7887.98
536.653	7984.93
537.019	7957.36
537.384	7985.84
537.749	8104.48
538.114	8034.65
538.479	8069.22
538.845	8169.11
539.21	8148.54
539.575	8174.3
539.94	8228.54
540.305	8252.04
540.67	8278.03
541.034	8278.93
541.399	8349.22
541.764	8367.52
542.129	8374.3
542.494	8410
542.858	8460.62
543.223	8532.71
543.587	8503.56
543.952	8522.77
544.316	8556.89
544.681	8599.83
545.045	8680.51
545.41	8766.83
545.774	8719.83
546.138	8696.55
546.503	8793.5
546.867	8730
547.231	8912.59
547.595	8877.11
547.959	8906.04
548.324	8951.91
548.688	8952.14
549.052	8938.58
549.416	9066.26
549.779	9006.6
550.143	9097.44
550.507	9146.93
550.871	9113.72
551.235	9168.63
551.599	9192.36
551.962	9167.73
552.326	9253.15
552.689	9304.9
553.053	9310.77
553.417	9346.7
553.78	9468.28
554.143	9374.27
554.507	9487.04
554.87	9459.69
555.234	9551.67
555.597	9502.86
555.96	9511.22
556.323	9579.69
556.686	9628.5
557.05	9646.13
557.413	9713.02
557.776	9726.81
558.139	9725.9
558.502	9805
558.865	9845.9
559.228	9930.64
559.59	9907.59
559.953	9902.62
560.316	9976.52
560.679	10009.96
561.041	10031.43
561.404	10137.87
561.767	10134.48
562.129	10082.05
562.492	10160.24
562.854	10180.35
563.217	10271.42
563.579	10254.48
563.941	10302.38
564.304	10373.34
564.666	10504.87
565.028	10424.19
565.39	10424.87
565.753	10560.23
566.115	10543.96
566.477	10581.93
566.839	10616.27
567.201	10717.74
567.563	10677.06
567.925	10781.24
568.287	10801.58
568.648	10768.13
569.01	10851.97
569.372	10871.41
569.734	10876.15
570.095	11007.45
570.457	11057.84
570.819	11051.07
571.18	11113.21
571.542	11155.02
571.903	11150.27
572.265	11295.13
572.626	11349.14
572.987	11365.18
573.349	11379.87
573.71	11517.95
574.071	11517.27
574.432	11555.46
574.794	11704.38
575.155	11688.79
575.516	11695.57
575.877	11836.36
576.238	11859.63
576.599	11988.44
576.96	12020.98
577.32	12085.61
577.681	12216.46
578.042	12279.73
578.403	12450.35
578.763	12468.2
579.124	12608.31
579.485	12688.76
579.845	12785.71
580.206	12815.54
580.566	12981.86
580.927	13090.79
581.287	13338.01
581.648	13394.96
582.008	13544.56
582.368	13690.54
582.728	13806.7
583.089	13937.32
583.449	14126.01
583.809	14345.22
584.169	14552.67
584.529	14647.13
584.889	15037.4
585.249	14985.65
585.609	15224.97
585.969	15499.31
586.329	15639.19
586.688	15861.56
587.048	16093.87
587.408	16255.9
587.768	16607.53
588.127	16836.68
588.487	16913.06
588.846	17299.71
589.206	17393.72
589.565	17692.47
589.925	18090.2
590.284	18247.03
590.643	18567.03
591.003	18831.43
591.362	19227.12
591.721	19472.54
592.08	19701.23
592.44	20100.54
592.799	20246.3
593.158	20538.05
593.517	20811.26
593.876	21181.65
594.235	21477.68
594.593	21684.91
594.952	21986.82
595.311	22227.27
595.67	22590.2
596.029	23067.92
596.387	23318.09
596.746	23603.5
597.104	23822.25
597.463	24203.71
597.822	24543.82
598.18	24749.46
598.538	24990.36
598.897	25489.78
599.255	25669.89
599.613	26156.2
599.972	26217.67
600.33	26626.7
600.688	26739.47
601.046	27213.8
601.404	27539.67
601.762	27639.1
602.12	28114.8
602.478	28457.39
602.836	28623.48
603.194	28767.66
603.552	29155.22
603.91	29327.87
604.268	29652.16
604.625	29872.94
604.983	30197
605.341	30412.82
605.698	30828.62
606.056	31068.17
606.413	31319.01
606.771	31558.32
607.128	31898.43
607.485	31929.61
607.843	32198.53
608.2	32539.09
608.557	32803.26
608.914	32954.9
609.272	33364.38
609.629	33544.03
609.986	33755.1
610.343	33916
610.7	34260.62
611.057	34319.61
611.414	34633.04
611.771	34759.82
612.127	35022.64
612.484	35292.01
612.841	35616.52
613.198	35647.71
613.554	35823.75
613.911	36153.23
614.267	36317.97
614.624	36473.67
614.98	36623.95
615.337	36949.37
615.693	36953.66
616.05	37176.48
616.406	37545.96
616.762	37439.98
617.118	37543.7
617.475	37686.98
617.831	38106.63
618.187	38073.18
618.543	38204.25
618.899	38471.59
619.255	38515.2
619.611	38710.9
619.967	38933.27
620.323	39161.74
620.678	38967.17
621.034	39051.46
621.39	39058.01
621.746	39445.8
622.101	39761.04
622.457	39542.29
622.812	39725.11
623.168	39977.54
623.523	39999.23
623.879	40192.9
624.234	40134.82
624.589	40241.03
624.945	40443.74
625.3	40447.13
625.655	40602.15
626.01	40623.62
626.365	40727.12
626.72	40688.7
627.075	40779.32
627.43	40906.78
627.785	40795.37
628.14	40919.21
628.495	41005.31
628.85	41066.1
629.205	41043.05
629.559	41327.56
629.914	41202.36
630.269	41350.83
630.623	41182.93
630.978	41098.86
631.332	41503.37
631.687	41526.42
632.041	41427.89
632.396	41495.69
632.75	41430.61
633.104	41417.5
633.459	41237.16
633.813	41409.82
634.167	41398.74
634.521	41502.69
634.875	41553.31
635.229	41505.41
635.583	41308.12
635.937	41457.05
636.291	41402.13
636.645	41364.62
636.999	41465.86
637.352	41529.13
637.706	41295.24
638.06	41572.07
638.413	41526.87
638.767	41205.53
639.121	41595.8
639.474	41324.85
639.828	41321.68
640.181	41396.71
640.534	41441.45
640.888	41314.45
641.241	41238.07
641.594	41259.31
641.947	41327.33
642.301	41244.62
642.654	41386.54
643.007	41352.42
643.36	41387.44
643.713	41220.89
644.066	41422.7
644.419	41229.93
644.771	40945.42
645.124	40646.9
645.477	40596.05
645.83	40442.16
646.182	40245.55
646.535	40073.58
646.888	40210.52
647.24	39935.05
647.593	40336.85
647.945	40156.74
648.298	39982.96
648.65	39944.99
649.002	39877.2
649.355	39974.37
649.707	40022.51
650.059	40347.02
650.411	40766.44
650.763	40638.08
651.115	41088.92
651.467	40964.4
651.819	40842.82
652.171	40721.7
652.523	40812.09
652.875	40838.76
653.227	40601.47
653.578	41051.63
653.93	40871.98
654.282	40570.97
654.633	40481.25
654.985	40787.01
655.337	40835.14
655.688	40754.47
656.039	40777.97
656.391	40578.2
656.742	40662.04
657.094	40671.76
657.445	40780
657.796	40754.24
658.147	40591.98
658.498	40683.96
658.849	40704.52
659.2	40557.86
659.551	40523.96
659.902	40720.34
660.253	40450.74
660.604	40722.83
660.955	40469.73
661.306	40574.13
661.656	40473.12
662.007	40487.58
662.358	40475.15
662.708	40466.11
663.059	40485.77
663.409	40331.65
663.76	40562.83
664.11	40433.34
664.461	40452.33
664.811	40457.07
665.161	40483.51
665.511	40474.25
665.862	40531.87
666.212	40526
666.562	40564.64
666.912	40463.63
667.262	40359
667.612	40405.1
667.962	40545.66
668.312	40512.21
668.662	40545.43
669.011	40283.97
669.361	40419.78
669.711	40307.25
670.06	40294.36
670.41	40225.89
670.76	40186.8
671.109	40387.24
671.459	40259.56
671.808	40147.93
672.157	40404.19
672.507	40054.82
672.856	40133.01
673.205	40192.9
673.554	40281.48
673.904	40143.41
674.253	40364.42
674.602	40190.86
674.951	39653.7
675.3	39456.42
675.649	40148.61
675.998	40159.23
676.346	40113.35
676.695	40244.2
677.044	39841.27
677.393	39962.62
677.741	40128.94
678.09	39837.43
678.438	39698
678.787	39945.67
679.135	39732.8
679.484	39580.71
679.832	39854.83
680.181	39549.98
680.529	39623.2
680.877	39471.56
681.225	39544.78
681.573	39596.98
681.922	39446.25
682.27	39295.75
682.618	39401.96
682.966	39372.35
683.314	39416.87
683.661	39282.64
684.009	39151.57
684.357	39081.51
684.705	39058.01
685.053	39193.15
685.4	39164.45
685.748	38782.77
686.095	38817.57
686.443	38766.95
686.79	38578.48
687.138	38863.22
687.485	38888.3
687.832	38366.96
688.18	38666.84
688.527	38365.38
688.874	38362.89
689.221	38249.67
689.568	38160.18
689.915	38167.87
690.262	38230.46
690.609	37873.41
690.956	37748.89
691.303	37749.8
691.65	37762.68
691.997	37666.64
692.344	37393.2
692.69	37429.35
693.037	37411.05
693.383	37108.91
693.73	37261.68
694.077	37057.16
694.423	37118.85
694.769	36994.56
695.116	36924.28
695.462	36777.17
695.808	36738.07
696.155	36864.85
696.501	36613.11
696.847	36534.46
697.193	36270.97
697.539	36376.5
697.885	36107.58
698.231	36107.58
698.577	36167.02
698.923	36036.62
699.269	35881.37
699.614	35570.87
699.96	35568.16
700.306	35598.67
700.651	35466.69
700.997	35320.03
701.342	35285.68
701.688	35327.72
702.033	35182.63
702.379	35158.23
702.724	35018.57
703.069	35085.46
703.415	34694.74
703.76	34735.87
704.105	34738.35
704.45	34613.84
704.795	34413.84
705.14	34375.65
705.485	34240.06
705.83	34191.7
706.175	34160.97
706.52	34243.9
706.865	34063.79
707.209	34000.74
707.554	33963.46
707.899	33933.18
708.243	33666.52
708.588	33757.59
708.932	33473.53
709.277	33570.25
709.621	33558.72
709.966	33302.01
710.31	33369.8
710.654	33101.33
710.998	33090.71
711.342	33281.89
711.687	33024.05
712.031	32895.24
712.375	32797.39
712.719	32758.07
713.063	32787.67
713.407	32797.84
713.75	32620.89
714.094	32692.53
714.438	32461.35
714.782	32643.27
715.125	32390.62
715.469	32400.79
715.812	32325.99
716.156	32076.95
716.499	32191.53
716.843	32155.37
717.186	31909.95
717.53	32175.93
717.873	32082.83
718.216	31940.23
718.559	31800.35
718.902	31659.79
719.246	31883.29
719.589	31718.09
719.932	31476.52
720.275	31537.76
720.617	31524.43
720.96	31375.28
721.303	31395.84
721.646	31420.7
721.989	31182.06
722.331	31155.4
722.674	31175.51
723.016	31173.25
723.359	31131.67
723.701	31159.24
724.044	30986.13
724.386	30974.16
724.729	30999.02
725.071	30907.72
725.413	30885.12
725.755	30794.95
726.097	30601.51
726.439	30460.95
726.782	30613.26
727.124	30618.69
727.465	30617.56
727.807	30505.47
728.149	30327.85
728.491	30284.23
728.833	30366.04
729.175	30233.84
729.516	30111.81
729.858	30106.16
730.199	30120.85
730.541	30189.55
730.882	29977.57
731.224	30118.81
731.565	29888.76
731.906	29875.43
732.248	29994.3
732.589	29783.68
732.93	29732.38
733.271	29743.46
733.612	29838.82
733.953	29669.78
734.294	29596.79
734.635	29596.79
734.976	29633.63
735.317	29436.57
735.658	29515.21
735.999	29501.65
736.339	29399.96
736.68	29469.34
737.021	29300.98
737.361	29192.28
737.702	29339.62
738.042	29237.03
738.383	29214.66
738.723	29216.01
739.063	29161.78
739.404	29181.44
739.744	29064.6
740.084	28922.23
740.424	28973.76
740.764	28877.72
741.104	29013.76
741.444	28856.25
741.784	28804.27
742.124	28866.64
742.464	28752.97
742.804	28670.94
743.143	28621.22
743.483	28590.72
743.823	28450.61
744.162	28446.77
744.502	28587.1
744.841	28364.51
745.181	28457.39
745.52	28454
745.86	28397.05
746.199	28337.39
746.538	28194.57
746.877	28277.28
747.216	28270.73
747.556	28247.22
747.895	28219.43
748.234	28054.46
748.573	27978.98
748.911	28012.2
749.25	27916.16
749.589	27833.45
749.928	27947.34
750.267	27956.61
750.605	27821.47
750.944	27671.87
751.283	27654.02
751.621	27732.43
751.96	27714.36
752.298	27579.44
752.636	27623.28
752.975	27445.21
753.313	27428.26
753.651	27544.64
753.989	27298.55
754.327	27267.36
754.666	27013.13
755.004	27297.87
755.342	27134.94
755.679	27090.87
756.017	26923.64
756.355	27008.61
756.693	26903.08
757.031	27010.19
757.368	26717.09
757.706	26747.38
758.044	26684.1
758.381	26752.35
758.719	26611.33
759.056	26686.59
759.394	26627.83
759.731	26346.71
