Data from hue_20_FLMS001491_8.txt Node
Date: Mon Feb 06 15:33:33 GMT 2017
User: dcchb
Spectrometer: FLMS00149
Trigger mode: 0
Integration Time (sec): 2.000000E-2
Scans to average: 10
Electric dark correction enabled: true
Nonlinearity correction enabled: false
Boxcar width: 0
XAxis mode: Wavelengths
Number of Pixels in Spectrum: 2048
>>>>>Begin Spectral Data<<<<<
341.393	-13.77
341.776	-13.77
342.16	-13.77
342.543	-55.35
342.927	-50.15
343.31	-72.53
343.693	-64.16
344.077	-61.68
344.46	-53.32
344.843	-70.49
345.226	-44.05
345.61	-5.86
345.993	-61.45
346.376	0.24
346.759	23.52
347.142	35.27
347.525	40.69
347.908	54.25
348.291	65.32
348.674	96.06
349.057	118.2
349.44	121.14
349.823	138.32
350.206	169.05
350.588	197.98
350.971	200.46
351.354	232.32
351.737	224.64
352.119	260.8
352.502	245.43
352.884	267.58
353.267	291.31
353.65	290.4
354.032	311.19
354.414	325.66
354.797	311.64
355.179	310.29
355.562	331.98
355.944	340.34
356.326	322.94
356.709	325.43
357.091	340.34
357.473	338.08
357.855	333.56
358.238	345.32
358.62	354.81
359.002	328.82
359.384	331.3
359.766	342.83
360.148	336.95
360.53	332.66
360.912	339.21
361.294	335.15
361.676	324.53
362.057	335.82
362.439	335.37
362.821	334.69
363.203	327.92
363.584	316.16
363.966	355.94
364.348	337.18
364.729	331.53
365.111	320.01
365.493	310.74
365.874	305.99
366.256	331.08
366.637	313
367.019	311.19
367.4	317.75
367.781	304.41
368.163	319.55
368.544	320.23
368.925	320.23
369.306	317.97
369.688	297.18
370.069	313.45
370.45	314.13
370.831	314.13
371.212	309.61
371.593	324.98
371.974	287.46
372.355	312.55
372.736	329.95
373.117	314.81
373.498	342.15
373.879	316.84
374.26	310.06
374.641	320.91
375.021	317.52
375.402	308.25
375.783	319.1
376.163	310.74
376.544	346.22
376.925	323.62
377.305	330.63
377.686	300.57
378.066	308.48
378.447	329.72
378.827	341.7
379.208	300.12
379.588	323.17
379.968	326.56
380.349	330.63
380.729	334.47
381.109	327.92
381.489	336.73
381.87	350.74
382.25	347.8
382.63	321.81
383.01	350.51
383.39	327.24
383.77	331.08
384.15	343.28
384.53	354.58
384.91	337.41
385.29	335.6
385.67	357.74
386.049	344.64
386.429	326.33
386.809	345.99
387.189	363.62
387.568	345.32
387.948	348.03
388.328	365.2
388.707	343.06
389.087	350.97
389.466	350.97
389.846	358.42
390.225	357.29
390.605	341.47
390.984	357.29
391.363	371.53
391.743	338.54
392.122	341.7
392.501	369.95
392.881	352.55
393.26	364.98
393.639	348.71
394.018	371.76
394.397	361.81
394.776	387.35
395.155	379.89
395.534	370.85
395.913	375.37
396.292	348.03
396.671	399.1
397.05	377.63
397.429	385.99
397.808	383.73
398.186	378.54
398.565	389.83
398.944	398.42
399.323	381.92
399.701	388.7
400.08	384.64
400.458	383.73
400.837	390.06
401.215	364.07
401.594	391.42
401.972	383.96
402.351	413.11
402.729	377.18
403.107	387.35
403.486	373.56
403.864	392.09
404.242	393.68
404.62	398.2
404.999	405.88
405.377	417.4
405.755	421.47
406.133	418.31
406.511	430.06
406.889	412.66
407.267	425.77
407.645	412.66
408.023	409.49
408.401	433.45
408.779	413.34
409.156	439.1
409.534	426.22
409.912	409.27
410.29	417.63
410.667	439.78
411.045	442.49
411.422	446.1
411.8	437.06
412.178	461.7
412.555	431.87
412.933	433
413.31	438.87
413.687	475.03
414.065	463.28
414.442	463.28
414.819	460.34
415.197	473.67
415.574	456.05
415.951	484.52
416.328	458.99
416.705	468.93
417.082	475.48
417.46	476.39
417.837	462.6
418.214	477.97
418.591	484.07
418.967	474.8
419.344	492.66
419.721	471.19
420.098	504.18
420.475	478.65
420.852	481.36
421.228	495.59
421.605	511.19
421.982	488.14
422.358	495.14
422.735	495.14
423.111	517.97
423.488	505.09
423.864	514.58
424.241	524.29
424.617	515.25
424.994	521.58
425.37	508.25
425.746	527.46
426.123	548.47
426.499	527.01
426.875	529.04
427.251	507.35
427.627	552.77
428.003	564.97
428.379	543.5
428.756	551.19
429.132	562.71
429.507	550.73
429.883	552.09
430.259	581.02
430.635	559.32
431.011	583.05
431.387	585.54
431.763	611.3
432.138	587.8
432.514	593.67
432.89	607.46
433.265	590.73
433.641	609.26
434.016	586.44
434.392	623.27
434.767	610.62
435.143	620.11
435.518	636.16
435.894	647
436.269	637.29
436.644	657.85
437.02	651.3
437.395	653.33
437.77	665.99
438.145	659.21
438.52	653.56
438.895	668.25
439.271	668.47
439.646	685.87
440.021	681.35
440.395	660.79
440.77	673.67
441.145	672.99
441.52	679.32
441.895	678.41
442.27	719.54
442.645	688.13
443.019	711.63
443.394	700.11
443.769	691.52
444.143	687.91
444.518	715.7
444.892	716.15
445.267	704.18
445.641	710.05
446.016	712.54
446.39	727.23
446.764	753.44
447.139	723.38
447.513	748.92
447.887	746.66
448.262	746.89
448.636	770.39
449.01	755.93
449.384	756.15
449.758	778.98
450.132	775.13
450.506	766.77
450.88	767.45
451.254	778.3
451.628	807.45
452.002	791.86
452.376	797.28
452.75	806.77
453.123	815.81
453.497	823.72
453.871	828.01
454.244	807.45
454.618	827.79
454.992	832.31
455.365	819.2
455.739	877.51
456.112	870.73
456.486	861.23
456.859	894.45
457.232	876.83
457.606	886.32
457.979	900.56
458.352	923.83
458.725	929.26
459.099	934.23
459.472	930.84
459.845	943.04
460.218	946.66
460.591	974.68
460.964	976.71
461.337	974.68
461.71	977.16
462.083	997.28
462.456	996.6
462.829	1018.07
463.201	1002.93
463.574	1042.92
463.947	1015.81
464.32	1072.75
464.692	1071.4
465.065	1076.14
465.438	1078.86
465.81	1095.58
466.183	1096.93
466.555	1137.39
466.928	1128.8
467.3	1132.19
467.672	1137.61
468.045	1190.49
468.417	1190.94
468.789	1169.02
469.161	1205.41
469.534	1216.93
469.906	1262.35
470.278	1239.3
470.65	1269.13
471.022	1281.34
471.394	1274.56
471.766	1280.43
472.138	1341.67
472.51	1348.68
472.882	1352.52
473.253	1353.65
473.625	1425.97
473.997	1442.69
474.369	1436.59
474.74	1472.97
475.112	1504.16
475.484	1505.29
475.855	1535.34
476.227	1557.04
476.598	1571.72
476.97	1631.16
477.341	1627.32
477.713	1682.23
478.084	1708.44
478.455	1715.45
478.827	1761.32
479.198	1777.37
479.569	1800.87
479.94	1858.27
480.311	1808.33
480.682	1910.25
481.053	1947.53
481.424	1976.01
481.795	2003.35
482.166	2027.53
482.537	2069.11
482.908	2104.14
483.279	2145.72
483.65	2206.28
484.021	2210.8
484.391	2256.9
484.762	2268.2
485.133	2298.03
485.503	2350.69
485.874	2384.13
486.244	2426.39
486.615	2450.35
486.985	2482.43
487.356	2574.86
487.726	2571.02
488.097	2635.43
488.467	2649.44
488.837	2745.03
489.207	2723.11
489.578	2788.42
489.948	2807.85
490.318	2819.6
490.688	2882.42
491.058	2918.58
491.428	2997
491.798	2992.48
492.168	3049.2
492.538	3112.02
492.908	3124.23
493.278	3153.6
493.648	3197.22
494.017	3215.3
494.387	3252.58
494.757	3300.72
495.126	3330.55
495.496	3326.48
495.866	3384.11
496.235	3412.35
496.605	3463.65
496.974	3425.23
497.344	3518.79
497.713	3560.6
498.082	3551.33
498.452	3584.55
498.821	3633.14
499.19	3656.19
499.559	3697.54
499.928	3733.7
500.298	3690.99
500.667	3754.49
501.036	3758.11
501.405	3790.87
501.774	3809.63
502.143	3843.53
502.512	3856.41
502.88	3909.29
503.249	3949.97
503.618	3914.94
503.987	3928.05
504.356	3998.78
504.724	4013.92
505.093	4004.2
505.462	4038.78
505.83	4074.94
506.199	4115.84
506.567	4155.39
506.936	4162.16
507.304	4197.64
507.672	4184.08
508.041	4208.72
508.409	4263.18
508.777	4274.03
509.145	4280.81
509.514	4259.11
509.882	4331.43
510.25	4376.62
510.618	4367.58
510.986	4367.36
511.354	4377.3
511.722	4444.64
512.09	4458.2
512.458	4447.13
512.826	4514.47
513.193	4529.61
513.561	4561.7
513.929	4568.26
514.297	4577.75
514.664	4578.65
515.032	4648.25
515.4	4596.73
515.767	4667.46
516.135	4656.84
516.502	4696.16
516.869	4769.83
517.237	4757.86
517.604	4731.42
517.972	4781.58
518.339	4779.78
518.706	4802.83
519.073	4837.4
519.44	4849.6
519.808	4874.46
520.175	4876.95
520.542	4914.24
520.909	4919.21
521.276	4939.32
521.643	5037.17
522.009	5022.93
522.376	5014.12
522.743	5129.37
523.11	5112.87
523.477	5113.33
523.843	5178.64
524.21	5219.99
524.577	5216.37
524.943	5235.58
525.31	5227.9
525.676	5283.72
526.043	5326.65
526.409	5329.14
526.776	5400.32
527.142	5459.31
527.508	5446.65
527.874	5476.03
528.241	5490.94
528.607	5496.14
528.973	5568.91
529.339	5554.9
529.705	5552.18
530.071	5600.77
530.437	5669.47
530.803	5653.42
531.169	5713.54
531.535	5701.56
531.901	5723.03
532.267	5734.78
532.632	5788.56
532.998	5825.17
533.364	5869.24
533.73	5833.76
534.095	5935.68
534.461	5905.62
534.826	5993.75
535.192	5967.31
535.557	6006.41
535.923	5991.27
536.288	6093.64
536.653	6096.13
537.019	6075.79
537.384	6118.27
537.749	6132.96
538.114	6149
538.479	6162.11
538.845	6222
539.21	6200.53
539.575	6271.71
539.94	6217.93
540.305	6356.68
540.67	6300.41
541.034	6342.67
541.399	6353.75
541.764	6424.03
542.129	6364.14
542.494	6483.01
542.858	6460.64
543.223	6452.95
543.587	6551.93
543.952	6558.94
544.316	6552.61
544.681	6554.87
545.045	6615.21
545.41	6605.94
545.774	6612.72
546.138	6611.14
546.503	6735.43
546.867	6743.11
547.231	6780.63
547.595	6796.67
547.959	6798.71
548.324	6851.36
548.688	6808.42
549.052	6823.11
549.416	6918.7
549.779	6953.96
550.143	6886.16
550.507	6973.16
550.871	6996.67
551.235	7001.86
551.599	7041.18
551.962	7005.93
552.326	7078.25
552.689	7122.54
553.053	7182.65
553.417	7090.68
553.78	7261.52
554.143	7157.11
554.507	7194.4
554.87	7237.79
555.234	7267.39
555.597	7236.43
555.96	7339.26
556.323	7284.34
556.686	7318.01
557.05	7347.84
557.413	7383.1
557.776	7420.61
558.139	7443.43
558.502	7453.83
558.865	7473.72
559.228	7573.37
559.59	7542.41
559.953	7555.52
560.316	7644.33
560.679	7608.18
561.041	7663.32
561.404	7673.03
561.767	7756.19
562.129	7703.77
562.492	7797.32
562.854	7770.66
563.217	7791.22
563.579	7828.73
563.941	7906.25
564.304	7915.29
564.666	7950.09
565.028	7962.06
565.39	8029.18
565.753	8010.88
566.115	8106.02
566.477	8075.73
566.839	8100.59
567.201	8230.31
567.563	8191.66
567.925	8174.04
568.287	8223.3
568.648	8313.02
569.01	8337.87
569.372	8362.73
569.734	8317.54
570.095	8418.32
570.457	8464.2
570.819	8482.28
571.18	8539
571.542	8562.05
571.903	8603.4
572.265	8636.62
572.626	8631.65
572.987	8633.01
573.349	8710.97
573.71	8784.42
574.071	8843.17
574.432	8896.28
574.794	8969.72
575.155	9000.23
575.516	8964.75
575.877	9084.52
576.238	9088.59
576.599	9154.12
576.96	9284.29
577.32	9288.81
577.681	9360.45
578.042	9470.27
578.403	9451.07
578.763	9607.9
579.124	9675.92
579.485	9694.22
579.845	9835.91
580.206	9941.22
580.566	10001.33
580.927	10014.67
581.287	10225.73
581.648	10303.25
582.008	10374.2
582.368	10573.52
582.728	10733.07
583.089	10896.9
583.449	10930.35
583.809	11100.06
584.169	11258.93
584.529	11413.27
584.889	11598.13
585.249	11657.79
585.609	11825.24
585.969	12106.81
586.329	12225.91
586.688	12417.77
587.048	12608.72
587.408	12817.08
587.768	13064.08
588.127	13277.18
588.487	13424.75
588.846	13747
589.206	13810.72
589.565	14198.28
589.925	14419.07
590.284	14612.06
590.643	14865.84
591.003	15091.14
591.362	15431.02
591.721	15718.7
592.08	15908.07
592.44	16200.27
592.799	16473.48
593.158	16591.22
593.517	16902.62
593.876	17346.45
594.235	17496.73
594.593	17822.14
594.952	18138.29
595.311	18279.99
595.67	18661.9
596.029	19088.55
596.387	19305.27
596.746	19618.26
597.104	19773.51
597.463	20069.09
597.822	20461.62
598.18	20666.36
598.538	20965.11
598.897	21337.98
599.255	21403.52
599.613	22095.93
599.972	22195.59
600.33	22443.04
600.688	22692.07
601.046	23015
601.404	23415.67
601.762	23611.6
602.12	24039.61
602.478	24285.48
602.836	24589.42
603.194	24674.39
603.552	25000.71
603.91	25249.07
604.268	25594.82
604.625	25690.41
604.983	26126.78
605.341	26235.48
605.698	26559.09
606.056	26824.17
606.413	27052.41
606.771	27464.83
607.128	27660.53
607.485	27812.39
607.843	27989.79
608.2	28346.16
608.557	28689.66
608.914	28820.73
609.272	29131.23
609.629	29312.24
609.986	29634.72
610.343	29764.2
610.7	30113.12
611.057	30299.33
611.414	30416.39
611.771	30630.62
612.127	31010.72
612.484	31063.83
612.841	31311.51
613.198	31485.74
613.554	31710.14
613.911	31846.18
614.267	32141.99
614.624	32223.57
614.98	32461.08
615.337	32783.33
615.693	32795.54
616.05	33028.52
616.406	33258.12
616.762	33173.83
617.118	33479.13
617.475	33591.45
617.831	33840.71
618.187	33844.55
618.543	34026.46
618.899	34365.21
619.255	34437.75
619.611	34466.68
619.967	34715.71
620.323	34846.1
620.678	34793.22
621.034	34980.11
621.39	35123.84
621.746	35056.04
622.101	35584.39
622.457	35399.54
622.812	35607.21
623.168	35740.32
623.523	35850.37
623.879	35907.77
624.234	35889.69
624.589	36066.64
624.945	36149.8
625.3	36330.36
625.655	36303.69
626.01	36327.65
626.365	36533.74
626.72	36501.65
627.075	36534.19
627.43	36640.63
627.785	36650.8
628.14	36882.66
628.495	36917.01
628.85	36942.09
629.205	36796.33
629.559	37141.18
629.914	36910
630.269	36984.13
630.623	37016.89
630.978	37015.31
631.332	37190.45
631.687	37347.96
632.041	37239.71
632.396	37246.94
632.75	37093.28
633.104	37266.15
633.459	37264.12
633.813	37191.8
634.167	37304.57
634.521	37277.45
634.875	37375.98
635.229	37321.07
635.583	37252.59
635.937	37216.44
636.291	37282.2
636.645	37385.25
636.999	37427.05
637.352	37414.85
637.706	37215.98
638.06	37316.1
638.413	37320.84
638.767	37286.94
639.121	37407.39
639.474	37156.1
639.828	37145.25
640.181	37327.62
640.534	37269.99
640.888	37124.01
641.241	37183.44
641.594	37193.39
641.947	37325.81
642.301	37171.47
642.654	37397.45
643.007	37311.12
643.36	37252.59
643.713	37218.24
644.066	37261.18
644.419	37076.55
644.771	37012.15
645.124	36527.87
645.477	36520.18
645.83	36349.34
646.182	36176.01
646.535	36078.84
646.888	36225.28
647.24	36144.15
647.593	36221.43
647.945	36221.89
648.298	35973.53
648.65	35998.39
649.002	35974.89
649.355	36009.91
649.707	36009.01
650.059	36145.96
650.411	36415.33
650.763	36587.53
651.115	36930.12
651.467	36898.03
651.819	36786.39
652.171	36776
652.523	36670.46
652.875	36822.1
653.227	36628.43
653.578	36867.29
653.93	36801.31
654.282	36671.14
654.633	36438.38
654.985	36686.96
655.337	36598.37
655.688	36705.04
656.039	36803.57
656.391	36323.58
656.742	36540.97
657.094	36605.61
657.445	36678.37
657.796	36577.58
658.147	36504.59
658.498	36444.93
658.849	36567.41
659.2	36374.42
659.551	36467.98
659.902	36521.31
660.253	36529.68
660.604	36598.15
660.955	36257.59
661.306	36505.27
661.656	36317.93
662.007	36494.42
662.358	36545.72
662.708	36345.5
663.059	36472.95
663.409	36237.93
663.76	36529
664.11	36348.21
664.461	36332.39
664.811	36411.03
665.161	36444.03
665.511	36317.03
665.862	36393.63
666.212	36442.9
666.562	36457.81
666.912	36370.36
667.262	36309.79
667.612	36434.54
667.962	36424.82
668.312	36341.88
668.662	36523.35
669.011	36353.63
669.361	36432.28
669.711	36284.48
670.06	36195.22
670.41	36214.43
670.76	36164.49
671.109	36427.76
671.459	36262.79
671.808	36250.13
672.157	36322.45
672.507	36072.51
672.856	36058.05
673.205	36047.65
673.554	36084.04
673.904	36101.66
674.253	36250.36
674.602	36144.6
674.951	35608.12
675.3	35461.68
675.649	35965.62
675.998	35956.81
676.346	35948.9
676.695	36044.72
677.044	35821.67
677.393	35881.1
677.741	36006.3
678.09	35946.41
678.438	35835
678.787	35964.27
679.135	35791.84
679.484	35606.31
679.832	35753.42
680.181	35444.28
680.529	35725.85
680.877	35483.15
681.225	35508.23
681.573	35665.97
681.922	35443.6
682.27	35388.24
682.618	35381.91
682.966	35284.28
683.314	35386.88
683.661	35188.24
684.009	34983.73
684.357	35038.41
684.705	35033.44
685.053	35175.36
685.4	34906.89
685.748	34793.45
686.095	34799.78
686.443	34632.1
686.79	34666
687.138	34769.04
687.485	34727.24
687.832	34572.44
688.18	34579.9
688.527	34241.6
688.874	34327.25
689.221	34369.73
689.568	34248.15
689.915	34206.12
690.262	34186.23
690.609	34068.27
690.956	33995.28
691.303	33900.14
691.65	33827.6
691.997	33875.51
692.344	33713.93
692.69	33628.73
693.037	33597.1
693.383	33299.25
693.73	33423.54
694.077	33318.23
694.423	33156.43
694.769	33048.86
695.116	33067.17
695.462	32970.67
695.808	33031.01
696.155	33021.97
696.501	32755.31
696.847	32708.08
697.193	32570.46
697.539	32555.32
697.885	32429.22
698.231	32146.29
698.577	32339.95
698.923	32249.34
699.269	32031.26
699.614	32020.19
699.96	32003.01
700.306	31936.58
700.651	31754.89
700.997	31640.76
701.342	31643.25
701.688	31539.3
702.033	31578.62
702.379	31534.78
702.724	31392.18
703.069	31425.4
703.415	31147.22
703.76	31098.63
704.105	31034.23
704.45	31048.24
704.795	30826.1
705.14	30771.63
705.485	30785.42
705.83	30600.79
706.175	30622.94
706.52	30649.83
706.865	30367.58
707.209	30437.18
707.554	30231.31
707.899	30383.85
708.243	30243.96
708.588	30086.45
708.932	29861.6
709.277	29921.26
709.621	29968.94
709.966	29672.23
710.31	29902.96
710.654	29614.38
710.998	29664.32
711.342	29557.66
711.687	29574.38
712.031	29381.16
712.375	29302.52
712.719	29325.57
713.063	29373.25
713.407	29408.51
713.75	29206.7
714.094	29140.26
714.438	29025.92
714.782	29142.52
715.125	28911.57
715.469	28968.52
715.812	28831.8
716.156	28636.55
716.499	28788.41
716.843	28838.35
717.186	28644.01
717.53	28730.78
717.873	28733.27
718.216	28628.87
718.559	28505.48
718.902	28349.78
719.246	28375.77
719.589	28161.53
719.932	28195.88
720.275	28128.09
720.617	28132.61
720.96	27980.75
721.303	27999.5
721.646	27989.79
721.989	27787.31
722.331	28047.86
722.674	27910.47
723.016	27830.47
723.359	27701.88
723.701	27748.44
724.044	27531.95
724.386	27476.81
724.729	27605.16
725.071	27466.41
725.413	27521.1
725.755	27455.56
726.097	27446.98
726.439	27255.34
726.782	27222.12
727.124	27296.7
727.465	27279.75
727.807	27250.6
728.149	27131.73
728.491	27075.69
728.833	27187.1
729.175	27027.33
729.516	27023.26
729.858	26940.55
730.199	27023.94
730.541	26861.68
730.882	26774
731.224	26992.3
731.565	26732.42
731.906	26699.2
732.248	26779.65
732.589	26596.6
732.93	26535.59
733.271	26482.26
733.612	26550.95
733.953	26521.12
734.294	26466.21
734.635	26305.31
734.976	26386.89
735.317	26272.09
735.658	26279.32
735.999	26293.11
736.339	26314.8
736.68	26334.01
737.021	26089.95
737.361	26080.68
737.702	26272.77
738.042	26052.21
738.383	26045.43
738.723	26151.42
739.063	25973.34
739.404	25876.85
739.744	25904.87
740.084	25911.65
740.424	25909.62
740.764	25740.58
741.104	25854.02
741.444	25645.67
741.784	25666.23
742.124	25674.82
742.464	25711.2
742.804	25558.21
743.143	25521.6
743.483	25581.26
743.823	25402.74
744.162	25324.77
744.502	25412.23
744.841	25231.22
745.181	25416.75
745.52	25298.33
745.86	25339.69
746.199	25217.88
746.538	25242.74
746.877	25337.43
747.216	25223.76
747.556	25134.27
747.895	25219.69
748.234	25000.03
748.573	25010.43
748.911	24956.42
749.25	24948.96
749.589	24783.54
749.928	24925.23
750.267	24859.25
750.605	24780.15
750.944	24752.36
751.283	24726.82
751.621	24710.78
751.96	24556.43
752.298	24605.92
752.636	24597.33
752.975	24438.47
753.313	24386.49
753.651	24463.33
753.989	24334.52
754.327	24345.81
754.666	24229.66
755.004	24214.29
755.342	24249.32
755.679	24153.73
756.017	23995.09
756.355	24129.1
756.693	23963.45
757.031	23953.51
757.368	23912.83
757.706	23834.87
758.044	23738.6
758.381	23810.91
758.719	23713.06
759.056	23705.15
759.394	23680.75
759.731	23523.46
760.068	23509.23
760.405	23306.75
760.743	23259.97
761.08	23364.82
