Data from hue_100_FLMS001491_00003.txt Node
Date: Tue Feb 07 17:02:33 GMT 2017
User: dcchb
Spectrometer: FLMS00149
Trigger mode: 0
Integration Time (sec): 2.000000E-2
Scans to average: 10
Electric dark correction enabled: true
Nonlinearity correction enabled: false
Boxcar width: 0
XAxis mode: Wavelengths
Number of Pixels in Spectrum: 2048
>>>>>Begin Spectral Data<<<<<
341.393	-46.47
341.776	-46.47
342.16	-46.47
342.543	-69.97
342.927	-61.38
343.31	-55.28
343.693	-76.3
344.077	-43.53
344.46	-66.81
344.843	-59.12
345.226	-46.92
345.61	-44.66
345.993	-19.12
346.376	1.21
346.759	0.76
347.142	34.43
347.525	31.95
347.908	72.17
348.291	71.27
348.674	87.31
349.057	112.62
349.44	131.15
349.823	145.17
350.206	151.72
350.588	191.27
350.971	195.11
351.354	231.04
351.737	234.65
352.119	236.69
352.502	251.38
352.884	269.46
353.267	280.53
353.65	288.44
354.032	285.95
354.414	272.62
354.797	308.33
355.179	305.16
355.562	329.57
355.944	297.7
356.326	337.48
356.709	337.7
357.091	327.76
357.473	321.43
357.855	347.65
358.238	327.99
358.62	333.18
359.002	342
359.384	324.6
359.766	329.12
360.148	320.3
360.53	323.01
360.912	329.79
361.294	332.96
361.676	337.48
362.057	316.69
362.439	329.12
362.821	306.52
363.203	324.82
363.584	307.42
363.966	324.37
364.348	297.03
364.729	329.12
365.111	306.29
365.493	321.43
365.874	299.74
366.256	299.06
366.637	288.89
367.019	307.65
367.4	309.23
367.781	339.51
368.163	322.11
368.544	311.71
368.925	303.35
369.306	308.78
369.688	301.32
370.069	310.81
370.45	316.23
370.831	295.67
371.212	312.39
371.593	308.55
371.974	321.21
372.355	310.59
372.736	312.84
373.117	325.73
373.498	324.37
373.879	304.94
374.26	313.07
374.641	287.76
375.021	307.2
375.402	318.27
375.783	314.65
376.163	315.78
376.544	323.92
376.925	340.41
377.305	327.53
377.686	324.14
378.066	324.82
378.447	329.12
378.827	330.92
379.208	328.66
379.588	332.73
379.968	333.86
380.349	304.71
380.729	352.39
381.109	328.66
381.489	314.88
381.87	351.71
382.25	335.9
382.63	323.47
383.01	331.6
383.39	329.79
383.77	349.45
384.15	340.87
384.53	336.12
384.91	358.04
385.29	364.14
385.67	339.74
386.049	355.33
386.429	362.11
386.809	363.47
387.189	359.62
387.568	361.21
387.948	346.97
388.328	361.66
388.707	363.69
389.087	363.47
389.466	370.24
389.846	381.54
390.225	376.12
390.605	375.44
390.984	375.44
391.363	375.67
391.743	351.71
392.122	382.9
392.501	398.27
392.881	373.63
393.26	388.1
393.639	386.52
394.018	387.65
394.397	391.26
394.776	387.42
395.155	394.65
395.534	367.53
395.913	398.94
396.292	399.62
396.671	393.75
397.05	406.4
397.429	411.83
397.808	412.96
398.186	404.59
398.565	403.46
398.944	396.46
399.323	414.54
399.701	391.26
400.08	414.54
400.458	428.1
400.837	421.09
401.215	422.67
401.594	419.51
401.972	424.25
402.351	418.83
402.729	413.86
403.107	428.32
403.486	428.55
403.864	436.23
404.242	438.04
404.62	424.25
404.999	448.21
405.377	443.01
405.755	454.99
406.133	475.55
406.511	436.91
406.889	426.29
407.267	462.45
407.645	435.55
408.023	461.77
408.401	451.37
408.779	473.52
409.156	464.48
409.534	468.55
409.912	448.21
410.29	485.27
410.667	479.17
411.045	508.09
411.422	500.18
411.8	497.7
412.178	513.97
412.555	522.1
412.933	497.7
413.31	518.04
413.687	507.87
414.065	515.55
414.442	521.65
414.819	502.67
415.197	537.47
415.574	525.04
415.951	528.21
416.328	543.35
416.705	544.25
417.082	537.25
417.46	541.31
417.837	530.92
418.214	545.83
418.591	562.56
418.967	575.89
419.344	579.96
419.721	580.18
420.098	589.22
420.475	570.69
420.852	582.22
421.228	594.19
421.605	590.13
421.982	573.63
422.358	613.4
422.735	578.83
423.111	634.19
423.488	608.43
423.864	604.81
424.241	623.35
424.617	628.54
424.994	626.96
425.37	626.28
425.746	637.81
426.123	628.77
426.499	641.65
426.875	641.65
427.251	667.19
427.627	659.05
428.003	651.14
428.379	660.86
428.756	681.65
429.132	694.3
429.507	697.69
429.883	711.7
430.259	691.37
430.635	716
431.011	705.38
431.387	723.46
431.763	736.11
432.138	724.13
432.514	744.7
432.89	750.8
433.265	794.41
433.641	753.51
434.016	757.13
434.392	803.45
434.767	797.58
435.143	809.1
435.518	812.94
435.894	806.84
436.269	825.6
436.644	823.34
437.02	835.09
437.395	834.87
437.77	830.8
438.145	871.47
438.52	857.92
438.895	868.31
439.271	879.84
439.646	860.85
440.021	904.92
440.395	900.4
440.77	916.44
441.145	922.55
441.52	928.42
441.895	924.81
442.27	938.59
442.645	943.56
443.019	955.09
443.394	939.04
443.769	958.03
444.143	961.87
444.518	968.19
444.892	985.6
445.267	971.81
445.641	988.53
446.016	980.85
446.39	1013.84
446.764	973.84
447.139	993.28
447.513	1008.42
447.887	1003.9
448.262	1038.48
448.636	1027.4
449.01	1045.26
449.384	1064.69
449.758	1037.57
450.132	1044.13
450.506	1078.02
450.88	1090.68
451.254	1071.02
451.628	1118.47
452.002	1114.86
452.376	1108.53
452.75	1123.67
453.123	1133.84
453.497	1171.35
453.871	1181.3
454.244	1168.42
454.618	1203.44
454.992	1220.84
455.365	1214.06
455.739	1228.75
456.112	1235.76
456.486	1245.02
456.859	1244.12
457.232	1281.41
457.606	1283.89
457.979	1316.21
458.352	1329.77
458.725	1322.08
459.099	1372.25
459.472	1381.29
459.845	1388.97
460.218	1412.48
460.591	1424.91
460.964	1445.47
461.337	1473.27
461.71	1504.9
462.083	1506.94
462.456	1497.45
462.829	1528.41
463.201	1536.77
463.574	1563.66
463.947	1549.65
464.32	1642.3
464.692	1637.1
465.065	1652.7
465.438	1689.76
465.81	1715.97
466.183	1753.26
466.555	1759.81
466.928	1798
467.3	1796.42
467.672	1832.58
468.045	1868.74
468.417	1883.2
468.789	1927.27
469.161	1939.69
469.534	1971.11
469.906	2044.55
470.278	2024.21
470.65	2085.45
471.022	2101.05
471.394	2148.5
471.766	2203.87
472.138	2237.99
472.51	2257.65
472.882	2310.08
473.253	2389.4
473.625	2416.07
473.997	2470.08
474.369	2509.85
474.74	2546.23
475.112	2631.43
475.484	2673.91
475.855	2741.48
476.227	2826.68
476.598	2875.26
476.97	2961.81
477.341	2989.61
477.713	3081.59
478.084	3125.88
478.455	3277.51
478.827	3291.98
479.198	3427.11
479.569	3414.91
479.94	3604.74
480.311	3634.57
480.682	3778.97
481.053	3867.78
481.424	3943.26
481.795	4046.53
482.166	4152.07
482.537	4271.61
482.908	4421.89
483.279	4442.68
483.65	4605.39
484.021	4747.3
484.391	4820.97
484.762	4922.44
485.133	5015.55
485.503	5141.19
485.874	5361.75
486.244	5384.58
486.615	5592.03
486.985	5700.73
487.356	5834.06
487.726	5916.09
488.097	6153.82
488.467	6231.56
488.837	6418.45
489.207	6526.69
489.578	6692.56
489.948	6855.27
490.318	6936.63
490.688	7079.67
491.058	7268.59
491.428	7374.58
491.798	7539.32
492.168	7781.35
492.538	7870.39
492.908	8046.43
493.278	8180.66
493.648	8229.47
494.017	8409.13
494.387	8644.38
494.757	8683.25
495.126	8887.31
495.496	8968.89
495.866	9131.37
496.235	9231.93
496.605	9389.22
496.974	9561.42
497.344	9640.74
497.713	9828.3
498.082	9899.94
498.452	10121.17
498.821	10171.12
499.19	10294.5
499.559	10429.87
499.928	10584.44
500.298	10634.83
500.667	10837.54
501.036	10880.48
501.405	11055.16
501.774	11123.86
502.143	11260.35
502.512	11223.52
502.88	11303.97
503.249	11461.25
503.618	11673.22
503.987	11691.98
504.356	11757.97
504.724	11893.33
505.093	11929.26
505.462	12019.2
505.83	12193.21
506.199	12285.19
506.567	12438.85
506.936	12425.07
507.304	12649.92
507.672	12729.02
508.041	12816.47
508.409	12889.92
508.777	13027.76
509.145	13070.7
509.514	13081.55
509.882	13227.31
510.25	13203.81
510.618	13353.41
510.986	13319.06
511.354	13483.12
511.722	13627.07
512.09	13690.12
512.458	13631.36
512.826	13756.79
513.193	13755.43
513.561	13883.79
513.929	14008.3
514.297	14036.78
514.664	14146.15
515.032	14239.03
515.4	14291.46
515.767	14333.95
516.135	14439.25
516.502	14371.91
516.869	14561.74
517.237	14541.17
517.604	14493.04
517.972	14609.87
518.339	14631.56
518.706	14653.71
519.073	14761.96
519.44	14818.9
519.808	14890.54
520.175	14776.42
520.542	15032.23
520.909	15055.73
521.276	15060.03
521.643	15160.82
522.009	15201.49
522.376	15214.15
522.743	15353.35
523.11	15403.07
523.477	15486.23
523.843	15481.26
524.21	15618.88
524.577	15618.43
524.943	15682.61
525.31	15775.49
525.676	15827.69
526.043	15846.9
526.409	15868.82
526.776	16054.8
527.142	15996.5
527.508	15979.33
527.874	16036.05
528.241	16031.98
528.607	16050.96
528.973	16203.95
529.339	16163.73
529.705	16288.02
530.071	16283.05
530.437	16245.31
530.803	16236.27
531.169	16342.03
531.535	16233.56
531.901	16244.86
532.267	16308.36
532.632	16354.91
532.998	16330.05
533.364	16346.77
533.73	16375.02
534.095	16475.58
534.461	16321.01
534.826	16305.19
535.192	16326.21
535.557	16319.2
535.923	16348.58
536.288	16311.07
536.653	16334.12
537.019	16235.14
537.384	16303.38
537.749	16313.33
538.114	16210.51
538.479	16243.73
538.845	16218.42
539.21	16135.71
539.575	16192.88
539.94	16234.91
540.305	16246.44
540.67	16210.28
541.034	16165.54
541.399	16124.18
541.764	16147.46
542.129	16134.58
542.494	16065.88
542.858	16029.49
543.223	15924.19
543.587	16026.56
543.952	15901.81
544.316	16027.69
544.681	15818.2
545.045	15928.93
545.41	15912.21
545.774	15851.19
546.138	15886.67
546.503	15872.44
546.867	15738.65
547.231	15785.88
547.595	15689.62
547.959	15806.22
548.324	15628.37
548.688	15681.93
549.052	15661.59
549.416	15645.32
549.779	15538.43
550.143	15647.13
550.507	15702.95
550.871	15630.18
551.235	15555.83
551.599	15550.64
551.962	15555.83
552.326	15499.11
552.689	15527.59
553.053	15465.21
553.417	15363.75
553.78	15504.54
554.143	15423.41
554.507	15431.77
554.87	15417.31
555.234	15430.87
555.597	15352
555.96	15391.77
556.323	15416.18
556.686	15359
557.05	15350.87
557.413	15464.54
557.776	15429.28
558.139	15553.8
558.502	15399.45
558.865	15347.7
559.228	15500.47
559.59	15424.99
559.953	15355.16
560.316	15564.87
560.679	15422.73
561.041	15580.69
561.404	15496.17
561.767	15614.36
562.129	15434.71
562.492	15582.95
562.854	15545.21
563.217	15489.85
563.579	15498.89
563.941	15666.11
564.304	15617.75
564.666	15680.12
565.028	15684.19
565.39	15598.54
565.753	15661.14
566.115	15757.64
566.477	15812.78
566.839	15782.72
567.201	15822.27
567.563	15808.48
567.925	15905.2
568.287	15841.02
568.648	15878.76
569.01	15909.95
569.372	15943.39
569.734	15872.89
570.095	15976.84
570.457	16023.39
570.819	16085.76
571.18	16050.51
571.542	16082.6
571.903	16104.97
572.265	16158.08
572.626	16135.48
572.987	16145.42
573.349	16145.65
573.71	16293.67
574.071	16140.68
574.432	16193.33
574.794	16227.23
575.155	16187
575.516	16161.02
575.877	16200.11
576.238	16230.62
576.599	16268.13
576.96	16284.4
577.32	16269.49
577.681	16354.68
578.042	16350.16
578.403	16292.31
578.763	16351.07
579.124	16421.12
579.485	16355.13
579.845	16431.74
580.206	16372.31
580.566	16417.51
580.927	16340.45
581.287	16475.58
581.648	16273.78
582.008	16436.71
582.368	16349.49
582.728	16413.89
583.089	16288.47
583.449	16338.19
583.809	16338.86
584.169	16453.44
584.529	16353.33
584.889	16380.67
585.249	16350.16
585.609	16256.83
585.969	16336.83
586.329	16224.29
586.688	16370.5
587.048	16334.8
587.408	16228.58
587.768	16251.41
588.127	16262.93
588.487	16191.52
588.846	16219.55
589.206	16118.53
589.565	16171.64
589.925	16273.78
590.284	16212.77
590.643	16255.25
591.003	16182.94
591.362	16294.57
591.721	16107.91
592.08	16220.9
592.44	16219.32
592.799	16184.07
593.158	16076.95
593.517	16070.17
593.876	16181.13
594.235	16048.48
594.593	16102.71
594.952	16255.02
595.311	16193.56
595.67	16144.74
596.029	16238.98
596.387	16182.48
596.746	16184.52
597.104	16069.72
597.463	16183.84
597.822	16247.12
598.18	16154.24
598.538	16162.15
598.897	16243.95
599.255	15990.85
599.613	16171.18
599.972	16135.03
600.33	16192.2
600.688	16057.06
601.046	16180.45
601.404	16226.78
601.762	16087.35
602.12	16083.96
602.478	16158.08
602.836	16139.77
603.194	16050.51
603.552	16038.31
603.91	16128.47
604.268	16189.04
604.625	16057.29
604.983	16115.82
605.341	16038.31
605.698	16168.25
606.056	16128.25
606.413	16125.08
606.771	16203.73
607.128	16198.08
607.485	16168.47
607.843	16124.63
608.2	16260.45
608.557	16216.16
608.914	16197.17
609.272	16227.45
609.629	16251.63
609.986	16322.82
610.343	16278.3
610.7	16299.09
611.057	16297.74
611.414	16310.39
611.771	16333.89
612.127	16404.17
612.484	16325.76
612.841	16405.76
613.198	16331.86
613.554	16422.25
613.911	16481.46
614.267	16500.22
614.624	16493.66
614.98	16453.89
615.337	16450.5
615.693	16422.48
616.05	16527.33
616.406	16624.73
616.762	16446.66
617.118	16479.43
617.475	16574.11
617.831	16540.89
618.187	16535.7
618.543	16577.05
618.899	16614.79
619.255	16572.98
619.611	16573.89
619.967	16678.06
620.323	16682.36
620.678	16685.97
621.034	16481.69
621.39	16579.54
621.746	16573.66
622.101	16796.03
622.457	16660.21
622.812	16704.05
623.168	16655.69
623.523	16716.93
623.879	16804.16
624.234	16615.69
624.589	16694.79
624.945	16701.79
625.3	16672.87
625.655	16622.02
626.01	16632.87
626.365	16667.22
626.72	16579.08
627.075	16574.56
627.43	16586.54
627.785	16566.2
628.14	16654.79
628.495	16525.98
628.85	16590.83
629.205	16541.12
629.559	16612.98
629.914	16485.98
630.269	16613.43
630.623	16429.94
630.978	16402.82
631.332	16532.98
631.687	16503.61
632.041	16477.39
632.396	16493.89
632.75	16452.53
633.104	16503.61
633.459	16367.34
633.813	16433.1
634.167	16441.69
634.521	16392.2
634.875	16391.29
635.229	16387.9
635.583	16301.58
635.937	16296.15
636.291	16205.99
636.645	16255.48
636.999	16244.18
637.352	16299.77
637.706	16083.5
638.06	16137.74
638.413	16113.33
638.767	16060.91
639.121	16148.13
639.474	15955.15
639.828	16018.87
640.181	16011.42
640.534	16109.27
640.888	16029.72
641.241	15969.61
641.594	16034.69
641.947	16010.29
642.301	15954.24
642.654	16023.17
643.007	15974.13
643.36	15979.78
643.713	15905.66
644.066	16065.65
644.419	15791.08
644.771	15768.03
645.124	15641.26
645.477	15594.25
645.83	15605.55
646.182	15494.82
646.535	15407.82
646.888	15461.6
647.24	15382.51
647.593	15475.61
647.945	15374.6
648.298	15352.68
648.65	15344.54
649.002	15227.25
649.355	15455.72
649.707	15377.53
650.059	15444.42
650.411	15690.07
650.763	15626.57
651.115	15779.56
651.467	15732.78
651.819	15715.83
652.171	15636.28
652.523	15670.63
652.875	15716.51
653.227	15597.87
653.578	15749.73
653.93	15621.59
654.282	15704.98
654.633	15583.4
654.985	15617.75
655.337	15676.28
655.688	15692.33
656.039	15751.31
656.391	15634.7
656.742	15622.95
657.094	15648.71
657.445	15711.08
657.796	15659.79
658.147	15611.43
658.498	15537.53
658.849	15686.9
659.2	15680.58
659.551	15652.1
659.902	15720.58
660.253	15644.42
660.604	15737.98
660.955	15584.99
661.306	15702.04
661.656	15647.36
662.007	15595.38
662.358	15598.54
662.708	15684.64
663.059	15653.46
663.409	15558.32
663.76	15630.86
664.11	15709.73
664.461	15744.76
664.811	15688.49
665.161	15741.37
665.511	15693.23
665.862	15645.78
666.212	15757.18
666.562	15712.89
666.912	15706.11
667.262	15712.67
667.612	15737.52
667.962	15758.09
668.312	15642.39
668.662	15726
669.011	15674.7
669.361	15669.28
669.711	15678.99
670.06	15592.22
670.41	15551.31
670.76	15647.13
671.109	15699.33
671.459	15637.87
671.808	15538.21
672.157	15653.91
672.507	15538.21
672.856	15575.95
673.205	15555.16
673.554	15649.84
673.904	15554.25
674.253	15578.43
674.602	15506.12
674.951	15394.93
675.3	15245.79
675.649	15426.8
675.998	15463.63
676.346	15516.51
676.695	15548.15
677.044	15417.08
677.393	15313.81
677.741	15373.24
678.09	15375.73
678.438	15335.27
678.787	15303.86
679.135	15465.44
679.484	15213.02
679.832	15247.59
680.181	15177.99
680.529	15208.72
680.877	15182.96
681.225	15204.88
681.573	15203.07
681.922	15147.71
682.27	15045.79
682.618	15059.58
682.966	14925.57
683.314	15021.16
683.661	14992.46
684.009	14924.66
684.357	14867.04
684.705	14850.99
685.053	14865.68
685.4	14893.03
685.748	14754.95
686.095	14661.39
686.443	14655.07
686.79	14691.22
687.138	14775.29
687.485	14701.17
687.832	14648.51
688.18	14664.11
688.527	14535.52
688.874	14490.55
689.221	14424.11
689.568	14414.4
689.915	14326.71
690.262	14388.41
690.609	14356.77
690.956	14257.79
691.303	14233.83
691.65	14098.47
691.997	14190.67
692.344	14084.91
692.69	14092.82
693.037	14070.22
693.383	13887.63
693.73	13976.44
694.077	13894.41
694.423	13860.74
694.769	13858.93
695.116	13801.08
695.462	13743.9
695.808	13688.54
696.155	13711.81
696.501	13580.74
696.847	13584.59
697.193	13473.85
697.539	13506.62
697.885	13430.92
698.231	13338.94
698.577	13361.09
698.923	13279.51
699.269	13288.32
699.614	13133.75
699.96	13119.29
700.306	13116.58
700.651	13051.94
700.997	12986.86
701.342	13027.09
701.688	12972.17
702.033	12875.68
702.379	12960.87
702.724	12820.99
703.069	12931.27
703.415	12675.68
703.76	12739.18
704.105	12709.13
704.45	12614.67
704.795	12607.66
705.14	12542.35
705.485	12521.11
705.83	12450.38
706.175	12436.59
706.52	12420.32
706.865	12312.76
707.209	12204.74
707.554	12281.8
707.899	12304.62
708.243	12102.59
708.588	12145.98
708.932	12065.53
709.277	12018.3
709.621	12072.76
709.966	12023.27
710.31	12043.16
710.654	11878.87
710.998	11920
711.342	11943.05
711.687	11916.61
712.031	11835.03
712.375	11834.12
712.719	11838.19
713.063	11739.66
713.407	11923.61
713.75	11769.04
714.094	11651.53
714.438	11643.17
714.782	11631.19
715.125	11574.92
715.469	11655.6
715.812	11625.77
716.156	11525.21
716.499	11580.57
716.843	11490.4
717.186	11444.53
717.53	11508.93
717.873	11517.3
718.216	11437.75
718.559	11414.02
718.902	11289.73
719.246	11396.4
719.589	11342.39
719.932	11319.79
720.275	11299.22
720.617	11346.91
720.96	11319.79
721.303	11288.15
721.646	11335.15
721.989	11243.63
722.331	11238.89
722.674	11249.96
723.016	11273.46
723.359	11326.57
723.701	11217.19
724.044	11124.99
724.386	11080.47
724.729	11183.97
725.071	11118.44
725.413	11100.81
725.755	11120.02
726.097	11133.58
726.439	10954.82
726.782	10997.76
727.124	11091.77
727.465	11047.93
727.807	11073.01
728.149	11004.77
728.491	10987.14
728.833	10935.39
729.175	10995.28
729.516	10925.45
729.858	10943.75
730.199	10944.43
730.541	10900.82
730.882	10880.93
731.224	10913.7
731.565	10934.03
731.906	10899.69
732.248	10882.06
732.589	10908.27
732.93	10875.05
733.271	10910.98
733.612	10927.71
733.953	10903.53
734.294	10877.54
734.635	10894.26
734.976	10969.06
735.317	10858.1
735.658	10850.87
735.999	10866.24
736.339	10898.33
736.68	10892.23
737.021	10929.97
737.361	10787.6
737.702	10942.62
738.042	10878.44
738.383	10766.13
738.723	10853.36
739.063	10892.91
739.404	10962.96
739.744	10940.14
740.084	10782.4
740.424	10931.77
740.764	10893.58
741.104	10916.63
741.444	10938.78
741.784	10988.95
742.124	10915.73
742.464	11004.77
742.804	10988.5
743.143	10974.03
743.483	11056.52
743.823	11103.75
744.162	11102.17
744.502	11194.14
744.841	11097.87
745.181	11195.27
745.52	11153.92
745.86	11213.8
746.199	11276.17
746.538	11351.42
746.877	11380.12
747.216	11415.6
747.556	11367.47
747.895	11428.71
748.234	11470.29
748.573	11558.42
748.911	11649.5
749.25	11658.31
749.589	11714.35
749.928	11774.46
750.267	11920
750.605	11923.61
750.944	12080.67
751.283	12073.21
751.621	12159.31
751.96	12215.36
752.298	12318.63
752.636	12381
752.975	12471.85
753.313	12522.24
753.651	12649.92
753.989	12653.99
754.327	12912.97
754.666	12918.62
755.004	13070.93
755.342	13281.54
755.679	13425.04
