Data from hue_140_FLMS001491_00046.txt Node
Date: Tue Feb 07 16:55:59 GMT 2017
User: dcchb
Spectrometer: FLMS00149
Trigger mode: 0
Integration Time (sec): 2.000000E-2
Scans to average: 10
Electric dark correction enabled: true
Nonlinearity correction enabled: false
Boxcar width: 0
XAxis mode: Wavelengths
Number of Pixels in Spectrum: 2048
>>>>>Begin Spectral Data<<<<<
341.393	-8.36
341.776	-8.36
342.16	-8.36
342.543	-49.26
342.927	-65.53
343.31	-83.61
343.693	-55.37
344.077	-53.11
344.46	-54.01
344.843	-42.03
345.226	-30.06
345.61	-42.94
345.993	-20.34
346.376	-11.3
346.759	11.07
347.142	16.95
347.525	28.02
347.908	63.5
348.291	71.86
348.674	103.27
349.057	98.08
349.44	133.1
349.823	145.98
350.206	165.19
350.588	195.02
350.971	192.31
351.354	237.73
351.737	229.6
352.119	258.75
352.502	257.85
352.884	262.37
353.267	286.77
353.65	293.33
354.032	276.38
354.414	303.27
354.797	316.6
355.179	345.53
355.562	329.71
355.944	327.68
356.326	333.1
356.709	337.39
357.091	341.01
357.473	333.78
357.855	342.82
358.238	315.7
358.62	346.43
359.002	319.09
359.384	334.23
359.766	323.83
360.148	346.43
360.53	340.78
360.912	332.42
361.294	320.22
361.676	315.47
362.057	317.96
362.439	337.62
362.821	349.6
363.203	341.46
363.584	323.16
363.966	339.65
364.348	313.44
364.729	318.86
365.111	316.83
365.493	322.48
365.874	314.79
366.256	315.47
366.637	323.16
367.019	294.23
367.4	311.63
367.781	308.24
368.163	315.47
368.544	296.26
368.925	314.34
369.306	314.12
369.688	331.29
370.069	298.3
370.45	314.57
370.831	329.71
371.212	303.49
371.593	305.98
371.974	332.65
372.355	298.75
372.736	308.24
373.117	317.05
373.498	306.21
373.879	311.4
374.26	304.62
374.641	298.3
375.021	308.47
375.402	322.93
375.783	318.86
376.163	321.35
376.544	332.19
376.925	312.76
377.305	315.7
377.686	307.79
378.066	333.32
378.447	310.27
378.827	339.88
379.208	341.01
379.588	315.25
379.968	327.68
380.349	317.51
380.729	320.22
381.109	332.19
381.489	335.13
381.87	338.75
382.25	328.13
382.63	334.23
383.01	341.46
383.39	322.03
383.77	339.65
384.15	341.01
384.53	343.27
384.91	342.82
385.29	358.63
385.67	359.09
386.049	347.11
386.429	339.65
386.809	333.1
387.189	349.37
387.568	361.57
387.948	333.55
388.328	343.95
388.707	373.32
389.087	361.57
389.466	376.94
389.846	362.48
390.225	364.74
390.605	355.24
390.984	362.02
391.363	345.75
391.743	373.1
392.122	367
392.501	360.67
392.881	372.42
393.26	361.57
393.639	369.71
394.018	372.87
394.397	369.03
394.776	388.24
395.155	383.04
395.534	387.79
395.913	378.52
396.292	376.49
396.671	404.06
397.05	372.42
397.429	371.97
397.808	371.97
398.186	391.4
398.565	376.04
398.944	411.29
399.323	405.41
399.701	386.88
400.08	383.49
400.458	402.25
400.837	409.48
401.215	405.19
401.594	392.31
401.972	413.1
402.351	397.73
402.729	392.08
403.107	402.7
403.486	416.49
403.864	432.31
404.242	418.75
404.62	407.9
404.999	425.3
405.377	430.05
405.755	424.85
406.133	416.71
406.511	420.33
406.889	419.42
407.267	414
407.645	432.53
408.023	451.97
408.401	443.6
408.779	438.86
409.156	457.84
409.534	455.13
409.912	446.09
410.29	441.12
410.667	462.13
411.045	449.03
411.422	482.7
411.8	455.36
412.178	437.5
412.555	457.62
412.933	455.13
413.31	455.36
413.687	475.47
414.065	468.91
414.442	493.09
414.819	482.02
415.197	489.48
415.574	500.33
415.951	484.51
416.328	488.57
416.705	471.63
417.082	486.31
417.46	492.64
417.837	514.11
418.214	489.93
418.591	507.11
418.967	489.25
419.344	495.13
419.721	511.62
420.098	522.47
420.475	537.16
420.852	524.05
421.228	531.74
421.605	512.75
421.982	514.11
422.358	531.29
422.735	547.1
423.111	543.49
423.488	564.73
423.864	548.69
424.241	540.32
424.617	564.5
424.994	562.92
425.37	570.38
425.746	581.68
426.123	575.35
426.499	560.44
426.875	573.54
427.251	577.16
427.627	580.55
428.003	588.01
428.379	593.66
428.756	596.59
429.132	619.42
429.507	585.52
429.883	610.61
430.259	619.64
430.635	633.66
431.011	620.55
431.387	622.81
431.763	641.79
432.138	638.4
432.514	657.61
432.89	645.63
433.265	646.08
433.641	674.56
434.016	669.81
434.392	666.42
434.767	695.57
435.143	682.92
435.518	677.95
435.894	691.73
436.269	706.87
436.644	736.03
437.02	727.89
437.395	723.37
437.77	724.95
438.145	716.37
438.52	757.72
438.895	745.97
439.271	734.44
439.646	737.61
440.021	766.53
440.395	775.8
440.77	759.75
441.145	755.01
441.52	763.82
441.895	772.64
442.27	787.55
442.645	774.22
443.019	786.65
443.394	790.94
443.769	817.83
444.143	803.37
444.518	790.94
444.892	816.93
445.267	834.33
445.641	832.75
446.016	837.27
446.39	801.56
446.764	832.52
447.139	816.93
447.513	829.36
447.887	832.75
448.262	840.88
448.636	845.4
449.01	885.4
449.384	869.81
449.758	859.41
450.132	863.03
450.506	881.33
450.88	881.33
451.254	875.01
451.628	903.25
452.002	900.99
452.376	925.17
452.75	904.38
453.123	921.11
453.497	933.53
453.871	927.66
454.244	944.61
454.618	937.15
454.992	966.08
455.365	981.67
455.739	988.67
456.112	1016.7
456.486	1018.28
456.859	1035.23
457.232	1058.28
457.606	1048.56
457.979	1066.64
458.352	1078.62
458.725	1099.86
459.099	1093.98
459.472	1111.61
459.845	1131.04
460.218	1151.83
460.591	1124.49
460.964	1132.85
461.337	1159.52
461.71	1193.41
462.083	1202
462.456	1209.46
462.829	1211.27
463.201	1209.01
463.574	1242
463.947	1233.87
464.32	1305.28
464.692	1278.16
465.065	1306.18
465.438	1320.19
465.81	1322.9
466.183	1396.35
466.555	1401.55
466.928	1390.47
467.3	1432.05
467.672	1476.57
468.045	1462.11
468.417	1469.79
468.789	1465.5
469.161	1510.47
469.534	1569.68
469.906	1597.92
470.278	1571.03
470.65	1625.95
471.022	1663.91
471.394	1674.76
471.766	1709.79
472.138	1750.91
472.51	1787.98
472.882	1841.76
473.253	1858.48
473.625	1885.6
473.997	1928.99
474.369	1954.07
474.74	1994.98
475.112	2022.32
475.484	2098.48
475.855	2153.16
476.227	2178.25
476.598	2261.86
476.97	2286.27
477.341	2342.09
477.713	2439.71
478.084	2441.97
478.455	2563.1
478.827	2593.6
479.198	2678.35
479.569	2689.42
479.94	2839.93
480.311	2834.05
480.682	2961.96
481.053	3056.64
481.424	3122.18
481.795	3190.42
482.166	3276.3
482.537	3351.55
482.908	3451.66
483.279	3501.6
483.65	3662.5
484.021	3732.78
484.391	3913.12
484.762	3888.49
485.133	4020.46
485.503	4100.01
485.874	4236.95
486.244	4335.03
486.615	4491.18
486.985	4566.43
487.356	4689.14
487.726	4779.31
488.097	4962.13
488.467	5043.26
488.837	5207.55
489.207	5294.55
489.578	5422
489.948	5537.26
490.318	5683.01
490.688	5768.66
491.058	5927.08
491.428	6018.15
491.798	6186.05
492.168	6315.31
492.538	6416.78
492.908	6553.95
493.278	6673.04
493.648	6772.48
494.017	6908.74
494.387	7058.35
494.757	7143.99
495.126	7330.43
495.496	7421.5
495.866	7435.51
496.235	7668.27
496.605	7754.15
496.974	7873.47
497.344	7956.63
497.713	8073.46
498.082	8138.32
498.452	8308.71
498.821	8390.29
499.19	8465.99
499.559	8579.44
499.928	8686.55
500.298	8900.56
500.667	8932.65
501.036	8969.71
501.405	9128.57
501.774	9096.26
502.143	9225.97
502.512	9346.87
502.88	9436.59
503.249	9541.44
503.618	9567.43
503.987	9740.31
504.356	9738.28
504.724	9840.65
505.093	9942.34
505.462	10014.65
505.83	10065.05
506.199	10111.82
506.567	10307.98
506.936	10175.1
507.304	10424.13
507.672	10403.79
508.041	10508.88
508.409	10590.23
508.777	10692.83
509.145	10786.38
509.514	10774.63
509.882	10797
510.25	10908.19
510.618	10894.18
510.986	10924.91
511.354	11074.96
511.722	11149.99
512.09	11201.97
512.458	11193.6
512.826	11279.93
513.193	11330.78
513.561	11397.44
513.929	11433.6
514.297	11571.67
514.664	11573.03
515.032	11538
515.4	11602.41
515.767	11688.28
516.135	11727.38
516.502	11580.03
516.869	11830.88
517.237	11741.61
517.604	11709.07
517.972	11905.9
518.339	11928.5
518.706	11888.73
519.073	11924.21
519.44	11959.91
519.808	12055.73
520.175	11983.41
520.542	12118.78
520.909	12143.18
521.276	12086.01
521.643	12236.06
522.009	12244.2
522.376	12274.03
522.743	12285.55
523.11	12262.73
523.477	12381.14
523.843	12377.98
524.21	12525.32
524.577	12601.48
524.943	12561.7
525.31	12491.65
525.676	12550.86
526.043	12640.57
526.409	12588.82
526.776	12786.33
527.142	12731.19
527.508	12671.98
527.874	12740.68
528.241	12727.35
528.607	12770.51
528.973	12808.02
529.339	12755.82
529.705	12837.85
530.071	12803.05
530.437	12838.08
530.803	12873.11
531.169	12843.96
531.535	12776.16
531.901	12825.65
532.267	12779.32
532.632	12852.77
532.998	12840.11
533.364	12846.44
533.73	12794.69
534.095	12780
534.461	12801.92
534.826	12821.36
535.192	12797.18
535.557	12836.27
535.923	12862.94
536.288	12744.75
536.653	12742.72
537.019	12657.75
537.384	12604.41
537.749	12579.56
538.114	12657.75
538.479	12622.94
538.845	12547.01
539.21	12612.78
539.575	12532.55
539.94	12550.18
540.305	12501.82
540.67	12421.14
541.034	12434.48
541.399	12459.11
541.764	12360.58
542.129	12366.68
542.494	12359.68
542.858	12332.78
543.223	12282.16
543.587	12325.55
543.952	12178.66
544.316	12160.58
544.681	12206.23
545.045	12180.92
545.41	12215.05
545.774	12106.8
546.138	12110.87
546.503	12003.75
546.867	11944.09
547.231	11982.28
547.595	11929.18
547.959	11956.3
548.324	11937.99
548.688	11865.22
549.052	11859.12
549.416	11826.81
549.779	11815.28
550.143	11778.67
550.507	11778.67
550.871	11816.86
551.235	11717.21
551.599	11719.69
551.962	11681.5
552.326	11611.45
552.689	11691.9
553.053	11620.49
553.417	11552.46
553.78	11677.43
554.143	11551.33
554.507	11669.98
554.87	11568.06
555.234	11588.62
555.597	11483.54
555.96	11534.16
556.323	11447.83
556.686	11512.69
557.05	11535.52
557.413	11432.92
557.776	11519.92
558.139	11560.37
558.502	11484.67
558.865	11451.22
559.228	11453.26
559.59	11446.25
559.953	11472.01
560.316	11544.56
560.679	11448.96
561.041	11501.62
561.404	11455.74
561.767	11493.94
562.129	11436.99
562.492	11562.63
562.854	11567.61
563.217	11470.21
563.579	11479.25
563.941	11463.65
564.304	11489.19
564.666	11539.81
565.028	11512.92
565.39	11595.18
565.753	11656.64
566.115	11594.72
566.477	11637.89
566.839	11590.2
567.201	11692.35
567.563	11598.79
567.925	11735.28
568.287	11649.41
568.648	11742.97
569.01	11643.31
569.372	11791.55
569.734	11717.43
570.095	11733.93
570.457	11747.26
570.819	11669.3
571.18	11750.88
571.542	11812.8
571.903	11767.83
572.265	11823.87
572.626	11861.38
572.987	11839.69
573.349	11857.99
573.71	11817.77
574.071	11859.12
574.432	11850.76
574.794	11972.57
575.155	11817.09
575.516	11872.91
575.877	11866.81
576.238	11870.42
576.599	11902.96
576.96	11898.67
577.32	11929.4
577.681	11978.67
578.042	11985.45
578.403	11936.41
578.763	11982.28
579.124	12011.21
579.485	11986.58
579.845	11975.28
580.206	11909.52
580.566	11989.97
580.927	11983.41
581.287	12016.63
581.648	11955.17
582.008	11989.74
582.368	11969.4
582.728	11985.45
583.089	11926.47
583.449	11872.23
583.809	11990.65
584.169	11898.9
584.529	11919.01
584.889	11970.08
585.249	11938.44
585.609	11935.73
585.969	12000.14
586.329	11828.62
586.688	11909.74
587.048	11831.1
587.408	11864.09
587.768	11840.37
588.127	11815.73
588.487	11823.19
588.846	11921.04
589.206	11769.63
589.565	11767.37
589.925	11845.56
590.284	11782.52
590.643	11829.29
591.003	11825.68
591.362	11815.28
591.721	11810.99
592.08	11796.3
592.44	11828.62
592.799	11831.33
593.158	11774.38
593.517	11808.96
593.876	11799.69
594.235	11715.85
594.593	11772.12
594.952	11785
595.311	11716.53
595.67	11690.77
596.029	11839.69
596.387	11804.21
596.746	11861.16
597.104	11681.95
597.463	11710.65
597.822	11750.2
598.18	11708.84
598.538	11662.97
598.897	11770.09
599.255	11627.04
599.613	11835.4
599.972	11701.84
600.33	11757.2
600.688	11702.74
601.046	11755.85
601.404	11741.39
601.762	11710.88
602.12	11786.58
602.478	11743.65
602.836	11776.64
603.194	11654.61
603.552	11718.56
603.91	11662.07
604.268	11758.79
604.625	11682.86
604.983	11756.98
605.341	11707.26
605.698	11753.14
606.056	11743.65
606.413	11773.93
606.771	11799.01
607.128	11728.96
607.485	11730.09
607.843	11763.76
608.2	11836.52
608.557	11819.12
608.914	11809.18
609.272	11826.13
609.629	11861.83
609.986	11924.66
610.343	11811.67
610.7	11945.67
611.057	11880.82
611.414	11815.96
611.771	11857.54
612.127	11871.55
612.484	11916.97
612.841	11904.32
613.198	11867.26
613.554	11937.09
613.911	12019.8
614.267	11934.38
614.624	11987.26
614.98	11899.12
615.337	11996.97
615.693	11959.91
616.05	11946.35
616.406	12083.3
616.762	11999.46
617.118	12031.77
617.475	11940.7
617.831	12083.52
618.187	12053.02
618.543	12066.8
618.899	12210.3
619.255	12031.1
619.611	12042.62
619.967	12207.36
620.323	12204.2
620.678	12116.07
621.034	12140.47
621.39	12089.85
621.746	12112.45
622.101	12216.85
622.457	12027.71
622.812	12125.78
623.168	12086.24
623.523	12146.8
623.879	12133.69
624.234	12067.03
624.589	12099.34
624.945	12192.22
625.3	12147.7
625.655	12131.21
626.01	12166.46
626.365	12127.14
626.72	12132.34
627.075	12016.18
627.43	12058.21
627.785	12048.72
628.14	12054.82
628.495	12201.04
628.85	12090.98
629.205	12069.74
629.559	12075.61
629.914	12034.94
630.269	12046.46
630.623	12024.32
630.978	11988.39
631.332	12031.1
631.687	12025.67
632.041	11999.91
632.396	11951.32
632.75	11920.82
633.104	11993.58
633.459	11898.67
633.813	11916.07
634.167	11927.14
634.521	11862.96
634.875	11957.88
635.229	11861.61
635.583	11750.2
635.937	11824.1
636.291	11877.65
636.645	11822.74
636.999	11832.91
637.352	11885.11
637.706	11786.36
638.06	11789.75
638.413	11791.1
638.767	11695.51
639.121	11783.19
639.474	11731.67
639.828	11770.31
640.181	11762.18
640.534	11694.16
640.888	11617.32
641.241	11581.84
641.594	11613.93
641.947	11772.8
642.301	11637.21
642.654	11643.76
643.007	11637.21
643.36	11598.57
643.713	11605.57
644.066	11608.51
644.419	11585.46
644.771	11499.58
645.124	11343.2
645.477	11441.28
645.83	11314.73
646.182	11236.31
646.535	11229.54
646.888	11318.8
647.24	11243.32
647.593	11318.35
647.945	11223.43
648.298	11148.63
648.65	11231.12
649.002	11189.76
649.355	11232.02
649.707	11216.88
650.059	11260.49
650.411	11421.62
650.763	11371.9
651.115	11470.21
651.467	11410.1
651.819	11486.03
652.171	11525.12
652.523	11414.16
652.875	11524.22
653.227	11400.38
653.578	11451.9
653.93	11438.57
654.282	11391.11
654.633	11308.63
654.985	11418.23
655.337	11443.99
655.688	11436.99
656.039	11418.68
656.391	11432.02
656.742	11409.64
657.094	11425.01
657.445	11426.37
657.796	11423.65
658.147	11389.76
658.498	11343.43
658.849	11408.97
659.2	11425.91
659.551	11422.3
659.902	11494.61
660.253	11398.57
660.604	11441.73
660.955	11417.1
661.306	11467.04
661.656	11401.96
662.007	11431.79
662.358	11394.5
662.708	11509.75
663.059	11389.53
663.409	11393.6
663.76	11511.11
664.11	11411.9
664.461	11520.83
664.811	11474.95
665.161	11487.83
665.511	11465.91
665.862	11507.95
666.212	11446.7
666.562	11514.05
666.912	11512.92
667.262	11538.45
667.612	11525.8
667.962	11544.78
668.312	11455.52
668.662	11491.45
669.011	11498.68
669.361	11385.46
669.711	11469.75
670.06	11449.87
670.41	11363.54
670.76	11394.28
671.109	11418.46
671.459	11447.83
671.808	11331
672.157	11399.7
672.507	11352.92
672.856	11403.54
673.205	11314.73
673.554	11356.54
673.904	11298.69
674.253	11421.85
674.602	11357.89
674.951	11261.17
675.3	11137.33
675.649	11311.12
675.998	11300.27
676.346	11300.95
676.695	11347.05
677.044	11145.02
677.393	11323.09
677.741	11267.95
678.09	11232.47
678.438	11218.24
678.787	11253.26
679.135	11203.1
679.484	11178.01
679.832	11205.81
680.181	11092.14
680.529	11196.77
680.877	11108.86
681.225	11066.38
681.573	11105.7
681.922	11027.05
682.27	11055.08
682.618	11049.2
682.966	10997
683.314	10961.75
683.661	10958.13
684.009	10983.67
684.357	10931.46
684.705	10898.02
685.053	10874.74
685.4	10852.6
685.748	10818.92
686.095	10729.21
686.443	10783.67
686.79	10750
687.138	10779.38
687.485	10801.52
687.832	10676.1
688.18	10735.76
688.527	10688.31
688.874	10612.6
689.221	10589.33
689.568	10597.69
689.915	10510.91
690.262	10632.49
690.609	10525.6
690.956	10438.82
691.303	10468.2
691.65	10412.61
691.997	10423.68
692.344	10317.47
692.69	10311.59
693.037	10321.76
693.383	10246.51
693.73	10283.12
694.077	10171.71
694.423	10109.79
694.769	10125.38
695.116	10160.86
695.462	10106.63
695.808	10043.35
696.155	10032.96
696.501	9935.33
696.847	10020.98
697.193	9895.56
697.539	9882.23
697.885	9802
698.231	9794.77
698.577	9794.77
698.923	9730.14
699.269	9692.4
699.614	9592.29
699.96	9631.16
700.306	9615.34
700.651	9560.65
700.997	9452.41
701.342	9533.76
701.688	9453.76
702.033	9430.94
702.379	9446.08
702.724	9407.21
703.069	9442.92
703.415	9291.28
703.76	9331.28
704.105	9293.31
704.45	9312.52
704.795	9229.14
705.14	9169.7
705.485	9150.72
705.83	9168.12
706.175	9129.48
706.52	9098.07
706.865	9077.5
707.209	9061.46
707.554	9021.23
707.899	9077.95
708.243	8967.45
708.588	8906.21
708.932	8908.47
709.277	8912.99
709.621	8842.93
709.966	8840.9
710.31	8865.76
710.654	8826.66
710.998	8764.74
711.342	8708.02
711.687	8680.45
712.031	8626.67
712.375	8708.02
712.719	8621.92
713.063	8647
713.407	8661.47
713.75	8638.87
714.094	8679.32
714.438	8611.98
714.782	8534.69
715.125	8473
715.469	8571.07
715.812	8497.4
716.156	8529.72
716.499	8489.27
716.843	8465.99
717.186	8419.21
717.53	8444.75
717.873	8425.77
718.216	8435.94
718.559	8428.48
718.902	8312.1
719.246	8357.97
719.589	8381.93
719.932	8346.9
720.275	8301.02
720.617	8347.35
720.96	8314.36
721.303	8246.34
721.646	8264.87
721.989	8319.56
722.331	8342.15
722.674	8291.08
723.016	8293.79
723.359	8196.17
723.701	8365.2
724.044	8199.56
724.386	8133.35
724.729	8243.63
725.071	8223.74
725.413	8130.86
725.755	8218.99
726.097	8162.5
726.439	8149.16
726.782	8061.48
727.124	8190.97
727.465	8138.54
727.807	8157.07
728.149	8150.97
728.491	8137.64
728.833	8143.97
729.175	8056.06
729.516	8051.99
729.858	8116.4
730.199	8167.47
730.541	8034.14
730.882	8069.84
731.224	8114.59
731.565	8068.71
731.906	8109.17
732.248	8104.65
732.589	8069.62
732.93	8000.02
733.271	8086.79
733.612	8116.62
733.953	8116.62
734.294	8035.72
734.635	8029.62
734.976	8087.24
735.317	8090.41
735.658	8027.59
735.999	8048.15
736.339	8086.57
736.68	8064.42
737.021	8080.47
737.361	8035.49
737.702	8162.27
738.042	8031.2
738.383	8060.35
738.723	8054.93
739.063	8127.47
739.404	8119.56
739.744	8092.89
740.084	8059.9
740.424	8106.23
740.764	8152.33
741.104	8220.35
741.444	8151.2
741.784	8154.81
742.124	8228.71
742.464	8170.18
742.804	8202.72
743.143	8225.09
743.483	8215.15
743.823	8256.73
744.162	8254.02
744.502	8332.66
744.841	8304.41
745.181	8361.59
745.52	8342.83
745.86	8418.76
746.199	8480.45
746.538	8510.06
746.877	8500.12
747.216	8569.72
747.556	8601.58
747.895	8618.3
748.234	8626.89
748.573	8706.66
748.911	8707.34
749.25	8833.89
749.589	8890.39
749.928	8938.97
750.267	9003.15
750.605	9096.26
750.944	9090.61
751.283	9123.15
751.621	9273.88
751.96	9289.25
752.298	9365.4
752.636	9438.4
752.975	9517.26
753.313	9627.32
753.651	9672.97
753.989	9798.16
754.327	9917.03
754.666	10009.45
755.004	10046.52
755.342	10239.05
755.679	10308.66
756.017	10405.38
756.355	10591.81
756.693	10692.6
757.031	10777.34
757.368	10940.05
757.706	11127.62
758.044	11176.43
758.381	11317.89
758.719	11498.23
759.056	11662.97
759.394	11840.82
759.731	11949.52
760.068	11989.74
760.405	12202.39
