Data from hue_160_FLMS001491_00073.txt Node
Date: Tue Feb 07 16:51:40 GMT 2017
User: dcchb
Spectrometer: FLMS00149
Trigger mode: 0
Integration Time (sec): 2.000000E-2
Scans to average: 10
Electric dark correction enabled: true
Nonlinearity correction enabled: false
Boxcar width: 0
XAxis mode: Wavelengths
Number of Pixels in Spectrum: 2048
>>>>>Begin Spectral Data<<<<<
341.393	-21.51
341.776	-21.51
342.16	-21.51
342.543	-47.05
342.927	-81.17
343.31	-68.06
343.693	-83.88
344.077	-64.45
344.46	-51.11
344.843	-54.96
345.226	-55.18
345.61	-28.52
345.993	-18.35
346.376	-3.21
346.759	8.54
347.142	41.31
347.525	66.17
347.908	35.21
348.291	78.37
348.674	91.25
349.057	106.85
349.44	121.31
349.823	124.47
350.206	170.35
350.588	196.56
350.971	199.05
351.354	221.87
351.737	248.31
352.119	253.28
352.502	264.81
352.884	277.69
353.267	278.37
353.65	290.8
354.032	296.45
354.414	308.65
354.797	322.66
355.179	314.98
355.562	323.11
355.944	330.57
356.326	340.74
356.709	352.94
357.091	332.38
357.473	331.02
357.855	319.05
358.238	329.21
358.62	340.51
359.002	335.09
359.384	331.25
359.766	324.92
360.148	332.83
360.53	333.96
360.912	358.37
361.294	345.26
361.676	331.02
362.057	330.57
362.439	312.04
362.821	319.95
363.203	336.9
363.584	332.15
363.966	332.15
364.348	335.54
364.729	329.89
365.111	331.25
365.493	319.05
365.874	324.69
366.256	329.89
366.637	309.55
367.019	305.03
367.4	318.82
367.781	317.92
368.163	318.37
368.544	312.27
368.925	312.27
369.306	322.21
369.688	310.68
370.069	328.31
370.45	311.14
370.831	304.36
371.212	307.07
371.593	300.97
371.974	326.05
372.355	300.97
372.736	319.5
373.117	314.98
373.498	300.51
373.879	322.44
374.26	316.11
374.641	303.68
375.021	330.34
375.402	321.53
375.783	333.73
376.163	324.69
376.544	350
376.925	335.09
377.305	322.44
377.686	337.35
378.066	309.78
378.447	319.27
378.827	335.09
379.208	318.59
379.588	334.41
379.968	335.54
380.349	340.74
380.729	335.99
381.109	338.03
381.489	330.12
381.87	335.32
382.25	325.15
382.63	348.2
383.01	317.24
383.39	341.42
383.77	334.86
384.15	344.58
384.53	329.21
384.91	347.97
385.29	342.1
385.67	345.26
386.049	364.24
386.429	338.03
386.809	335.77
387.189	340.74
387.568	345.49
387.948	326.95
388.328	351.13
388.707	367.86
389.087	370.8
389.466	356.33
389.846	379.83
390.225	368.08
390.605	355.43
390.984	362.89
391.363	347.97
391.743	371.02
392.122	359.04
392.501	364.02
392.881	360.63
393.26	381.87
393.639	378.48
394.018	386.16
394.397	370.12
394.776	366.95
395.155	396.33
395.534	387.29
395.913	388.42
396.292	393.39
396.671	391.81
397.05	366.73
397.429	398.59
397.808	385.26
398.186	372.15
398.565	403.56
398.944	380.06
399.323	393.39
399.701	381.19
400.08	390.68
400.458	397.46
400.837	392.49
401.215	420.74
401.594	393.85
401.972	390
402.351	404.69
402.729	418.48
403.107	415.54
403.486	404.24
403.864	427.97
404.242	420.51
404.62	405.6
404.999	406.73
405.377	412.15
405.755	411.47
406.133	433.62
406.511	402.21
406.889	416.22
407.267	435.88
407.645	452.38
408.023	451.25
408.401	426.39
408.779	446.95
409.156	438.82
409.534	444.47
409.912	442.43
410.29	435.43
410.667	459.83
411.045	472.04
411.422	479.27
411.8	485.37
412.178	454.18
412.555	479.49
412.933	498.02
413.31	480.85
413.687	472.04
414.065	491.7
414.442	473.39
414.819	500.28
415.197	516.78
415.574	495.76
415.951	493.5
416.328	534.41
416.705	515.65
417.082	510.68
417.46	524.92
417.837	538.7
418.214	538.7
418.591	533.05
418.967	533.73
419.344	526.72
419.721	530.57
420.098	531.24
420.475	515.88
420.852	553.84
421.228	546.84
421.605	554.97
421.982	561.07
422.358	562.2
422.735	575.54
423.111	571.02
423.488	565.14
423.864	559.72
424.241	593.39
424.617	585.25
424.994	577.12
425.37	597.91
425.746	606.95
426.123	604.69
426.499	606.5
426.875	594.74
427.251	598.81
427.627	607.17
428.003	619.83
428.379	629.32
428.756	639.49
429.132	637.91
429.507	662.31
429.883	650.11
430.259	656.21
430.635	652.6
431.011	670
431.387	668.41
431.763	685.82
432.138	703.67
432.514	671.8
432.89	717.9
433.265	720.62
433.641	702.31
434.016	716.32
434.392	733.95
434.767	731.24
435.143	762.42
435.518	744.8
435.894	754.97
436.269	759.03
436.644	772.14
437.02	776.21
437.395	777.34
437.77	772.82
438.145	808.75
438.52	800.61
438.895	796.55
439.271	825.25
439.646	825.25
440.021	829.54
440.395	831.35
440.77	849.43
441.145	851.46
441.52	868.86
441.895	855.75
442.27	888.75
442.645	862.08
443.019	898.47
443.394	868.18
443.769	868.64
444.143	870.67
444.518	904.11
444.892	888.75
445.267	920.61
445.641	912.7
446.016	923.55
446.39	937.79
446.764	941.18
447.139	912.7
447.513	934.85
447.887	930.78
448.262	950.44
448.636	955.64
449.01	967.39
449.384	985.47
449.758	974.4
450.132	979.82
450.506	1000.38
450.88	1015.52
451.254	1003.1
451.628	1024.34
452.002	1022.53
452.376	1048.74
452.75	1052.36
453.123	1036.09
453.497	1080.83
453.871	1094.17
454.244	1091.45
454.618	1080.61
454.992	1111.34
455.365	1157.44
455.739	1159.48
456.112	1148.85
456.486	1160.83
456.859	1178.68
457.232	1204.45
457.606	1190.66
457.979	1225.01
458.352	1239.47
458.725	1226.14
459.099	1250.09
459.472	1291.45
459.845	1298
460.218	1289.19
460.591	1309.3
460.964	1320.15
461.337	1357.66
461.71	1379.36
462.083	1413.48
462.456	1398.56
462.829	1410.77
463.201	1461.16
463.574	1456.64
463.947	1466.81
464.32	1507.26
464.692	1550.43
465.065	1510.2
465.438	1548.84
465.81	1577.32
466.183	1580.26
466.555	1616.41
466.928	1613.7
467.3	1673.81
467.672	1671.78
468.045	1717.43
468.417	1751.55
468.789	1728.05
469.161	1820.93
469.534	1852.79
469.906	1863.86
470.278	1906.57
470.65	1910.19
471.022	1956.29
471.394	2009.62
471.766	2053.91
472.138	2109.28
472.51	2135.49
472.882	2167.36
473.253	2199.67
473.625	2244.87
473.997	2293.46
474.369	2344.75
474.74	2396.5
475.112	2434.92
475.484	2552.21
475.855	2581.81
476.227	2589.49
476.598	2687.34
476.97	2725.54
477.341	2827.91
477.713	2891.63
478.084	2920.78
478.455	3029.71
478.827	3090.95
479.198	3176.15
479.569	3236.93
479.94	3351.73
480.311	3403.94
480.682	3458.17
481.053	3604.38
481.424	3700.65
481.795	3786.52
482.166	3906.3
482.537	3968.21
482.908	4077.36
483.279	4171.15
483.65	4252.95
484.021	4391.71
484.391	4483.46
484.762	4539.05
485.133	4699.04
485.503	4805.93
485.874	4963.44
486.244	5044.8
486.615	5191.01
486.985	5299.25
487.356	5422.64
487.726	5490.66
488.097	5716.87
488.467	5781.05
488.837	5893.36
489.207	6036.86
489.578	6205.67
489.948	6265.78
490.318	6432.78
490.688	6512.78
491.058	6639.11
491.428	6793.45
491.798	6963.84
492.168	7111.86
492.538	7179.88
492.908	7338.07
493.278	7500.78
493.648	7572.41
494.017	7715.46
494.387	7791.39
494.757	7939.18
495.126	8108.22
495.496	8143.47
495.866	8294.88
496.235	8432.28
496.605	8535.78
496.974	8610.35
497.344	8736.45
497.713	8856
498.082	8965.15
498.452	9130.11
498.821	9172.82
499.19	9263.89
499.559	9333.05
499.928	9453.27
500.298	9591.12
500.667	9626.37
501.036	9728.52
501.405	9740.94
501.774	9805.12
502.143	10030.88
502.512	10046.25
502.88	10202.85
503.249	10167.37
503.618	10323.3
503.987	10350.42
504.356	10400.59
504.724	10527.59
505.093	10573.24
505.462	10613.92
505.83	10629.06
506.199	10812.33
506.567	10958.31
506.936	10909.95
507.304	11010.74
507.672	11079.89
508.041	11177.74
508.409	11158.08
508.777	11268.81
509.145	11383.61
509.514	11356.27
509.882	11388.81
510.25	11492.08
510.618	11506.77
510.986	11597.39
511.354	11644.85
511.722	11763.72
512.09	11790.61
512.458	11829.25
512.826	11877.61
513.193	11917.38
513.561	11962.13
513.929	12059.98
514.297	12090.49
514.664	12157.83
515.032	12124.16
515.4	12207.09
515.767	12200.77
516.135	12295
516.502	12272.18
516.869	12417.26
517.237	12441.44
517.604	12302.23
517.972	12425.17
518.339	12513.53
518.706	12431.72
519.073	12462.23
519.44	12623.81
519.808	12657.48
520.175	12617.25
520.542	12781.09
520.909	12761.2
521.276	12750.58
521.643	12792.39
522.009	12803.01
522.376	12858.83
522.743	12911.71
523.11	13028.32
523.477	13014.3
523.843	13077.58
524.21	13159.39
524.577	13167.07
524.943	13200.06
525.31	13209.1
525.676	13310.57
526.043	13251.36
526.409	13325.93
526.776	13375.2
527.142	13299.49
527.508	13366.84
527.874	13361.19
528.241	13393.96
528.607	13279.16
528.973	13386.05
529.339	13455.42
529.705	13488.87
530.071	13453.39
530.437	13417.68
530.803	13553.05
531.169	13494.07
531.535	13383.11
531.901	13508.75
532.267	13520.51
532.632	13441.86
532.998	13464.01
533.364	13420.62
533.73	13454.29
534.095	13483.67
534.461	13502.2
534.826	13440.51
535.192	13361.19
535.557	13415.42
535.923	13419.72
536.288	13413.84
536.653	13346.5
537.019	13371.36
537.384	13358.25
537.749	13349.21
538.114	13286.84
538.479	13238.71
538.845	13270.57
539.21	13200.51
539.575	13129.78
539.94	13174.3
540.305	13159.16
540.67	12991.71
541.034	13120.06
541.399	13058.15
541.764	12962.55
542.129	13010.01
542.494	12923.69
542.858	12942.22
543.223	12909.9
543.587	12927.53
543.952	12792.84
544.316	12796.68
544.681	12744.71
545.045	12646.86
545.41	12709.23
545.774	12707.87
546.138	12716.01
546.503	12632.17
546.867	12591.26
547.231	12562.34
547.595	12603.92
547.959	12541.1
548.324	12417.03
548.688	12404.83
549.052	12363.47
549.416	12356.47
549.779	12344.72
550.143	12317.15
550.507	12344.27
550.871	12342.68
551.235	12284.61
551.599	12308.56
551.962	12180.2
552.326	12233.08
552.689	12133.65
553.053	12159.64
553.417	12020.21
553.78	12233.08
554.143	12067.44
554.507	12067.21
554.87	12066.08
555.234	12107.66
555.597	11967.78
555.96	12024.95
556.323	12084.39
556.686	11967.78
557.05	12027.66
557.413	12009.13
557.776	12015.46
558.139	12011.17
558.502	11963.03
558.865	11930.27
559.228	11953.54
559.59	11931.4
559.953	11845.75
560.316	11948.57
560.679	12024.95
561.041	11946.99
561.404	12018.62
561.767	11979.3
562.129	11885.75
562.492	12071.05
562.854	11979.98
563.217	11902.92
563.579	11924.62
563.941	11944.5
564.304	11947.89
564.666	11971.62
565.028	12074.22
565.39	11996.7
565.753	12049.58
566.115	12003.48
566.477	12066.08
566.839	12017.95
567.201	12114.22
567.563	12085.97
567.925	12108.11
568.287	12087.32
568.648	12145.18
569.01	12105.85
569.372	12138.85
569.734	12127.55
570.095	12219.07
570.457	12218.39
570.819	12225.4
571.18	12238.28
571.542	12184.5
571.903	12241.22
572.265	12272.86
572.626	12252.74
572.987	12273.53
573.349	12234.21
573.71	12266.98
574.071	12318.05
574.432	12321.22
574.794	12326.87
575.155	12335.9
575.516	12280.76
575.877	12346.07
576.238	12310.82
576.599	12335.45
576.96	12296.13
577.32	12324.61
577.681	12355.79
578.042	12270.14
578.403	12334.55
578.763	12346.07
579.124	12335.23
579.485	12419.52
579.845	12398.73
580.206	12380.88
580.566	12343.59
580.927	12406.64
581.287	12428.78
581.648	12344.72
582.008	12396.69
582.368	12385.39
582.728	12389.01
583.089	12309.92
583.449	12418.84
583.809	12398.05
584.169	12383.13
584.529	12259.07
584.889	12412.06
585.249	12307.2
585.609	12223.37
585.969	12228.56
586.329	12226.53
586.688	12249.35
587.048	12205.29
587.408	12176.81
587.768	12236.25
588.127	12240.99
588.487	12151.95
588.846	12283.25
589.206	12183.14
589.565	12143.59
589.925	12279.41
590.284	12216.59
590.643	12205.74
591.003	12215.23
591.362	12167.32
591.721	12180.88
592.08	12185.85
592.44	12273.76
592.799	12186.76
593.158	12119.41
593.517	12142.92
593.876	12212.52
594.235	12144.95
594.593	12157.15
594.952	12122.8
595.311	12109.02
595.67	12101.33
596.029	12170.94
596.387	12081.9
596.746	12084.16
597.104	12134.78
597.463	12016.14
597.822	12036.93
598.18	12071.96
598.538	12022.92
598.897	12088.68
599.255	12012.3
599.613	12190.37
599.972	12026.31
600.33	11984.05
600.688	12122.58
601.046	12096.81
601.404	12157.6
601.762	12032.64
602.12	12118.74
602.478	12113.31
602.836	12065.4
603.194	12062.24
603.552	12073.09
603.91	12036.03
604.268	12068.79
604.625	11958.51
604.983	12075.57
605.341	12004.39
605.698	12117.83
606.056	12067.44
606.413	12006.42
606.771	12068.57
607.128	12133.42
607.485	12107.44
607.843	12031.28
608.2	12158.96
608.557	12181.33
608.914	12093.65
609.272	12192.63
609.629	12132.52
609.986	12212.29
610.343	12151.95
610.7	12204.61
611.057	12157.38
611.414	12060.66
611.771	12258.62
612.127	12225.4
612.484	12183.82
612.841	12333.87
613.198	12205.06
613.554	12292.29
613.911	12359.41
614.267	12296.36
614.624	12238.73
614.98	12296.58
615.337	12354.21
615.693	12299.97
616.05	12218.17
616.406	12387.65
616.762	12332.74
617.118	12264.27
617.475	12362.12
617.831	12360.99
618.187	12390.59
618.543	12358.28
618.899	12416.58
619.255	12368.45
619.611	12373.19
619.967	12423.36
620.323	12485.28
620.678	12448.67
621.034	12346.3
621.39	12362.12
621.746	12330.71
622.101	12457.03
622.457	12405.28
622.812	12419.97
623.168	12497.71
623.523	12413.87
623.879	12426.52
624.234	12438.95
624.589	12374.1
624.945	12402.34
625.3	12418.84
625.655	12461.78
626.01	12409.8
626.365	12384.49
626.72	12425.39
627.075	12369.35
627.43	12434.43
627.785	12367.99
628.14	12356.92
628.495	12403.7
628.85	12395.79
629.205	12353.31
629.559	12388.33
629.914	12288
630.269	12387.2
630.623	12304.49
630.978	12279.41
631.332	12326.41
631.687	12305.85
632.041	12231.05
632.396	12291.61
632.75	12291.84
633.104	12239.86
633.459	12245.06
633.813	12152.63
634.167	12181.33
634.521	12128.23
634.875	12235.34
635.229	12160.77
635.583	12160.54
635.937	12123.25
636.291	11997.83
636.645	12092.07
636.999	12088.68
637.352	12093.2
637.706	12023.82
638.06	12093.65
638.413	12070.83
638.767	11946.31
639.121	11997.16
639.474	11910.6
639.828	11984.73
640.181	11984.28
640.534	11987.44
640.888	11941.11
641.241	11850.95
641.594	11895.69
641.947	11887.33
642.301	11906.31
642.654	11883.04
643.007	11961.9
643.36	11898.63
643.713	11859.53
644.066	11924.84
644.419	11890.49
644.771	11742.7
645.124	11661.12
645.477	11657.05
645.83	11569.82
646.182	11515.81
646.535	11503.16
646.888	11467
647.24	11425.87
647.593	11534.57
647.945	11410.96
648.298	11360.11
648.65	11380.68
649.002	11392.2
649.355	11479.43
649.707	11449.15
650.059	11549.71
650.411	11675.58
650.763	11634
651.115	11785.86
651.467	11674.68
651.819	11662.48
652.171	11678.75
652.523	11692.08
652.875	11729.14
653.227	11609.37
653.578	11712.87
653.93	11759.87
654.282	11670.39
654.633	11687.11
654.985	11767.78
655.337	11612.08
655.688	11775.47
656.039	11766.65
656.391	11645.53
656.742	11654.57
657.094	11686.88
657.445	11638.75
657.796	11688.46
658.147	11648.46
658.498	11651.63
658.849	11782.02
659.2	11646.21
659.551	11722.59
659.902	11736.15
660.253	11682.14
660.604	11689.37
660.955	11688.92
661.306	11872.64
661.656	11710.84
662.007	11738.86
662.358	11690.95
662.708	11745.86
663.059	11746.09
663.409	11734.56
663.76	11797.39
664.11	11751.97
664.461	11810.49
664.811	11783.38
665.161	11726.2
665.511	11761
665.862	11760.1
666.212	11769.37
666.562	11820.21
666.912	11756.48
667.262	11779.53
667.612	11759.87
667.962	11725.98
668.312	11746.77
668.662	11788.8
669.011	11763.49
669.361	11707.45
669.711	11729.59
670.06	11728.01
670.41	11692.98
670.76	11741.57
671.109	11726.43
671.459	11712.64
671.808	11669.26
672.157	11701.8
672.507	11634.45
672.856	11671.06
673.205	11668.58
673.554	11679.42
673.904	11589.03
674.253	11667
674.602	11627.67
674.951	11473.78
675.3	11449.37
675.649	11541.58
675.998	11519.43
676.346	11567.11
676.695	11567.56
677.044	11513.33
677.393	11563.04
677.741	11476.04
678.09	11488.02
678.438	11484.18
678.787	11529.82
679.135	11488.24
679.484	11384.97
679.832	11494.12
680.181	11376.38
680.529	11480.79
680.877	11426.78
681.225	11360.79
681.573	11461.58
681.922	11317.4
682.27	11274.01
682.618	11281.92
682.966	11242.37
683.314	11274.46
683.661	11236.72
684.009	11185.43
684.357	11189.04
684.705	11084.64
685.053	11160.79
685.4	11100.46
685.748	11077.63
686.095	11003.28
686.443	11039.67
686.79	11027.24
687.138	11042.61
687.485	10955.6
687.832	10883.51
688.18	11047.8
688.527	10877.86
688.874	10888.94
689.221	10874.47
689.568	10816.85
689.915	10803.74
690.262	10754.7
690.609	10728.26
690.956	10730.52
691.303	10644.2
691.65	10669.96
691.997	10637.87
692.344	10554.03
692.69	10526.46
693.037	10549.74
693.383	10430.64
693.73	10509.74
694.077	10358.33
694.423	10331.21
694.769	10340.93
695.116	10340.02
695.462	10222.51
695.808	10217.77
696.155	10240.14
696.501	10182.29
696.847	10154.94
697.193	10073.37
697.539	10123.31
697.885	10065.23
698.231	10048.96
698.577	10040.37
698.923	9915.86
699.269	9883.99
699.614	9863.65
699.96	9813.26
700.306	9807.38
700.651	9758.35
700.997	9706.82
701.342	9657.56
701.688	9669.99
702.033	9655.75
702.379	9600.84
702.724	9584.56
703.069	9613.94
703.415	9423.66
703.76	9469.54
704.105	9452.36
704.45	9430.22
704.795	9389.09
705.14	9406.94
705.485	9265.02
705.83	9277.45
706.175	9289.88
706.52	9312.93
706.865	9168.53
707.209	9236.78
707.554	9098.93
707.899	9193.61
708.243	9111.13
708.588	9058.02
708.932	8992.94
709.277	9022.32
709.621	8986.39
709.966	9001.98
710.31	8986.39
710.654	8884.47
710.998	8882.44
711.342	8910.68
711.687	8851.48
712.031	8822.1
712.375	8769.9
712.719	8833.85
713.063	8782.78
713.407	8790.23
713.75	8724.7
714.094	8775.32
714.438	8723.34
714.782	8675.21
715.125	8650.8
715.469	8650.35
715.812	8649.67
716.156	8663.01
716.499	8608.54
716.843	8581.2
717.186	8524.25
717.53	8640.18
717.873	8527.87
718.216	8500.3
718.559	8499.85
718.902	8510.69
719.246	8517.25
719.589	8476.34
719.932	8447.87
720.275	8439.51
720.617	8462.11
720.96	8426.4
721.303	8390.02
721.646	8383.69
721.989	8355.44
722.331	8432.5
722.674	8414.88
723.016	8392.73
723.359	8380.53
723.701	8331.49
724.044	8298.27
724.386	8237.71
724.729	8374.88
725.071	8347.31
725.413	8250.14
725.755	8267.31
726.097	8279.29
726.439	8269.57
726.782	8299.17
727.124	8307.54
727.465	8212.17
727.807	8196.35
728.149	8250.36
728.491	8276.58
728.833	8270.7
729.175	8243.13
729.516	8222.11
729.858	8219.85
730.199	8211.27
730.541	8194.77
730.882	8204.49
731.224	8223.24
731.565	8214.88
731.906	8142.12
732.248	8258.72
732.589	8180.76
732.93	8153.64
733.271	8162.45
733.612	8115.22
733.953	8152.96
734.294	8181.21
734.635	8169.91
734.976	8188.67
735.317	8167.2
735.658	8111.16
735.999	8187.09
736.339	8209.69
736.68	8211.72
737.021	8206.52
737.361	8128.78
737.702	8197.48
738.042	8207.88
738.383	8188.22
738.723	8206.52
739.063	8236.8
739.404	8296.24
739.744	8258.95
740.084	8243.58
740.424	8263.92
740.764	8301.66
741.104	8282.23
741.444	8322.22
741.784	8311.38
742.124	8353.18
742.464	8365.84
742.804	8277.71
743.143	8346.86
743.483	8358.38
743.823	8309.34
744.162	8402.22
744.502	8452.16
744.841	8397.02
745.181	8500.3
745.52	8524.03
745.86	8514.31
746.199	8543.01
746.538	8603.12
746.877	8649.67
747.216	8691.71
747.556	8736
747.895	8760.63
748.234	8780.07
748.573	8922.89
748.911	8940.29
749.25	8926.05
749.589	8947.52
749.928	9061.19
750.267	9207.17
750.605	9241.3
750.944	9266.83
751.283	9328.98
751.621	9458.47
751.96	9490.1
752.298	9632.7
752.636	9661.17
752.975	9694.17
753.313	9818.68
753.651	9985.46
753.989	9968.51
754.327	10061.39
754.666	10220.71
755.004	10300.7
755.342	10456.41
755.679	10616.4
756.017	10728.94
756.355	10841.48
756.693	10930.74
757.031	11098.65
757.368	11185.88
757.706	11337.96
758.044	11424.74
758.381	11606.43
758.719	11716.49
759.056	11836.26
