Data from hue_280_FLMS001491_00060.txt Node
Date: Tue Feb 07 15:55:29 GMT 2017
User: dcchb
Spectrometer: FLMS00149
Trigger mode: 0
Integration Time (sec): 2.000000E-2
Scans to average: 10
Electric dark correction enabled: true
Nonlinearity correction enabled: false
Boxcar width: 0
XAxis mode: Wavelengths
Number of Pixels in Spectrum: 2048
>>>>>Begin Spectral Data<<<<<
341.393	-24.45
341.776	-24.45
342.16	-24.45
342.543	-64.67
342.927	-73.94
343.31	-61.51
343.693	-56.99
344.077	-47.5
344.46	-57.89
344.843	-47.95
345.226	-67.61
345.61	-46.14
345.993	-26.26
346.376	-0.04
346.759	-7.27
347.142	29.79
347.525	51.26
347.908	62.78
348.291	59.39
348.674	94.87
349.057	121.08
349.44	137.13
349.823	119.73
350.206	162.89
350.588	183.68
350.971	201.76
351.354	220.52
351.737	227.3
352.119	234.75
352.502	242.21
352.884	248.31
353.267	279.95
353.65	260.29
354.032	288.99
354.414	296.67
354.797	304.13
355.179	328.31
355.562	310.68
355.944	330.34
356.326	347.75
356.709	308.65
357.091	331.25
357.473	317.46
357.855	336.9
358.238	339.61
358.62	327.18
359.002	341.42
359.384	317.69
359.766	338.93
360.148	340.29
360.53	335.99
360.912	339.61
361.294	330.8
361.676	331.47
362.057	323.79
362.439	314.75
362.821	319.27
363.203	342.32
363.584	318.37
363.966	340.51
364.348	312.94
364.729	310.23
365.111	288.31
365.493	313.85
365.874	310.23
366.256	312.72
366.637	325.82
367.019	312.72
367.4	297.12
367.781	299.16
368.163	326.05
368.544	314.07
368.925	297.8
369.306	307.29
369.688	287.63
370.069	301.19
370.45	302.55
370.831	306.39
371.212	313.85
371.593	309.33
371.974	324.69
372.355	276.79
372.736	318.82
373.117	297.58
373.498	306.84
373.879	308.42
374.26	318.82
374.641	311.59
375.021	303.23
375.402	306.39
375.783	319.05
376.163	319.27
376.544	334.86
376.925	324.47
377.305	330.57
377.686	317.24
378.066	319.95
378.447	294.64
378.827	328.99
379.208	342.1
379.588	335.54
379.968	341.42
380.349	343.45
380.729	336.9
381.109	336.9
381.489	337.35
381.87	324.92
382.25	335.09
382.63	343.68
383.01	343
383.39	352.94
383.77	342.55
384.15	345.71
384.53	353.39
384.91	371.7
385.29	346.39
385.67	352.72
386.049	332.38
386.429	359.04
386.809	362.89
387.189	369.89
387.568	375.31
387.948	367.41
388.328	369.21
388.707	357.24
389.087	385.71
389.466	373.96
389.846	352.04
390.225	390.91
390.605	388.42
390.984	371.7
391.363	360.85
391.743	382.32
392.122	376.44
392.501	360.4
392.881	388.87
393.26	402.21
393.639	384.13
394.018	364.69
394.397	396.11
394.776	395.65
395.155	393.62
395.534	391.13
395.913	420.51
396.292	409.66
396.671	416.22
397.05	395.65
397.429	420.29
397.808	439.72
398.186	405.37
398.565	418.93
398.944	396.56
399.323	423
399.701	425.71
400.08	429.78
400.458	443.34
400.837	417.8
401.215	421.19
401.594	420.06
401.972	411.25
402.351	442.43
402.729	445.14
403.107	452.38
403.486	425.48
403.864	456.22
404.242	435.43
404.62	451.47
404.999	443.34
405.377	466.16
405.755	488.08
406.133	471.58
406.511	468.19
406.889	482.88
407.267	510.68
407.645	502.32
408.023	510.9
408.401	499.38
408.779	496.89
409.156	481.75
409.534	525.82
409.912	517.01
410.29	534.63
410.667	549.32
411.045	528.76
411.422	557.01
411.8	562.65
412.178	581.19
412.555	571.69
412.933	579.83
413.31	581.19
413.687	589.09
414.065	584.58
414.442	613.73
414.819	597.46
415.197	630
415.574	639.49
415.951	631.35
416.328	651.47
416.705	657.79
417.082	676.78
417.46	664.8
417.837	670.22
418.214	681.97
418.591	688.98
418.967	696.21
419.344	708.41
419.721	695.08
420.098	699.15
420.475	719.71
420.852	744.34
421.228	748.19
421.605	759.94
421.982	750.22
422.358	770.11
422.735	787.51
423.111	773.72
423.488	824.34
423.864	784.8
424.241	804.23
424.617	845.13
424.994	800.84
425.37	831.12
425.746	851.01
426.123	866.38
426.499	863.66
426.875	875.41
427.251	912.93
427.627	906.6
428.003	928.29
428.379	949.54
428.756	940.27
429.132	953.83
429.507	964.45
429.883	984.11
430.259	990.44
430.635	996.09
431.011	996.32
431.387	1024.79
431.763	1053.26
432.138	1034.28
432.514	1048.52
432.89	1071.34
433.265	1068.4
433.641	1113.6
434.016	1126.48
434.392	1119.25
434.767	1144.56
435.143	1155.86
435.518	1191.11
435.894	1179.36
436.269	1199.25
436.644	1223.65
437.02	1236.08
437.395	1246.03
437.77	1236.31
438.145	1289.19
438.52	1293.26
438.895	1292.8
439.271	1305.91
439.646	1345.68
440.021	1378
440.395	1356.53
440.77	1358.57
441.145	1356.53
441.52	1396.53
441.895	1385.01
442.27	1422.97
442.645	1435.4
443.019	1469.75
443.394	1439.24
443.769	1425.23
444.143	1446.47
444.518	1489.41
444.892	1469.07
445.267	1475.63
445.641	1490.54
446.016	1501.61
446.39	1502.29
446.764	1532.57
447.139	1520.6
447.513	1543.19
447.887	1541.84
448.262	1539.8
448.636	1563.53
449.01	1596.3
449.384	1570.54
449.758	1620.25
450.132	1627.49
450.506	1621.38
450.88	1628.62
451.254	1625.23
451.628	1631.33
452.002	1666.35
452.376	1667.71
452.75	1662.06
453.123	1701.38
453.497	1700.7
453.871	1745.45
454.244	1737.09
454.618	1751.55
454.992	1794.49
455.365	1785.45
455.739	1779.8
456.112	1801.04
456.486	1816.41
456.859	1863.64
457.232	1897.31
457.606	1907.48
457.979	1896.4
458.352	1895.73
458.725	1934.37
459.099	1925.33
459.472	1969.85
459.845	1998.78
460.218	1996.74
460.591	2034.03
460.964	2014.14
461.337	2060.02
461.71	2052.56
462.083	2111.09
462.456	2119.9
462.829	2120.13
463.201	2183.4
463.574	2179.11
463.947	2182.5
464.32	2245.32
464.692	2232.67
465.065	2249.84
465.438	2255.49
465.81	2320.35
466.183	2316.73
466.555	2365.09
466.928	2357.41
467.3	2344.98
467.672	2392.44
468.045	2448.71
468.417	2432.21
468.789	2462.04
469.161	2489.16
469.534	2492.77
469.906	2570.06
470.278	2592.43
470.65	2561.7
471.022	2623.62
471.394	2644.63
471.766	2689.83
472.138	2678.08
472.51	2746.33
472.882	2780.45
473.253	2804.18
473.625	2829.26
473.997	2881.92
474.369	2873.78
474.74	2963.95
475.112	2973.66
475.484	3041.69
475.855	3073.32
476.227	3063.15
476.598	3120.1
476.97	3160.33
477.341	3195.81
477.713	3234.45
478.084	3254.79
478.455	3349.93
478.827	3354.45
479.198	3443.48
479.569	3430.83
479.94	3472.41
480.311	3544.72
480.682	3583.82
481.053	3658.62
481.424	3733.42
481.795	3738.16
482.166	3768.45
482.537	3812.96
482.908	3844.15
483.279	3906.07
483.65	3948.33
484.021	3955.33
484.391	4047.08
484.762	4060.87
485.133	4069.46
485.503	4138.15
485.874	4198.49
486.244	4251.37
486.615	4265.83
486.985	4356.45
487.356	4439.16
487.726	4448.88
488.097	4498.14
488.467	4466.51
488.837	4596.9
489.207	4668.99
489.578	4705.37
489.948	4717.12
490.318	4724.58
490.688	4768.87
491.058	4830.57
491.428	4890.68
491.798	4930.9
492.168	5041.41
492.538	4985.36
492.908	5133.61
493.278	5111.24
493.648	5136.09
494.017	5228.75
494.387	5172.25
494.757	5250.89
495.126	5320.95
495.496	5294.28
495.866	5328.86
496.235	5399.14
496.605	5407.73
496.974	5484.11
497.344	5461.73
497.713	5495.86
498.082	5521.39
498.452	5584.67
498.821	5554.61
499.19	5577.89
499.559	5626.48
499.928	5650.88
500.298	5699.69
500.667	5747.6
501.036	5707.38
501.405	5814.49
501.774	5768.85
502.143	5817.66
502.512	5845
502.88	5895.17
503.249	5879.35
503.618	5918.67
503.987	5939.69
504.356	6022.17
504.724	5992.79
505.093	5979.91
505.462	6018.33
505.83	6051.55
506.199	6096.97
506.567	6157.31
506.936	6123.86
507.304	6145.56
507.672	6219.91
508.041	6208.83
508.409	6256.06
508.777	6263.97
509.145	6320.47
509.514	6318.21
509.882	6394.59
510.25	6364.31
510.618	6393.91
510.986	6342.39
511.354	6468.04
511.722	6452.44
512.09	6515.04
512.458	6534.25
512.826	6574.93
513.193	6565.43
513.561	6596.39
513.929	6600.69
514.297	6669.39
514.664	6689.05
515.032	6746.67
515.4	6710.29
515.767	6698.09
516.135	6799.55
516.502	6709.39
516.869	6865.31
517.237	6870.06
517.604	6854.47
517.972	6879.55
518.339	6881.36
518.706	6900.12
519.073	6908.25
519.44	6943.5
519.808	6965.2
520.175	6986.21
520.542	7018.08
520.909	7110.51
521.276	7044.74
521.643	7116.15
522.009	7139.88
522.376	7162.48
522.743	7202.71
523.11	7273.66
523.477	7303.72
523.843	7339.2
524.21	7365.41
524.577	7364.51
524.943	7440.89
525.31	7466.65
525.676	7508.69
526.043	7556.82
526.409	7591.85
526.776	7621.23
527.142	7581.23
527.508	7690.15
527.874	7726.53
528.241	7777.83
528.607	7691.28
528.973	7828.9
529.339	7777.83
529.705	7868
530.071	7895.57
530.437	7952.74
530.803	7984.38
531.169	8018.96
531.535	8028.22
531.901	7977.37
532.267	8032.51
532.632	8146.64
532.998	8120.65
533.364	8080.42
533.73	8168.56
534.095	8238.39
534.461	8213.75
534.826	8231.83
535.192	8226.86
535.557	8355.9
535.923	8314.09
536.288	8387.31
536.653	8384.82
537.019	8306.18
537.384	8363.35
537.749	8439.28
538.114	8440.41
538.479	8461.43
538.845	8475.67
539.21	8431.6
539.575	8485.38
539.94	8546.17
540.305	8571.71
540.67	8515.21
541.034	8568.09
541.399	8556.34
541.764	8587.75
542.129	8637.47
542.494	8647.64
542.858	8657.58
543.223	8684.02
543.587	8701.2
543.952	8768.77
544.316	8779.61
544.681	8802.21
545.045	8774.87
545.41	8837.01
545.774	8840.86
546.138	8868.65
546.503	8883.57
546.867	8912.27
547.231	8897.35
547.595	8993.85
547.959	9001.98
548.324	8938.71
548.688	8970.8
549.052	9068.65
549.416	9045.37
549.779	9028.87
550.143	9067.29
550.507	9104.13
550.871	9102.09
551.235	9079.27
551.599	9169.89
551.962	9220.28
552.326	9216.44
552.689	9224.12
553.053	9189.77
553.417	9220.28
553.78	9352.03
554.143	9248.08
554.507	9335.08
554.87	9300.28
555.234	9403.1
555.597	9411.46
555.96	9400.39
556.323	9442.87
556.686	9393.83
557.05	9439.26
557.413	9500.05
557.776	9489.88
558.139	9640.16
558.502	9614.39
558.865	9579.59
559.228	9618.69
559.59	9659.36
559.953	9668.4
560.316	9793.6
560.679	9770.32
561.041	9802.19
561.404	9830.66
561.767	9955.63
562.129	9871.11
562.492	9926.7
562.854	9903.88
563.217	9971.45
563.579	9946.14
563.941	10056.19
564.304	10050.09
564.666	10097.09
565.028	10219.58
565.39	10168.28
565.753	10224.77
566.115	10291.66
566.477	10238.11
566.839	10331.44
567.201	10349.52
567.563	10326.47
567.925	10340.48
568.287	10366.46
568.648	10501.83
569.01	10486.69
569.372	10657.08
569.734	10551.32
570.095	10591.32
570.457	10648.72
570.819	10683.97
571.18	10697.3
571.542	10737.08
571.903	10789.05
572.265	10814.81
572.626	10889.84
572.987	10864.3
573.349	11008.03
573.71	10961.93
574.071	10941.14
574.432	11050.06
574.794	11157.86
575.155	11157.4
575.516	11142.26
575.877	11172.77
576.238	11215.48
576.599	11288.47
576.96	11341.13
577.32	11339.09
577.681	11424.29
578.042	11435.14
578.403	11440.11
578.763	11523.72
579.124	11550.84
579.485	11584.74
579.845	11695.92
580.206	11673.55
580.566	11710.16
580.927	11747.45
581.287	11814.34
581.648	11831.51
582.008	11973.2
582.368	11949.25
582.728	12031.28
583.089	12111.73
583.449	12097.04
583.809	12190.6
584.169	12282.57
584.529	12305.62
584.889	12407.32
585.249	12359.41
585.609	12386.52
585.969	12500.65
586.329	12542.9
586.688	12610.93
587.048	12704.93
587.408	12727.53
587.768	12780.86
588.127	12771.15
588.487	12960.07
588.846	13054.3
589.206	13009.33
589.565	13130.91
589.925	13120.97
590.284	13142.21
590.643	13296.56
591.003	13403
591.362	13486.83
591.721	13487.06
592.08	13575.42
592.44	13718.92
592.799	13679.15
593.158	13682.08
593.517	13855.19
593.876	13915.52
594.235	13975.41
594.593	13975.18
594.952	14001.17
595.311	14034.39
595.67	14146.25
596.029	14230.09
596.387	14242.75
596.746	14379.47
597.104	14399.8
597.463	14410.2
597.822	14475.96
598.18	14481.16
598.538	14543.76
598.897	14666.92
599.255	14638.22
599.613	14918.44
599.972	14859.23
600.33	14892.67
600.688	14858.55
601.046	15013.57
601.404	14999.79
601.762	15118.88
602.12	15197.98
602.478	15126.79
602.836	15235.26
603.194	15245.66
603.552	15295.37
603.91	15329.27
604.268	15340.8
604.625	15365.2
604.983	15416.05
605.341	15403.39
605.698	15524.07
606.056	15576.72
606.413	15555.25
606.771	15609.04
607.128	15682.71
607.485	15596.16
607.843	15630.73
608.2	15752.54
608.557	15912.76
608.914	15808.36
609.272	15892.65
609.629	15894.91
609.986	16024.17
610.343	15965.41
610.7	16136.48
611.057	16094.9
611.414	16162.47
611.771	16086.54
612.127	16215.12
612.484	16111.62
612.841	16323.37
613.198	16239.98
613.554	16258.06
613.911	16390.94
614.267	16373.99
614.624	16398.85
614.98	16447.89
615.337	16472.29
615.693	16502.8
616.05	16453.76
616.406	16561.33
616.762	16529.92
617.118	16572.86
617.475	16482.69
617.831	16640.42
618.187	16646.98
618.543	16621.89
618.899	16790.02
619.255	16715.68
619.611	16646.75
619.967	16672.29
620.323	16843.81
620.678	16722.46
621.034	16767.65
621.39	16764.04
621.746	16786.86
622.101	16960.87
622.457	16806.75
622.812	16872.06
623.168	17014.2
623.523	16838.61
623.879	17080.41
624.234	16965.61
624.589	16926.29
624.945	16965.84
625.3	17016.69
625.655	16949.57
626.01	16908.67
626.365	16977.36
626.72	16941.66
627.075	16920.87
627.43	16929.91
627.785	16893.07
628.14	17000.64
628.495	16987.08
628.85	16888.78
629.205	16841.1
629.559	17020.08
629.914	16907.54
630.269	16958.16
630.623	16911.6
630.978	16859.85
631.332	16920.19
631.687	16980.98
632.041	16862.34
632.396	16902.34
632.75	16912.06
633.104	16971.04
633.459	16813.98
633.813	16876.35
634.167	16809.69
634.521	16844.26
634.875	16756.81
635.229	16784.83
635.583	16675.68
635.937	16703.25
636.291	16710.48
636.645	16778.27
636.999	16705.28
637.352	16743.7
637.706	16568.11
638.06	16649.69
638.413	16549.35
638.767	16626.41
639.121	16576.02
639.474	16452.86
639.828	16517.94
640.181	16583.02
640.534	16376.48
640.888	16480.43
641.241	16500.31
641.594	16448.56
641.947	16493.76
642.301	16455.8
642.654	16445.63
643.007	16560.65
643.36	16427.77
643.713	16395.91
644.066	16424.38
644.419	16336.03
644.771	16335.35
645.124	16062.36
645.477	16163.83
645.83	16020.1
646.182	15997.5
646.535	15933.32
646.888	15997.05
647.24	15848.58
647.593	15894
647.945	15859.88
648.298	15770.62
648.65	15808.13
649.002	15871.86
649.355	15961.57
649.707	15844.51
650.059	15936.71
650.411	16177.16
650.763	16102.36
651.115	16262.35
651.467	16223.03
651.819	16268
652.171	16133.54
652.523	16255.58
652.875	16257.84
653.227	16136.71
653.578	16311.85
653.93	16225.52
654.282	16204.05
654.633	16154.79
654.985	16238.17
655.337	16251.06
655.688	16227.78
656.039	16348.91
656.391	16114.56
656.742	16229.59
657.094	16227.33
657.445	16324.95
657.796	16182.13
658.147	16181.91
658.498	16236.37
658.849	16311.39
659.2	16275.69
659.551	16255.35
659.902	16251.06
660.253	16225.29
660.604	16260.32
660.955	16134.9
661.306	16288.79
661.656	16259.42
662.007	16355.46
662.358	16234.56
662.708	16298.06
663.059	16217.16
663.409	16209.7
663.76	16260.55
664.11	16308
664.461	16250.15
664.811	16320.66
665.161	16357.95
665.511	16210.38
665.862	16298.74
666.212	16351.39
666.562	16298.51
666.912	16375.57
667.262	16389.81
667.612	16224.16
667.962	16357.49
668.312	16335.57
668.662	16402.01
669.011	16329.47
669.361	16322.01
669.711	16358.17
670.06	16223.49
670.41	16207.89
670.76	16145.75
671.109	16271.85
671.459	16224.39
671.808	16216.25
672.157	16218.29
672.507	16199.98
672.856	16143.71
673.205	16155.24
673.554	16146.88
673.904	16264.84
674.253	16244.28
674.602	16195.01
674.951	15921.12
675.3	15879.31
675.649	16097.39
675.998	16080.21
676.346	16077.28
676.695	16207.22
677.044	16035.02
677.393	15972.19
677.741	16070.04
678.09	16018.97
678.438	15957.73
678.787	15995.24
679.135	16072.3
679.484	15829.37
679.832	15949.82
680.181	15779.66
680.529	15807.9
680.877	15785.76
681.225	15784.85
681.573	15859.2
681.922	15710.05
682.27	15671.86
682.618	15648.81
682.966	15605.87
683.314	15757.51
683.661	15569.94
684.009	15568.14
684.357	15511.19
684.705	15465.54
685.053	15487.91
685.4	15458.08
685.748	15452.66
686.095	15399.55
686.443	15359.55
686.79	15376.5
687.138	15378.76
687.485	15283.17
687.832	15186.9
688.18	15271.42
688.527	15129.73
688.874	15077.53
689.221	15083.4
689.568	15001.15
689.915	15029.39
690.262	14911.66
690.609	14819
690.956	14842.96
691.303	14845.22
691.65	14798.66
691.997	14799.34
692.344	14703.98
692.69	14602.96
693.037	14620.14
693.383	14465.57
693.73	14567.26
694.077	14544.89
694.423	14565
694.769	14394.38
695.116	14428.28
695.462	14380.14
695.808	14319.13
696.155	14307.38
696.501	14171.11
696.847	14200.49
697.193	14047.95
697.539	14113.48
697.885	13987.16
698.231	13992.13
698.577	13940.83
698.923	13912.13
699.269	13802.31
699.614	13695.87
699.96	13628.53
700.306	13657.68
700.651	13574.74
700.997	13530
701.342	13416.78
701.688	13407.51
702.033	13422.66
702.379	13421.07
702.724	13313.28
703.069	13402.32
703.415	13117.35
703.76	13109.67
704.105	13174.75
704.45	13199.61
704.795	12922.33
705.14	13010.69
705.485	13050.24
705.83	12898.15
706.175	12925.04
706.52	12906.51
706.865	12860.86
707.209	12805.72
707.554	12762.56
707.899	12763.24
708.243	12671.94
708.588	12604.15
708.932	12590.14
709.277	12601.43
709.621	12650.47
709.966	12496.35
710.31	12499.52
710.654	12381.78
710.998	12407.54
711.342	12393.76
711.687	12315.11
712.031	12304.49
712.375	12354.44
712.719	12295.45
713.063	12363.02
713.407	12298.84
713.75	12204.83
714.094	12197.83
714.438	12165.97
714.782	12191.95
715.125	12147.43
715.469	12161.22
715.812	12067.21
716.156	12076.48
716.499	11944.28
716.843	12025.63
717.186	11932.75
717.53	11990.15
717.873	11950.83
718.216	11902.92
718.559	11811.17
718.902	11900.89
719.246	11850.95
719.589	11787.9
719.932	11778.86
720.275	11778.63
720.617	11800.33
720.96	11760.78
721.303	11706.32
721.646	11683.27
721.989	11678.97
722.331	11687.79
722.674	11621.35
723.016	11690.95
723.359	11656.37
723.701	11624.28
724.044	11580.44
724.386	11460.67
724.729	11545.64
725.071	11651.63
725.413	11562.14
725.755	11528.92
726.097	11540.22
726.439	11466.32
726.782	11489.6
727.124	11428.36
727.465	11477.85
727.807	11484.63
728.149	11432.43
728.491	11458.41
728.833	11489.15
729.175	11405.53
729.516	11435.82
729.858	11371.18
730.199	11465.64
730.541	11357.4
730.882	11412.54
731.224	11442.82
731.565	11382.71
731.906	11445.31
732.248	11410.96
732.589	11317.17
732.93	11384.97
733.271	11336.83
733.612	11321.69
733.953	11372.09
734.294	11353.11
734.635	11281.92
734.976	11419.32
735.317	11345.87
735.658	11359.43
735.999	11380.22
736.339	11346.33
736.68	11388.13
737.021	11438.98
737.361	11316.95
737.702	11389.71
738.042	11347.46
738.383	11426.1
738.723	11402.14
739.063	11426.32
739.404	11450.05
739.744	11412.99
740.084	11368.02
740.424	11424.74
740.764	11401.92
741.104	11418.19
741.444	11455.02
741.784	11415.48
742.124	11442.59
742.464	11375.03
742.804	11460.67
743.143	11436.49
743.483	11521.91
743.823	11597.17
744.162	11501.12
744.502	11590.84
744.841	11630.16
745.181	11676.03
745.52	11736.6
745.86	11679.2
746.199	11772.3
746.538	11829.7
746.877	11898.63
747.216	11852.53
747.556	11882.36
747.895	11948.8
748.234	11955.8
748.573	12025.18
748.911	12125.51
749.25	12156.25
749.589	12168.9
749.928	12296.36
750.267	12393.98
750.605	12434.43
750.944	12501.1
751.283	12445.51
751.621	12678.27
751.96	12654.09
752.298	12756.46
752.636	12933.18
752.975	12948.32
753.313	12998.49
753.651	13210.23
753.989	13241.87
754.327	13335.2
754.666	13398.02
755.004	13677.79
755.342	13720.05
755.679	13850.44
756.017	13871.46
756.355	14122.3
756.693	14167.27
757.031	14325.68
757.368	14360.48
757.706	14571.55
758.044	14728.61
758.381	14809.74
