Data from hue_170_FLMS001491_00097.txt Node
Date: Tue Feb 07 16:49:31 GMT 2017
User: dcchb
Spectrometer: FLMS00149
Trigger mode: 0
Integration Time (sec): 2.000000E-2
Scans to average: 10
Electric dark correction enabled: true
Nonlinearity correction enabled: false
Boxcar width: 0
XAxis mode: Wavelengths
Number of Pixels in Spectrum: 2048
>>>>>Begin Spectral Data<<<<<
341.393	-7.36
341.776	-7.36
342.16	-7.36
342.543	-67.92
342.927	-46.68
343.31	-62.72
343.693	-62.5
344.077	-73.35
344.46	-60.01
344.843	-57.98
345.226	-31.09
345.61	-33.8
345.993	-33.35
346.376	-11.43
346.759	3.04
347.142	39.65
347.525	49.82
347.908	59.08
348.291	93.88
348.674	71.28
349.057	109.47
349.44	113.32
349.823	148.34
350.206	165.52
350.588	190.6
350.971	204.61
351.354	198.29
351.737	232.18
352.119	234.89
352.502	237.15
352.884	280.09
353.267	284.61
353.65	278.96
354.032	285.97
354.414	302.46
354.797	295.23
355.179	315.12
355.562	321.45
355.944	306.53
356.326	323.93
356.709	323.03
357.091	327.77
357.473	345.85
357.855	336.59
358.238	361.22
358.62	339.75
359.002	323.03
359.384	344.04
359.766	332.29
360.148	343.82
360.53	336.14
360.912	342.46
361.294	304.95
361.676	337.94
362.057	339.52
362.439	295.91
362.821	324.16
363.203	329.36
363.584	312.41
363.966	318.06
364.348	329.81
364.729	334.1
365.111	289.81
365.493	316.25
365.874	310.15
366.256	311.28
366.637	282.8
367.019	288.45
367.4	295.46
367.781	299.98
368.163	304.72
368.544	315.8
368.925	325.06
369.306	330.49
369.688	281.9
370.069	322.12
370.45	303.82
370.831	293.65
371.212	300.66
371.593	313.76
371.974	306.53
372.355	295.23
372.736	307.66
373.117	323.03
373.498	313.76
373.879	297.72
374.26	331.16
374.641	310.6
375.021	318.96
375.402	319.41
375.783	318.51
376.163	332.97
376.544	325.74
376.925	305.4
377.305	316.47
377.686	302.24
378.066	318.96
378.447	324.61
378.827	305.4
379.208	316.7
379.588	317.38
379.968	341.56
380.349	318.28
380.729	342.01
381.109	318.73
381.489	336.81
381.87	327.1
382.25	350.15
382.63	336.59
383.01	338.4
383.39	332.07
383.77	321.22
384.15	342.69
384.53	342.91
384.91	326.64
385.29	321.67
385.67	357.15
386.049	334.33
386.429	320.77
386.809	332.97
387.189	343.37
387.568	339.3
387.948	346.08
388.328	347.89
388.707	361.22
389.087	360.32
389.466	354.89
389.846	356.93
390.225	357.83
390.605	344.95
390.984	357.15
391.363	370.48
391.743	351.95
392.122	344.27
392.501	349.02
392.881	362.8
393.26	375
393.639	369.35
394.018	363.48
394.397	365.96
394.776	390.37
395.155	366.19
395.534	356.47
395.913	373.65
396.292	360.09
396.671	383.59
397.05	393.31
397.429	355.34
397.808	375.68
398.186	393.31
398.565	390.6
398.944	384.5
399.323	394.21
399.701	408.9
400.08	384.27
400.458	400.54
400.837	405.96
401.215	398.05
401.594	399.41
401.972	403.03
402.351	385.17
402.729	399.86
403.107	410.03
403.486	425.62
403.864	426.08
404.242	419.3
404.62	426.3
404.999	427.43
405.377	424.95
405.755	416.81
406.133	404.16
406.511	417.94
406.889	455.45
407.267	426.75
407.645	448.67
408.023	448
408.401	435.34
408.779	435.12
409.156	443.03
409.534	463.82
409.912	461.1
410.29	463.36
410.667	467.88
411.045	477.6
411.422	472.4
411.8	485.06
412.178	466.75
412.555	481.44
412.933	490.93
413.31	488.9
413.687	488.67
414.065	519.18
414.442	493.65
414.819	495.91
415.197	517.6
415.574	557.15
415.951	548.56
416.328	556.02
416.705	528.22
417.082	535
417.46	559.86
417.837	566.19
418.214	560.08
418.591	565.73
418.967	570.71
419.344	555.11
419.721	586.98
420.098	561.67
420.475	590.14
420.852	604.6
421.228	597.82
421.605	625.39
421.982	598.28
422.358	628.78
422.735	617.94
423.111	651.16
423.488	657.26
423.864	660.42
424.241	671.27
424.617	670.59
424.994	646.64
425.37	692.74
425.746	681.21
426.123	700.87
426.499	666.3
426.875	687.76
427.251	711.72
427.627	722.11
428.003	721.21
428.379	723.47
428.756	721.89
429.132	730.25
429.507	754.66
429.883	753.3
430.259	737.03
430.635	764.82
431.011	792.39
431.387	803.02
431.763	796.69
432.138	767.76
432.514	815.9
432.89	807.76
433.265	822.22
433.641	839.4
434.016	847.08
434.392	878.04
434.767	882.79
435.143	878.27
435.518	890.24
435.894	928.89
436.269	908.78
436.644	931.83
437.02	927.08
437.395	935.44
437.77	934.99
438.145	953.75
438.52	999.62
438.895	971.82
439.271	979.96
439.646	1025.83
440.021	1014.76
440.395	1049.11
440.77	1054.99
441.145	1045.5
441.52	1058.6
441.895	1061.09
442.27	1074.19
442.645	1081.2
443.019	1106.74
443.394	1095.44
443.769	1106.28
444.143	1131.59
444.518	1121.88
444.892	1137.92
445.267	1138.83
445.641	1156.45
446.016	1190.8
446.39	1171.37
446.764	1181.31
447.139	1159.84
447.513	1199.39
447.887	1180.86
448.262	1218.82
448.636	1218.82
449.01	1260.63
449.384	1240.07
449.758	1281.2
450.132	1253.4
450.506	1285.49
450.88	1295.21
451.254	1283.91
451.628	1301.99
452.002	1308.99
452.376	1301.08
452.75	1337.01
453.123	1365.71
453.497	1379.27
453.871	1393.06
454.244	1400.97
454.618	1422.21
454.992	1461.53
455.365	1450
455.739	1473.28
456.112	1490.46
456.486	1494.3
456.859	1517.12
457.232	1537.23
457.606	1537.46
457.979	1567.74
458.352	1580.4
458.725	1647.97
459.099	1632.37
459.472	1605.93
459.845	1653.39
460.218	1672.37
460.591	1689.77
460.964	1707.62
461.337	1752.82
461.71	1768.87
462.083	1816.77
462.456	1804.57
462.829	1823.55
463.201	1850.9
463.574	1911.91
463.947	1916.66
464.32	1941.97
464.692	1969.09
465.065	2001.18
465.438	2003.66
465.81	2061.06
466.183	2065.81
466.555	2124.34
466.928	2149.19
467.3	2153.04
467.672	2221.96
468.045	2296.31
468.417	2307.83
468.789	2314.61
469.161	2297.21
469.534	2390.32
469.906	2436.87
470.278	2471.9
470.65	2481.84
471.022	2552.12
471.394	2591.22
471.766	2606.58
472.138	2671.89
472.51	2715.96
472.882	2811.32
473.253	2811.55
473.625	2873.7
473.997	2968.61
474.369	3013.58
474.74	3052.45
475.112	3138.32
475.484	3192.11
475.855	3235.04
476.227	3317.53
476.598	3419.67
476.97	3461.93
477.341	3534.7
477.713	3619.89
478.084	3689.95
478.455	3789.83
478.827	3826.44
479.198	3995.7
479.569	4040.9
479.94	4141.23
480.311	4244.73
480.682	4315.69
481.053	4441.79
481.424	4524.95
481.795	4556.14
482.166	4759.97
482.537	4804.72
482.908	4936.01
483.279	5026.41
483.65	5106.63
484.021	5261.2
484.391	5379.84
484.762	5423.23
485.133	5558.6
485.503	5690.8
485.874	5828.42
486.244	5924.01
486.615	6080.39
486.985	6185.47
487.356	6336.66
487.726	6399.93
488.097	6580.26
488.467	6580.94
488.837	6800.15
489.207	6941.16
489.578	7023.42
489.948	7179.8
490.318	7301.38
490.688	7380.92
491.058	7519
491.428	7642.84
491.798	7769.61
492.168	7937.07
492.538	8014.13
492.908	8174.8
493.278	8269.03
493.648	8304.29
494.017	8433.32
494.387	8644.39
494.757	8711.96
495.126	8846.19
495.496	8873.31
495.866	8941.11
496.235	9043.48
496.605	9149.69
496.974	9235.56
497.344	9394.65
497.713	9447.31
498.082	9531.83
498.452	9672.84
498.821	9705.38
499.19	9706.96
499.559	9902.66
499.928	9890.69
500.298	10020.85
500.667	10131.36
501.036	10133.17
501.405	10298.59
501.774	10268.08
502.143	10369.77
502.512	10457.68
502.88	10515.75
503.249	10506.04
503.618	10608.63
503.987	10599.37
504.356	10761.85
504.724	10815.18
505.093	10910.55
505.462	10902.19
505.83	10959.36
506.199	11004.56
506.567	11150.09
506.936	11114.16
507.304	11202.06
507.672	11250.42
508.041	11345.56
508.409	11395.05
508.777	11379.91
509.145	11493.13
509.514	11560.47
509.882	11607.03
510.25	11652.22
510.618	11696.74
510.986	11721.6
511.354	11735.38
511.722	11831.88
512.09	11938.09
512.458	11892.89
512.826	11974.7
513.193	11979.9
513.561	11986.22
513.929	12070.52
514.297	12145.09
514.664	12176.5
515.032	12109.61
515.4	12282.49
515.767	12281.58
516.135	12296.95
516.502	12218.31
516.869	12343.73
517.237	12376.27
517.604	12305.54
517.972	12424.63
518.339	12422.15
518.706	12482.03
519.073	12456.72
519.44	12519.32
519.808	12525.19
520.175	12508.92
520.542	12597.28
520.909	12709.6
521.276	12512.76
521.643	12718.86
522.009	12823.04
522.376	12757.28
522.743	12746.2
523.11	12839.99
523.477	12884.51
523.843	12872.98
524.21	12931.28
524.577	12999.31
524.943	12961.57
525.31	13037.5
525.676	13048.57
526.043	13072.07
526.409	13075.01
526.776	13183.48
527.142	13125.86
527.508	13192.75
527.874	13256.7
528.241	13140.09
528.607	13111.62
528.973	13204.5
529.339	13137.83
529.705	13230.71
530.071	13207.21
530.437	13255.57
530.803	13281.56
531.169	13261.67
531.535	13111.62
531.901	13188.9
532.267	13118.17
532.632	13171.05
532.998	13151.17
533.364	13244.27
533.73	13187.77
534.095	13200.66
534.461	13147.55
534.826	13051.96
535.192	13099.19
535.557	13133.31
535.923	13093.31
536.288	13011.28
536.653	13055.57
537.019	12898.74
537.384	12939.19
537.749	12910.49
538.114	12960.44
538.479	12814.68
538.845	12836.37
539.21	12738.75
539.575	12770.84
539.94	12695.58
540.305	12710.27
540.67	12691.29
541.034	12633.44
541.399	12611.97
541.764	12606.1
542.129	12609.03
542.494	12563.61
542.858	12523.16
543.223	12454.46
543.587	12375.37
543.952	12355.03
544.316	12360.45
544.681	12359.32
545.045	12304.41
545.41	12293.56
545.774	12300.11
546.138	12174.69
546.503	12194.13
546.867	12069.16
547.231	12146.67
547.595	12108.48
547.959	12014.7
548.324	11977.41
548.688	11956.17
549.052	11939.22
549.416	11920.24
549.779	11935.15
550.143	11798.43
550.507	11761.37
550.871	11850.18
551.235	11684.09
551.599	11712.33
551.962	11696.29
552.326	11702.16
552.689	11615.16
553.053	11589.62
553.417	11547.59
553.78	11591.43
554.143	11491.55
554.507	11523.64
554.87	11492.45
555.234	11602.28
555.597	11370.2
555.96	11463.3
556.323	11445.67
556.686	11393.92
557.05	11462.17
557.413	11340.37
557.776	11366.58
558.139	11356.18
558.502	11373.81
558.865	11270.99
559.228	11369.07
559.59	11276.64
559.953	11282.06
560.316	11322.96
560.679	11283.64
561.041	11288.16
561.404	11273.25
561.767	11312.8
562.129	11232.12
562.492	11278.22
562.854	11302.63
563.217	11214.04
563.579	11258.56
563.941	11254.04
564.304	11356.64
564.666	11344.89
565.028	11320.93
565.39	11315.73
565.753	11353.02
566.115	11335.85
566.477	11367.26
566.839	11360.25
567.201	11408.16
567.563	11326.58
567.925	11470.98
568.287	11394.38
568.648	11396.86
569.01	11409.06
569.372	11479.35
569.734	11326.35
570.095	11391.66
570.457	11449.06
570.819	11357.09
571.18	11354.6
571.542	11488.16
571.903	11369.74
572.265	11435.73
572.626	11436.86
572.987	11491.1
573.349	11461.04
573.71	11506.01
574.071	11543.52
574.432	11466.69
574.794	11526.35
575.155	11498.33
575.516	11477.54
575.877	11548.5
576.238	11452.91
576.599	11508.95
576.96	11504.2
577.32	11529.51
577.681	11458.55
578.042	11438.44
578.403	11539
578.763	11530.42
579.124	11483.41
579.485	11517.54
579.845	11588.72
580.206	11498.55
580.566	11516.18
580.927	11500.36
581.287	11462.17
581.648	11518.67
582.008	11439.57
582.368	11560.47
582.728	11501.04
583.089	11447.26
583.449	11416.52
583.809	11477.54
584.169	11423.53
584.529	11347.6
584.889	11478.89
585.249	11422.17
585.609	11307.37
585.969	11412.68
586.329	11400.7
586.688	11410.19
587.048	11396.86
587.408	11334.49
587.768	11366.35
588.127	11344.89
588.487	11241.16
588.846	11392.34
589.206	11291.55
589.565	11317.32
589.925	11283.42
590.284	11242.29
590.643	11298.11
591.003	11270.09
591.362	11324.55
591.721	11314.38
592.08	11234.15
592.44	11334.49
592.799	11223.08
593.158	11266.47
593.517	11271.89
593.876	11189.41
594.235	11236.41
594.593	11176.75
594.952	11282.74
595.311	11169.07
595.67	11123.65
596.029	11218.11
596.387	11233.7
596.746	11213.82
597.104	11118.22
597.463	11146.02
597.822	11186.02
598.18	11158
598.538	11156.87
598.897	11179.01
599.255	11030.09
599.613	11190.54
599.972	11105.34
600.33	11176.08
600.688	11074.38
601.046	11167.26
601.404	11153.25
601.762	11114.38
602.12	11160.94
602.478	11166.36
602.836	11172.23
603.194	11137.66
603.552	11089.07
603.91	11083.88
604.268	11127.72
604.625	11093.14
604.983	11123.2
605.341	11073.93
605.698	11161.39
606.056	11091.11
606.413	11122.74
606.771	11133.37
607.128	11060.82
607.485	10998.23
607.843	11087.94
608.2	11174.27
608.557	11219.46
608.914	11149.86
609.272	11180.82
609.629	11144.21
609.986	11238.45
610.343	11163.42
610.7	11198.22
611.057	11207.94
611.414	11188.73
611.771	11150.09
612.127	11176.98
612.484	11224.89
612.841	11242.06
613.198	11136.3
613.554	11213.59
613.911	11247.03
614.267	11277.77
614.624	11256.07
614.98	11298.56
615.337	11348.95
615.693	11357.09
616.05	11251.55
616.406	11327.71
616.762	11327.48
617.118	11334.94
617.475	11283.87
617.831	11334.26
618.187	11290.2
618.543	11329.07
618.899	11367.03
619.255	11411.1
619.611	11311.44
619.967	11383.75
620.323	11434.15
620.678	11383.75
621.034	11378.56
621.39	11321.61
621.746	11304.43
622.101	11530.87
622.457	11428.27
622.812	11388.5
623.168	11386.01
623.523	11469.18
623.879	11516.41
624.234	11381.72
624.589	11390.99
624.945	11428.5
625.3	11336.98
625.655	11386.69
626.01	11448.61
626.365	11378.56
626.72	11339.91
627.075	11327.71
627.43	11338.78
627.785	11274.15
628.14	11316.19
628.495	11438.22
628.85	11357.09
629.205	11329.29
629.559	11382.4
629.914	11267.83
630.269	11325.68
630.623	11352.34
630.978	11202.52
631.332	11288.84
631.687	11303.53
632.041	11292.46
632.396	11287.71
632.75	11221.5
633.104	11235.28
633.459	11151.9
633.813	11192.57
634.167	11159.81
634.521	11208.84
634.875	11252.23
635.229	11238
635.583	11126.13
635.937	11111.22
636.291	11149.86
636.645	11128.85
636.999	11063.99
637.352	11089.07
637.706	10975.63
638.06	11092.46
638.413	11049.3
638.767	11031.22
639.121	11074.61
639.474	10879.13
639.828	10979.47
640.181	11007.72
640.534	10976.08
640.888	10911.45
641.241	10893.82
641.594	10951.9
641.947	10973.14
642.301	10935.63
642.654	10918.91
643.007	10869.64
643.36	10837.55
643.713	10886.82
644.066	10874.62
644.419	10866.03
644.771	10787.61
645.124	10660.16
645.477	10626.03
645.83	10605.7
646.182	10597.56
646.535	10567.73
646.888	10507.85
647.24	10417
647.593	10618.58
647.945	10508.52
648.298	10534.06
648.65	10538.13
649.002	10467.39
649.355	10579.26
649.707	10521.4
650.059	10649.76
650.411	10689.76
650.763	10720.49
651.115	10810.89
651.467	10752.13
651.819	10825.35
652.171	10788.74
652.523	10669.65
652.875	10735.64
653.227	10638.24
653.578	10739.25
653.93	10762.75
654.282	10680.72
654.633	10630.78
654.985	10688.18
655.337	10714.39
655.688	10741.51
656.039	10894.5
656.391	10669.87
656.742	10744
657.094	10721.85
657.445	10735.86
657.796	10777.22
658.147	10767.27
658.498	10831
658.849	10765.01
659.2	10796.88
659.551	10779.7
659.902	10848.85
660.253	10800.27
660.604	10859.02
660.955	10768.86
661.306	10861.51
661.656	10828.06
662.007	10845.24
662.358	10779.25
662.708	10861.96
663.059	10831.9
663.409	10772.92
663.76	10878
664.11	10874.84
664.461	10886.59
664.811	10855.18
665.161	10825.35
665.511	10826.48
665.862	10901.06
666.212	10845.92
666.562	10916.2
666.912	10856.31
667.262	10872.58
667.612	10876.65
667.962	10899.25
668.312	10836.42
668.662	10933.82
669.011	10899.25
669.361	10919.59
669.711	10817.22
670.06	10831.23
670.41	10780.15
670.76	10831.45
671.109	10896.31
671.459	10872.58
671.808	10829.87
672.157	10807.95
672.507	10720.27
672.856	10789.87
673.205	10736.77
673.554	10770.89
673.904	10697.67
674.253	10811.11
674.602	10709.2
674.951	10592.14
675.3	10556.66
675.649	10758.01
675.998	10712.81
676.346	10741.51
676.695	10763.43
677.044	10687.5
677.393	10680.27
677.741	10675.98
678.09	10600.05
678.438	10651.57
678.787	10664
679.135	10639.37
679.484	10544.91
679.832	10627.16
680.181	10512.59
680.529	10592.36
680.877	10501.07
681.225	10480.5
681.573	10519.37
681.922	10441.86
682.27	10422.42
682.618	10439.6
682.966	10402.76
683.314	10367.96
683.661	10355.76
684.009	10372.03
684.357	10270.79
684.705	10280.73
685.053	10310.34
685.4	10257.46
685.748	10248.87
686.095	10264.69
686.443	10169.32
686.79	10255.87
687.138	10127.97
687.485	10148.08
687.832	10099.27
688.18	10168.19
688.527	10031.7
688.874	10000.06
689.221	9996.67
689.568	9936.33
689.915	9989.44
690.262	9961.87
690.609	9893.17
690.956	9866.05
691.303	9799.16
691.65	9780.86
691.997	9828.32
692.344	9743.8
692.69	9672.61
693.037	9672.61
693.383	9585.38
693.73	9625.38
694.077	9568.43
694.423	9593.97
694.769	9598.94
695.116	9531.37
695.462	9450.7
695.808	9416.57
696.155	9357.14
696.501	9339.06
696.847	9360.3
697.193	9317.59
697.539	9272.62
697.885	9201.44
698.231	9185.85
698.577	9149.01
698.923	9224.49
699.269	9154.66
699.614	9021.33
699.96	9037.6
700.306	8971.61
700.651	8907.89
700.997	8938.17
701.342	8913.31
701.688	8849.58
702.033	8840.77
702.379	8820.21
702.724	8783.82
703.069	8818.17
703.415	8706.76
703.76	8637.61
704.105	8645.97
704.45	8673.77
704.795	8594.68
705.14	8571.4
705.485	8495.69
705.83	8547.67
706.175	8479.42
706.52	8490.05
706.865	8429.93
707.209	8420.67
707.554	8394.45
707.899	8391.52
708.243	8310.61
708.588	8382.93
708.932	8322.37
709.277	8210.28
709.621	8275.14
709.966	8169.6
710.31	8173.9
710.654	8162.37
710.998	8193.56
711.342	8174.8
711.687	8124.41
712.031	8128.47
712.375	8043.05
712.719	8082.37
713.063	8030.85
713.407	8084.63
713.75	8029.27
714.094	7983.17
714.438	7976.84
714.782	7932.32
715.125	7925.77
715.469	7915.6
715.812	7854.36
716.156	7855.71
716.499	7885.32
716.843	7885.32
717.186	7859.33
717.53	7939.1
717.873	7887.35
718.216	7868.37
718.559	7829.27
718.902	7743.85
719.246	7784.07
719.589	7781.82
719.932	7653.68
720.275	7748.82
720.617	7704.98
720.96	7703.63
721.303	7702.95
721.646	7681.7
721.989	7661.37
722.331	7660.01
722.674	7725.77
723.016	7656.39
723.359	7644.64
723.701	7655.72
724.044	7607.36
724.386	7536.17
724.729	7606
725.071	7617.3
725.413	7597.64
725.755	7612.78
726.097	7613.68
726.439	7555.15
726.782	7570.97
727.124	7555.38
727.465	7604.87
727.807	7515.61
728.149	7540.01
728.491	7513.12
728.833	7586.34
729.175	7469.28
729.516	7492.33
729.858	7516.96
730.199	7550.63
730.541	7490.3
730.882	7492.56
731.224	7512.9
731.565	7535.72
731.906	7501.14
732.248	7583.85
732.589	7465.44
732.93	7471.31
733.271	7490.75
733.612	7552.22
733.953	7505.66
734.294	7507.7
734.635	7496.17
734.976	7512.9
735.317	7448.04
735.658	7459.11
735.999	7459.56
736.339	7520.81
736.68	7495.04
737.021	7503.4
737.361	7471.99
737.702	7571.2
738.042	7483.74
738.383	7483.97
738.723	7598.54
739.063	7631.54
739.404	7586.57
739.744	7609.62
740.084	7599.45
740.424	7628.15
740.764	7587.02
741.104	7671.08
741.444	7686.45
741.784	7625.21
742.124	7720.35
742.464	7651.65
742.804	7728.94
743.143	7777.3
743.483	7816.62
743.823	7794.47
744.162	7808.26
744.502	7926.44
744.841	7897.52
745.181	7869.72
745.52	7926.67
745.86	7942.94
746.199	7945.65
746.538	8023.16
746.877	8177.28
747.216	8154.01
747.556	8227
747.895	8207.11
748.234	8277.62
748.573	8276.94
748.911	8366.66
749.25	8445.07
749.589	8433.55
749.928	8588.12
750.267	8628.12
750.605	8702.47
750.944	8721.45
751.283	8772.07
751.621	8981.56
751.96	9011.61
752.298	9079.86
752.636	9191.95
752.975	9233.75
753.313	9284.37
753.651	9517.81
753.989	9494.99
754.327	9693.86
754.666	9765.94
755.004	9812.95
755.342	9993.28
755.679	10149.89
756.017	10194.63
756.355	10414.97
756.693	10455.87
757.031	10678.24
757.368	10776.54
757.706	10918.91
758.044	11042.29
758.381	11232.12
758.719	11324.09
759.056	11475.96
759.394	11652.9
759.731	11775.38
