Data from hue_220_FLMS001491_00015.txt Node
Date: Tue Feb 07 16:38:36 GMT 2017
User: dcchb
Spectrometer: FLMS00149
Trigger mode: 0
Integration Time (sec): 2.000000E-2
Scans to average: 10
Electric dark correction enabled: true
Nonlinearity correction enabled: false
Boxcar width: 0
XAxis mode: Wavelengths
Number of Pixels in Spectrum: 2048
>>>>>Begin Spectral Data<<<<<
341.393	-12.95
341.776	-12.95
342.16	-12.95
342.543	-68.09
342.927	-75.55
343.31	-68.77
343.693	-76.9
344.077	-78.03
344.46	-53.4
344.843	-51.82
345.226	-30.58
345.61	-38.04
345.993	-22.22
346.376	-11.14
346.759	25.69
347.142	38.8
347.525	29.53
347.908	68.85
348.291	62.75
348.674	107.72
349.057	97.55
349.44	145.91
349.823	136.2
350.206	169.42
350.588	198.34
350.971	221.39
351.354	215.74
351.737	208.74
352.119	236.08
352.502	256.42
352.884	277.44
353.267	271.79
353.65	283.31
354.032	274.27
354.414	290.32
354.797	304.1
355.179	313.59
355.562	327.15
355.944	309.53
356.326	330.09
356.709	313.14
357.091	336.64
357.473	323.31
357.855	335.29
358.238	354.27
358.62	333.93
359.002	341.62
359.384	323.76
359.766	321.5
360.148	347.94
360.53	372.12
360.912	339.81
361.294	327.15
361.676	333.93
362.057	362.18
362.439	314.5
362.821	318.11
363.203	315.4
363.584	337.1
363.966	307.04
364.348	337.55
364.729	316.08
365.111	314.05
365.493	322.18
365.874	324.89
366.256	314.5
366.637	319.92
367.019	296.64
367.4	309.98
367.781	309.3
368.163	306.14
368.544	311.79
368.925	305.46
369.306	316.53
369.688	308.62
370.069	324.67
370.45	291.67
370.831	320.37
371.212	306.81
371.593	340.49
371.974	310.43
372.355	311.56
372.736	310.88
373.117	322.86
373.498	320.15
373.879	315.85
374.26	320.6
374.641	317.66
375.021	318.57
375.402	310.2
375.783	306.81
376.163	307.94
376.544	323.08
376.925	310.88
377.305	311.11
377.686	348.85
378.066	308.62
378.447	343.65
378.827	323.99
379.208	324.44
379.588	342.75
379.968	339.36
380.349	322.63
380.729	349.07
381.109	308.85
381.489	339.58
381.87	343.88
382.25	343.42
382.63	322.18
383.01	345.01
383.39	337.55
383.77	347.49
384.15	348.85
384.53	325.57
384.91	333.71
385.29	343.42
385.67	349.75
386.049	352.91
386.429	333.93
386.809	340.26
387.189	344.33
387.568	362.86
387.948	357.89
388.328	351.56
388.707	374.16
389.087	359.69
389.466	362.63
389.846	352.69
390.225	354.5
390.605	358.56
390.984	358.56
391.363	379.81
391.743	368.28
392.122	370.09
392.501	348.17
392.881	377.55
393.26	367.15
393.639	383.2
394.018	362.18
394.397	394.27
394.776	413.03
395.155	400.82
395.534	376.87
395.913	377.32
396.292	392.69
396.671	400.82
397.05	394.04
397.429	397.21
397.808	409.64
398.186	406.92
398.565	390.2
398.944	403.53
399.323	414.38
399.701	411.22
400.08	400.6
400.458	418.68
400.837	435.62
401.215	433.14
401.594	408.73
401.972	434.49
402.351	432.91
402.729	420.26
403.107	427.94
403.486	444.89
403.864	444.89
404.242	442.86
404.62	450.09
404.999	426.13
405.377	432.01
405.755	421.61
406.133	453.02
406.511	456.64
406.889	453.02
407.267	467.49
407.645	501.39
408.023	481.05
408.401	497.77
408.779	498.22
409.156	505.68
409.534	513.36
409.912	498.45
410.29	514.94
410.667	508.62
411.045	541.16
411.422	541.16
411.8	522.63
412.178	546.58
412.555	541.38
412.933	558.78
413.31	597.2
413.687	609.18
414.065	597.88
414.442	590.87
414.819	624.77
415.197	613.02
415.574	628.16
415.951	626.81
416.328	620.93
416.705	625.45
417.082	626.81
417.46	664.09
417.837	641.95
418.214	660.93
418.591	685.34
418.967	678.56
419.344	665
419.721	688.27
420.098	708.61
420.475	706.35
420.852	740.93
421.228	736.63
421.605	747.03
421.982	771.89
422.358	759.46
422.735	763.3
423.111	804.2
423.488	795.61
423.864	831.77
424.241	839
424.617	860.7
424.994	850.08
425.37	865.9
425.746	876.97
426.123	905.44
426.499	900.92
426.875	930.53
427.251	895.73
427.627	947.7
428.003	955.61
428.379	971.88
428.756	967.81
429.132	994.48
429.507	993.8
429.883	997.87
430.259	1045.1
430.635	1054.59
431.011	1032.22
431.387	1040.58
431.763	1081.03
432.138	1108.83
432.514	1097.3
432.89	1104.08
433.265	1157.19
433.641	1182.95
434.016	1184.98
434.392	1203.29
434.767	1220.01
435.143	1223.17
435.518	1243.51
435.894	1248.94
436.269	1294.58
436.644	1325.32
437.02	1355.6
437.395	1371.64
437.77	1384.53
438.145	1410.74
438.52	1425.88
438.895	1455.03
439.271	1453.45
439.646	1492.32
440.021	1508.82
440.395	1521.02
440.77	1541.36
441.145	1565.54
441.52	1607.12
441.895	1599.66
442.27	1611.19
442.645	1627.46
443.019	1638.76
443.394	1678.76
443.769	1698.42
444.143	1673.11
444.518	1707.91
444.892	1719.21
445.267	1721.01
445.641	1725.76
446.016	1735.03
446.39	1755.36
446.764	1770.73
447.139	1768.92
447.513	1799.88
447.887	1810.05
448.262	1822.25
448.636	1817.51
449.01	1888.47
449.384	1901.57
449.758	1886.66
450.132	1906.32
450.506	1916.72
450.88	1932.99
451.254	1929.6
451.628	1962.14
452.002	1977.28
452.376	2048.69
452.75	2023.15
453.123	2021.12
453.497	2051.4
453.871	2053.89
454.244	2103.38
454.618	2101.57
454.992	2122.13
455.365	2143.15
455.739	2209.81
456.112	2196.03
456.486	2204.62
456.859	2207.33
457.232	2276.25
457.606	2304.73
457.979	2314.9
458.352	2351.73
458.725	2420.43
459.099	2410.49
459.472	2414.1
459.845	2437.15
460.218	2455.46
460.591	2511.73
460.964	2497.04
461.337	2517.83
461.71	2577.94
462.083	2610.48
462.456	2619.07
462.829	2619.07
463.201	2660.2
463.574	2676.92
463.947	2704.27
464.32	2771.16
464.692	2787.65
465.065	2777.03
465.438	2815
465.81	2897.25
466.183	2890.7
466.555	2960.3
466.928	2968.89
467.3	2931.6
467.672	3000.98
468.045	3082.33
468.417	3121.43
468.789	3075.1
469.161	3109.23
469.534	3181.31
469.906	3253.86
470.278	3333.63
470.65	3289.79
471.022	3385.6
471.394	3415.43
471.766	3417.69
472.138	3491.59
472.51	3571.13
472.882	3550.57
473.253	3627.86
473.625	3665.37
473.997	3728.87
474.369	3719.83
474.74	3788.53
475.112	3876.21
475.484	3872.14
475.855	3960.96
476.227	3957.79
476.598	4084.79
476.97	4119.14
477.341	4144.68
477.713	4203.89
478.084	4240.04
478.455	4328.18
478.827	4389.42
479.198	4500.83
479.569	4485.24
479.94	4578.79
480.311	4598.9
480.682	4728.17
481.053	4762.74
481.424	4859.69
481.795	4902.63
482.166	4947.82
482.537	5003.41
482.908	5138.55
483.279	5139.68
483.65	5219.68
484.021	5274.59
484.391	5373.12
484.762	5375.38
485.133	5420.8
485.503	5474.36
485.874	5535.38
486.244	5618.54
486.615	5700.12
486.985	5741.02
487.356	5855.59
487.726	5894.69
488.097	5941.92
488.467	5981.69
488.837	6079.54
489.207	6160.67
489.578	6238.41
489.948	6268.69
490.318	6316.37
490.688	6389.37
491.058	6394.79
491.428	6491.74
491.798	6529.25
492.168	6673.65
492.538	6725.85
492.908	6707.78
493.278	6848.34
493.648	6841.78
494.017	6897.38
494.387	6964.04
494.757	6970.82
495.126	7016.69
495.496	7030.03
495.866	7027.77
496.235	7137.59
496.605	7135.56
496.974	7156.8
497.344	7255.78
497.713	7245.84
498.082	7362.67
498.452	7359.06
498.821	7343.47
499.19	7369.68
499.559	7479.96
499.928	7500.07
500.298	7490.81
500.667	7593.4
501.036	7526.96
501.405	7603.12
501.774	7580.07
502.143	7651.03
502.512	7701.42
502.88	7742.32
503.249	7723.12
503.618	7750.23
503.987	7742.55
504.356	7810.57
504.724	7775.77
505.093	7839.05
505.462	7855.77
505.83	7906.61
506.199	7940.29
506.567	8001.75
506.936	7969.89
507.304	7992.26
507.672	8062.32
508.041	8060.96
508.409	8075.2
508.777	8158.36
509.145	8137.79
509.514	8129.21
509.882	8152.71
510.25	8127.85
510.618	8184.8
510.986	8195.87
511.354	8214.63
511.722	8293.5
512.09	8357
512.458	8304.57
512.826	8266.15
513.193	8338.02
513.561	8313.38
513.929	8348.86
514.297	8400.16
514.664	8389.31
515.032	8407.39
515.4	8449.42
515.767	8487.84
516.135	8457.79
516.502	8382.31
516.869	8477.67
517.237	8513.6
517.604	8410.78
517.972	8459.59
518.339	8521.29
518.706	8482.87
519.073	8536.88
519.44	8463.44
519.808	8532.81
520.175	8514.28
520.542	8523.1
520.909	8548.63
521.276	8531.23
521.643	8612.81
522.009	8586.37
522.376	8662.98
522.743	8628.4
523.11	8627.73
523.477	8720.6
523.843	8730.1
524.21	8704.56
524.577	8735.74
524.943	8667.95
525.31	8664.79
525.676	8756.76
526.043	8820.94
526.409	8821.84
526.776	8857.32
527.142	8769.42
527.508	8805.57
527.874	8900.71
528.241	8785.24
528.607	8781.62
528.973	8832.69
529.339	8804.44
529.705	8871.33
530.071	8879.47
530.437	8859.58
530.803	8916.98
531.169	8857.78
531.535	8857.78
531.901	8782.98
532.267	8800.6
532.632	8856.87
532.998	8771.45
533.364	8824.56
533.73	8759.7
534.095	8800.83
534.461	8761.51
534.826	8766.48
535.192	8832.24
535.557	8799.7
535.923	8702.53
536.288	8713.37
536.653	8788.4
537.019	8657.55
537.384	8667.05
537.749	8658.91
538.114	8694.62
538.479	8603.54
538.845	8651.91
539.21	8655.07
539.575	8569.2
539.94	8558.57
540.305	8559.48
540.67	8610.78
541.034	8541.4
541.399	8528.07
541.764	8552.92
542.129	8498.69
542.494	8459.14
542.858	8470.67
543.223	8492.14
543.587	8443.32
543.952	8454.17
544.316	8368.07
544.681	8353.16
545.045	8376.88
545.41	8388.64
545.774	8347.51
546.138	8372.59
546.503	8349.31
546.867	8265.25
547.231	8268.86
547.595	8299.37
547.959	8311.8
548.324	8181.64
548.688	8168.3
549.052	8174.18
549.416	8198.81
549.779	8172.37
550.143	8106.16
550.507	8145.93
550.871	8095.08
551.235	8065.93
551.599	8064.35
551.962	8079.04
552.326	8086.27
552.689	8067.29
553.053	8028.64
553.417	8081.3
553.78	8093.5
554.143	8000.4
554.507	7968.08
554.87	8008.31
555.234	8035.2
555.597	8039.27
555.96	7947.29
556.323	7978.02
556.686	7938.7
557.05	7954.75
557.413	7927.86
557.776	7923.79
558.139	7900.96
558.502	7887.63
558.865	7908.87
559.228	7997.01
559.59	7945.71
559.953	7889.67
560.316	7965.37
560.679	7905.48
561.041	7896.44
561.404	8022.77
561.767	7968.08
562.129	7952.94
562.492	8013.05
562.854	7966.5
563.217	7925.14
563.579	7966.95
563.941	7952.71
564.304	7988.19
564.666	8000.85
565.028	7982.77
565.39	8029.55
565.753	8068.42
566.115	8008.76
566.477	8070.68
566.839	8083.78
567.201	8120.62
567.563	8051.92
567.925	8119.26
568.287	8106.83
568.648	8102.77
569.01	8131.69
569.372	8147.06
569.734	8084.46
570.095	8202.2
570.457	8181.64
570.819	8162.65
571.18	8201.52
571.542	8329.2
571.903	8229.54
572.265	8242.2
572.626	8265.02
572.987	8295.53
573.349	8336.66
573.71	8292.37
574.071	8378.24
574.432	8324.68
574.794	8337.34
575.155	8377.34
575.516	8382.31
575.877	8369.65
576.238	8419.82
576.599	8460.95
576.96	8436.54
577.32	8415.98
577.681	8521.06
578.042	8510.44
578.403	8574.39
578.763	8539.37
579.124	8539.14
579.485	8643.54
579.845	8615.3
580.206	8607.61
580.566	8612.13
580.927	8623.88
581.287	8627.95
581.648	8658.01
582.008	8641.51
582.368	8676.09
582.728	8704.56
583.089	8705.24
583.449	8639.48
583.809	8752.92
584.169	8735.07
584.529	8747.72
584.889	8764.9
585.249	8717.21
585.609	8774.84
585.969	8799.02
586.329	8762.41
586.688	8894.38
587.048	8820.71
587.408	8847.15
587.768	8838.57
588.127	8860.49
588.487	8814.39
588.846	8989.07
589.206	8870.66
589.565	8871.33
589.925	8924.44
590.284	8972.57
590.643	8998.11
591.003	8935.74
591.362	9091.67
591.721	8955.17
592.08	8949.75
592.44	8994.27
592.799	9031.33
593.158	9019.58
593.517	8994.04
593.876	9051.22
594.235	8992.24
594.593	9101.84
594.952	9130.08
595.311	9036.3
595.67	9024.55
596.029	9154.04
596.387	9117.66
596.746	9157.2
597.104	9096.41
597.463	9079.01
597.822	9150.42
598.18	9038.56
598.538	9118.56
598.897	9168.5
599.255	9166.02
599.613	9232.68
599.972	9140.48
600.33	9217.99
600.688	9157.43
601.046	9206.69
601.404	9235.62
601.762	9189.74
602.12	9264.54
602.478	9320.14
602.836	9301.15
603.194	9246.92
603.552	9246.69
603.91	9195.17
604.268	9244.43
604.625	9281.72
604.983	9273.58
605.341	9204.43
605.698	9221.38
606.056	9273.81
606.413	9285.79
606.771	9345.22
607.128	9310.87
607.485	9265.9
607.843	9304.54
608.2	9329.4
608.557	9366.69
608.914	9321.49
609.272	9366.01
609.629	9324.2
609.986	9442.39
610.343	9310.42
610.7	9455.27
611.057	9342.96
611.414	9457.08
611.771	9458.44
612.127	9424.99
612.484	9440.36
612.841	9509.51
613.198	9448.49
613.554	9489.62
613.911	9566.46
614.267	9473.13
614.624	9476.74
614.98	9559.45
615.337	9559.45
615.693	9553.58
616.05	9525.55
616.406	9638.55
616.762	9617.53
617.118	9512.45
617.475	9567.14
617.831	9527.59
618.187	9592.45
618.543	9559.45
618.899	9641.71
619.255	9604.87
619.611	9624.54
619.967	9664.99
620.323	9674.25
620.678	9567.59
621.034	9595.16
621.39	9596.06
621.746	9658.43
622.101	9721.48
622.457	9618.89
622.812	9588.15
623.168	9708.15
623.523	9612.33
623.879	9660.69
624.234	9628.15
624.589	9668.15
624.945	9626.79
625.3	9637.64
625.655	9605.1
626.01	9654.82
626.365	9685.55
626.72	9655.49
627.075	9592.22
627.43	9593.35
627.785	9557.87
628.14	9596.74
628.495	9630.41
628.85	9603.07
629.205	9560.36
629.559	9538.66
629.914	9617.08
630.269	9583.18
630.623	9567.36
630.978	9551.54
631.332	9598.55
631.687	9636.06
632.041	9550.41
632.396	9548.38
632.75	9530.53
633.104	9529.17
633.459	9455.27
633.813	9563.07
634.167	9489.85
634.521	9433.13
634.875	9435.84
635.229	9473.58
635.583	9402.62
635.937	9442.39
636.291	9409.85
636.645	9423.86
636.999	9414.15
637.352	9468.61
637.706	9335.28
638.06	9437.2
638.413	9327.82
638.767	9306.8
639.121	9424.77
639.474	9364.2
639.828	9336.41
640.181	9326.69
640.534	9269.52
640.888	9267.48
641.241	9243.53
641.594	9202.85
641.947	9305.45
642.301	9294.6
642.654	9231.1
643.007	9243.08
643.36	9296.18
643.713	9237.88
644.066	9285.11
644.419	9255.28
644.771	9172.34
645.124	9034.27
645.477	9025.23
645.83	8982.29
646.182	8995.63
646.535	8898.68
646.888	8940.94
647.24	8885.35
647.593	8856.42
647.945	8909.98
648.298	8837.44
648.65	8813.93
649.002	8822.75
649.355	8871.33
649.707	8872.92
650.059	8944.78
650.411	8996.98
650.763	9070.88
651.115	9093.7
651.467	9121.95
651.819	9072.23
652.171	9065.68
652.523	9055.96
652.875	9122.85
653.227	9121.05
653.578	9085.11
653.93	9090.09
654.282	9046.47
654.633	9066.13
654.985	9046.92
655.337	9057.54
655.688	9122.18
656.039	9113.36
656.391	9023.87
656.742	9101.16
657.094	9107.94
657.445	9118.56
657.796	9115.17
658.147	9054.15
658.498	9084.44
658.849	9097.32
659.2	9137.99
659.551	9056.41
659.902	9096.19
660.253	9181.16
660.604	9159.46
660.955	9103.64
661.306	9131.67
661.656	9078.79
662.007	9167.6
662.358	9106.58
662.708	9095.51
663.059	9071.1
663.409	9065.91
663.76	9121.5
664.11	9166.02
664.461	9158.78
664.811	9131.89
665.161	9101.84
665.511	9127.82
665.862	9174.83
666.212	9128.05
666.562	9170.08
666.912	9145.68
667.262	9096.64
667.612	9130.31
667.962	9193.59
668.312	9131.44
668.662	9168.28
669.011	9186.35
669.361	9095.96
669.711	9165.11
670.06	9157.88
670.41	9095.74
670.76	9095.51
671.109	9109.75
671.459	9111.33
671.808	9079.46
672.157	9119.92
672.507	9013.48
672.856	9061.39
673.205	9068.39
673.554	9079.01
673.904	9001.27
674.253	9063.42
674.602	9082.85
674.951	8938.68
675.3	8876.53
675.649	9018.45
675.998	8999.47
676.346	8982.29
676.695	9048.28
677.044	8940.03
677.393	8920.37
677.741	8994.5
678.09	8932.35
678.438	8966.02
678.787	8946.36
679.135	8963.54
679.484	8906.14
679.832	8924.67
680.181	8930.99
680.529	8879.7
680.877	8833.14
681.225	8825.91
681.573	8883.31
681.922	8807.38
682.27	8791.34
682.618	8758.34
682.966	8752.02
683.314	8759.25
683.661	8778.23
684.009	8717.89
684.357	8680.38
684.705	8639.02
685.053	8648.74
685.4	8718.8
685.748	8633.83
686.095	8628.4
686.443	8570.33
686.79	8517.22
687.138	8569.87
687.485	8524.9
687.832	8530.78
688.18	8525.58
688.527	8483.1
688.874	8427.5
689.221	8426.37
689.568	8463.89
689.915	8381.4
690.262	8410.33
690.609	8292.82
690.956	8251.46
691.303	8321.97
691.65	8278.81
691.997	8296.43
692.344	8194.97
692.69	8188.19
693.037	8174.63
693.383	8135.53
693.73	8108.64
694.077	8090.34
694.423	8018.7
694.769	8023
695.116	8000.85
695.462	8001.07
695.808	7908.42
696.155	7967.4
696.501	7850.34
696.847	7874.3
697.193	7776.22
697.539	7803.57
697.885	7779.84
698.231	7743.23
698.577	7773.06
698.923	7754.53
699.269	7663.46
699.614	7627.07
699.96	7596.11
700.306	7607.64
700.651	7598.15
700.997	7566.06
701.342	7487.19
701.688	7499.62
702.033	7443.58
702.379	7459.39
702.724	7399.51
703.069	7435.67
703.415	7299.85
703.76	7344.82
704.105	7309.34
704.45	7249.23
704.795	7307.76
705.14	7229.8
705.485	7242.22
705.83	7124.71
706.175	7177.37
706.52	7134.66
706.865	7159.29
707.209	7091.72
707.554	7051.72
707.899	7110.02
708.243	7056.02
708.588	6988.45
708.932	7012.4
709.277	6955.68
709.621	6981.44
709.966	6969.01
710.31	6976.24
710.654	6864.16
710.998	6919.52
711.342	6879.75
711.687	6860.09
712.031	6797.49
712.375	6831.39
712.719	6809.24
713.063	6785.51
713.407	6836.81
713.75	6773.08
714.094	6778.06
714.438	6731.28
714.782	6803.14
715.125	6728.57
715.469	6714.33
715.812	6665.97
716.156	6627.1
716.499	6657.38
716.843	6668.23
717.186	6651.73
717.53	6655.12
717.873	6686.08
718.216	6649.47
718.559	6652.18
718.902	6591.62
719.246	6622.13
719.589	6553.88
719.932	6583.26
720.275	6552.3
720.617	6557.27
720.96	6523.6
721.303	6574.67
721.646	6601.56
721.989	6536.03
722.331	6497.16
722.674	6505.3
723.016	6499.87
723.359	6480.44
723.701	6520.21
724.044	6430.95
724.386	6407.44
724.729	6458.29
725.071	6451.29
725.413	6399.99
725.755	6402.92
726.097	6401.79
726.439	6425.07
726.782	6358.86
727.124	6378.74
727.465	6374.23
727.807	6386.43
728.149	6351.63
728.491	6392.98
728.833	6408.57
729.175	6401.12
729.516	6318.63
729.858	6368.35
730.199	6441.34
730.541	6359.08
730.882	6359.54
731.224	6394.79
731.565	6374.23
731.906	6360.21
732.248	6421.46
732.589	6404.28
732.93	6386.88
733.271	6372.87
733.612	6365.64
733.953	6382.81
734.294	6376.48
734.635	6353.21
734.976	6348.01
735.317	6331.97
735.658	6383.04
735.999	6377.84
736.339	6405.18
736.68	6356.15
737.021	6410.83
737.361	6351.85
737.702	6404.73
738.042	6387.33
738.383	6442.47
738.723	6456.26
739.063	6409.93
739.404	6441.12
739.744	6464.84
740.084	6425.75
740.424	6451.74
740.764	6467.33
741.104	6515.24
741.444	6507.33
741.784	6469.36
742.124	6502.13
742.464	6511.4
742.804	6531.96
743.143	6555.69
743.483	6614.9
743.823	6525.41
744.162	6593.43
744.502	6594.11
744.841	6706.65
745.181	6779.19
745.52	6687.21
745.86	6743.48
746.199	6789.81
746.538	6833.65
746.877	6924.95
747.216	6910.93
747.556	6963.36
747.895	6902.57
748.234	6998.39
748.573	7064.6
748.911	7059.18
749.25	7127.65
749.589	7192.06
749.928	7222.79
750.267	7278.16
750.605	7359.96
750.944	7470.47
751.283	7448.1
751.621	7527.19
751.96	7654.42
752.298	7752.04
752.636	7801.76
752.975	7843.79
753.313	7973.28
753.651	8091.24
753.989	8164.69
754.327	8254.4
754.666	8297.11
755.004	8431.35
755.342	8621.85
755.679	8719.47
756.017	8797.89
756.355	8928.28
756.693	9055.96
757.031	9269.74
757.368	9320.36
757.706	9406.24
758.044	9594.93
758.381	9773.68
758.719	9892.1
759.056	10018.65
759.394	10152.43
759.731	10284.18
760.068	10450.95
760.405	10620.22
760.743	10702.7
761.08	10922.35
761.417	11099.3
761.754	11276.02
762.091	11393.75
762.428	11551.26
762.765	11677.36
763.102	11935.21
763.438	12139.27
763.775	12155.99
764.112	12362.32
764.449	12570.9
764.785	12688.64
765.122	12885.47
765.458	12971.11
765.795	13162.97
766.131	13357.32
766.467	13484.09
766.804	13604.54
767.14	13780.13
767.476	13925.21
767.812	13996.85
768.148	14272.55
768.485	14394.13
