Data from hue_36_FLMS001491_00002.txt Node
Date: Tue Feb 07 17:29:18 GMT 2017
User: dcchb
Spectrometer: FLMS00149
Trigger mode: 0
Integration Time (sec): 2.000000E-2
Scans to average: 10
Electric dark correction enabled: true
Nonlinearity correction enabled: false
Boxcar width: 0
XAxis mode: Wavelengths
Number of Pixels in Spectrum: 2048
>>>>>Begin Spectral Data<<<<<
341.393	-22.05
341.776	-22.05
342.16	-22.05
342.543	-72.67
342.927	-78.32
343.31	-74.93
343.693	-42.39
344.077	-55.49
344.46	-65.89
344.843	-74.7
345.226	-29.96
345.61	-21.82
345.993	-26.34
346.376	-5.1
346.759	9.36
347.142	13.21
347.525	31.96
347.908	48.46
348.291	92.98
348.674	99.31
349.057	101.34
349.44	125.75
349.823	143.37
350.206	160.09
350.588	200.09
350.971	222.69
351.354	221.56
351.737	240.77
352.119	240.32
352.502	259.53
352.884	277.38
353.267	275.35
353.65	320.99
354.032	300.66
354.414	299.53
354.797	331.62
355.179	329.36
355.562	329.58
355.944	328.9
356.326	349.47
356.709	353.99
357.091	328
357.473	359.64
357.855	354.44
358.238	339.98
358.62	324.38
359.002	341.33
359.384	323.71
359.766	328.9
360.148	333.88
360.53	350.6
360.912	342.46
361.294	322.12
361.676	349.47
362.057	347.89
362.439	325.51
362.821	332.29
363.203	328.68
363.584	339.98
363.966	313.31
364.348	324.84
364.729	330.94
365.111	342.01
365.493	309.02
365.874	318.28
366.256	333.42
366.637	315.57
367.019	339.3
367.4	314.44
367.781	317.15
368.163	308.11
368.544	312.86
368.925	308.79
369.306	317.6
369.688	337.94
370.069	320.54
370.45	326.64
370.831	303.82
371.212	297.27
371.593	319.64
371.974	325.74
372.355	307.66
372.736	330.94
373.117	323.93
373.498	320.99
373.879	320.32
374.26	325.74
374.641	323.48
375.021	316.02
375.402	334.1
375.783	316.7
376.163	332.75
376.544	315.34
376.925	319.19
377.305	331.39
377.686	323.48
378.066	334.55
378.447	318.51
378.827	361.45
379.208	333.65
379.588	335.46
379.968	350.82
380.349	334.1
380.729	327.1
381.109	335.23
381.489	321.22
381.87	327.32
382.25	337.27
382.63	328.9
383.01	331.39
383.39	341.78
383.77	339.52
384.15	365.06
384.53	330.26
384.91	334.1
385.29	348.56
385.67	357.38
386.049	334.78
386.429	356.47
386.809	354.89
387.189	348.79
387.568	350.6
387.948	361.22
388.328	349.92
388.707	362.35
389.087	363.48
389.466	361.22
389.846	355.34
390.225	360.77
390.605	344.95
390.984	379.98
391.363	344.27
391.743	370.48
392.122	362.58
392.501	371.61
392.881	390.6
393.26	374.1
393.639	376.59
394.018	363.71
394.397	367.09
394.776	378.39
395.155	387.89
395.534	364.16
395.913	375
396.292	389.92
396.671	373.87
397.05	382.24
397.429	384.5
397.808	371.84
398.186	374.33
398.565	389.02
398.944	394.89
399.323	412.29
399.701	385.17
400.08	411.84
400.458	414.1
400.837	409.13
401.215	396.47
401.594	398.73
401.972	415.68
402.351	416.36
402.729	415.91
403.107	404.83
403.486	409.13
403.864	407.32
404.242	419.52
404.62	417.72
404.999	433.08
405.377	393.99
405.755	411.61
406.133	438.96
406.511	426.75
406.889	439.18
407.267	435.57
407.645	430.6
408.023	438.05
408.401	442.57
408.779	434.66
409.156	473.98
409.534	441.44
409.912	433.76
410.29	463.82
410.667	435.12
411.045	458.17
411.422	469.47
411.8	467.21
412.178	447.32
412.555	465.17
412.933	462.23
413.31	456.36
413.687	476.92
414.065	473.76
414.442	473.98
414.819	474.21
415.197	476.7
415.574	466.98
415.951	462.01
416.328	505.4
416.705	481.89
417.082	486.64
417.46	509.01
417.837	481.44
418.214	485.28
418.591	482.35
418.967	502.91
419.344	490.71
419.721	507.2
420.098	523.7
420.475	516.92
420.852	533.87
421.228	517.83
421.605	522.35
421.982	522.35
422.358	516.7
422.735	525.06
423.111	520.99
423.488	532.51
423.864	535.68
424.241	541.33
424.617	538.84
424.994	558.95
425.37	544.72
425.746	553.98
426.123	552.17
426.499	539.97
426.875	586.07
427.251	569.58
427.627	570.71
428.003	592.85
428.379	583.36
428.756	597.37
429.132	586.52
429.507	592.85
429.883	610.48
430.259	598.05
430.635	634.66
431.011	617.26
431.387	615
431.763	624.49
432.138	622.91
432.514	631.72
432.89	633.53
433.265	642.79
433.641	647.77
434.016	655
434.392	655.22
434.767	676.24
435.143	659.29
435.518	702.91
435.894	694.09
436.269	704.49
436.644	686.63
437.02	701.78
437.395	707.2
437.77	707.65
438.145	721.66
438.52	731.83
438.895	732.28
439.271	726.18
439.646	730.48
440.021	732.28
440.395	736.35
440.77	737.93
441.145	719.4
441.52	739.74
441.895	759.85
442.27	766.18
442.645	725.5
443.019	771.38
443.394	745.84
443.769	769.8
444.143	763.47
444.518	782.23
444.892	774.99
445.267	779.97
445.641	789
446.016	789.68
446.39	796.24
446.764	779.29
447.139	774.32
447.513	820.19
447.887	807.99
448.262	826.07
448.636	814.09
449.01	838.95
449.384	828.55
449.758	836.24
450.132	836.24
450.506	847.53
450.88	826.29
451.254	853.41
451.628	843.69
452.002	872.17
452.376	879.62
452.75	890.02
453.123	873.3
453.497	897.7
453.871	895.67
454.244	939.74
454.618	919.62
454.992	951.03
455.365	961.2
455.739	950.81
456.112	956.01
456.486	971.82
456.859	951.49
457.232	977.7
457.606	989
457.979	1000.07
458.352	1020.86
458.725	1026.29
459.099	1023.12
459.472	1057.02
459.845	1043.24
460.218	1064.03
460.591	1089.11
460.964	1097.47
461.337	1094.31
461.71	1101.76
462.083	1133.18
462.456	1138.37
462.829	1130.92
463.201	1157.58
463.574	1172.95
463.947	1170.46
464.32	1222.44
464.692	1229.45
465.065	1228.99
465.438	1243.68
465.81	1254.98
466.183	1277.35
466.555	1301.31
466.928	1326.17
467.3	1322.78
467.672	1320.06
468.045	1359.61
468.417	1349.67
468.789	1367.97
469.161	1389.21
469.534	1433.06
469.906	1460.63
470.278	1459.27
470.65	1478.03
471.022	1525.93
471.394	1548.31
471.766	1581.98
472.138	1588.31
472.51	1605.03
472.882	1653.16
473.253	1672.82
473.625	1696.55
473.997	1731.58
474.369	1749.88
474.74	1798.02
475.112	1834.17
475.484	1877.56
475.855	1907.39
476.227	1937.9
476.598	2004.11
476.97	2024.23
477.341	2083.66
477.713	2098.57
478.084	2164.79
478.455	2244.79
478.827	2265.8
479.198	2344.44
479.569	2369.98
479.94	2452.24
480.311	2496.98
480.682	2603.42
481.053	2620.59
481.424	2722.06
481.795	2776.52
482.166	2831.66
482.537	2890.87
482.908	2971.32
483.279	3044.76
483.65	3098.32
484.021	3174.03
484.391	3280.46
484.762	3362.5
485.133	3375.83
485.503	3467.58
485.874	3559.55
486.244	3618.31
486.615	3725.2
486.985	3783.28
487.356	3914.12
487.726	3985.3
488.097	4046.09
488.467	4162.25
488.837	4306.43
489.207	4348.46
489.578	4463.48
489.948	4539.87
490.318	4668.68
490.688	4706.42
491.058	4801.1
491.428	4906.18
491.798	4992.28
492.168	5170.13
492.538	5216.68
492.908	5283.12
493.278	5426.85
493.648	5470.01
494.017	5585.26
494.387	5657.35
494.757	5742.09
495.126	5839.72
495.496	5903.67
495.866	5969.21
496.235	6120.62
496.605	6231.57
496.974	6306.37
497.344	6344.11
497.713	6396.31
498.082	6532.36
498.452	6703.2
498.821	6696.42
499.19	6796.53
499.559	6858.22
499.928	6930.99
500.298	7030.87
500.667	7146.8
501.036	7114.49
501.405	7290.53
501.774	7293.01
502.143	7414.59
502.512	7389.51
502.88	7551.76
503.249	7577.07
503.618	7712.66
503.987	7749.5
504.356	7858.88
504.724	7909.04
505.093	7980.68
505.462	8040.11
505.83	8124.18
506.199	8252.31
506.567	8304.06
506.936	8344.06
507.304	8389.93
507.672	8430.84
508.041	8523.49
508.409	8631.74
508.777	8740.66
509.145	8758.51
509.514	8795.35
509.882	8821.11
510.25	8901.33
510.618	8980.43
510.986	9048.9
511.354	9124.38
511.722	9282.34
512.09	9282.57
512.458	9311.04
512.826	9395.11
513.193	9480.53
513.561	9522.79
513.929	9598.26
514.297	9646.62
514.664	9757.81
515.032	9763.01
515.4	9923.91
515.767	9866.51
516.135	9936.33
516.502	9896.11
516.869	10108.76
517.237	10137.01
517.604	10083.22
517.972	10259.49
518.339	10281.64
518.706	10324.35
519.073	10344.91
519.44	10440.5
519.808	10542.87
520.175	10557.79
520.542	10671.68
520.909	10695.86
521.276	10679.37
521.643	10808.4
522.009	10900.15
522.376	10949.42
522.743	11127.72
523.11	11174.49
523.477	11194.83
523.843	11287.94
524.21	11368.39
524.577	11450.65
524.943	11472.57
525.31	11529.06
525.676	11615.84
526.043	11739
526.409	11772.67
526.776	11942.84
527.142	11931.31
527.508	12075.26
527.874	12064.41
528.241	12198.87
528.607	12200.46
528.973	12370.4
529.339	12361.13
529.705	12465.76
530.071	12517.06
530.437	12599.54
530.803	12633.89
531.169	12700.56
531.535	12671.63
531.901	12789.37
532.267	12798.18
532.632	12924.73
532.998	12964.73
533.364	13032.52
533.73	13153.2
534.095	13191.16
534.461	13287.21
534.826	13267.09
535.192	13371.05
535.557	13459.18
535.923	13502.34
536.288	13466.64
536.653	13506.41
537.019	13598.61
537.384	13693.52
537.749	13713.86
538.114	13802.22
538.479	13818.94
538.845	13860.75
539.21	13859.4
539.575	13953.63
539.94	13999.05
540.305	14095.77
540.67	14080.41
541.034	14205.6
541.399	14204.92
541.764	14241.08
542.129	14370.57
542.494	14314.3
542.858	14488.98
543.223	14532.82
543.587	14604.91
543.952	14483.33
544.316	14627.06
544.681	14673.61
545.045	14718.13
545.41	14874.06
545.774	14761.52
546.138	14919.48
546.503	14990.44
546.867	14975.3
547.231	15097.1
547.595	15149.31
547.959	15223.43
548.324	15194.05
548.688	15225.46
549.052	15326.48
549.416	15333.93
549.779	15407.6
550.143	15427.26
550.507	15499.13
550.871	15595.62
551.235	15525.79
551.599	15734.15
551.962	15768.27
552.326	15695.51
552.689	15857.54
553.053	15843.75
553.417	15796.75
553.78	16012.33
554.143	16063.41
554.507	16095.04
554.87	16086.23
555.234	16314.02
555.597	16220.24
555.96	16293.68
556.323	16368.03
556.686	16355.83
557.05	16507.46
557.413	16484.19
557.776	16567.57
558.139	16662.49
558.502	16717.4
558.865	16835.14
559.228	16863.61
559.59	16845.08
559.953	16989.71
560.316	17104.28
560.679	17162.81
561.041	17167.33
561.404	17238.29
561.767	17344.73
562.129	17358.51
562.492	17558.28
562.854	17453.2
563.217	17456.36
563.579	17590.37
563.941	17717.37
564.304	17787.65
564.666	17833.08
565.028	17982.22
565.39	17864.71
565.753	18006.86
566.115	18117.36
566.477	18147.19
566.839	18214.54
567.201	18319.39
567.563	18301.09
567.925	18557.58
568.287	18511.25
568.648	18589.67
569.01	18620.85
569.372	18758.02
569.734	18660.85
570.095	18896.1
570.457	18878.92
570.819	18987.85
571.18	18941.52
571.542	19125.25
571.903	19147.62
572.265	19238.24
572.626	19383.77
572.987	19349.42
573.349	19485.69
573.71	19568.4
574.071	19632.35
574.432	19845.68
574.794	19948.95
575.155	20052.68
575.516	20019.46
575.877	20194.6
576.238	20267.59
576.599	20382.39
576.96	20456.74
577.32	20553
577.681	20795.94
578.042	20961.58
578.403	20908.02
578.763	21167.9
579.124	21336.94
579.485	21331.29
579.845	21565.18
580.206	21619.42
580.566	21645.41
580.927	21799.3
581.287	22106.18
581.648	22171.27
582.008	22448.1
582.368	22619.62
582.728	22702.55
583.089	22938.48
583.449	23076.1
583.809	23194.52
584.169	23329.65
584.529	23482.65
584.889	23919.7
585.249	23872.92
585.609	24091.89
585.969	24417.31
586.329	24448.27
586.688	24708.38
587.048	24919.22
587.408	25046.22
587.768	25283.28
588.127	25492.54
588.487	25718.52
588.846	26114.44
589.206	26098.17
589.565	26375
589.925	26748.32
590.284	26894.08
590.643	27125.71
591.003	27316.67
591.362	27683.21
591.721	27841.17
592.08	27982.19
592.44	28349.64
592.799	28572
593.158	28660.36
593.517	28991.2
593.876	29266.45
594.235	29291.31
594.593	29458.99
594.952	29848.81
595.311	29973.32
595.67	30295.12
596.029	30634.77
596.387	30723.36
596.746	31084.71
597.104	31021.43
597.463	31322.21
597.822	31601.98
598.18	31622.09
598.538	31939.82
598.897	32338.68
599.255	32185.24
599.613	32918.78
599.972	32809.18
600.33	33096.63
600.688	33152
601.046	33357.41
601.404	33702.26
601.762	33819.77
602.12	34091.63
602.478	34361.91
602.836	34482.36
603.194	34418.4
603.552	34874.89
603.91	34765.06
604.268	35050.02
604.625	35219.29
604.983	35409.79
605.341	35447.98
605.698	35835.99
606.056	36106.95
606.413	36087.29
606.771	36384.9
607.128	36483.43
607.485	36467.61
607.843	36491.12
608.2	36896.76
608.557	37099.91
608.914	37086.36
609.272	37427.14
609.629	37596.4
609.986	37646.57
610.343	37755.94
610.7	38179.66
611.057	38012.43
611.414	38037.74
611.771	38364.29
612.127	38503.95
612.484	38725.63
612.841	38783.71
613.198	38819.42
613.554	38911.62
613.911	39245.62
614.267	39250.59
614.624	39336.47
614.98	39413.07
615.337	39817.81
615.693	39608.32
616.05	39689.9
616.406	40086.95
616.762	40100.97
617.118	40130.57
617.475	40229.1
617.831	40283.33
618.187	40442.43
618.543	40548.19
618.899	40860.49
619.255	40682.42
619.611	40751.12
619.967	40969.42
620.323	41177.1
620.678	41028.4
621.034	40984.11
621.39	41033.14
621.746	41116.08
622.101	41593.81
622.457	41306.81
622.812	41492.79
623.168	41564.43
623.523	41655.05
623.879	41765.78
624.234	41594.94
624.589	41799
624.945	41830.19
625.3	42022.95
625.655	41877.87
626.01	42070.63
626.365	42128.03
626.72	42062.04
627.075	42063.4
627.43	42138.88
627.785	41984.31
628.14	42174.81
628.495	42191.98
628.85	42278.76
629.205	42218.2
629.559	42386.55
629.914	42162.83
630.269	42242.6
630.623	42196.96
630.978	42050.74
631.332	42268.82
631.687	42415.48
632.041	42290.06
632.396	42486.67
632.75	42258.42
633.104	42378.42
633.459	42163.96
633.813	42242.83
634.167	42343.39
634.521	42256.61
634.875	42297.07
635.229	42310.17
635.583	42068.82
635.937	42189.27
636.291	42154.92
636.645	42239.44
636.999	42122.16
637.352	42262.04
637.706	42127.35
638.06	42184.53
638.413	42156.73
638.767	42189.05
639.121	42096.85
639.474	41725.56
639.828	41989.5
640.181	42126.67
640.534	41940.69
640.888	41841.71
641.241	41757.87
641.594	41829.06
641.947	41992.22
642.301	41886.23
642.654	41856.85
643.007	41939.34
643.36	41737.31
643.713	41885.55
644.066	41949.73
644.419	41777.53
644.771	41481.04
645.124	41140.03
645.477	40997.66
645.83	40859.36
646.182	40720.16
646.535	40529.65
646.888	40735.52
647.24	40532.59
647.593	40736.65
647.945	40640.16
648.298	40504.57
648.65	40387.06
649.002	40372.6
649.355	40549.77
649.707	40487.85
650.059	40767.61
650.411	40939.14
650.763	41177.55
651.115	41429.97
651.467	41512.23
651.819	41373.7
652.171	41370.99
652.523	41179.81
652.875	41343.19
653.227	41044.9
653.578	41307.94
653.93	41220.03
654.282	41061.17
654.633	40933.03
654.985	41071.34
655.337	41150.88
655.688	41094.39
656.039	41302.29
656.391	40842.87
656.742	40970.1
657.094	40964.67
657.445	41113.37
657.796	41008.06
658.147	40944.11
658.498	40979.59
658.849	41039.02
659.2	41009.87
659.551	40815.97
659.902	41140.26
660.253	40988.4
660.604	40956.76
660.955	40863.66
661.306	40933.71
661.656	40779.14
662.007	40933.03
662.358	40760.61
662.708	40780.27
663.059	40831.12
663.409	40591.8
663.76	40928.97
664.11	40842.41
664.461	40913.15
664.811	40867.95
665.161	40915.18
665.511	40679.93
665.862	40806.71
666.212	40861.17
666.562	40822.53
666.912	40805.35
667.262	40685.81
667.612	40736.88
667.962	40795.41
668.312	40746.6
668.662	41005.8
669.011	40823.66
669.361	40634.74
669.711	40766.03
670.06	40674.51
670.41	40506.6
670.76	40547.73
671.109	40589.31
671.459	40510.45
671.808	40442.65
672.157	40644.23
672.507	40406.95
672.856	40439.04
673.205	40507.73
673.554	40590.22
673.904	40532.82
674.253	40691.46
674.602	40584.12
674.951	40024.58
675.3	39900.07
675.649	40416.44
675.998	40407.17
676.346	40397.91
676.695	40406.27
677.044	40276.1
677.393	40216.89
677.741	40354.97
678.09	40388.19
678.438	40179.16
678.787	40151.36
679.135	40227.29
679.484	39906.85
679.832	40203.34
680.181	39827.07
680.529	40132.15
680.877	39889.9
681.225	39951.59
681.573	40096.67
681.922	39836.79
682.27	39826.4
682.618	39741.43
682.966	39703.69
683.314	39644.93
683.661	39495.56
684.009	39453.52
684.357	39201.33
684.705	39369.23
685.053	39405.16
685.4	39215.34
685.748	39136.02
686.095	39059.41
686.443	38898.96
686.79	38890.15
687.138	38896.7
687.485	39032.52
687.832	38722.7
688.18	38873.2
688.527	38704.62
688.874	38628.69
689.221	38626.43
689.568	38677.05
689.915	38392.54
690.262	38470.73
690.609	38321.35
690.956	38229.15
691.303	38124.97
691.65	37975.6
691.997	37934.47
692.344	37819.22
692.69	37820.35
693.037	37693.35
693.383	37489.06
693.73	37685.66
694.077	37368.83
694.423	37277.54
694.769	37249.06
695.116	37253.81
695.462	37147.14
695.808	37022.63
696.155	37048.16
696.501	36740.15
696.847	36776.31
697.193	36521.4
697.539	36797.78
697.885	36422.64
698.231	36425.13
698.577	36486.37
698.923	36363.66
699.269	36209.54
699.614	35921.19
699.96	36039.83
700.306	35989.66
700.651	35860.4
700.997	35716.22
701.342	35637.81
701.688	35596.68
702.033	35471.03
702.379	35392.39
702.724	35235.78
703.069	35373.18
703.415	34977.48
703.76	35085.5
704.105	34938.39
704.45	35047.99
704.795	34618.85
705.14	34597.16
705.485	34531.17
705.83	34438.29
706.175	34503.82
706.52	34469.7
706.865	34298.18
707.209	34231.52
707.554	34102.25
707.899	34159.2
708.243	34053.89
708.588	33867.46
708.932	33731.64
709.277	33771.41
709.621	33756.95
709.966	33556.96
710.31	33662.04
710.654	33409.39
710.998	33444.42
711.342	33520.12
711.687	33325.55
712.031	33096.86
712.375	33112.9
712.719	33104.54
713.063	33166.23
713.407	33306.34
713.75	33156.29
714.094	32904.77
714.438	32857.31
714.782	32824.09
715.125	32674.27
715.469	32629.3
715.812	32667.49
716.156	32424.11
716.499	32407.61
716.843	32486.7
717.186	32152.02
717.53	32438.57
717.873	32474.95
718.216	32312.7
718.559	32099.82
718.902	32018.92
719.246	31958.13
719.589	31875.64
719.932	31837.23
720.275	31760.39
720.617	31772.37
720.96	31691.69
721.303	31615.99
721.646	31557.24
721.989	31453.74
722.331	31503.68
722.674	31327.86
723.016	31471.36
723.359	31449.22
723.701	31349.78
724.044	31132.84
724.386	31007.42
724.729	31191.82
725.071	31234.98
725.413	31086.97
725.755	31062.33
726.097	31017.59
726.439	30811.27
726.782	30851.27
727.124	31005.16
727.465	30695.11
727.807	30834.09
728.149	30844.49
728.491	30544.15
728.833	30604.94
729.175	30566.75
729.516	30496.47
729.858	30389.81
730.199	30414.21
730.541	30244.95
730.882	30255.12
731.224	30397.94
731.565	30098.97
731.906	30204.05
732.248	30177.84
732.589	30021.23
732.93	30050.61
733.271	30003.83
733.612	30089.03
733.953	30147.78
734.294	29894.68
734.635	29802.71
734.976	29813.33
735.317	29639.32
735.658	29647.68
735.999	29659.66
736.339	29647.45
736.68	29739.43
737.021	29577.63
737.361	29424.18
737.702	29576.72
738.042	29463.28
738.383	29363.17
738.723	29465.31
739.063	29267.8
739.404	29380.34
739.744	29351.87
740.084	29224.87
740.424	29149.16
740.764	29138.99
741.104	29206.34
741.444	29098.32
741.784	28901.94
742.124	29017.64
742.464	28948.26
742.804	28837.08
743.143	28804.54
743.483	28779.68
743.823	28647.71
744.162	28613.36
744.502	28636.18
744.841	28517.99
745.181	28573.58
745.52	28566.81
745.86	28587.14
746.199	28515.51
746.538	28478.9
746.877	28500.37
747.216	28451.1
747.556	28465.57
747.895	28491.55
748.234	28207.04
748.573	28229.19
748.911	28118.23
749.25	28190.09
749.589	28094.73
749.928	28069.64
750.267	28135.4
750.605	27945.58
750.944	27901.51
751.283	27792.14
751.621	27788.97
751.96	27616.1
752.298	27731.12
752.636	27782.19
752.975	27626.94
753.313	27509.66
753.651	27677.56
753.989	27437.12
754.327	27478.47
754.666	27218.82
755.004	27446.16
755.342	27353.05
755.679	27296.33
756.017	27062.66
756.355	27081.65
756.693	26946.73
757.031	27121.19
757.368	26887.08
