Data from hue_38_FLMS001491_00015.txt Node
Date: Tue Feb 07 17:31:07 GMT 2017
User: dcchb
Spectrometer: FLMS00149
Trigger mode: 0
Integration Time (sec): 2.000000E-2
Scans to average: 10
Electric dark correction enabled: true
Nonlinearity correction enabled: false
Boxcar width: 0
XAxis mode: Wavelengths
Number of Pixels in Spectrum: 2048
>>>>>Begin Spectral Data<<<<<
341.393	5.71
341.776	5.71
342.16	5.71
342.543	-44.01
342.927	-59.83
343.31	-85.59
343.693	-56.44
344.077	-65.7
344.46	-58.02
344.843	-50.56
345.226	-51.24
345.61	-33.39
345.993	-15.31
346.376	1.64
346.759	2.77
347.142	24.69
347.525	38.7
347.908	62.65
348.291	75.08
348.674	102.43
349.057	108.3
349.44	121.64
349.823	136.1
350.206	177.68
350.588	187.4
350.971	218.81
351.354	230.78
351.737	234.63
352.119	269.2
352.502	269.43
352.884	276.21
353.267	272.59
353.65	290.22
354.032	304
354.414	315.53
354.797	307.85
355.179	302.87
355.562	319.82
355.944	336.32
356.326	321.18
356.709	351.46
357.091	346.26
357.473	341.74
357.855	358.01
358.238	341.97
358.62	345.58
359.002	331.12
359.384	353.49
359.766	328.86
360.148	340.16
360.53	357.34
360.912	348.3
361.294	342.65
361.676	346.49
362.057	322.76
362.439	341.06
362.821	341.29
363.203	331.8
363.584	327.05
363.966	314.4
364.348	330.44
364.729	320.73
365.111	334.51
365.493	310.1
365.874	311.23
366.256	313.04
366.637	321.63
367.019	319.82
367.4	343.32
367.781	317.56
368.163	299.71
368.544	314.62
368.925	321.63
369.306	325.92
369.688	322.08
370.069	310.1
370.45	322.08
370.831	321.18
371.212	320.27
371.593	302.87
371.974	298.35
372.355	329.31
372.736	328.64
373.117	319.14
373.498	314.4
373.879	294.74
374.26	302.42
374.641	335.64
375.021	323.89
375.402	338.13
375.783	329.09
376.163	327.73
376.544	319.37
376.925	318.01
377.305	331.35
377.686	321.86
378.066	344.68
378.447	343.78
378.827	316.66
379.208	312.36
379.588	338.8
379.968	326.15
380.349	330.22
380.729	358.01
381.109	355.75
381.489	361.63
381.87	330.44
382.25	339.93
382.63	344
383.01	337.67
383.39	347.84
383.77	342.19
384.15	340.61
384.53	350.1
384.91	348.75
385.29	361.85
385.67	344
386.049	362.76
386.429	339.48
386.809	365.92
387.189	357.34
387.568	363.21
387.948	334.96
388.328	377.45
388.707	360.5
389.087	360.05
389.466	367.73
389.846	370.89
390.225	365.24
390.605	354.85
390.984	369.76
391.363	372.48
391.743	367.28
392.122	358.92
392.501	379.93
392.881	389.2
393.26	361.85
393.639	394.62
394.018	366.83
394.397	385.58
394.776	379.03
395.155	388.07
395.534	370.67
395.913	352.82
396.292	386.26
396.671	372.7
397.05	390.55
397.429	391.68
397.808	369.99
398.186	377.9
398.565	389.88
398.944	389.88
399.323	395.3
399.701	407.73
400.08	401.18
400.458	408.63
400.837	409.76
401.215	402.08
401.594	393.49
401.972	391.23
402.351	393.04
402.729	383.1
403.107	402.98
403.486	409.09
403.864	401.85
404.242	432.14
404.62	419.03
404.999	398.46
405.377	427.84
405.755	421.29
406.133	410.44
406.511	429.88
406.889	420.38
407.267	428.07
407.645	434.62
408.023	439.59
408.401	429.88
408.779	432.36
409.156	460.38
409.534	441.17
409.912	447.28
410.29	436.2
410.667	446.6
411.045	470.55
411.422	461.06
411.8	442.76
412.178	460.38
412.555	472.59
412.933	461.51
413.31	492.47
413.687	460.38
414.065	468.29
414.442	477.56
414.819	474.39
415.197	497.67
415.574	475.98
415.951	476.2
416.328	492.92
416.705	492.7
417.082	491.79
417.46	492.7
417.837	511.23
418.214	489.99
418.591	517.33
418.967	526.14
419.344	513.26
419.721	514.39
420.098	515.52
420.475	535.86
420.852	551.23
421.228	518.69
421.605	531.12
421.982	531.12
422.358	535.18
422.735	535.18
423.111	550.1
423.488	555.07
423.864	543.55
424.241	569.53
424.617	572.92
424.994	567.73
425.37	558.01
425.746	572.02
426.123	583.54
426.499	568.63
426.875	556.65
427.251	595.3
427.627	578.35
428.003	600.94
428.379	587.84
428.756	607.95
429.132	596.42
429.507	611.57
429.883	622.64
430.259	634.84
430.635	611.34
431.011	620.15
431.387	645.46
431.763	654.95
432.138	635.75
432.514	629.19
432.89	645.69
433.265	651.11
433.641	658.8
434.016	648.18
434.392	678
434.767	682.75
435.143	671.23
435.518	688.85
435.894	703.09
436.269	690.66
436.644	704.9
437.02	702.18
437.395	704.67
437.77	730.66
438.145	733.37
438.52	723.2
438.895	721.62
439.271	718.91
439.646	755.52
440.021	756.87
440.395	746.48
440.77	732.69
441.145	736.53
441.52	761.62
441.895	761.84
442.27	782.63
442.645	771.34
443.019	781.5
443.394	767.49
443.769	793.71
444.143	776.08
444.518	807.27
444.892	804.33
445.267	828.96
445.641	807.72
446.016	819.92
446.39	824.44
446.764	795.52
447.139	809.98
447.513	824.89
447.887	823.31
448.262	834.84
448.636	824.44
449.01	832.8
449.384	848.85
449.758	841.84
450.132	867.6
450.506	869.64
450.88	862.18
451.254	884.78
451.628	882.52
452.002	905.57
452.376	882.75
452.75	894.5
453.123	900.15
453.497	922.97
453.871	918.9
454.244	931.33
454.618	965.91
454.992	941.05
455.365	935.63
455.739	977.66
456.112	961.61
456.486	994.83
456.859	980.37
457.232	1003.42
457.606	1013.82
457.979	1042.51
458.352	1051.78
458.725	1046.36
459.099	1056.75
459.472	1072.57
459.845	1093.59
460.218	1078.45
460.591	1083.64
460.964	1118.9
461.337	1135.85
461.71	1148.5
462.083	1178.33
462.456	1165.68
462.829	1201.83
463.201	1200.93
463.574	1184.43
463.947	1202.74
464.32	1235.96
464.692	1261.49
465.065	1257.88
465.438	1275.73
465.81	1288.16
466.183	1318.67
466.555	1324.77
466.928	1348.27
467.3	1327.25
467.672	1391.21
468.045	1410.41
468.417	1411.54
468.789	1450.64
469.161	1420.58
469.534	1442.28
469.906	1521.6
470.278	1503.52
470.65	1533.12
471.022	1551.2
471.394	1601.82
471.766	1627.81
472.138	1680.01
472.51	1701.48
472.882	1711.88
473.253	1762.72
473.625	1802.95
473.997	1823.29
474.369	1830.74
474.74	1874.58
475.112	1926.33
475.484	1973.34
475.855	1988.25
476.227	2035.03
476.598	2096.5
476.97	2129.94
477.341	2193.22
477.713	2242.26
478.084	2277.06
478.455	2341.01
478.827	2399.99
479.198	2455.81
479.569	2482.48
479.94	2566.09
480.311	2633.21
480.682	2726.54
481.053	2762.92
481.424	2870.94
481.795	2961.11
482.166	2989.58
482.537	3065.06
482.908	3164.04
483.279	3158.84
483.65	3319.52
484.021	3371.49
484.391	3446.97
484.762	3506.18
485.133	3573.97
485.503	3670.02
485.874	3770.13
486.244	3843.35
486.615	3932.16
486.985	4054.19
487.356	4128.08
487.726	4261.64
488.097	4349.09
488.467	4460.28
488.837	4544.12
489.207	4677.67
489.578	4790.44
489.948	4871.79
490.318	4965.58
490.688	5006.25
491.058	5143.42
491.428	5263.42
491.798	5380.25
492.168	5569.63
492.538	5536.86
492.908	5683.97
493.278	5791.09
493.648	5867.25
494.017	6023.4
494.387	6139.56
494.757	6206.45
495.126	6269.5
495.496	6380
495.866	6449.6
496.235	6618.41
496.605	6690.95
496.974	6782.7
497.344	6887.11
497.713	6965.52
498.082	7040.78
498.452	7206.19
498.821	7259.75
499.19	7341.33
499.559	7484.61
499.928	7522.8
500.298	7630.59
500.667	7743.58
501.036	7768.44
501.405	7890.92
501.774	7887.76
502.143	7988.1
502.512	8139.5
502.88	8209.78
503.249	8188.99
503.618	8351.93
503.987	8436.44
504.356	8507.4
504.724	8663.33
505.093	8671.01
505.462	8732.26
505.83	8816.77
506.199	8904.68
506.567	9052.47
506.936	9081.85
507.304	9189.42
507.672	9289.3
508.041	9290.21
508.409	9352.58
508.777	9482.75
509.145	9535.4
509.514	9556.42
509.882	9715.96
510.25	9706.47
510.618	9820.36
510.986	9833.7
511.354	9933.58
511.722	10168.38
512.09	10195.72
512.458	10121.15
512.826	10322.95
513.193	10336.96
513.561	10436.62
513.929	10484.53
514.297	10534.02
514.664	10657.63
515.032	10696.95
515.4	10789.38
515.767	10818.76
516.135	10874.35
516.502	10848.13
516.869	11106.66
517.237	11023.72
517.604	11099.43
517.972	11213.32
518.339	11344.16
518.706	11334.9
519.073	11434.56
519.44	11488.79
519.808	11558.17
520.175	11533.76
520.542	11728.56
520.909	11870.93
521.276	11767.66
521.643	11966.3
522.009	11999.51
522.376	12095.11
522.743	12080.19
523.11	12325.61
523.477	12387.08
523.843	12463.68
524.21	12565.83
524.577	12608.99
524.943	12707.52
525.31	12822.09
525.676	12896.89
526.043	12956.55
526.409	12977.34
526.776	13139.6
527.142	13134.4
527.508	13268.41
527.874	13277
528.241	13451.23
528.607	13537.1
528.973	13643.54
529.339	13585.46
529.705	13756.98
530.071	13844.44
530.437	13875.17
530.803	13934.15
531.169	14045.56
531.535	14015.06
531.901	14122.4
532.267	14178.44
532.632	14342.28
532.998	14353.8
533.364	14364.88
533.73	14380.7
534.095	14554.25
534.461	14630.41
534.826	14639.22
535.192	14756.05
535.557	14787.46
535.923	14855.26
536.288	14910.85
536.653	14996.5
537.019	14935.71
537.384	15071.3
537.749	15003.73
538.114	15135.25
538.479	15217.28
538.845	15320.78
539.21	15299.99
539.575	15333.21
539.94	15513.55
540.305	15569.36
540.67	15502.02
541.034	15570.27
541.399	15671.73
541.764	15762.35
542.129	15829.02
542.494	15832.18
542.858	15945.4
543.223	15964.16
543.587	16010.71
543.952	16036.7
544.316	16146.75
544.681	16161.21
545.045	16347.65
545.41	16345.39
545.774	16397.37
546.138	16369.12
546.503	16462.9
546.867	16513.29
547.231	16660.64
547.595	16736.57
547.959	16727.07
548.324	16695.66
548.688	16783.57
549.052	16831.48
549.416	16868.54
549.779	16905.83
550.143	16953.96
550.507	17108.31
550.871	17137.68
551.235	17134.52
551.599	17245.25
551.962	17246.61
552.326	17447.73
552.689	17459.94
553.053	17417
553.417	17434.85
553.78	17739.03
554.143	17642.3
554.507	17780.83
554.87	17794.62
555.234	18024.89
555.597	17863.77
555.96	17974.73
556.323	18086.59
556.686	18056.98
557.05	18117.55
557.413	18200.03
557.776	18347.37
558.139	18334.04
558.502	18353.7
558.865	18469.18
559.228	18536.29
559.59	18631.88
559.953	18593.92
560.316	18831.65
560.679	18675.72
561.041	19040.01
561.404	19090.4
561.767	19131.08
562.129	19054.24
562.492	19212.88
562.854	19284.52
563.217	19271.64
563.579	19298.31
563.941	19480
564.304	19510.28
564.666	19682.02
565.028	19617.17
565.39	19829.14
565.753	19899.42
566.115	19903.71
566.477	20031.62
566.839	19995.69
567.201	20135.35
567.563	20272.74
567.925	20297.83
568.287	20350.93
568.648	20457.82
569.01	20557.26
569.372	20737.36
569.734	20559.74
570.095	20681.77
570.457	20838.38
570.819	20940.3
571.18	20967.64
571.542	20988.43
571.903	21127.41
572.265	21211.25
572.626	21254.19
572.987	21498.93
573.349	21487.63
573.71	21549.32
574.071	21651.92
574.432	21850.33
574.794	21907.28
575.155	21999.25
575.516	21961.74
575.877	22103.66
576.238	22277.44
576.599	22368.06
576.96	22480.37
577.32	22410.31
577.681	22594.49
578.042	22780.25
578.403	22798.78
578.763	23073.35
579.124	23138.21
579.485	23379.78
579.845	23554.69
580.206	23532.09
580.566	23666.78
580.927	23872.42
581.287	23974.34
581.648	24097.5
582.008	24351.28
582.368	24463.37
582.728	24633.99
583.089	24700.2
583.449	24912.17
583.809	25231.26
584.169	25377.24
584.529	25380.18
584.889	25846.83
585.249	25649.1
585.609	25893.16
585.969	26220.16
586.329	26268.97
586.688	26546.93
587.048	26695.4
587.408	26900.82
587.768	26995.5
588.127	27136.74
588.487	27282.5
588.846	27767.46
589.206	27725.2
589.565	27964.52
589.925	28249.03
590.284	28455.81
590.643	28620.32
591.003	29018.5
591.362	29175.79
591.721	29261.43
592.08	29437.02
592.44	29824.58
592.799	29949.55
593.158	30126.95
593.517	30490.1
593.876	30541.63
594.235	30717.67
594.593	30841.96
594.952	31079.69
595.311	31279.23
595.67	31495.95
596.029	31853.46
596.387	32137.74
596.746	32231.07
597.104	32342.71
597.463	32400.56
597.822	32816.59
598.18	32864.5
598.538	32975.91
598.897	33258.17
599.255	33385.39
599.613	34001.65
599.972	33741.54
600.33	34024.7
600.688	33988.09
601.046	34376.33
601.404	34624
601.762	34596.66
602.12	34946.03
602.478	35150.54
602.836	35402.74
603.194	35141.96
603.552	35390.31
603.91	35547.6
604.268	35745.33
604.625	35908.49
604.983	36112.78
605.341	36165.21
605.698	36340.57
606.056	36591.86
606.413	36689.71
606.771	36889.93
607.128	37126.54
607.485	37051.06
607.843	37172.64
608.2	37479.52
608.557	37650.59
608.914	37526.53
609.272	37785.73
609.629	38114.08
609.986	38284.93
610.343	38096.23
610.7	38607.63
611.057	38682.2
611.414	38555.65
611.771	38804.23
612.127	39012.36
612.484	39033.38
612.841	39286.48
613.198	39171.46
613.554	39232.02
613.911	39643.31
614.267	39633.59
614.624	39666.58
614.98	39871.55
615.337	40033.13
615.693	39971.21
616.05	40133.24
616.406	40458.43
616.762	40331.2
617.118	40424.53
617.475	40474.25
617.831	40686.9
618.187	40508.37
618.543	40734.8
618.899	40968.02
619.255	41049.6
619.611	41088.69
619.967	41267.45
620.323	41399.65
620.678	41163.72
621.034	41200.78
621.39	41255.69
621.746	41292.76
622.101	41730.71
622.457	41618.17
622.812	41623.37
623.168	41738.62
623.523	41778.39
623.879	41906.75
624.234	41749.47
624.589	41915.11
624.945	42044.37
625.3	42003.92
625.655	42160.76
626.01	42166.86
626.365	42108.1
626.72	42146.74
627.075	42209.34
627.43	42138.61
627.785	42176.35
628.14	42286.63
628.495	42423.35
628.85	42402.78
629.205	42219.74
629.559	42476
629.914	42280.3
630.269	42377.7
630.623	42264.93
630.978	42274.88
631.332	42446.17
631.687	42579.28
632.041	42398.94
632.396	42461.54
632.75	42432.16
633.104	42404.37
633.459	42290.7
633.813	42189.23
634.167	42263.13
634.521	42347.87
634.875	42400.75
635.229	42510.35
635.583	42243.24
635.937	42225.84
636.291	42398.49
636.645	42131.38
636.999	42199.62
637.352	42320.53
637.706	42132.73
638.06	42174.09
638.413	42225.84
638.767	42189.23
639.121	42212.05
639.474	41999.63
639.828	42151.49
640.181	42102
640.534	42167.76
640.888	41903.59
641.241	41907.2
641.594	41821.56
641.947	42044.37
642.301	41888.9
642.654	41819.97
643.007	42047.31
643.36	41987.88
643.713	41927.99
644.066	42130.7
644.419	41798.51
644.771	41537.04
645.124	41279.2
645.477	41143.83
645.83	40819.55
646.182	40670.85
646.535	40730.28
646.888	40759.21
647.24	40704.75
647.593	40682.15
647.945	40660
648.298	40623.62
648.65	40526.22
649.002	40368.71
649.355	40605.99
649.707	40658.2
650.059	40664.07
650.411	41200.56
650.763	41221.35
651.115	41493.2
651.467	41338.63
651.819	41400.78
652.171	41360.78
652.523	41244.62
652.875	41251.85
653.227	41051.86
653.578	41504.73
653.93	41443.94
654.282	41236.94
654.633	41028.81
654.985	41100.44
655.337	41109.26
655.688	41200.1
656.039	41282.81
656.391	40847.8
656.742	41045.53
657.094	41146.55
657.445	41259.08
657.796	41061.35
658.147	41106.55
658.498	40971.63
658.849	41102.93
659.2	41089.37
659.551	40961.24
659.902	41108.13
660.253	40923.27
660.604	41035.14
660.955	40798.76
661.306	41132.76
661.656	41019.99
662.007	40968.7
662.358	40767.8
662.708	41003.27
663.059	40970.96
663.409	40673.79
663.76	40979.09
664.11	40932.54
664.461	40948.58
664.811	41064.06
665.161	40911.07
665.511	40805.31
665.862	40878.76
666.212	40955.36
666.562	40952.2
666.912	40950.84
667.262	40728.93
667.612	40830.85
667.962	40754.92
668.312	40902.26
668.662	40945.19
669.011	40834.46
669.361	40876.5
669.711	40677.86
670.06	40723.73
670.41	40713.56
670.76	40671.98
671.109	40651.19
671.459	40551.08
671.808	40507.92
672.157	40613.23
672.507	40407.13
672.856	40608.93
673.205	40415.27
673.554	40603.73
673.904	40439.67
674.253	40704.07
674.602	40536.62
674.951	40055.5
675.3	39903.87
675.649	40574.13
675.998	40435.83
676.346	40460.01
676.695	40544.98
677.044	40195.16
677.393	40387.02
677.741	40319.45
678.09	40321.93
678.438	40215.95
678.787	40402.38
679.135	40472.44
679.484	39951.1
679.832	40118.78
680.181	39848.27
680.529	40029.06
680.877	40005.33
681.225	39914.94
681.573	40138.44
681.922	39815.51
682.27	39690.09
682.618	39609.86
682.966	39603.76
683.314	39681.27
683.661	39621.84
684.009	39367.83
684.357	39465.46
684.705	39323.99
685.053	39343.88
685.4	39307.95
685.748	39140.95
686.095	39130.1
686.443	38904.57
686.79	38956.32
687.138	39066.6
687.485	39071.35
687.832	38879.49
688.18	39009.43
688.527	38736.67
688.874	38764.91
689.221	38599.27
689.568	38484.47
689.915	38360.4
690.262	38471.14
690.609	38473.4
690.956	38196.79
691.303	38227.07
691.65	38061.43
691.997	38083.35
692.344	37837.25
692.69	37827.31
693.037	37923.81
693.383	37520.88
693.73	37656.02
694.077	37358.85
694.423	37390.03
694.769	37222.35
695.116	37264.61
695.462	37187.33
695.808	37175.35
696.155	37130.15
696.501	36856.71
696.847	36889.26
697.193	36748.47
697.539	36742.14
697.885	36582.82
698.231	36386.22
698.577	36495.37
698.923	36223.28
699.269	36151.2
699.614	35932.22
699.96	35950.07
700.306	36053.8
700.651	35906.46
700.997	35688.16
701.342	35731.55
701.688	35679.57
702.033	35532
702.379	35516.18
702.724	35511.67
703.069	35421.27
703.415	35054.05
703.76	35076.42
704.105	35064.67
704.45	34962.75
704.795	34818.35
705.14	34738.8
705.485	34703.32
705.83	34508.75
706.175	34682.99
706.52	34409.77
706.865	34217.91
707.209	34517.12
707.554	34214.98
707.899	34439.15
708.243	34108.09
708.588	33967.3
708.932	33838.71
709.277	33829.22
709.621	33825.38
709.966	33483.7
710.31	33645.5
710.654	33417.03
710.998	33529.34
711.342	33379.07
711.687	33487.54
712.031	33147.66
712.375	33055.91
712.719	33257.49
713.063	33051.39
713.407	33188.79
713.75	32959.42
714.094	32853.2
714.438	32717.61
714.782	32798.29
715.125	32641.01
715.469	32740.21
715.812	32575.92
716.156	32457.51
716.499	32461.35
716.843	32373.89
717.186	32228.36
717.53	32356.95
717.873	32463.16
718.216	32342.93
718.559	32028.59
718.902	31849.39
719.246	32089.61
719.589	31897.75
719.932	31783.63
720.275	31847.35
720.617	31881.25
720.96	31742.05
721.303	31656.85
721.646	31661.82
721.989	31627.93
722.331	31551.54
722.674	31513.13
723.016	31465.44
723.359	31389.51
723.701	31402.17
724.044	31215.05
724.386	31137.77
724.729	31276.52
725.071	31102.52
725.413	31067.04
725.755	31013.25
726.097	30869.08
726.439	30872.92
726.782	30870.88
727.124	30868.17
727.465	30721.73
727.807	30748.63
728.149	30773.71
728.491	30573.72
728.833	30706.82
729.175	30558.58
729.516	30525.58
729.858	30481.51
730.199	30371.69
730.541	30488.52
730.882	30290.11
731.224	30422.08
731.565	30176.89
731.906	30201.3
732.248	30280.84
732.589	30012.83
732.93	29971.47
733.271	30032.49
733.612	30035.65
733.953	30003.11
734.294	29976.67
734.635	29873.17
734.976	29887.41
735.317	29604.93
735.658	29757.01
735.999	29786.62
736.339	29631.59
736.68	29718.15
737.021	29557.47
737.361	29427.76
737.702	29733.29
738.042	29584.36
738.383	29440.86
738.723	29340.98
739.063	29439.51
739.404	29457.59
739.744	29231.6
740.084	29192.96
740.424	29290.81
740.764	29195.9
741.104	29306.63
741.444	29169.91
741.784	28975.79
742.124	29034.1
742.464	29022.57
742.804	28913.87
743.143	28791.16
743.483	28818.28
743.823	28606.31
744.162	28686.31
744.502	28847.66
744.841	28674.56
745.181	28685.18
745.52	28604.73
745.86	28666.42
746.199	28593.2
746.538	28511.17
746.877	28559.31
747.216	28469.82
747.556	28476.82
747.895	28466.2
748.234	28360.44
748.573	28314.11
748.911	28252.65
749.25	28277.73
749.589	28054.46
749.928	28179.65
750.267	28229.37
750.605	28069.6
750.944	27907.12
751.283	27837.74
751.621	27897.18
751.96	27647.69
752.298	27731.76
752.636	27748.71
752.975	27705.77
753.313	27553.68
753.651	27622.61
753.989	27435.72
754.327	27456.06
754.666	27221.94
755.004	27308.27
755.342	27342.61
755.679	27178.1
756.017	27077.31
756.355	27219.91
756.693	27016.3
757.031	27102.85
757.368	26878.22
757.706	26990.08
