Data from hue_260_FLMS001491_00093.txt Node
Date: Tue Feb 07 15:59:53 GMT 2017
User: dcchb
Spectrometer: FLMS00149
Trigger mode: 0
Integration Time (sec): 2.000000E-2
Scans to average: 10
Electric dark correction enabled: true
Nonlinearity correction enabled: false
Boxcar width: 0
XAxis mode: Wavelengths
Number of Pixels in Spectrum: 2048
>>>>>Begin Spectral Data<<<<<
341.393	6.75
341.776	6.75
342.16	6.75
342.543	-48.16
342.927	-70.08
343.31	-56.07
343.693	-63.53
344.077	-52
344.46	-49.97
344.843	-49.52
345.226	-37.32
345.61	-31.89
345.993	-26.92
346.376	-19.91
346.759	20.76
347.142	-9.07
347.525	42
347.908	60.99
348.291	77.03
348.674	93.08
349.057	102.34
349.44	124.26
349.823	130.59
350.206	143.7
350.588	185.5
350.971	210.14
351.354	231.6
351.737	210.36
352.119	243.36
352.502	229.8
352.884	253.98
353.267	277.7
353.65	276.57
354.032	279.51
354.414	297.59
354.797	283.35
355.179	301.43
355.562	319.51
355.944	303.92
356.326	327.42
356.709	327.19
357.091	337.36
357.473	333.97
357.855	334.43
358.238	335.56
358.62	328.1
359.002	326.74
359.384	345.05
359.766	337.59
360.148	341.43
360.53	340.3
360.912	311.15
361.294	305.5
361.676	305.73
362.057	323.13
362.439	327.19
362.821	326.52
363.203	343.69
363.584	329.91
363.966	303.69
364.348	316.8
364.729	293.3
365.111	312.05
365.493	306.63
365.874	296.91
366.256	317.03
366.637	276.35
367.019	306.18
367.4	297.14
367.781	314.77
368.163	302.11
368.544	296.46
368.925	315.44
369.306	303.24
369.688	304.6
370.069	315.44
370.45	301.43
370.831	294.88
371.212	309.79
371.593	294.2
371.974	310.7
372.355	280.19
372.736	296.01
373.117	302.11
373.498	309.12
373.879	317.25
374.26	323.81
374.641	297.59
375.021	298.95
375.402	300.08
375.783	306.63
376.163	308.44
376.544	316.57
376.925	313.18
377.305	311.83
377.686	316.8
378.066	313.86
378.447	312.51
378.827	295.33
379.208	319.96
379.588	325.39
379.968	325.61
380.349	335.56
380.729	315.44
381.109	333.75
381.489	322.45
381.87	299.4
382.25	316.57
382.63	342.79
383.01	319.06
383.39	358.38
383.77	326.74
384.15	332.84
384.53	340.08
384.91	338.95
385.29	329.91
385.67	336.23
386.049	333.52
386.429	328.1
386.809	338.95
387.189	358.83
387.568	343.01
387.948	334.88
388.328	338.27
388.707	352.5
389.087	334.65
389.466	345.95
389.846	347.76
390.225	380.98
390.605	367.65
390.984	364.48
391.363	352.96
391.743	371.94
392.122	346.18
392.501	359.28
392.881	378.72
393.26	386.18
393.639	380.53
394.018	366.97
394.397	374.43
394.776	360.41
395.155	373.52
395.534	381.66
395.913	393.41
396.292	379.4
396.671	380.98
397.05	381.2
397.429	385.5
397.808	384.82
398.186	403.58
398.565	401.32
398.944	398.83
399.323	406.06
399.701	403.8
400.08	390.02
400.458	397.25
400.837	403.35
401.215	403.35
401.594	402.22
401.972	424.59
402.351	416.01
402.729	420.53
403.107	418.04
403.486	416.23
403.864	421.88
404.242	429.56
404.62	417.81
404.999	437.93
405.377	439.51
405.755	441.09
406.133	437.47
406.511	434.76
406.889	456.23
407.267	467.98
407.645	488.55
408.023	460.07
408.401	460.07
408.779	482.22
409.156	476.57
409.534	487.19
409.912	494.2
410.29	495.1
410.667	500.98
411.045	495.33
411.422	513.86
411.8	536.45
412.178	518.6
412.555	543.69
412.933	550.92
413.31	557.25
413.687	569.67
414.065	574.87
414.442	557.47
414.819	564.02
415.197	601.99
415.574	596.57
415.951	599.96
416.328	617.36
416.705	597.47
417.082	633.4
417.46	614.19
417.837	634.31
418.214	649.45
418.591	651.03
418.967	665.26
419.344	646.28
419.721	654.87
420.098	680.18
420.475	706.85
420.852	678.15
421.228	706.62
421.605	722.66
421.982	717.24
422.358	733.74
422.735	747.07
423.111	737.13
423.488	760.4
423.864	778.26
424.241	775.09
424.617	769.9
424.994	809.22
425.37	811.02
425.746	825.94
426.123	835.66
426.499	851.02
426.875	875.88
427.251	860.06
427.627	892.38
428.003	892.15
428.379	901.42
428.756	912.72
429.132	925.15
429.507	950.91
429.883	937.57
430.259	957.23
430.635	966.5
431.011	964.69
431.387	973.73
431.763	998.14
432.138	996.78
432.514	1009.44
432.89	1037.46
433.265	1047.63
433.641	1064.35
434.016	1089.89
434.392	1119.49
434.767	1162.88
435.143	1118.13
435.518	1151.35
435.894	1166.95
436.269	1192.03
436.644	1236.1
437.02	1223.67
437.395	1249.43
437.77	1261.41
438.145	1259.83
438.52	1287.85
438.895	1313.38
439.271	1330.33
439.646	1346.38
440.021	1376.88
440.395	1378.24
440.77	1361.52
441.145	1378.24
441.52	1417.34
441.895	1427.28
442.27	1439.71
442.645	1474.51
443.019	1481.74
443.394	1480.16
443.769	1516.32
444.143	1507.05
444.518	1513.6
444.892	1505.02
445.267	1558.35
445.641	1528.29
446.016	1556.77
446.39	1577.11
446.764	1564.45
447.139	1572.13
447.513	1606.48
447.887	1590.44
448.262	1593.6
448.636	1633.6
449.01	1645.58
449.384	1645.35
449.758	1661.4
450.132	1689.42
450.506	1694.62
450.88	1718.34
451.254	1715.63
451.628	1767.16
452.002	1725.12
452.376	1788.17
452.75	1781.39
453.123	1798.12
453.497	1835.4
453.871	1834.05
454.244	1848.96
454.618	1877.44
454.992	1899.81
455.365	1881.73
455.739	1915.18
456.112	1922.18
456.486	1959.69
456.859	1964.89
457.232	2014.16
457.606	1999.92
457.979	2039.69
458.352	2046.7
458.725	2089.18
459.099	2096.87
459.472	2124.44
459.845	2145.9
460.218	2182.74
460.591	2179.8
460.964	2172.12
461.337	2267.03
461.71	2260.7
462.083	2281.95
462.456	2328.95
462.829	2294.37
463.201	2353.81
463.574	2370.53
463.947	2384.54
464.32	2437.42
464.692	2474.93
465.065	2478.32
465.438	2512.9
465.81	2489.62
466.183	2557.19
466.555	2616.63
466.928	2618.66
467.3	2596.97
467.672	2639.68
468.045	2690.07
468.417	2744.98
468.789	2718.54
469.161	2761.26
469.534	2819.78
469.906	2830.86
470.278	2879.22
470.65	2942.49
471.022	2973
471.394	2995.37
471.766	3029.27
472.138	3056.61
472.51	3108.82
472.882	3143.62
473.253	3169.15
473.625	3237.17
473.997	3264.52
474.369	3269.49
474.74	3332.77
475.112	3359.88
475.484	3434.23
475.855	3501.12
476.227	3517.85
476.598	3580.89
476.97	3565.98
477.341	3682.13
477.713	3716.03
478.084	3751.29
478.455	3836.93
478.827	3823.6
479.198	3929.81
479.569	3931.39
479.94	4010.94
480.311	4076.47
480.682	4147.89
481.053	4250.93
481.424	4274.89
481.795	4279.86
482.166	4345.62
482.537	4380.2
482.908	4510.59
483.279	4533.41
483.65	4578.83
484.021	4649.79
484.391	4702.22
484.762	4727.53
485.133	4777.25
485.503	4842.78
485.874	4964.14
486.244	4937.47
486.615	4998.71
486.985	5087.52
487.356	5139.05
487.726	5207.29
488.097	5272.6
488.467	5273.05
488.837	5369.55
489.207	5447.29
489.578	5492.93
489.948	5546.72
490.318	5620.16
490.688	5610.9
491.058	5725.92
491.428	5806.37
491.798	5843.43
492.168	5900.16
492.538	5912.58
492.908	5906.94
493.278	6015.41
493.648	6024.45
494.017	6073.03
494.387	6109.19
494.757	6139.25
495.126	6198.9
495.496	6259.02
495.866	6295.4
496.235	6404.32
496.605	6361.84
496.974	6391.89
497.344	6458.56
497.713	6511.44
498.082	6540.14
498.452	6560.25
498.821	6562.74
499.19	6621.72
499.559	6652.68
499.928	6713.47
500.298	6675.5
500.667	6731.77
501.036	6705.78
501.405	6794.14
501.774	6842.28
502.143	6754.6
502.512	6841.83
502.88	6900.81
503.249	6936.74
503.618	6937.19
503.987	6981.03
504.356	6998.66
504.724	7034.82
505.093	7085.44
505.462	7016.51
505.83	7096.06
506.199	7148.03
506.567	7186.9
506.936	7194.36
507.304	7234.58
507.672	7165.43
508.041	7232.78
508.409	7259.22
508.777	7333.34
509.145	7352.32
509.514	7356.61
509.882	7414.01
510.25	7386.22
510.618	7392.32
510.986	7475.93
511.354	7459.44
511.722	7500.11
512.09	7538.3
512.458	7553.9
512.826	7494.24
513.193	7608.13
513.561	7603.39
513.929	7633.67
514.297	7691.97
514.664	7715.25
515.032	7672.09
515.4	7733.1
515.767	7670.28
516.135	7812.42
516.502	7720.45
516.869	7752.08
517.237	7798.18
517.604	7759.77
517.972	7814
518.339	7826.43
518.706	7837.28
519.073	7846.77
519.44	7887
519.808	7954.11
520.175	7893.32
520.542	8036.14
520.909	7934.45
521.276	7964.06
521.643	8033.21
522.009	7955.92
522.376	8047.67
522.743	8020.55
523.11	8145.97
523.477	8158.63
523.843	8093.77
524.21	8250.6
524.577	8217.83
524.943	8205.63
525.31	8244.73
525.676	8292.86
526.043	8312.75
526.409	8283.14
526.776	8270.04
527.142	8350.94
527.508	8365.18
527.874	8343.71
528.241	8410.37
528.607	8351.62
528.973	8445.4
529.339	8360.88
529.705	8394.78
530.071	8487.88
530.437	8397.27
530.803	8496.7
531.169	8521.78
531.535	8443.59
531.901	8447.89
532.267	8420.54
532.632	8444.72
532.998	8465.29
533.364	8460.09
533.73	8496.25
534.095	8545.06
534.461	8523.82
534.826	8561.55
535.192	8494.21
535.557	8523.14
535.923	8433.87
536.288	8486.98
536.653	8564.49
537.019	8479.07
537.384	8454.44
537.749	8486.53
538.114	8532.85
538.479	8532.18
538.845	8458.05
539.21	8424.83
539.575	8478.39
539.94	8492.63
540.305	8438.85
540.67	8469.35
541.034	8540.76
541.399	8508.67
541.764	8474.1
542.129	8458.96
542.494	8479.07
542.858	8488.34
543.223	8444.95
543.587	8452.18
543.952	8476.13
544.316	8416.7
544.681	8433.65
545.045	8350.71
545.41	8502.57
545.774	8388
546.138	8399.07
546.503	8348.9
546.867	8403.14
547.231	8405.4
547.595	8389.58
547.959	8360.43
548.324	8361.56
548.688	8371.05
549.052	8415.57
549.416	8382.12
549.779	8360.88
550.143	8355.68
550.507	8336.48
550.871	8356.81
551.235	8314.56
551.599	8303.48
551.962	8311.84
552.326	8305.74
552.689	8354.33
553.053	8265.52
553.417	8290.6
553.78	8383.71
554.143	8258.96
554.507	8380.54
554.87	8304.84
555.234	8341.22
555.597	8341.22
555.96	8322.01
556.323	8282.92
556.686	8307.32
557.05	8284.27
557.413	8313.43
557.776	8313.43
558.139	8394.33
558.502	8304.61
558.865	8352.07
559.228	8377.38
559.59	8379.64
559.953	8378.96
560.316	8484.72
560.679	8460.77
561.041	8493.76
561.404	8496.02
561.767	8473.65
562.129	8444.04
562.492	8475
562.854	8473.42
563.217	8524.27
563.579	8513.87
563.941	8537.37
564.304	8536.47
564.666	8633.19
565.028	8599.52
565.39	8539.86
565.753	8652.4
566.115	8635.22
566.477	8667.77
566.839	8708.44
567.201	8693.08
567.563	8674.32
567.925	8715.67
568.287	8788.89
568.648	8737.37
569.01	8826.63
569.372	8877.25
569.734	8790.7
570.095	8885.39
570.457	8919.06
570.819	8883.81
571.18	8882.9
571.542	8973.97
571.903	8942.56
572.265	8969.45
572.626	8999.28
572.987	8933.52
573.349	9045.61
573.71	9073.18
574.071	9052.16
574.432	9052.16
574.794	9152.5
575.155	9096.91
575.516	9094.42
575.877	9176.91
576.238	9193.63
576.599	9213.29
576.96	9222.33
577.32	9217.81
577.681	9203.12
578.042	9293.96
578.403	9295.09
578.763	9281.31
579.124	9362.89
579.485	9380.06
579.845	9381.19
580.206	9367.86
580.566	9337.81
580.927	9413.28
581.287	9501.19
581.648	9394.53
582.008	9481.76
582.368	9470.91
582.728	9503
583.089	9475.65
583.449	9512.04
583.809	9542.09
584.169	9520.85
584.529	9553.84
584.889	9655.31
585.249	9575.31
585.609	9548.2
585.969	9648.08
586.329	9655.54
586.688	9684.91
587.048	9711.81
587.408	9646.5
587.768	9648.76
588.127	9735.53
588.487	9685.59
588.846	9704.35
589.206	9738.7
589.565	9735.76
589.925	9799.49
590.284	9757.23
590.643	9818.24
591.003	9808.98
591.362	9880.62
591.721	9901.18
592.08	9886.04
592.44	9922.42
592.799	9928.3
593.158	9939.15
593.517	9959.48
593.876	9907.28
594.235	9889.88
594.593	9906.6
594.952	9961.97
595.311	9901.41
595.67	9925.81
596.029	10012.36
596.387	9998.8
596.746	10051.91
597.104	10021.63
597.463	10002.19
597.822	10071.12
598.18	9954.29
598.538	10052.59
598.897	10053.27
599.255	10013.49
599.613	10176.88
599.972	10105.92
600.33	10117.67
600.688	10072.7
601.046	10132.13
601.404	10162.19
601.762	10129.87
602.12	10190.21
602.478	10112.02
602.836	10146.37
603.194	10101.85
603.552	10153.38
603.91	10073.38
604.268	10138.46
604.625	10174.39
604.983	10169.2
605.341	10105.02
605.698	10207.61
606.056	10139.59
606.413	10128.52
606.771	10240.61
607.128	10245.8
607.485	10174.39
607.843	10158.35
608.2	10278.12
608.557	10254.17
608.914	10247.16
609.272	10294.39
609.629	10269.08
609.986	10382.07
610.343	10261.17
610.7	10387.5
611.057	10364.9
611.414	10366.25
611.771	10296.65
612.127	10388.63
612.484	10413.26
612.841	10354.28
613.198	10373.71
613.554	10408.74
613.911	10399.7
614.267	10425.69
614.624	10370.09
614.98	10430.66
615.337	10500.49
615.693	10431.11
616.05	10436.31
616.406	10502.29
616.762	10464.33
617.118	10557.21
617.475	10488.96
617.831	10610.31
618.187	10523.08
618.543	10501.16
618.899	10605.57
619.255	10592.69
619.611	10520.6
619.967	10616.64
620.323	10615.51
620.678	10586.36
621.034	10487.15
621.39	10562.18
621.746	10528.96
622.101	10639.92
622.457	10529.86
622.812	10512.24
623.168	10572.8
623.523	10613.25
623.879	10589.52
624.234	10561.28
624.589	10625.68
624.945	10503.65
625.3	10579.58
625.655	10613.25
626.01	10618
626.365	10582.52
626.72	10555.17
627.075	10553.59
627.43	10612.35
627.785	10473.82
628.14	10534.84
628.495	10474.72
628.85	10535.29
629.205	10472.24
629.559	10545.01
629.914	10507.04
630.269	10568.28
630.623	10521.5
630.978	10496.42
631.332	10557.43
631.687	10563.99
632.041	10479.24
632.396	10483.31
632.75	10435.63
633.104	10433.6
633.459	10380.26
633.813	10346.14
634.167	10396.53
634.521	10369.42
634.875	10321.96
635.229	10403.54
635.583	10317.67
635.937	10319.7
636.291	10350.43
636.645	10293.71
636.999	10262.3
637.352	10283.09
637.706	10198.57
638.06	10194.96
638.413	10286.93
638.767	10210.78
639.121	10185.24
639.474	10117.9
639.828	10166.26
640.181	10187.95
640.534	10199.25
640.888	10246.71
641.241	10080.84
641.594	10156.31
641.947	10156.77
642.301	10147.28
642.654	10120.84
643.007	10133.04
643.36	10143.89
643.713	10125.13
644.066	10155.64
644.419	10065.47
644.771	9973.72
645.124	9901.86
645.477	9936.89
645.83	9820.5
646.182	9869.54
646.535	9783.44
646.888	9790.9
647.24	9740.05
647.593	9750.22
647.945	9806.49
648.298	9707.06
648.65	9681.3
649.002	9693.95
649.355	9693.05
649.707	9724.69
650.059	9741.86
650.411	9873.61
650.763	9835.19
651.115	9942.76
651.467	9931.46
651.819	9914.51
652.171	9968.52
652.523	9919.03
652.875	9846.49
653.227	9865.02
653.578	9857.11
653.93	9924.68
654.282	9904.8
654.633	9841.52
654.985	9910.67
655.337	9860.05
655.688	9916.55
656.039	9919.03
656.391	9854.63
656.742	9901.41
657.094	9935.3
657.445	9906.83
657.796	9920.39
658.147	9877.23
658.498	9912.48
658.849	9959.48
659.2	9969.65
659.551	9889.88
659.902	9924
660.253	9908.41
660.604	9907.51
660.955	9900.05
661.306	9929.88
661.656	9893.27
662.007	9957.45
662.358	9907.06
662.708	9932.14
663.059	9868.41
663.409	9902.76
663.76	9941.86
664.11	9957
664.461	9974.85
664.811	9906.38
665.161	9941.86
665.511	9834.52
665.862	9964.46
666.212	9940.5
666.562	9943.67
666.912	9957.68
667.262	9945.25
667.612	9937.79
667.962	9942.76
668.312	9897.79
668.662	9931.24
669.011	9973.49
669.361	9870.45
669.711	9975.08
670.06	9929.65
670.41	9912.25
670.76	9837.23
671.109	9861.41
671.459	9872.25
671.808	9919.48
672.157	9865.02
672.507	9802.65
672.856	9806.72
673.205	9876.32
673.554	9854.63
673.904	9845.81
674.253	9879.94
674.602	9791.58
674.951	9753.84
675.3	9624.35
675.649	9768.98
675.998	9810.56
676.346	9760.62
676.695	9777.57
677.044	9700.51
677.393	9758.13
677.741	9759.94
678.09	9740.73
678.438	9700.73
678.787	9725.59
679.135	9695.99
679.484	9654.18
679.832	9679.49
680.181	9665.03
680.529	9619.61
680.877	9594.52
681.225	9582.77
681.573	9621.41
681.922	9518.59
682.27	9579.83
682.618	9533.73
682.966	9540.06
683.314	9535.77
683.661	9509.78
684.009	9443.79
684.357	9466.62
684.705	9329.9
685.053	9396.79
685.4	9406.96
685.748	9368.99
686.095	9393.4
686.443	9319.73
686.79	9345.49
687.138	9351.82
687.485	9293.06
687.832	9164.93
688.18	9247.19
688.527	9229.79
688.874	9205.38
689.221	9188.66
689.568	9136.68
689.915	9101.65
690.262	9053.97
690.609	9083.12
690.956	8999.96
691.303	9048.55
691.65	9019.62
691.997	8969.91
692.344	8931.04
692.69	8912.96
693.037	8883.13
693.383	8797.03
693.73	8772.17
694.077	8748.44
694.423	8797.71
694.769	8733.53
695.116	8658.95
695.462	8656.47
695.808	8655.56
696.155	8681.1
696.501	8630.25
696.847	8570.14
697.193	8509.8
697.539	8541.67
697.885	8522.01
698.231	8444.04
698.577	8414.44
698.923	8452.86
699.269	8304.39
699.614	8360.43
699.96	8296.48
700.306	8315.46
700.651	8235.91
700.997	8208.57
701.342	8154.79
701.688	8230.49
702.033	8179.19
702.379	8184.16
702.724	8136.93
703.069	8129.93
703.415	7987.11
703.76	7932.19
704.105	8024.85
704.45	7954.79
704.795	7902.81
705.14	7856.71
705.485	7920.22
705.83	7875.02
706.175	7832.53
706.52	7846.77
706.865	7848.13
707.209	7755.25
707.554	7773.55
707.899	7818.98
708.243	7756.6
708.588	7712.31
708.932	7634.57
709.277	7632.09
709.621	7583.28
709.966	7573.33
710.31	7654.23
710.654	7580.56
710.998	7571.52
711.342	7531.3
711.687	7592.99
712.031	7449.27
712.375	7455.37
712.719	7460.34
713.063	7464.63
713.407	7446.56
713.75	7364.75
714.094	7448.82
714.438	7441.58
714.782	7390.29
715.125	7362.72
715.469	7305.09
715.812	7298.54
716.156	7277.97
716.499	7284.07
716.843	7258.54
717.186	7274.81
717.53	7260.8
717.873	7271.42
718.216	7233.91
718.559	7185.09
718.902	7177.41
719.246	7195.71
719.589	7209.73
719.932	7130.86
720.275	7113.91
720.617	7181.93
720.96	7139.22
721.303	7108.49
721.646	7107.36
721.989	7073.46
722.331	7141.93
722.674	7063.29
723.016	7134.93
723.359	7077.53
723.701	7095.38
724.044	7089.05
724.386	7036.17
724.729	7107.81
725.071	7080.01
725.413	7071.42
725.755	7000.47
726.097	6981.48
726.439	6987.58
726.782	6976.51
727.124	6993.23
727.465	6959.11
727.807	6953.24
728.149	6934.03
728.491	6998.21
728.833	7016.06
729.175	6904.42
729.516	6948.04
729.858	6954.14
730.199	6950.75
730.541	6936.51
730.882	6914.59
731.224	6954.59
731.565	6941.26
731.906	6880.69
732.248	6938.09
732.589	6872.33
732.93	6897.64
733.271	6911.43
733.612	6915.72
733.953	6958.43
734.294	6889.51
734.635	6873.69
734.976	6880.47
735.317	6873.92
735.658	6939.68
735.999	6922.28
736.339	6902.62
736.68	6948.49
737.021	6843.86
737.361	6898.1
737.702	6929.96
738.042	6868.94
738.383	6905.1
738.723	6937.64
739.063	6875.72
739.404	6982.16
739.744	6912.33
740.084	6922.28
740.424	6920.02
740.764	6970.86
741.104	6964.53
741.444	6977.42
741.784	6895.16
742.124	6942.39
742.464	7031.65
742.804	7069.62
743.143	7016.06
743.483	7053.8
743.823	7016.74
744.162	7040.69
744.502	7082.27
744.841	7153.91
745.181	7123.17
745.52	7108.03
745.86	7191.2
746.199	7237.07
746.538	7244.3
746.877	7271.19
747.216	7310.29
747.556	7359.55
747.895	7381.02
748.234	7333.11
748.573	7377.86
748.911	7414.24
749.25	7538.76
749.589	7533.56
749.928	7600.45
750.267	7694.01
750.605	7676.38
750.944	7781.69
751.283	7792.54
751.621	7919.31
751.96	7939.88
752.298	8043.6
752.636	8119.98
752.975	8133.32
753.313	8232.98
753.651	8377.38
753.989	8382.58
754.327	8448.79
754.666	8536.02
755.004	8634.1
755.342	8724.49
755.679	8824.6
756.017	8879.29
756.355	9027.08
756.693	9117.25
757.031	9180.75
757.368	9313.85
757.706	9469.1
758.044	9566.95
758.381	9698.47
758.719	9815.08
759.056	9818.47
759.394	10078.12
759.731	10119.03
760.068	10199.7
760.405	10356.99
760.743	10468.17
761.08	10638.79
761.417	10715.62
761.754	10827.26
762.091	10914.26
762.428	11162.16
762.765	11232.44
763.102	11375.94
763.438	11508.37
763.775	11549.95
764.112	11790.85
764.449	11956.04
764.785	11957.62
765.122	11950.84
765.458	12154.23
765.795	12358.29
766.131	12445.75
766.467	12478.74
