Data from hue_24_FLMS001491_00064.txt Node
Date: Tue Feb 07 17:12:35 GMT 2017
User: dcchb
Spectrometer: FLMS00149
Trigger mode: 0
Integration Time (sec): 2.000000E-2
Scans to average: 10
Electric dark correction enabled: true
Nonlinearity correction enabled: false
Boxcar width: 0
XAxis mode: Wavelengths
Number of Pixels in Spectrum: 2048
>>>>>Begin Spectral Data<<<<<
341.393	-22.58
341.776	-22.58
342.16	-22.58
342.543	-62.36
342.927	-60.55
343.31	-71.4
343.693	-72.98
344.077	-76.82
344.46	-69.14
344.843	-49.48
345.226	-32.3
345.61	-37.27
345.993	-32.53
346.376	-16.48
346.759	11.31
347.142	23.97
347.525	40.92
347.908	72.33
348.291	77.07
348.674	108.71
349.057	124.08
349.44	128.6
349.823	153.68
350.206	178.09
350.588	212.89
350.971	207.01
351.354	235.71
351.737	230.52
352.119	251.08
352.502	272.55
352.884	283.4
353.267	273.45
353.65	307.12
354.032	309.38
354.414	323.85
354.797	301.48
355.179	324.3
355.562	343.51
355.944	341.7
356.326	343.51
356.709	335.15
357.091	334.92
357.473	350.51
357.855	346.67
358.238	345.54
358.62	363.17
359.002	338.31
359.384	338.54
359.766	333.34
360.148	350.29
360.53	354.58
360.912	347.8
361.294	351.64
361.676	354.58
362.057	348.71
362.439	314.36
362.821	339.67
363.203	336.05
363.584	339.44
363.966	324.75
364.348	317.29
364.729	317.97
365.111	319.33
365.493	310.06
365.874	321.59
366.256	309.38
366.637	336.5
367.019	331.3
367.4	341.93
367.781	315.26
368.163	318.2
368.544	313.9
368.925	336.05
369.306	331.76
369.688	327.69
370.069	327.69
370.45	327.69
370.831	330.17
371.212	315.03
371.593	318.2
371.974	317.52
372.355	332.66
372.736	322.49
373.117	326.11
373.498	340.8
373.879	341.7
374.26	325.43
374.641	354.36
375.021	309.84
375.402	312.1
375.783	323.62
376.163	340.8
376.544	341.25
376.925	329.5
377.305	334.02
377.686	325.88
378.066	345.09
378.447	332.43
378.827	361.59
379.208	364.98
379.588	352.1
379.968	344.41
380.349	346.22
380.729	348.93
381.109	346.9
381.489	358.87
381.87	343.96
382.25	353.23
382.63	355.03
383.01	353.9
383.39	353.23
383.77	360.46
384.15	353.9
384.53	373.56
384.91	356.39
385.29	352.55
385.67	371.08
386.049	383.73
386.429	399.78
386.809	392.09
387.189	369.27
387.568	362.94
387.948	370.4
388.328	386.9
388.707	388.93
389.087	396.84
389.466	399.78
389.846	393.22
390.225	403.62
390.605	385.54
390.984	381.25
391.363	384.18
391.743	394.58
392.122	395.94
392.501	382.38
392.881	411.3
393.26	397.29
393.639	385.54
394.018	412.43
394.397	410.62
394.776	402.94
395.155	387.57
395.534	416.27
395.913	420.57
396.292	395.03
396.671	436.61
397.05	404.3
397.429	418.76
397.808	409.27
398.186	415.14
398.565	433.45
398.944	425.09
399.323	416.05
399.701	431.64
400.08	438.42
400.458	425.54
400.837	404.52
401.215	463.73
401.594	446.56
401.972	460.57
402.351	473.45
402.729	439.55
403.107	458.08
403.486	447.91
403.864	468.48
404.242	471.87
404.62	458.53
404.999	458.31
405.377	470.96
405.755	467.57
406.133	468.93
406.511	480.45
406.889	484.3
407.267	479.1
407.645	490.4
408.023	475.93
408.401	467.57
408.779	489.94
409.156	486.78
409.534	512.54
409.912	475.71
410.29	501.24
410.667	504.18
411.045	520.9
411.422	510.96
411.8	529.94
412.178	538.31
412.555	535.82
412.933	534.01
413.31	540.34
413.687	530.62
414.065	568.59
414.442	567.46
414.819	532.43
415.197	547.34
415.574	564.29
415.951	545.08
416.328	568.36
416.705	571.52
417.082	586.21
417.46	575.82
417.837	578.76
418.214	596.83
418.591	574.91
418.967	604.97
419.344	602.48
419.721	611.3
420.098	628.7
420.475	604.97
420.852	631.86
421.228	631.41
421.605	613.56
421.982	625.76
422.358	650.62
422.735	633.22
423.111	657.17
423.488	635.03
423.864	644.52
424.241	673.44
424.617	652.43
424.994	664.4
425.37	669.83
425.746	666.44
426.123	657.17
426.499	687.23
426.875	681.58
427.251	693.78
427.627	712.09
428.003	712.99
428.379	709.83
428.756	730.16
429.132	736.49
429.507	737.62
429.883	752.99
430.259	726.1
430.635	764.51
431.011	736.04
431.387	778.52
431.763	787.11
432.138	790.05
432.514	792.76
432.89	803.83
433.265	818.52
433.641	799.54
434.016	845.19
434.392	821.69
434.767	841.8
435.143	830.95
435.518	842.03
435.894	862.82
436.269	862.59
436.644	862.59
437.02	871.4
437.395	911.18
437.77	878.41
438.145	899.65
438.52	896.71
438.895	921.35
439.271	910.95
439.646	929.26
440.021	932.42
440.395	928.13
440.77	944.85
441.145	921.12
441.52	975.36
441.895	959.08
442.27	977.84
442.645	984.85
443.019	995.02
443.394	996.37
443.769	994.79
444.143	982.36
444.518	1004.73
444.892	1018.97
445.267	1026.88
445.641	1011.74
446.016	1026.88
446.39	1043.38
446.764	1040.44
447.139	1028.24
447.513	1044.96
447.887	1070.72
448.262	1037.95
448.636	1072.08
449.01	1085.86
449.384	1076.6
449.758	1089.93
450.132	1108.91
450.506	1121.11
450.88	1105.07
451.254	1132.41
451.628	1113.66
452.002	1151.62
452.376	1158.4
452.75	1154.56
453.123	1179.42
453.497	1180.77
453.871	1214.67
454.244	1211.96
454.618	1214.67
454.992	1236.82
455.365	1232.07
455.739	1254.9
456.112	1262.81
456.486	1288.79
456.859	1301.22
457.232	1352.97
457.606	1340.32
457.979	1356.59
458.352	1364.95
458.725	1395.91
459.099	1395.46
459.472	1392.52
459.845	1383.71
460.218	1441.33
460.591	1440.2
460.964	1469.13
461.337	1498.96
461.71	1501.22
462.083	1512.74
462.456	1519.07
462.829	1547.09
463.201	1531.73
463.574	1527.88
463.947	1580.99
464.32	1617.82
464.692	1630.48
465.065	1635.45
465.438	1653.53
465.81	1694.43
466.183	1710.48
466.555	1774.66
466.928	1726.52
467.3	1726.97
467.672	1792.51
468.045	1835.45
468.417	1826.63
468.789	1841.1
469.161	1905.95
469.534	1898.5
469.906	1927.2
470.278	1989.79
470.65	1987.53
471.022	2034.99
471.394	2040.19
471.766	2057.59
472.138	2098.49
472.51	2129.9
472.882	2192.5
473.253	2220.75
473.625	2231.37
473.997	2273.63
474.369	2337.58
474.74	2303.68
475.112	2357.01
475.484	2443.57
475.855	2430.91
476.227	2520.17
476.598	2563.79
476.97	2580.06
477.341	2640.85
477.713	2665.25
478.084	2747.29
478.455	2809.66
478.827	2825.25
479.198	2933.95
479.569	2918.13
479.94	2998.35
480.311	3034.28
480.682	3154.51
481.053	3173.94
481.424	3231.79
481.795	3274.73
482.166	3358.34
482.537	3425.69
482.908	3484.22
483.279	3528.28
483.65	3571.67
484.021	3722.18
484.391	3743.19
484.762	3761.72
485.133	3839.01
485.503	3877.43
485.874	3974.82
486.244	4012.11
486.615	4074.26
486.985	4191.09
487.356	4271.09
487.726	4290.52
488.097	4412.55
488.467	4431.54
488.837	4542.27
489.207	4574.13
489.578	4625.43
489.948	4723.05
490.318	4805.31
490.688	4848.25
491.058	4895.93
491.428	4977.96
491.798	5063.38
492.168	5135.47
492.538	5155.81
492.908	5274.68
493.278	5344.73
493.648	5327.33
494.017	5474.45
494.387	5495.91
494.757	5506.08
495.126	5575.23
495.496	5603.03
495.866	5681.45
496.235	5704.72
496.605	5801.44
496.974	5843.02
497.344	5910.14
497.713	5931.61
498.082	6010.25
498.452	6052.96
498.821	6131.83
499.19	6136.58
499.559	6231.26
499.928	6280.98
500.298	6258.38
500.667	6378.83
501.036	6363.91
501.405	6410.24
501.774	6535.66
502.143	6535.89
502.512	6509
502.88	6640.52
503.249	6647.07
503.618	6709.44
503.987	6727.97
504.356	6766.16
504.724	6756.9
505.093	6786.05
505.462	6849.78
505.83	6860.85
506.199	6950.79
506.567	7016.33
506.936	7039.38
507.304	7139.49
507.672	7089.77
508.041	7181.29
508.409	7284.12
508.777	7261.97
509.145	7366.83
509.514	7339.48
509.882	7401.4
510.25	7385.81
510.618	7440.04
510.986	7515.75
511.354	7534.73
511.722	7610.44
512.09	7612.7
512.458	7635.29
512.826	7732.69
513.193	7766.82
513.561	7793.26
513.929	7865.12
514.297	7904.21
514.664	7982.4
515.032	7965.91
515.4	8006.36
515.767	8056.07
516.135	8128.16
516.502	8055.85
516.869	8160.7
517.237	8132
517.604	8178.56
517.972	8272.11
518.339	8341.49
518.706	8260.81
519.073	8391.21
519.44	8395.05
519.808	8511.43
520.175	8437.08
520.542	8637.3
520.909	8597.08
521.276	8586.46
521.643	8664.42
522.009	8714.81
522.376	8811.53
522.743	8812.66
523.11	8968.82
523.477	9009.04
523.843	9017.18
524.21	9122.03
524.577	9152.99
524.943	9158.42
525.31	9247
525.676	9328.81
526.043	9361.35
526.409	9386.66
526.776	9424.85
527.142	9475.25
527.508	9545.3
527.874	9611.74
528.241	9656.94
528.607	9672.53
528.973	9810.15
529.339	9775.8
529.705	9898.06
530.071	9912.3
530.437	10002.91
530.803	10019.19
531.169	10125.85
531.535	10059.86
531.901	10136.02
532.267	10096.47
532.632	10230.48
532.998	10264.38
533.364	10331.72
533.73	10311.16
534.095	10483.81
534.461	10513.64
534.826	10578.49
535.192	10559.74
535.557	10653.29
535.923	10647.19
536.288	10722.9
536.653	10813.06
537.019	10750.47
537.384	10886.06
537.749	10923.12
538.114	10916.79
538.479	10993.85
538.845	11020.74
539.21	11021.42
539.575	11064.58
539.94	11157.01
540.305	11247.18
540.67	11148.42
541.034	11247.18
541.399	11248.76
541.764	11319.26
542.129	11372.6
542.494	11371.69
542.858	11467.96
543.223	11491.69
543.587	11463.22
543.952	11649.43
544.316	11606.94
544.681	11653.72
545.045	11683.55
545.41	11788.18
545.774	11837.22
546.138	11796.31
546.503	11890.1
546.867	11836.54
547.231	11975.52
547.595	11989.08
547.959	12021.62
548.324	12080.37
548.688	12189.75
549.052	12215.51
549.416	12209.64
549.779	12279.47
550.143	12309.97
550.507	12326.02
550.871	12333.7
551.235	12335.73
551.599	12559.01
551.962	12496.18
552.326	12539.8
552.689	12559.01
553.053	12602.85
553.417	12589.97
553.78	12756.74
554.143	12704.99
554.507	12831.09
554.87	12860.01
555.234	12904.31
555.597	12923.52
555.96	12937.3
556.323	13037.41
556.686	13063.17
557.05	13155.37
557.413	13175.26
557.776	13113.12
558.139	13199.67
558.502	13292.55
558.865	13280.57
559.228	13398.98
559.59	13447.12
559.953	13471.07
560.316	13703.83
560.679	13631.29
561.041	13766.88
561.404	13702.7
561.767	13823.61
562.129	13683.27
562.492	13912.19
562.854	13867.9
563.217	13880.33
563.579	13953.77
563.941	13958.97
564.304	14114.67
564.666	14190.83
565.028	14153.99
565.39	14265.4
565.753	14292.29
566.115	14375.68
566.477	14395.34
566.839	14417.49
567.201	14571.38
567.563	14586.75
567.925	14675.56
568.287	14626.75
568.648	14784.94
569.01	14846.86
569.372	14920.53
569.734	14812.05
570.095	14968.21
570.457	15031.26
570.819	15028.77
571.18	15123.68
571.542	15286.39
571.903	15264.92
572.265	15294.75
572.626	15363
572.987	15452.04
573.349	15506.27
573.71	15561.86
574.071	15630.56
574.432	15722.76
574.794	15882.99
575.155	15898.35
575.516	15908.07
575.877	16061.06
576.238	16112.36
576.599	16206.37
576.96	16201.17
577.32	16418.57
577.681	16454.72
578.042	16734.72
578.403	16708.73
578.763	16889.29
579.124	16922.06
579.485	17127.93
579.845	17284.31
580.206	17382.38
580.566	17508.03
580.927	17567.46
581.287	17823.27
581.648	17916.83
582.008	18171.74
582.368	18236.82
582.728	18494.67
583.089	18548
583.449	18748.9
583.809	18926.97
584.169	19142.34
584.529	19234.76
584.889	19779.83
585.249	19695.54
585.609	19953.61
585.969	20246.04
586.329	20362.87
586.688	20709.3
587.048	20862.52
587.408	21128.27
587.768	21347.7
588.127	21742.49
588.487	21892.32
588.846	22307
589.206	22474.23
589.565	22768
589.925	23160.99
590.284	23539.28
590.643	23809.78
591.003	24064.69
591.362	24425.59
591.721	24602.08
592.08	24925.46
592.44	25308.73
592.799	25573.58
593.158	25800.92
593.517	26197.52
593.876	26627.79
594.235	27074.78
594.593	27256.7
594.952	27586.18
595.311	27834.99
595.67	28191.59
596.029	28666.38
596.387	29072.02
596.746	29325.57
597.104	29629.97
597.463	29857.99
597.822	30380.46
598.18	30550.85
598.538	30801.01
598.897	31406.42
599.255	31532.29
599.613	32258.15
599.972	32384.93
600.33	32692.04
600.688	32960.73
601.046	33381.28
601.404	33686.13
601.762	34068.5
602.12	34463.51
602.478	34748.25
602.836	35019.43
603.194	35212.2
603.552	35620.09
603.91	35668.68
604.268	36180.76
604.625	36361.54
604.983	36605.15
605.341	36889.44
605.698	37434.51
606.056	37524.23
606.413	37850.09
606.771	38233.59
607.128	38636.96
607.485	38688.26
607.843	38913.79
608.2	39211.64
608.557	39746.99
608.914	39835.58
609.272	40145.17
609.629	40504.26
609.986	40719.17
610.343	40761.43
610.7	41296.56
611.057	41513.27
611.414	41554.18
611.771	41870.78
612.127	42087.95
612.484	42124.33
612.841	42605.9
613.198	42616.75
613.554	42859.9
613.911	43243.4
614.267	43375.82
614.624	43402.26
614.98	43627.34
615.337	44012.19
615.693	43988.46
616.05	44205.63
616.406	44716.35
616.762	44697.82
617.118	44842
617.475	44908.89
617.831	45164.93
618.187	45211.71
618.543	45437.46
618.899	45807.17
619.255	45825.25
619.611	46032.93
619.967	46241.74
620.323	46347.95
620.678	46255.3
621.034	46358.12
621.39	46497.55
621.746	46414.39
622.101	46941.38
622.457	46753.59
622.812	46994.71
623.168	47287.81
623.523	47144.99
623.879	47418.2
624.234	47237.64
624.589	47477.86
624.945	47517.86
625.3	47607.8
625.655	47671.76
626.01	47704.52
626.365	47831.75
626.72	47724.86
627.075	47787.46
627.43	47885.99
627.785	47899.09
628.14	47959.21
628.495	48175.92
628.85	47989.94
629.205	48084.17
629.559	48358.97
629.914	48133.21
630.269	48384.96
630.623	48201.23
630.978	48257.05
631.332	48528
631.687	48441.68
632.041	48408.68
632.396	48518.29
632.75	48368.69
633.104	48505.41
633.459	48429.02
633.813	48378.86
634.167	48386.76
634.521	48489.81
634.875	48477.61
635.229	48546.53
635.583	48361.91
635.937	48324.17
636.291	48406.2
636.645	48494.11
636.999	48337.5
637.352	48464.73
637.706	48306.99
638.06	48544.5
638.413	48425.41
638.767	48385.63
639.121	48482.58
639.474	48264.96
639.828	48252.98
640.181	48459.53
640.534	48286.88
640.888	48340.89
641.241	48150.39
641.594	48242.59
641.947	48431.51
642.301	48265.64
642.654	48299.99
643.007	48286.43
643.36	48225.64
643.713	48250.72
644.066	48385.41
644.419	48225.86
644.771	47879.66
645.124	47479.67
645.477	47496.17
645.83	47371.88
646.182	47191.09
646.535	47179.34
646.888	47140.47
647.24	46923.53
647.593	47301.14
647.945	47241.71
648.298	46983.86
648.65	47037.2
649.002	46821.38
649.355	47023.41
649.707	47012.34
650.059	47074.93
650.411	47672.43
650.763	47653.45
651.115	48081.24
651.467	48056.15
651.819	47890.73
652.171	47733.67
652.523	47808.02
652.875	47699.55
653.227	47603.96
653.578	47847.57
653.93	47742.26
654.282	47555.83
654.633	47412.1
654.985	47592.44
655.337	47552.44
655.688	47585.2
656.039	47872.43
656.391	47439.22
656.742	47380.46
657.094	47471.99
657.445	47563.96
657.796	47460.91
658.147	47491.65
658.498	47491.87
658.849	47508.6
659.2	47593.79
659.551	47447.35
659.902	47612.77
660.253	47426.11
660.604	47576.16
660.955	47450.07
661.306	47504.98
661.656	47419.56
662.007	47294.82
662.358	47430.41
662.708	47514.92
663.059	47404.19
663.409	47201.03
663.76	47516.28
664.11	47404.19
664.461	47456.85
664.811	47454.13
665.161	47390.41
665.511	47141.37
665.862	47335.94
666.212	47473.79
666.562	47433.12
666.912	47393.12
667.262	47254.59
667.612	47390.63
667.962	47445.55
668.312	47264.31
668.662	47303.18
669.011	47355.38
669.361	47286.68
669.711	47264.08
670.06	47264.76
670.41	47289.62
670.76	47112.9
671.109	47250.98
671.459	47141.37
671.808	47068.16
672.157	47287.36
672.507	46938.67
672.856	46992
673.205	47027.93
673.554	47172.33
673.904	47062.51
674.253	47238.32
674.602	47190.41
674.951	46540.71
675.3	46188.18
675.649	46953.81
675.998	46870.87
676.346	46931.89
676.695	47091.88
677.044	46729.41
677.393	46916.52
677.741	46876.3
678.09	46832
678.438	46762.4
678.787	46780.93
679.135	46665.45
679.484	46576.87
679.832	46637.66
680.181	46469.98
680.529	46605.12
680.877	46481.5
681.225	46411.9
681.573	46481.05
681.922	46303.2
682.27	46146.15
682.618	46211.91
682.966	46199.7
683.314	46276.09
683.661	46183.88
684.009	45919.48
684.357	45837.68
684.705	45933.27
685.053	45822.54
685.4	45710.45
685.748	45618.7
686.095	45645.82
686.443	45440.63
686.79	45432.72
687.138	45364.47
687.485	45474.07
687.832	45326.96
688.18	45324.7
688.527	45179.17
688.874	45047.19
689.221	45043.12
689.568	44893.52
689.915	44804.71
690.262	44747.99
690.609	44655.11
690.956	44583.02
691.303	44570.59
691.65	44457.6
691.997	44388
692.344	44164.5
692.69	44139.64
693.037	44150.94
693.383	43690.62
693.73	44006.99
694.077	43626.44
694.423	43649.26
694.769	43573.33
695.116	43504.86
695.462	43378.76
695.808	43380.57
696.155	43369.95
696.501	43048.37
696.847	43056.06
697.193	42832.33
697.539	42924.31
697.885	42720.25
698.231	42627.82
698.577	42552.34
698.923	42559.57
699.269	42456.3
699.614	42230.99
699.96	42105.35
700.306	42061.51
700.651	41887.05
700.997	41825.58
701.342	41759.59
701.688	41617.22
702.033	41567.06
702.379	41553.95
702.724	41375.65
703.069	41392.6
703.415	40984.47
703.76	41154.41
704.105	41101.31
704.45	40873.06
704.795	40701.09
705.14	40665.84
705.485	40530.47
705.83	40402.79
706.175	40484.37
706.52	40287.54
706.865	40212.97
707.209	40193.76
707.554	40202.35
707.899	40136.13
708.243	39942.92
708.588	39978.17
708.932	39659.99
709.277	39635.58
709.621	39711.96
709.966	39494.12
710.31	39622.7
710.654	39241.92
710.998	39241.47
711.342	39267.91
711.687	39285.08
712.031	39008.03
712.375	38991.53
712.719	38888.71
713.063	38859.11
713.407	38899.78
713.75	38616.63
714.094	38805.55
714.438	38537.76
714.782	38552.67
715.125	38462.05
715.469	38439.23
715.812	38317.2
716.156	38060.48
716.499	38090.09
716.843	38173.02
717.186	37876.08
717.53	37953.37
717.873	37997.43
718.216	37880.15
718.559	37787.95
718.902	37407.84
719.246	37653.49
719.589	37474.96
719.932	37323.1
720.275	37415.98
720.617	37131.92
720.96	37241.07
721.303	37222.99
721.646	37262.54
721.989	36908.87
722.331	37125.14
722.674	37012.83
723.016	37039.04
723.359	36946.84
723.701	36934.86
724.044	36677.24
724.386	36602.89
724.729	36832.49
725.071	36585.04
725.413	36547.53
725.755	36572.61
726.097	36250.36
726.439	36196.8
726.782	36177.37
727.124	36338.27
727.465	36185.05
727.807	36069.35
728.149	35959.29
728.491	36008.33
728.833	35907.77
729.175	35801.11
729.516	35771.28
729.858	35758.4
730.199	35769.7
730.541	35598.63
730.882	35655.8
731.224	35645.86
731.565	35526.54
731.906	35530.83
732.248	35539.64
732.589	35200.44
732.93	35187.11
733.271	35289.48
733.612	35213.33
733.953	35246.54
734.294	35130.16
734.635	34934.91
734.976	35133.1
735.317	34779.21
735.658	34900.57
735.999	34954.12
736.339	34885.2
736.68	34942.37
737.021	34896.5
737.361	34541.7
737.702	34830.96
738.042	34711.87
738.383	34657.63
738.723	34639.1
739.063	34428.71
739.404	34627.13
739.744	34494.02
740.084	34252.9
740.424	34322.5
740.764	34261.49
741.104	34424.19
741.444	34189.62
741.784	34226.23
742.124	34086.35
742.464	34141.94
742.804	34117.31
743.143	33887.03
743.483	34025.79
743.823	33793.7
744.162	33748.05
744.502	33865.56
744.841	33623.54
745.181	33836.19
745.52	33701.05
745.86	33645.01
746.199	33594.84
746.538	33542.86
746.877	33653.14
747.216	33671.45
747.556	33389.87
747.895	33377.22
748.234	33442.98
748.573	33273.26
748.911	33226.71
749.25	33270.55
749.589	33092.7
749.928	33141.52
750.267	33168.86
750.605	33048.64
750.944	32977.68
751.283	32845.25
751.621	32958.02
751.96	32817.91
752.298	32776.78
752.636	32790.11
752.975	32597.12
753.313	32654.75
753.651	32567.29
753.989	32557.35
754.327	32438.03
754.666	32248.43
755.004	32320.29
755.342	32214.08
755.679	32221.31
756.017	32040.75
756.355	32146.97
756.693	31886.41
757.031	31970.02
757.368	31960.98
757.706	31883.47
