Data from hue_24_FLMS001491_00060.txt Node
Date: Tue Feb 07 17:12:28 GMT 2017
User: dcchb
Spectrometer: FLMS00149
Trigger mode: 0
Integration Time (sec): 2.000000E-2
Scans to average: 10
Electric dark correction enabled: true
Nonlinearity correction enabled: false
Boxcar width: 0
XAxis mode: Wavelengths
Number of Pixels in Spectrum: 2048
>>>>>Begin Spectral Data<<<<<
341.393	-15.96
341.776	-15.96
342.16	-15.96
342.543	-66.58
342.927	-69.74
343.31	-57.31
343.693	-41.04
344.077	-70.65
344.46	-52.57
344.843	-55.51
345.226	-42.63
345.61	-39.46
345.993	-19.58
346.376	-6.24
346.759	3.7
347.142	40.54
347.525	20.2
347.908	67.88
348.291	57.03
348.674	98.61
349.057	97.03
349.44	118.27
349.823	158.95
350.206	171.83
350.588	196.24
350.971	215.67
351.354	223.36
351.737	225.84
352.119	229.46
352.502	261.77
352.884	277.37
353.267	278.5
353.65	268.55
354.032	279.85
354.414	282.79
354.797	330.7
355.179	306.29
355.562	314.2
355.944	321.21
356.326	323.24
356.709	330.7
357.091	331.6
357.473	354.65
357.855	328.44
358.238	336.12
358.62	344.71
359.002	317.59
359.384	333.86
359.766	319.17
360.148	340.64
360.53	348.78
360.912	320.08
361.294	315.1
361.676	338.38
362.057	330.92
362.439	325.27
362.821	316.23
363.203	331.6
363.584	321.66
363.966	313.07
364.348	335.9
364.729	313.52
365.111	307.65
365.493	306.97
365.874	306.74
366.256	306.52
366.637	320.98
367.019	314.2
367.4	322.34
367.781	315.1
368.163	314.43
368.544	335.9
368.925	321.88
369.306	316.01
369.688	319.4
370.069	320.08
370.45	304.71
370.831	323.01
371.212	308.33
371.593	297.25
371.974	304.26
372.355	312.39
372.736	316.69
373.117	318.72
373.498	306.52
373.879	309.23
374.26	325.95
374.641	318.04
375.021	297.93
375.402	306.74
375.783	325.05
376.163	309.23
376.544	308.55
376.925	320.53
377.305	324.14
377.686	318.49
378.066	329.79
378.447	325.05
378.827	339.06
379.208	331.38
379.588	321.88
379.968	313.97
380.349	340.19
380.729	317.82
381.109	320.08
381.489	341.32
381.87	345.84
382.25	355.56
382.63	345.84
383.01	330.7
383.39	316.01
383.77	345.16
384.15	332.51
384.53	327.31
384.91	348.55
385.29	335.9
385.67	323.69
386.049	350.36
386.429	347.42
386.809	350.36
387.189	362.34
387.568	349.68
387.948	353.07
388.328	360.08
388.707	356.01
389.087	372.05
389.466	359.17
389.846	357.82
390.225	364.37
390.605	352.39
390.984	345.39
391.363	370.92
391.743	388.55
392.122	379.51
392.501	362.11
392.881	360.75
393.26	365.5
393.639	376.35
394.018	364.37
394.397	382
394.776	380.87
395.155	400.53
395.534	391.71
395.913	384.26
396.292	387.87
396.671	360.3
397.05	376.12
397.429	392.39
397.808	389.68
398.186	376.57
398.565	389.23
398.944	367.08
399.323	389
399.701	384.03
400.08	376.57
400.458	412.96
400.837	378.61
401.215	393.52
401.594	389.23
401.972	395.78
402.351	399.62
402.729	424.71
403.107	414.54
403.486	401.43
403.864	393.07
404.242	399.85
404.62	386.97
404.999	400.3
405.377	390.58
405.755	406.4
406.133	419.51
406.511	405.5
406.889	444.82
407.267	432.16
407.645	412.96
408.023	429.23
408.401	404.14
408.779	425.84
409.156	445.72
409.534	439.17
409.912	445.95
410.29	439.85
410.667	424.71
411.045	438.27
411.422	429.68
411.8	445.72
412.178	447.98
412.555	456.8
412.933	458.83
413.31	471.48
413.687	449.11
414.065	463.35
414.442	500.64
414.819	461.99
415.197	475.1
415.574	498.15
415.951	464.93
416.328	464.03
416.705	472.39
417.082	465.84
417.46	470.35
417.837	486.63
418.214	487.08
418.591	508.09
418.967	503.12
419.344	486.4
419.721	500.64
420.098	518.72
420.475	512.84
420.852	507.64
421.228	511.71
421.605	531.14
421.982	498.15
422.358	509
422.735	530.47
423.111	515.55
423.488	547.87
423.864	523.69
424.241	516.46
424.617	551.71
424.994	526.17
425.37	529.34
425.746	538.38
426.123	545.83
426.499	550.58
426.875	548.54
427.251	540.41
427.627	556.68
428.003	568.43
428.379	593.29
428.756	548.54
429.132	575.66
429.507	580.18
429.883	582.44
430.259	578.6
430.635	589.45
431.011	583.35
431.387	606.85
431.763	601.65
432.138	619.28
432.514	626.51
432.89	625.38
433.265	610.46
433.641	639.84
434.016	606.4
434.392	636.23
434.767	632.38
435.143	619.05
435.518	635.1
435.894	667.86
436.269	654.53
436.644	675.32
437.02	691.59
437.395	675.77
437.77	684.36
438.145	672.16
438.52	679.16
438.895	697.69
439.271	710.57
439.646	694.08
440.021	710.12
440.395	707.18
440.77	692.27
441.145	671.48
441.52	717.13
441.895	728.88
442.27	725.94
442.645	718.71
443.019	723.46
443.394	740.86
443.769	725.72
444.143	733.4
444.518	742.89
444.892	763
445.267	743.34
445.641	765.71
446.016	773.85
446.39	780.63
446.764	779.95
447.139	799.39
447.513	776.56
447.887	776.11
448.262	780.86
448.636	815.66
449.01	823.11
449.384	808.88
449.758	804.58
450.132	796
450.506	828.76
450.88	801.19
451.254	773.85
451.628	813.17
452.002	839.61
452.376	842.1
452.75	849.55
453.123	863.11
453.497	861.98
453.871	877.58
454.244	890.91
454.618	871.7
454.992	880.74
455.365	879.38
455.739	889.1
456.112	896.56
456.486	923.9
456.859	908.76
457.232	950.57
457.606	906.73
457.979	928.2
458.352	951.02
458.725	937.46
459.099	980.62
459.472	995.31
459.845	997.8
460.218	1003.45
460.591	1028.76
460.964	1024.46
461.337	1024.69
461.71	1031.02
462.083	1010.23
462.456	1051.58
462.829	1056.55
463.201	1082.99
463.574	1087.74
463.947	1064.24
464.32	1119.6
464.692	1134.74
465.065	1129.32
465.438	1169.55
465.81	1152.14
466.183	1166.16
466.555	1173.84
466.928	1183.78
467.3	1178.36
467.672	1219.04
468.045	1224.69
468.417	1220.62
468.789	1244.35
469.161	1267.85
469.534	1280.96
469.906	1302.65
470.278	1301.07
470.65	1321.41
471.022	1360.73
471.394	1371.8
471.766	1379.03
472.138	1377.22
472.51	1460.84
472.882	1476.2
473.253	1450.44
473.625	1477.33
473.997	1526.15
474.369	1536.09
474.74	1565.92
475.112	1579.25
475.484	1567.5
475.855	1647.95
476.227	1651.79
476.598	1675.75
476.97	1701.28
477.341	1760.72
477.713	1782.86
478.084	1801.17
478.455	1819.02
478.827	1857.89
479.198	1895.85
479.569	1925.68
479.94	1989.41
480.311	1977.66
480.682	2059.24
481.053	2087.26
481.424	2142.85
481.795	2155.28
482.166	2214.49
482.537	2238.44
482.908	2258.1
483.279	2296.3
483.65	2369.97
484.021	2389.85
484.391	2439.12
484.762	2480.25
485.133	2514.82
485.503	2546.01
485.874	2592.56
486.244	2645.44
486.615	2702.84
486.985	2692.44
487.356	2750.07
487.726	2801.37
488.097	2855.15
488.467	2923.4
488.837	2935.37
489.207	3013.56
489.578	3023.06
489.948	3074.13
490.318	3155.48
490.688	3154.58
491.058	3230.96
491.428	3275.93
491.798	3308.47
492.168	3382.82
492.538	3395.7
492.908	3438.19
493.278	3503.95
493.648	3479.99
494.017	3588.01
494.387	3593.66
494.757	3650.61
495.126	3701.23
495.496	3663.49
495.866	3723.83
496.235	3818.74
496.605	3801.34
496.974	3885.86
497.344	3929.25
497.713	3908.46
498.082	3963.37
498.452	3992.3
498.821	3970.15
499.19	4060.99
499.559	4076.59
499.928	4099.19
500.298	4162.69
500.667	4203.36
501.036	4195.23
501.405	4189.35
501.774	4242.46
502.143	4260.54
502.512	4321.1
502.88	4333.76
503.249	4337.37
503.618	4365.85
503.987	4421.21
504.356	4402.68
504.724	4446.97
505.093	4470.25
505.462	4514.09
505.83	4571.72
506.199	4565.16
506.567	4654.2
506.936	4646.97
507.304	4694.65
507.672	4679.51
508.041	4700.3
508.409	4724.48
508.777	4799.73
509.145	4794.31
509.514	4776.46
509.882	4835.44
510.25	4801.54
510.618	4842.67
510.986	4892.61
511.354	4884.93
511.722	4903.01
512.09	4975.1
512.458	5003.57
512.826	5003.12
513.193	5071.82
513.561	5046.51
513.929	5033.62
514.297	5108.65
514.664	5163.34
515.032	5128.76
515.4	5267.52
515.767	5210.8
516.135	5236.56
516.502	5193.62
516.869	5278.59
517.237	5279.95
517.604	5281.3
517.972	5314.75
518.339	5348.64
518.706	5330.34
519.073	5321.75
519.44	5397.68
519.808	5460.51
520.175	5434.74
520.542	5494.86
520.909	5494.86
521.276	5529.43
521.643	5604.01
522.009	5550.45
522.376	5587.51
522.743	5623.21
523.11	5642.65
523.477	5648.07
523.843	5737.79
524.21	5799.93
524.577	5837.9
524.943	5848.07
525.31	5843.09
525.676	5920.38
526.043	5953.37
526.409	5980.04
526.776	6044.9
527.142	6004.67
527.508	6051.23
527.874	6123.31
528.241	6144.56
528.607	6112.92
528.973	6196.53
529.339	6209.86
529.705	6263.2
530.071	6301.39
530.437	6367.6
530.803	6340.03
531.169	6365.57
531.535	6380.03
531.901	6414.15
532.267	6429.29
532.632	6461.38
532.998	6464.1
533.364	6556.97
533.73	6607.59
534.095	6516.98
534.461	6628.61
534.826	6675.39
535.192	6645.11
535.557	6639.68
535.923	6719.68
536.288	6745.44
536.653	6792.45
537.019	6797.19
537.384	6791.54
537.749	6820.02
538.114	6823.41
538.479	6840.58
538.845	6940.92
539.21	6885.78
539.575	6923.52
539.94	7002.84
540.305	6983.86
540.67	7040.35
541.034	7022.95
541.399	7093.91
541.764	7055.49
542.129	7137.98
542.494	7210.06
542.858	7173.68
543.223	7214.13
543.587	7253.45
543.952	7294.81
544.316	7285.77
544.681	7366.67
545.045	7403.05
545.41	7352.66
545.774	7374.81
546.138	7459.78
546.503	7483.5
546.867	7458.19
547.231	7539.77
547.595	7547.23
547.959	7631.97
548.324	7551.07
548.688	7594.69
549.052	7626.32
549.416	7680.56
549.779	7736.15
550.143	7742.48
550.507	7791.97
550.871	7837.84
551.235	7868.13
551.599	7860.22
551.962	7810.05
552.326	7874.45
552.689	7871.74
553.053	7918.75
553.417	7947.45
553.78	8041
554.143	8010.95
554.507	8074.22
554.87	8032.64
555.234	8152.64
555.597	8145.86
555.96	8188.12
556.323	8224.5
556.686	8204.16
557.05	8326.42
557.413	8268.57
557.776	8306.76
558.139	8330.71
558.502	8361.67
558.865	8393.99
559.228	8430.15
559.59	8408
559.953	8494.1
560.316	8516.92
560.679	8537.04
561.041	8574.1
561.404	8612.97
561.767	8653.19
562.129	8590.59
562.492	8733.64
562.854	8704.26
563.217	8736.35
563.579	8816.8
563.941	8822.9
564.304	8810.25
564.666	8941.32
565.028	8871.72
565.39	8993.97
565.753	9059.28
566.115	8989
566.477	9030.36
566.839	9151.93
567.201	9109.9
567.563	9141.31
567.925	9207.3
568.287	9236.45
568.648	9200.07
569.01	9282.55
569.372	9326.62
569.734	9327.3
570.095	9382.21
570.457	9466.05
570.819	9416.33
571.18	9439.16
571.542	9502.21
571.903	9614.97
572.265	9636.67
572.626	9634.86
572.987	9721.41
573.349	9762.31
573.71	9817.23
574.071	9855.87
574.432	9960.27
574.794	10027.84
575.155	9969.77
575.516	9996.43
575.877	10176.31
576.238	10163.89
576.599	10338.34
576.96	10282.53
577.32	10435.29
577.681	10488.62
578.042	10547.38
578.403	10635.51
578.763	10706.7
579.124	10817.88
579.485	10915.5
579.845	11087.48
580.206	11153.24
580.566	11259.68
580.927	11308.49
581.287	11482.72
581.648	11543.06
582.008	11739.21
582.368	11790.06
582.728	11990.73
583.089	12044.51
583.449	12283.6
583.809	12370.15
584.169	12632.29
584.529	12721.78
584.889	12928.11
585.249	13089.68
585.609	13225.27
585.969	13504.81
586.329	13706.84
586.688	13873.39
587.048	14093.95
587.408	14291.46
587.768	14609.64
588.127	14744.56
588.487	15024.55
588.846	15318.1
589.206	15509.28
589.565	15694.14
589.925	16070.62
590.284	16264.52
590.643	16558.52
591.003	16883.03
591.362	17130.48
591.721	17373.87
592.08	17664.03
592.44	17900.86
592.799	18217.68
593.158	18519.37
593.517	18805.47
593.876	19058.11
594.235	19414.94
594.593	19717.53
594.952	19990.29
595.311	20270.51
595.67	20657.62
596.029	21014
596.387	21367.66
596.746	21692.4
597.104	21810.58
597.463	22134.87
597.822	22504.8
598.18	22663.44
598.538	23079.48
598.897	23428.4
599.255	23662.29
599.613	24244.87
599.972	24295.04
600.33	24729.6
600.688	24924.18
601.046	25215.47
601.404	25582.46
601.762	25912.4
602.12	26349
602.478	26636.22
602.836	26908.53
603.194	27107.62
603.552	27451.57
603.91	27566.37
604.268	27975.17
604.625	28225.11
604.983	28612.44
605.341	28753.9
605.698	29137.62
606.056	29405.87
606.413	29693.32
606.771	29987.32
607.128	30133.98
607.485	30295.11
607.843	30559.96
608.2	31037.23
608.557	31181.64
608.914	31318.81
609.272	31790.89
609.629	32052.8
609.986	32402.85
610.343	32378.67
610.7	32714.7
611.057	32733.01
611.414	33124.19
611.771	33321.47
612.127	33616.15
612.484	33772.53
612.841	33935.24
613.198	34149.7
613.554	34335
613.911	34678.72
614.267	34729.34
614.624	34877.36
614.98	35120.52
615.337	35375.2
615.693	35462.66
616.05	35682.54
616.406	36000.27
616.762	36060.61
617.118	36200.49
617.475	36339.69
617.831	36576.07
618.187	36836.86
618.543	36866.23
618.899	37066.45
619.255	37246.34
619.611	37393.23
619.967	37550.28
620.323	37718.19
620.678	37800.22
621.034	37790.96
621.39	38021.46
621.746	37926.77
622.101	38519.07
622.457	38225.97
622.812	38372.18
623.168	38684.27
623.523	38672.97
623.879	38850.36
624.234	38729.91
624.589	38879.06
624.945	39085.61
625.3	39202.22
625.655	39310.01
626.01	39352.72
626.365	39401.08
626.72	39361.76
627.075	39425.49
627.43	39610.79
627.785	39498.48
628.14	39900.5
628.495	39772.82
628.85	39897.57
629.205	39780.28
629.559	39973.72
629.914	39903.22
630.269	39906.15
630.623	39908.41
630.978	39909.32
631.332	40146.37
631.687	40375.07
632.041	40108.41
632.396	40120.16
632.75	39991.58
633.104	40248.52
633.459	40090.56
633.813	40104.79
634.167	40241.29
634.521	40327.84
634.875	40418.01
635.229	40286.94
635.583	40139.82
635.937	40234.51
636.291	40120.39
636.645	40189.76
636.999	40069.54
637.352	40339.14
637.706	40067.05
638.06	40252.81
638.413	40198.12
638.767	40018.24
639.121	40208.97
639.474	39989.77
639.828	40080.61
640.181	40135.07
640.534	40246.94
640.888	40148.63
641.241	39949.54
641.594	40153.38
641.947	40217.33
642.301	40172.59
642.654	40146.83
643.007	40259.37
643.36	40093.95
643.713	40176.66
644.066	40232.02
644.419	39954.97
644.771	39740.06
645.124	39362.67
645.477	39348.43
645.83	39069.11
646.182	38919.74
646.535	38905.73
646.888	39061.2
647.24	38856.01
647.593	39067.08
647.945	38989.12
648.298	38852.4
648.65	38839.06
649.002	38669.58
649.355	38938.72
649.707	38830.25
650.059	39081.32
650.411	39507.97
650.763	39478.37
651.115	39923.55
651.467	39748.64
651.819	39830.68
652.171	39640.85
652.523	39695.76
652.875	39569.44
653.227	39647.4
653.578	39757.01
653.93	39581.87
654.282	39576.22
654.633	39445.6
654.985	39570.57
655.337	39456.22
655.688	39563.11
656.039	39536.22
656.391	39365.6
656.742	39338.71
657.094	39379.39
657.445	39482.21
657.796	39384.81
658.147	39459.16
658.498	39454.87
658.849	39572.6
659.2	39431.14
659.551	39335.32
659.902	39525.6
660.253	39425.49
660.604	39453.06
660.955	39253.97
661.306	39488.09
661.656	39392.27
662.007	39371.93
662.358	39477.01
662.708	39368.09
663.059	39422.55
663.409	39083.35
663.76	39340.97
664.11	39269.33
664.461	39344.81
664.811	39442.66
665.161	39460.74
665.511	39188.66
665.862	39327.19
666.212	39434.75
666.562	39356.11
666.912	39214.87
667.262	39267.98
667.612	39234.31
667.962	39279.73
668.312	39239.96
668.662	39275.44
669.011	39313.63
669.361	39190.69
669.711	39136.23
670.06	39180.3
670.41	39027.53
670.76	39097.36
671.109	39227.53
671.459	39126.29
671.808	39100.53
672.157	39215.55
672.507	38985.27
672.856	38832.74
673.205	39057.36
673.554	39081.32
673.904	38951.15
674.253	39136.46
674.602	38990.47
674.951	38461.9
675.3	38242.02
675.649	38902.34
675.998	38902.11
676.346	38884.03
676.695	39005.16
677.044	38598.84
677.393	38823.02
677.741	38922
678.09	38614.21
678.438	38570.82
678.787	38814.21
679.135	38792.06
679.484	38389.58
679.832	38660.99
680.181	38404.95
680.529	38597.26
680.877	38371.05
681.225	38445.4
681.573	38595.68
681.922	38279.3
682.27	38218.74
682.618	38296.7
682.966	38230.49
683.314	38319.08
683.661	37961.12
684.009	37898.07
684.357	37891.29
684.705	37802.93
685.053	37829.6
685.4	37838.64
685.748	37642.94
686.095	37595.03
686.443	37495.82
686.79	37461.47
687.138	37613.56
687.485	37607.23
687.832	37496.27
688.18	37409.5
688.527	37211.54
688.874	37261.7
689.221	37088.15
689.568	36969.51
689.915	36957.08
690.262	37013.12
690.609	36775.61
690.956	36732.68
691.303	36654.71
691.65	36576.98
691.997	36451.78
692.344	36410.43
692.69	36276.87
693.037	36255.63
693.383	36010.44
693.73	36162.3
694.077	35943.32
694.423	35941.51
694.769	35797.56
695.116	35809.54
695.462	35652.03
695.808	35601.63
696.155	35707.85
696.501	35396.67
696.847	35372.26
697.193	35163.23
697.539	35274.19
697.885	35065.38
698.231	34945.15
698.577	34850.47
698.923	34856.57
699.269	34815.67
699.614	34571.61
699.96	34493.42
700.306	34438.95
700.651	34297.04
700.997	34324.61
701.342	34249.35
701.688	34163.25
702.033	34144.95
702.379	34059.75
702.724	33857.73
703.069	33988.57
703.415	33667.22
703.76	33745.19
704.105	33744.73
704.45	33683.49
704.795	33460
705.14	33320.34
705.485	33254.8
705.83	33155.6
706.175	33151.08
706.52	33091.64
706.865	32936.39
707.209	33045.09
707.554	32770.97
707.899	32957.64
708.243	32566.69
708.588	32643.07
708.932	32455.05
709.277	32367.6
709.621	32368.27
709.966	32212.35
710.31	32345.45
710.654	32129.41
710.998	32151.78
711.342	32091.9
711.687	31914.95
712.031	31832.02
712.375	31830.21
712.719	31808.51
713.063	31674.96
713.407	31900.94
713.75	31648.29
714.094	31609.2
714.438	31527.39
714.782	31495.53
715.125	31359.94
715.469	31484.45
715.812	31300.28
716.156	31065.03
716.499	31164.01
716.843	31093.28
717.186	30969.21
717.53	31074.97
717.873	31107.97
718.216	30956.33
718.559	30874.75
718.902	30644.7
719.246	30639.96
719.589	30619.62
719.932	30455.78
720.275	30497.14
720.617	30425.73
720.96	30442
721.303	30461.88
721.646	30408.55
721.989	30156.35
722.331	30306.63
722.674	30075.45
723.016	30264.6
723.359	30176.01
723.701	30146.86
724.044	29921.11
724.386	29750.71
724.729	29903.48
725.071	29875.01
725.413	29823.26
725.755	29844.05
726.097	29672.52
726.439	29537.84
726.782	29615.58
727.124	29623.03
727.465	29484.06
727.807	29416.71
728.149	29448.8
728.491	29444.51
728.833	29391.85
729.175	29296.49
729.516	29286.09
729.858	29237.96
730.199	29172.65
730.541	29217.62
730.882	29146.89
731.224	29171.75
731.565	28976.05
731.906	29025.31
732.248	28968.59
732.589	28760.01
732.93	28783.73
733.271	28832.55
733.612	28873
733.953	28759.33
734.294	28694.25
734.635	28490.86
734.976	28697.64
735.317	28525.44
735.658	28533.35
735.999	28440.69
736.339	28493.35
736.68	28516.85
737.021	28497.64
737.361	28190.3
737.702	28491.99
738.042	28429.39
738.383	28317.31
738.723	28283.18
739.063	28173.13
739.404	28270.98
739.744	28190.3
740.084	28046.35
740.424	28132
740.764	27986.24
741.104	28023.75
741.444	27933.81
741.784	27941.95
742.124	27903.76
742.464	27903.31
742.804	27782.63
743.143	27749.41
743.483	27882.97
743.823	27589.87
744.162	27612.69
744.502	27653.14
744.841	27484.79
745.181	27519.81
745.52	27413.6
745.86	27599.36
746.199	27425.35
746.538	27376.54
746.877	27510.55
747.216	27406.6
747.556	27445.46
747.895	27356.43
748.234	27197.34
748.573	27291.57
748.911	27200.95
749.25	27251.8
749.589	27013.39
749.928	27089.77
750.267	27161.18
750.605	26995.76
750.944	27070.56
751.283	26839.83
751.621	26948.75
751.96	26879.15
752.298	26847.51
752.636	26831.24
752.975	26648.42
753.313	26707.86
753.651	26709.89
753.989	26585.6
754.327	26469.67
754.666	26298.83
755.004	26340.86
755.342	26363.23
755.679	26273.29
756.017	26208.44
756.355	26261.99
756.693	26170.47
757.031	26186.29
757.368	26007.99
757.706	26015.9
758.044	25915.34
758.381	25930.48
758.719	25878.27
759.056	25934.77
759.394	25825.62
759.731	25682.12
760.068	25678.51
760.405	25442.35
760.743	25465.63
761.08	25484.39
