Data from hue_330_FLMS001491_10.txt Node
Date: Mon Feb 06 15:44:49 GMT 2017
User: dcchb
Spectrometer: FLMS00149
Trigger mode: 0
Integration Time (sec): 2.000000E-2
Scans to average: 10
Electric dark correction enabled: true
Nonlinearity correction enabled: false
Boxcar width: 0
XAxis mode: Wavelengths
Number of Pixels in Spectrum: 2048
>>>>>Begin Spectral Data<<<<<
341.393	0.62
341.776	0.62
342.16	0.62
342.543	-65.59
342.927	-70.34
343.31	-66.27
343.693	-79.38
344.077	-59.94
344.46	-69.66
344.843	-28.76
345.226	-43.22
345.61	-26.04
345.993	-27.17
346.376	-17.23
346.759	2.88
347.142	33.61
347.525	32.49
347.908	44.01
348.291	96.21
348.674	92.6
349.057	115.87
349.44	140.96
349.823	145.93
350.206	161.75
350.588	185.25
350.971	215.31
351.354	233.61
351.737	232.03
352.119	245.13
352.502	274.29
352.884	283.55
353.267	270.22
353.65	298.69
354.032	304.79
354.414	301.18
354.797	312.48
355.179	328.52
355.562	330.1
355.944	319.48
356.326	336.66
356.709	332.82
357.091	329.88
357.473	349.76
357.855	325.81
358.238	332.14
358.62	328.3
359.002	327.62
359.384	336.88
359.766	318.58
360.148	331.01
360.53	339.37
360.912	342.99
361.294	302.76
361.676	336.43
362.057	347.05
362.439	346.15
362.821	320.61
363.203	322.87
363.584	325.13
363.966	336.66
364.348	307.96
364.729	312.7
365.111	307.28
365.493	327.17
365.874	304.57
366.256	310.67
366.637	304.12
367.019	307.96
367.4	306.38
367.781	300.27
368.163	330.56
368.544	308.86
368.925	298.47
369.306	305.47
369.688	308.86
370.069	282.2
370.45	273.83
370.831	321.74
371.212	314.06
371.593	311.57
371.974	293.5
372.355	297.11
372.736	304.12
373.117	298.47
373.498	320.84
373.879	318.81
374.26	327.17
374.641	296.66
375.021	316.32
375.402	317.9
375.783	316.09
376.163	320.16
376.544	317.68
376.925	327.39
377.305	310.44
377.686	308.86
378.066	316.32
378.447	317.68
378.827	315.87
379.208	328.75
379.588	338.69
379.968	332.82
380.349	334.17
380.729	325.13
381.109	337.34
381.489	337.11
381.87	339.14
382.25	345.92
382.63	323.32
383.01	351.8
383.39	328.3
383.77	326.94
384.15	316.77
384.53	326.04
384.91	349.54
385.29	349.31
385.67	334.17
386.049	345.02
386.429	357.67
386.809	350.22
387.189	359.03
387.568	355.41
387.948	341.86
388.328	360.84
388.707	361.52
389.087	375.98
389.466	352.93
389.846	346.83
390.225	374.17
390.605	350.67
390.984	357.22
391.363	365.58
391.743	374.62
392.122	366.04
392.501	383.44
392.881	362.87
393.26	341.18
393.639	367.84
394.018	355.64
394.397	382.76
394.776	364.45
395.155	354.06
395.534	376.43
395.913	378.69
396.292	400.16
396.671	394.96
397.05	392.93
397.429	405.58
397.808	413.72
398.186	405.13
398.565	394.51
398.944	398.58
399.323	429.31
399.701	408.52
400.08	384.57
400.458	391.12
400.837	393.83
401.215	394.51
401.594	408.97
401.972	386.6
402.351	405.81
402.729	407.16
403.107	416.88
403.486	410.1
403.864	423.89
404.242	427.73
404.62	453.26
404.999	426.6
405.377	397.9
405.755	440.16
406.133	443.1
406.511	429.31
406.889	426.82
407.267	448.97
407.645	443.55
408.023	450.1
408.401	446.94
408.779	434.51
409.156	455.75
409.534	463.21
409.912	466.15
410.29	477.67
410.667	467.28
411.045	465.92
411.422	498.01
411.8	476.99
412.178	490.33
412.555	519.25
412.933	492.36
413.31	498.91
413.687	542.75
414.065	508.4
414.442	519.93
414.819	544.34
415.197	543.43
415.574	527.39
415.951	539.36
416.328	539.82
416.705	565.13
417.082	559.02
417.46	583.21
417.837	580.27
418.214	550.89
418.591	577.33
418.967	593.83
419.344	599.02
419.721	624.56
420.098	626.14
420.475	614.62
420.852	629.08
421.228	616.88
421.605	627.72
421.982	617.78
422.358	659.14
422.735	676.76
423.111	658.23
423.488	650.1
423.864	662.75
424.241	680.6
424.617	680.15
424.994	687.16
425.37	681.28
425.746	696.87
426.123	713.37
426.499	690.09
426.875	708.63
427.251	723.54
427.627	719.7
428.003	735.07
428.379	729.19
428.756	737.33
429.132	729.87
429.507	771.22
429.883	758.79
430.259	790.88
430.635	778
431.011	811
431.387	795.63
431.763	841.5
432.138	819.36
432.514	820.03
432.89	831.79
433.265	841.96
433.641	843.54
434.016	869.98
434.392	850.54
434.767	876.53
435.143	860.94
435.518	883.31
435.894	905.46
436.269	900.03
436.644	916.76
437.02	899.81
437.395	928.51
437.77	907.49
438.145	938.9
438.52	963.08
438.895	963.53
439.271	983.65
439.646	974.61
440.021	1001.27
440.395	990.43
440.77	986.58
441.145	999.92
441.52	1006.02
441.895	1021.39
442.27	1023.42
442.645	1018.22
443.019	1030.42
443.394	1028.17
443.769	1058.22
444.143	1033.59
444.518	1060.48
444.892	1038.56
445.267	1064.1
445.641	1054.83
446.016	1075.4
446.39	1107.49
446.764	1083.08
447.139	1045.34
447.513	1101.84
447.887	1068.16
448.262	1093.02
448.636	1083.3
449.01	1115.62
449.384	1089.63
449.758	1110.65
450.132	1106.36
450.506	1142.51
450.88	1124.43
451.254	1120.37
451.628	1150.42
452.002	1166.69
452.376	1142.96
452.75	1159.46
453.123	1157.2
453.497	1195.62
453.871	1188.84
454.244	1196.97
454.618	1219.35
454.992	1220.48
455.365	1241.72
455.739	1252.57
456.112	1250.53
456.486	1255.28
456.859	1255.5
457.232	1288.5
457.606	1276.52
457.979	1277.42
458.352	1276.07
458.725	1326.01
459.099	1334.37
459.472	1327.37
459.845	1345.67
460.218	1338.89
460.591	1344.09
460.964	1370.75
461.337	1411.88
461.71	1419.34
462.083	1401.49
462.456	1422.28
462.829	1431.09
463.201	1435.84
463.574	1448.04
463.947	1440.13
464.32	1462.28
464.692	1490.07
465.065	1506.12
465.438	1526.23
465.81	1510.86
466.183	1514.71
466.555	1548.15
466.928	1570.75
467.3	1561.48
467.672	1580.69
468.045	1605.55
468.417	1647.81
468.789	1623.4
469.161	1639.9
469.534	1720.8
469.906	1679.22
470.278	1713.34
470.65	1730.07
471.022	1710.18
471.394	1786.56
471.766	1809.16
472.138	1797.41
472.51	1834.25
472.882	1909.05
473.253	1885.09
473.625	1859.1
473.997	1924.86
474.369	1905.43
474.74	1908.82
475.112	1953.56
475.484	1996.05
475.855	2014.81
476.227	2014.35
476.598	2096.16
476.97	2093.22
477.341	2105.65
477.713	2145.2
478.084	2152.43
478.455	2190.85
478.827	2225.2
479.198	2248.7
479.569	2268.81
479.94	2307.23
480.311	2396.72
480.682	2371.63
481.053	2378.19
481.424	2473.55
481.795	2482.14
482.166	2504.28
482.537	2504.28
482.908	2547.67
483.279	2582.25
483.65	2590.84
484.021	2675.35
484.391	2693.43
484.762	2695.24
485.133	2710.61
485.503	2746.09
485.874	2814.56
486.244	2825.18
486.615	2870.15
486.985	2853.2
487.356	2914.22
487.726	2955.12
488.097	3009.81
488.467	3006.64
488.837	3043.25
489.207	3124.38
489.578	3123.48
489.948	3132.74
490.318	3185.85
490.688	3220.65
491.058	3258.16
491.428	3272.85
491.798	3304.04
492.168	3339.29
492.538	3353.98
492.908	3387.88
493.278	3432.17
493.648	3474.43
494.017	3455.22
494.387	3487.54
494.757	3512.85
495.126	3572.05
495.496	3526.18
495.866	3579.06
496.235	3620.41
496.605	3656.12
496.974	3659.06
497.344	3673.75
497.713	3698.6
498.082	3733.18
498.452	3754.87
498.821	3751.71
499.19	3796.23
499.559	3819.28
499.928	3854.08
500.298	3817.02
500.667	3836
501.036	3893.4
501.405	3890.69
501.774	3906.96
502.143	3944.7
502.512	3942.21
502.88	3995.32
503.249	3968.43
503.618	4005.94
503.987	3998.26
504.356	4074.86
504.724	4042.1
505.093	4011.14
505.462	4038.71
505.83	4101.53
506.199	4122.77
506.567	4172.72
506.936	4138.82
507.304	4208.87
507.672	4180.85
508.041	4208.42
508.409	4206.39
508.777	4259.27
509.145	4308.53
509.514	4289.55
509.882	4283.22
510.25	4311.92
510.618	4323.45
510.986	4299.27
511.354	4353.5
511.722	4395.76
512.09	4431.24
512.458	4404.12
512.826	4468.07
513.193	4446.15
513.561	4461.3
513.929	4449.77
514.297	4477.57
514.664	4469.66
515.032	4512.14
515.4	4546.04
515.767	4542.65
516.135	4571.57
516.502	4521.18
516.869	4548.75
517.237	4588.07
517.604	4586.94
517.972	4603.21
518.339	4647.73
518.706	4636.21
519.073	4705.13
519.44	4669.65
519.808	4698.58
520.175	4684.57
520.542	4721.63
520.909	4732.93
521.276	4798.01
521.643	4795.98
522.009	4783.32
522.376	4826.26
522.743	4848.86
523.11	4855.41
523.477	4945.58
523.843	4923.43
524.21	4960.04
524.577	4992.81
524.943	4968.63
525.31	5022.86
525.676	5076.19
526.043	5098.79
526.409	5059.25
526.776	5154.61
527.142	5153.48
527.508	5152.12
527.874	5215.17
528.241	5247.49
528.607	5210.2
528.973	5277.54
529.339	5258.56
529.705	5312.12
530.071	5367.71
530.437	5354.6
530.803	5435.73
531.169	5451.33
531.535	5388.73
531.901	5444.32
532.267	5542.17
532.632	5517.31
532.998	5545.56
533.364	5546.01
533.73	5556.63
534.095	5610.64
534.461	5609.51
534.826	5663.75
535.192	5644.54
535.557	5670.53
535.923	5729.06
536.288	5734.03
536.653	5786.68
537.019	5781.94
537.384	5773.13
537.749	5811.54
538.114	5821.94
538.479	5849.96
538.845	5870.3
539.21	5863.29
539.575	5897.42
539.94	5927.47
540.305	5989.84
540.67	5935.83
541.034	6016.51
541.399	6050.63
541.764	6052.21
542.129	6080.69
542.494	6082.72
542.858	6082.04
543.223	6142.61
543.587	6169.72
543.952	6173.57
544.316	6204.98
544.681	6223.51
545.045	6252.89
545.41	6315.94
545.774	6264.64
546.138	6311.42
546.503	6377.18
546.867	6364.52
547.231	6435.71
547.595	6394.8
547.959	6450.62
548.324	6426.89
548.688	6495.59
549.052	6566.1
549.416	6539.21
549.779	6506.21
550.143	6554.8
550.507	6588.7
550.871	6630.28
551.235	6634.8
551.599	6672.54
551.962	6732.65
552.326	6672.76
552.689	6740.11
553.053	6757.96
553.417	6719.54
553.78	6877.05
554.143	6808.13
554.507	6818.07
554.87	6874.79
555.234	6852.64
555.597	6850.38
555.96	6864.17
556.323	6922.93
556.686	6897.39
557.05	7021
557.413	7000.66
557.776	7015.13
558.139	7087.67
558.502	7048.57
558.865	7053.54
559.228	7133.32
559.59	7124.05
559.953	7147.1
560.316	7216.02
560.679	7236.14
561.041	7269.81
561.404	7269.58
561.767	7295.57
562.129	7290.6
562.492	7357.04
562.854	7294.21
563.217	7367.21
563.579	7344.16
563.941	7413.31
564.304	7509.12
564.666	7489.01
565.028	7481.78
565.39	7523.81
565.753	7491.5
566.115	7586.86
566.477	7604.26
566.839	7688.33
567.201	7715.9
567.563	7644.04
567.925	7668.89
568.287	7712.74
568.648	7743.02
569.01	7813.3
569.372	7863.47
569.734	7848.55
570.095	7907.08
570.457	7919.51
570.819	7965.84
571.18	7986.4
571.542	7990.02
571.903	8051.03
572.265	8138.49
572.626	8150.46
572.987	8204.7
573.349	8208.32
573.71	8296
574.071	8319.5
574.432	8392.94
574.794	8480.85
575.155	8508.42
575.516	8505.03
575.877	8538.93
576.238	8623.45
576.599	8719.26
576.96	8796.32
577.32	8817.11
577.681	8982.08
578.042	9032.25
578.403	9109.76
578.763	9116.77
579.124	9247.84
579.485	9366.02
579.845	9464.33
580.206	9549.75
580.566	9619.13
580.927	9759.23
581.287	9884.66
581.648	9981.15
582.008	10158.77
582.368	10267.47
582.728	10434.02
583.089	10511.76
583.449	10616.16
583.809	10827.46
584.169	11040.33
584.529	11197.84
584.889	11449.36
585.249	11453.43
585.609	11626.08
585.969	11939.06
586.329	12092.51
586.688	12388.77
587.048	12520.29
587.408	12847.52
587.768	12929.77
588.127	13119.6
588.487	13435.52
588.846	13789.19
589.206	13822.86
589.565	14070.08
589.925	14468.26
590.284	14580.35
590.643	14889.04
591.003	15145.76
591.362	15550.5
591.721	15735.8
592.08	16043.14
592.44	16307.76
592.799	16618.26
593.158	16732.61
593.517	17142.32
593.876	17486.26
594.235	17622.08
594.593	18015.52
594.952	18307.71
595.311	18535.28
595.67	18831.54
596.029	19275.37
596.387	19559.66
596.746	19840.55
597.104	19964.16
597.463	20235.8
597.822	20763.92
598.18	20917.36
598.538	21251.36
598.897	21572.26
599.255	21612.71
599.613	22283.43
599.972	22439.35
600.33	22723.64
600.688	22979
601.046	23285.88
601.404	23655.59
601.762	23824.18
602.12	24210.83
602.478	24416.02
602.836	24774.66
603.194	24806.75
603.552	25128.1
603.91	25366.96
604.268	25768.98
604.625	25853.95
604.983	26231.57
605.341	26273.15
605.698	26686.7
606.056	27026.58
606.413	27202.39
606.771	27654.13
607.128	27761.7
607.485	28030.17
607.843	28234.46
608.2	28530.27
608.557	28799.64
608.914	28920.76
609.272	29202.34
609.629	29427.87
609.986	29916.22
610.343	29868.76
610.7	30262.2
611.057	30436.43
611.414	30572.92
611.771	30772.69
612.127	31016.08
612.484	31172.46
612.841	31375.39
613.198	31461.04
613.554	31665.33
613.911	31929.5
614.267	32075.94
614.624	32221.24
614.98	32519.99
615.337	32747.78
615.693	32884.5
616.05	32868.91
616.406	33227.32
616.762	33272.51
617.118	33361.78
617.475	33495.11
617.831	33757.47
618.187	33978.49
618.543	34070.46
618.899	34305.03
619.255	34377.34
619.611	34573.72
619.967	34769.42
620.323	34725.13
620.678	34858.01
621.034	34918.12
621.39	35095.74
621.746	35081.96
622.101	35582.06
622.457	35448.95
622.812	35620.02
623.168	35745.67
623.523	35855.95
623.879	35953.8
624.234	35889.17
624.589	36057.07
624.945	36130.29
625.3	36305.66
625.655	36260.68
626.01	36491.87
626.365	36489.83
626.72	36503.62
627.075	36510.85
627.43	36646.44
627.785	36680.33
628.14	36603.05
628.495	36890.72
628.85	36789.48
629.205	36732.99
629.559	37070.83
629.914	37036.26
630.269	37040.1
630.623	37051.4
630.978	36999.2
631.332	37216.82
631.687	37277.83
632.041	37117.84
632.396	37367.55
632.75	37183.37
633.104	37457.26
633.459	37331.17
633.813	37301.56
634.167	37206.87
634.521	37327.1
634.875	37455.68
635.229	37417.94
635.583	37204.39
635.937	37308.79
636.291	37265.18
636.645	37360.09
636.999	37328
637.352	37455
637.706	37202.58
638.06	37327.55
638.413	37262.69
638.767	37321
639.121	37255.46
639.474	37078.74
639.828	37287.32
640.181	37294.1
640.534	37302.92
640.888	37145.63
641.241	37106.99
641.594	37205.52
641.947	37267.21
642.301	37340.43
642.654	37210.26
643.007	37217.04
643.36	37242.13
643.713	37118.97
644.066	37249.13
644.419	37073.09
644.771	36875.13
645.124	36572.99
645.477	36553.33
645.83	36249.39
646.182	36264.07
646.535	36229.95
646.888	36188.6
647.24	36061.82
647.593	36194.02
647.945	36173.68
648.298	36055.04
648.65	35968.04
649.002	35935.72
649.355	36221.59
649.707	36083.97
650.059	36236.05
650.411	36589.04
650.763	36536.84
651.115	36886.43
651.467	36909.71
651.819	36972.08
652.171	36776.38
652.523	36725.53
652.875	36822.93
653.227	36625.42
653.578	36926.2
653.93	36589.94
654.282	36546.1
654.633	36609.83
654.985	36673.1
655.337	36675.36
655.688	36700.9
656.039	36845.53
656.391	36350.17
656.742	36565.99
657.094	36536.61
657.445	36598.98
657.796	36584.52
658.147	36403.51
658.498	36408.48
658.849	36578.87
659.2	36491.41
659.551	36433.34
659.902	36479.21
660.253	36593.56
660.604	36505.2
660.955	36445.54
661.306	36602.37
661.656	36456.16
662.007	36437.63
662.358	36424.3
662.708	36480.79
663.059	36448.7
663.409	36307.01
663.76	36551.52
664.11	36515.82
664.461	36500.45
664.811	36578.64
665.161	36464.3
665.511	36429.72
665.862	36566.44
666.212	36577.29
666.562	36538.42
666.912	36349.04
667.262	36376.84
667.612	36405.99
667.962	36425.65
668.312	36355.15
668.662	36530.28
669.011	36375.26
669.361	36414.58
669.711	36293.9
670.06	36211.42
670.41	36223.4
670.76	36307.01
671.109	36444.86
671.459	36287.58
671.808	36260.46
672.157	36269.72
672.507	36050.07
672.856	36194.25
673.205	36114.93
673.554	36145.43
673.904	36074.93
674.253	36255.49
674.602	36142.72
674.951	35775.95
675.3	35452.12
675.649	36104.98
675.998	36005.78
676.346	36009.39
676.695	36304.3
677.044	35882.62
677.393	35829.06
677.741	35998.32
678.09	35932.11
678.438	35774.37
678.787	35959
679.135	35951.99
679.484	35784.31
679.832	35751.09
680.181	35573.02
680.529	35799
680.877	35612.79
681.225	35593.13
681.573	35740.47
681.922	35509.97
682.27	35573.7
682.618	35391.33
682.966	35490.31
683.314	35469.52
683.661	35354.27
684.009	35116.31
684.357	35136.65
684.705	35180.26
685.053	35138
685.4	35137.1
685.748	34914.05
686.095	34901.62
686.443	34794.96
686.79	34848.29
687.138	34786.37
687.485	34896.2
687.832	34685.81
688.18	34696.21
688.527	34503.9
688.874	34430
689.221	34469.77
689.568	34327.4
689.915	34352.03
690.262	34218.93
690.609	34182.32
690.956	33999.28
691.303	34004.02
691.65	33920.18
691.997	34006.96
692.344	33543.92
692.69	33673.18
693.037	33760.86
693.383	33452.62
693.73	33509.12
694.077	33376.69
694.423	33511.15
694.769	33317.49
695.116	33206.3
695.462	33137.38
695.808	32997.27
696.155	33135.8
696.501	32887.21
696.847	32847.89
697.193	32529.94
697.539	32837.27
697.885	32446.55
698.231	32335.36
698.577	32464.85
698.923	32346.89
699.269	32171.75
699.614	31970.63
699.96	32102.15
700.306	32085.2
700.651	31842.04
700.997	31696.74
701.342	31817.41
701.688	31744.19
702.033	31625.1
702.379	31596.4
702.724	31495.61
703.069	31586.01
703.415	31230.99
703.76	31164.77
704.105	31118.45
704.45	31139.69
704.795	30994.61
705.14	30783.54
705.485	30897.21
705.83	30591.46
706.175	30806.82
706.52	30582.42
706.865	30563.21
707.209	30453.61
707.554	30430.56
707.899	30500.16
708.243	30275.08
708.588	30358.47
708.932	30124.12
709.277	30028.76
709.621	30064.92
709.966	29838.25
710.31	29943.11
710.654	29777.01
710.998	29805.94
711.342	29745.15
711.687	29708.31
712.031	29547.19
712.375	29467.87
712.719	29558.94
713.063	29433.97
713.407	29484.37
713.75	29269.46
714.094	29352.17
714.438	29239.63
714.782	29201.66
715.125	29099.29
715.469	29125.28
715.812	29002.57
716.156	28751.96
716.499	28804.16
716.843	28877.83
717.186	28704.05
717.53	28817.04
717.873	28761.9
718.216	28724.61
718.559	28548.57
718.902	28362.59
719.246	28531.17
719.589	28332.53
719.932	28259.77
720.275	28389.93
720.617	28337.96
720.96	28158.98
721.303	28142.25
721.646	28177.73
721.989	27888.7
722.331	28055.25
722.674	28037.85
723.016	27957.63
723.359	27899.55
723.701	27870.62
724.044	27689.84
724.386	27726.67
724.729	27835.14
725.071	27718.76
725.413	27711.98
725.755	27570.52
726.097	27525.1
726.439	27389.73
726.782	27390.86
727.124	27576.62
727.465	27323.29
727.807	27229.74
728.149	27217.31
728.491	27200.13
728.833	27372.33
729.175	27242.84
729.516	27063.64
729.858	27123.07
730.199	27131.66
730.541	27049.4
730.882	26978.9
731.224	26955.17
731.565	26904.32
731.906	26875.85
732.248	26924.21
732.589	26743.65
732.93	26632.24
733.271	26700.03
733.612	26632.69
733.953	26646.93
734.294	26495.29
734.635	26436.76
734.976	26525.8
735.317	26500.26
735.658	26382.53
735.999	26368.29
736.339	26345.69
736.68	26394.96
737.021	26296.2
737.361	26094.4
737.702	26212.59
738.042	26134.17
738.383	26046.72
738.723	26138.69
739.063	26004.68
739.404	26068.41
739.744	25973.27
740.084	25991.8
740.424	25912.48
740.764	25897.57
741.104	25888.3
741.444	25738.25
741.784	25710.45
742.124	25816.44
742.464	25765.59
742.804	25824.8
743.143	25578.48
743.483	25673.17
743.823	25625.48
744.162	25498.71
744.502	25482.44
744.841	25279.28
745.181	25491.93
745.52	25454.87
745.86	25389.33
746.199	25258.71
746.538	25228.43
746.877	25304.59
747.216	25270.24
747.556	25166.51
747.895	25161.32
748.234	25090.58
748.573	25002.68
748.911	25014.65
749.25	25003.58
749.589	24853.98
749.928	24917.03
750.267	24882.45
750.605	24777.82
750.944	24748.9
751.283	24558.39
751.621	24688.79
751.96	24662.35
752.298	24635.23
752.636	24530.37
752.975	24416.02
753.313	24296.03
753.651	24429.58
753.989	24273.2
754.327	24249.48
754.666	24116.15
755.004	24241.57
755.342	24030.95
755.679	24119.76
756.017	23972.42
756.355	24018.97
756.693	23959.77
757.031	23930.16
757.368	23797.28
757.706	23796.38
758.044	23607.68
758.381	23687
758.719	23621.92
759.056	23677.06
759.394	23524.52
759.731	23439.78
760.068	23406.11
760.405	23323.17
