Data from hue_290_FLMS001491_00036.txt Node
Date: Tue Feb 07 15:52:40 GMT 2017
User: dcchb
Spectrometer: FLMS00149
Trigger mode: 0
Integration Time (sec): 2.000000E-2
Scans to average: 10
Electric dark correction enabled: true
Nonlinearity correction enabled: false
Boxcar width: 0
XAxis mode: Wavelengths
Number of Pixels in Spectrum: 2048
>>>>>Begin Spectral Data<<<<<
341.393	-24.26
341.776	-24.26
342.16	-24.26
342.543	-58.16
342.927	-54.77
343.31	-55.68
343.693	-62.46
344.077	-56.58
344.46	-73.3
344.843	-51.16
345.226	-52.96
345.61	-23.13
345.993	-18.62
346.376	-12.97
346.759	27.03
347.142	17.99
347.525	53.25
347.908	60.48
348.291	65
348.674	87.82
349.057	95.28
349.44	128.5
349.823	141.83
350.206	160.36
350.588	196.75
350.971	209.4
351.354	214.37
351.737	228.38
352.119	239.01
352.502	243.3
352.884	269.51
353.267	259.12
353.65	271.32
354.032	301.6
354.414	300.7
354.797	295.05
355.179	293.01
355.562	302.05
355.944	323.97
356.326	330.53
356.709	338.66
357.091	319.45
357.473	345.44
357.855	318.55
358.238	331.21
358.62	300.25
359.002	328.27
359.384	328.49
359.766	343.86
360.148	310.19
360.53	336.18
360.912	341.83
361.294	333.24
361.676	320.36
362.057	317.87
362.439	343.18
362.821	318.78
363.203	324.43
363.584	324.65
363.966	327.82
364.348	332.79
364.729	310.19
365.111	313.35
365.493	321.94
365.874	311.55
366.256	328.49
366.637	291.21
367.019	306.57
367.4	304.99
367.781	296.18
368.163	314.48
368.544	280.81
368.925	312
369.306	314.48
369.688	301.6
370.069	307.03
370.45	301.6
370.831	297.08
371.212	298.66
371.593	309.06
371.974	335.5
372.355	290.76
372.736	295.95
373.117	311.09
373.498	310.64
373.879	318.32
374.26	295.73
374.641	308.16
375.021	308.38
375.402	327.82
375.783	318.32
376.163	300.7
376.544	317.65
376.925	322.62
377.305	324.2
377.686	330.53
378.066	326.91
378.447	337.31
378.827	319
379.208	314.71
379.588	344.76
379.968	334.82
380.349	330.53
380.729	318.55
381.109	348.15
381.489	340.92
381.87	335.05
382.25	323.97
382.63	317.42
383.01	340.7
383.39	336.86
383.77	349.96
384.15	323.07
384.53	346.35
384.91	343.86
385.29	328.95
385.67	359
386.049	352.45
386.429	336.18
386.809	347.25
387.189	339.79
387.568	346.35
387.948	338.44
388.328	337.31
388.707	347.25
389.087	359.45
389.466	340.7
389.846	364.88
390.225	365.1
390.605	353.35
390.984	370.75
391.363	354.71
391.743	372.33
392.122	362.62
392.501	384.31
392.881	367.59
393.26	390.41
393.639	367.14
394.018	372.56
394.397	384.76
394.776	392
395.155	384.76
395.534	378.89
395.913	372.79
396.292	408.04
396.671	388.15
397.05	392
397.429	379.57
397.808	366.46
398.186	374.37
398.565	387.7
398.944	392
399.323	405.55
399.701	398.77
400.08	380.7
400.458	410.53
400.837	416.18
401.215	410.3
401.594	415.72
401.972	425.44
402.351	409.17
402.729	423.41
403.107	418.21
403.486	417.31
403.864	430.41
404.242	431.54
404.62	418.44
404.999	440.13
405.377	455.5
405.755	424.54
406.133	465.67
406.511	448.04
406.889	458.43
407.267	448.72
407.645	457.08
408.023	488.49
408.401	466.12
408.779	484.2
409.156	478.55
409.534	488.49
409.912	482.61
410.29	511.09
410.667	513.8
411.045	480.58
411.422	510.41
411.8	506.34
412.178	535.95
412.555	547.25
412.933	523.74
413.31	550.86
413.687	541.14
414.065	586.11
414.442	587.47
414.819	561.26
415.197	593.12
415.574	601.48
415.951	613.01
416.328	624.08
416.705	602.39
417.082	608.94
417.46	612.1
417.837	653.91
418.214	657.53
418.591	672.67
418.967	664.53
419.344	663.85
419.721	673.34
420.098	670.63
420.475	690.52
420.852	695.04
421.228	712.66
421.605	705.66
421.982	727.13
422.358	731.42
422.735	731.42
423.111	758.31
423.488	753.79
423.864	767.58
424.241	771.42
424.617	778.65
424.994	789.27
425.37	803.28
425.746	800.35
426.123	829.5
426.499	843.28
426.875	825.88
427.251	854.58
427.627	877.86
428.003	861.81
428.379	861.81
428.756	881.93
429.132	913.56
429.507	914.47
429.883	922.38
430.259	931.19
430.635	940.46
431.011	959.21
431.387	965.54
431.763	992.88
432.138	992.66
432.514	1010.74
432.89	1011.64
433.265	1041.02
433.641	1022.26
434.016	1066.33
434.392	1060
434.767	1076.5
435.143	1095.93
435.518	1102.71
435.894	1128.93
436.269	1117.17
436.644	1164.4
437.02	1152.2
437.395	1170.96
437.77	1163.73
438.145	1205.76
438.52	1192.88
438.895	1227.45
439.271	1219.32
439.646	1249.83
440.021	1221.8
440.395	1254.8
440.77	1243.95
441.145	1263.16
441.52	1300.9
441.895	1276.27
442.27	1299.09
442.645	1299.54
443.019	1315.81
443.394	1293.89
443.769	1332.31
444.143	1335.25
444.518	1323.95
444.892	1346.32
445.267	1361.69
445.641	1380.44
446.016	1358.52
446.39	1392.87
446.764	1382.48
447.139	1370.95
447.513	1385.87
447.887	1400.33
448.262	1379.77
448.636	1395.58
449.01	1406.21
449.384	1421.8
449.758	1438.3
450.132	1432.19
450.506	1455.24
450.88	1442.82
451.254	1447.11
451.628	1466.54
452.002	1488.69
452.376	1512.42
452.75	1489.14
453.123	1506.54
453.497	1525.75
453.871	1553.09
454.244	1538.63
454.618	1563.04
454.992	1567.33
455.365	1580.89
455.739	1597.16
456.112	1594.45
456.486	1608.46
456.859	1645.07
457.232	1640.78
457.606	1658.85
457.979	1686.2
458.352	1735.01
458.725	1696.37
459.099	1704.96
459.472	1728.91
459.845	1705.86
460.218	1741.79
460.591	1789.25
460.964	1775.01
461.337	1819.98
461.71	1833.54
462.083	1856.14
462.456	1849.13
462.829	1848.45
463.201	1880.09
463.574	1832.18
463.947	1839.87
464.32	1920.99
464.692	1913.31
465.065	1926.42
465.438	1939.75
465.81	1983.59
466.183	1986.08
466.555	2020.2
466.928	2060.2
467.3	2036.92
467.672	2064.95
468.045	2081.44
468.417	2122.8
468.789	2068.56
469.161	2105.4
469.534	2158.28
469.906	2161.44
470.278	2186.52
470.65	2208.67
471.022	2207.99
471.394	2259.97
471.766	2287.31
472.138	2297.48
472.51	2342
472.882	2350.14
473.253	2360.08
473.625	2364.15
473.997	2423.81
474.369	2437.59
474.74	2470.13
475.112	2495.67
475.484	2527.76
475.855	2544.26
476.227	2583.12
476.598	2630.13
476.97	2602.56
477.341	2716.45
477.713	2711.71
478.084	2727.53
478.455	2749.67
478.827	2803.01
479.198	2848.88
479.569	2871.25
479.94	2898.14
480.311	2918.48
480.682	2976.11
481.053	3021.98
481.424	3079.61
481.795	3057.24
482.166	3086.61
482.537	3151.02
482.908	3182.2
483.279	3165.26
483.65	3232.82
484.021	3290.9
484.391	3333.16
484.762	3308.3
485.133	3299.04
485.503	3361.41
485.874	3429.43
486.244	3486.38
486.615	3479.15
486.985	3521.86
487.356	3582.19
487.726	3545.36
488.097	3654.51
488.467	3701.29
488.837	3726.6
489.207	3745.58
489.578	3736.77
489.948	3802.75
490.318	3848.18
490.688	3860.83
491.058	3927.5
491.428	3859.47
491.798	3953.48
492.168	4014.72
492.538	4049.98
492.908	4066.93
493.278	4098.56
493.648	4065.35
494.017	4176.75
494.387	4184.66
494.757	4196.87
495.126	4180.6
495.496	4244.55
495.866	4282.74
496.235	4277.77
496.605	4328.84
496.974	4357.99
497.344	4339.69
497.713	4366.81
498.082	4384.43
498.452	4398.67
498.821	4470.31
499.19	4437.09
499.559	4478.67
499.928	4509.85
500.298	4462.85
500.667	4538.1
501.036	4535.62
501.405	4611.32
501.774	4595.27
502.143	4598.89
502.512	4661.04
502.88	4631.88
503.249	4619
503.618	4640.7
503.987	4719.57
504.356	4695.61
504.724	4734.25
505.093	4760.02
505.462	4771.54
505.83	4774.25
506.199	4765.89
506.567	4827.36
506.936	4843.86
507.304	4901.93
507.672	4861.48
508.041	4866.23
508.409	4933.34
508.777	4925.44
509.145	4941.93
509.514	4980.58
509.882	4939.9
510.25	4969.95
510.618	5009.73
510.986	5011.99
511.354	5050.18
511.722	5042.72
512.09	5077.07
512.458	5063.74
512.826	5156.16
513.193	5098.54
513.561	5094.24
513.929	5158.2
514.297	5182.38
514.664	5187.12
515.032	5203.62
515.4	5253.34
515.767	5200.23
516.135	5264.41
516.502	5196.16
516.869	5305.99
517.237	5273.9
517.604	5280.68
517.972	5298.08
518.339	5338.76
518.706	5324.52
519.073	5309.61
519.44	5380.56
519.808	5398.87
520.175	5375.82
520.542	5407.46
520.909	5417.85
521.276	5462.82
521.643	5496.27
522.009	5541.01
522.376	5489.49
522.743	5500.79
523.11	5522.48
523.477	5606.77
523.843	5642.93
524.21	5668.92
524.577	5709.6
524.943	5696.71
525.31	5759.99
525.676	5767.67
526.043	5742.14
526.409	5818.97
526.776	5815.58
527.142	5834.34
527.508	5843.38
527.874	5895.35
528.241	5908.01
528.607	5935.13
528.973	5981
529.339	5949.59
529.705	5976.26
530.071	6016.03
530.437	6031.62
530.803	6068.68
531.169	6073.65
531.535	6135.35
531.901	6127.21
532.267	6159.53
532.632	6151.17
532.998	6199.75
533.364	6232.97
533.73	6251.95
534.095	6293.99
534.461	6260.09
534.826	6347.54
535.192	6299.64
535.557	6329.01
535.923	6350.48
536.288	6376.92
536.653	6363.36
537.019	6351.84
537.384	6415.79
537.749	6384.15
538.114	6417.83
538.479	6454.43
538.845	6486.07
539.21	6489.24
539.575	6478.39
539.94	6568.78
540.305	6536.01
540.67	6524.26
541.034	6584.6
541.399	6588.67
541.764	6579.4
542.129	6642.45
542.494	6617.37
542.858	6640.19
543.223	6656.46
543.587	6741.43
543.952	6691.26
544.316	6750.25
544.681	6718.61
545.045	6794.54
545.41	6811.71
545.774	6804.03
546.138	6814.88
546.503	6849.45
546.867	6865.27
547.231	6860.53
547.595	6835.22
547.959	6941.43
548.324	6930.81
548.688	6941.2
549.052	6979.84
549.416	6952.05
549.779	6977.58
550.143	6962.67
550.507	6996.34
550.871	7012.61
551.235	7015.1
551.599	7052.84
551.962	7053.06
552.326	7083.12
552.689	7121.54
553.053	7082.67
553.417	7067.07
553.78	7190.91
554.143	7134.87
554.507	7211.93
554.87	7156.34
555.234	7171.93
555.597	7180.29
555.96	7239.5
556.323	7334.86
556.686	7191.59
557.05	7373.96
557.413	7324.24
557.776	7313.62
558.139	7332.83
558.502	7372.6
558.865	7333.96
559.228	7413.28
559.59	7399.27
559.953	7454.18
560.316	7475.88
560.679	7456.22
561.041	7474.07
561.404	7577.57
561.767	7537.34
562.129	7588.87
562.492	7670.67
562.854	7599.72
563.217	7603.56
563.579	7650.11
563.941	7700.73
564.304	7715.87
564.666	7749.54
565.028	7766.94
565.39	7784.57
565.753	7791.57
566.115	7801.52
566.477	7880.61
566.839	7881.52
567.201	7872.93
567.563	7931.23
567.925	8004.45
568.287	7931.46
568.648	8007.16
569.01	7987.28
569.372	8096.2
569.734	8053.49
570.095	8146.37
570.457	8100.27
570.819	8135.07
571.18	8166.48
571.542	8239.25
571.903	8236.08
572.265	8270.43
572.626	8252.13
572.987	8345.46
573.349	8353.37
573.71	8383.2
574.071	8348.17
574.432	8501.84
574.794	8583.87
575.155	8614.6
575.516	8564.44
575.877	8646.24
576.238	8665.45
576.599	8694.15
576.96	8715.84
577.32	8793.81
577.681	8869.74
578.042	8935.5
578.403	8893.47
578.763	8977.31
579.124	9079.45
579.485	9160.35
579.845	9233.12
580.206	9272.67
580.566	9351.53
580.927	9369.39
581.287	9473.11
581.648	9486.9
582.008	9607.12
582.368	9690.51
582.728	9784.74
583.089	9859.54
583.449	9984.74
583.809	10088.92
584.169	10195.81
584.529	10218.18
584.889	10430.15
585.249	10486.19
585.609	10548.34
585.969	10688.22
586.329	10764.83
586.688	10898.39
587.048	10992.62
587.408	11101.09
587.768	11274.87
588.127	11336.11
588.487	11399.62
588.846	11683.68
589.206	11655.65
589.565	11852.26
589.925	11972.71
590.284	12137.68
590.643	12274.62
591.003	12394.62
591.362	12568.4
591.721	12629.87
592.08	12793.48
592.44	12949.18
592.799	13077.76
593.158	13289.06
593.517	13390.3
593.876	13403.18
594.235	13544.42
594.593	13702.15
594.952	13907.8
595.311	13936.5
595.67	14259.2
596.029	14421.46
596.387	14509.36
596.746	14659.42
597.104	14725.18
597.463	14904.38
597.822	14992.52
598.18	15025.06
598.538	15256.01
598.897	15446.74
599.255	15394.09
599.613	15707.75
599.972	15681.76
600.33	15916.78
600.688	15888.54
601.046	16138.7
601.404	16218.02
601.762	16361.74
602.12	16501.85
602.478	16572.36
602.836	16722.19
603.194	16722.64
603.552	16840.6
603.91	16939.13
604.268	17054.83
604.625	17044.89
604.983	17249.41
605.341	17229.97
605.698	17427.93
606.056	17488.27
606.413	17614.14
606.771	17747.47
607.128	17852.55
607.485	17776.62
607.843	17920.57
608.2	18028.82
608.557	18208.48
608.914	18152.88
609.272	18341.13
609.629	18336.83
609.986	18555.81
610.343	18476.94
610.7	18691.4
611.057	18746.09
611.414	18740.67
611.771	18902.24
612.127	19055.91
612.484	19049.58
612.841	19102.69
613.198	19143.82
613.554	19173.65
613.911	19301.55
614.267	19293.65
614.624	19358.73
614.98	19516.46
615.337	19670.36
615.693	19570.25
616.05	19667.87
616.406	19835.78
616.762	19627.2
617.118	19850.92
617.475	19833.29
617.831	19884.59
618.187	20017.47
618.543	19980.86
618.899	20078.26
619.255	20150.35
619.611	20195.54
619.967	20316.67
620.323	20284.13
620.678	20208.65
621.034	20301.75
621.39	20293.62
621.746	20357.57
622.101	20485.7
622.457	20470.34
622.812	20492.48
623.168	20614.06
623.523	20605.25
623.879	20689.77
624.234	20612.03
624.589	20751.69
624.945	20750.33
625.3	20810.22
625.655	20718.92
626.01	20844.11
626.365	20809.76
626.72	20937.67
627.075	20872.36
627.43	20866.49
627.785	20740.61
628.14	20878.24
628.495	20919.37
628.85	20885.92
629.205	20889.99
629.559	20965.69
629.914	20791.46
630.269	20955.97
630.623	20940.83
630.978	20807.28
631.332	20866.26
631.687	20932.25
632.041	20895.64
632.396	20918.46
632.75	20756.66
633.104	20839.59
633.459	20721.18
633.813	20776.32
634.167	20857.45
634.521	20789.65
634.875	20782.65
635.229	20779.03
635.583	20686.15
635.937	20706.04
636.291	20759.82
636.645	20819.25
636.999	20745.81
637.352	20802.98
637.706	20603.44
638.06	20782.87
638.413	20727.28
638.767	20604.35
639.121	20690.9
639.474	20478.7
639.828	20615.42
640.181	20615.42
640.534	20725.7
640.888	20723.66
641.241	20529.54
641.594	20611.35
641.947	20614.06
642.301	20597.34
642.654	20560.5
643.007	20671.46
643.36	20609.77
643.713	20469.43
644.066	20589.2
644.419	20575.19
644.771	20380.62
645.124	20146.28
645.477	20055.89
645.83	20012.72
646.182	19944.7
646.535	19874.87
646.888	19998.03
647.24	19933.63
647.593	20008.43
647.945	19981.08
648.298	19886.4
648.65	19835.78
649.002	19806.63
649.355	20029.45
649.707	19838.49
650.059	19965.72
650.411	20232.15
650.763	20269.44
651.115	20490.22
651.467	20403.45
651.819	20411.36
652.171	20391.7
652.523	20333.39
652.875	20321.41
653.227	20300.62
653.578	20374.29
653.93	20340.85
654.282	20323.45
654.633	20205.03
654.985	20346.05
655.337	20416.55
655.688	20427.4
656.039	20466.27
656.391	20273.05
656.742	20341.3
657.094	20334.3
657.445	20438.02
657.796	20277.12
658.147	20360.96
658.498	20368.19
658.849	20459.04
659.2	20304.69
659.551	20323.22
659.902	20422.2
660.253	20391.47
660.604	20390.57
660.955	20199.61
661.306	20389.44
661.656	20499.04
662.007	20347.85
662.358	20388.53
662.708	20399.38
663.059	20600.28
663.409	20322.77
663.76	20554.63
664.11	20510.56
664.461	20420.17
664.811	20461.07
665.161	20502.2
665.511	20332.26
665.862	20427.63
666.212	20505.59
666.562	20477.12
666.912	20615.87
667.262	20530
667.612	20444.12
667.962	20462.43
668.312	20501.75
668.662	20564.35
669.011	20515.99
669.361	20539.71
669.711	20468.3
670.06	20340.85
670.41	20370
670.76	20428.76
671.109	20467.63
671.459	20379.94
671.808	20377.68
672.157	20396.67
672.507	20405.48
672.856	20347.85
673.205	20287.74
673.554	20323.67
673.904	20252.04
674.253	20450.9
674.602	20300.85
674.951	20072.38
675.3	19880.75
675.649	20176.56
675.998	20177.46
676.346	20261.76
676.695	20360.51
677.044	20107.18
677.393	20162.55
677.741	20183.79
678.09	20188.76
678.438	20033.74
678.787	20211.36
679.135	20088.65
679.484	20077.35
679.832	20054.3
680.181	20096.56
680.529	20053.85
680.877	19954.42
681.225	19920.97
681.573	20103.12
681.922	19844.14
682.27	19804.59
682.618	19869.22
682.966	19734.54
683.314	19769.56
683.661	19727.76
684.009	19623.58
684.357	19590.13
684.705	19558.72
685.053	19591.26
685.4	19477.14
685.748	19475.56
686.095	19418.39
686.443	19356.02
686.79	19267.66
687.138	19363.47
687.485	19254.55
687.832	19289.35
688.18	19378.16
688.527	19130.94
688.874	19120.77
689.221	19059.98
689.568	19019.3
689.915	18937.27
690.262	18940.43
690.609	18879.87
690.956	18777.73
691.303	18798.74
691.65	18730.72
691.997	18634.23
692.344	18588.58
692.69	18580.22
693.037	18459.32
693.383	18366.66
693.73	18373.22
694.077	18401.92
694.423	18328.7
694.769	18391.3
695.116	18226.78
695.462	18123.05
695.808	18158.53
696.155	18161.7
696.501	18040.34
696.847	17969.84
697.193	17890.74
697.539	17846.9
697.885	17831.31
698.231	17717.87
698.577	17593.8
698.923	17632.9
699.269	17470.42
699.614	17455.73
699.96	17336.18
700.306	17368.27
700.651	17316.75
700.997	17240.37
701.342	17067.26
701.688	17220.93
702.033	17077.21
702.379	17081.27
702.724	17018.68
703.069	16954.27
703.415	16730.55
703.76	16822.3
704.105	16836.76
704.45	16729.87
704.795	16613.26
705.14	16580.95
705.485	16537.79
705.83	16437.9
706.175	16429.54
706.52	16386.15
706.865	16381.41
707.209	16390.44
707.554	16282.88
707.899	16289.88
708.243	16163.11
708.588	16144.8
708.932	16036.33
709.277	16028.19
709.621	16053.05
709.966	16032.71
710.31	15924.47
710.654	15789.1
710.998	15882.66
711.342	15818.26
711.687	15750.69
712.031	15767.64
712.375	15685.38
712.719	15660.29
713.063	15577.58
713.407	15644.93
713.75	15576.23
714.094	15501.88
714.438	15474.99
714.782	15460.75
715.125	15453.07
715.469	15456.23
715.812	15377.82
716.156	15231.15
716.499	15281.1
716.843	15337.82
717.186	15216.46
717.53	15335.78
717.873	15295.78
718.216	15234.09
718.559	15177.14
718.902	15107.54
719.246	15117.48
719.589	15067.54
719.932	15018.5
720.275	15050.59
720.617	15080.65
720.96	15019.18
721.303	15062.34
721.646	15020.99
721.989	14982.35
722.331	14944.16
722.674	14971.5
723.016	14936.02
723.359	14910.71
723.701	14974.66
724.044	14826.19
724.386	14895.79
724.729	14848.79
725.071	14831.84
725.413	14779.41
725.755	14802.01
726.097	14684.5
726.439	14666.2
726.782	14717.04
727.124	14661.68
727.465	14703.48
727.807	14723.37
728.149	14734.22
728.491	14652.19
728.833	14665.07
729.175	14571.06
729.516	14561.34
729.858	14637.27
730.199	14574
730.541	14568.12
730.882	14581.45
731.224	14660.55
731.565	14431.85
731.906	14487.44
732.248	14510.27
732.589	14455.13
732.93	14491.74
733.271	14494
733.612	14496.94
733.953	14558.18
734.294	14481.57
734.635	14414.9
734.976	14463.26
735.317	14458.07
735.658	14437.05
735.999	14381.91
736.339	14469.82
736.68	14533.09
737.021	14475.69
737.361	14410.38
737.702	14420.78
738.042	14408.8
738.383	14391.4
738.723	14425.75
739.063	14430.27
739.404	14524.51
739.744	14449.25
740.084	14371.97
740.424	14461.91
740.764	14509.14
741.104	14606.08
741.444	14513.66
741.784	14467.33
742.124	14627.33
742.464	14534
742.804	14537.16
743.143	14571.06
743.483	14534.45
743.823	14550.72
744.162	14571.74
744.502	14642.24
744.841	14544.17
745.181	14729.02
745.52	14736.93
745.86	14724.73
746.199	14874.33
746.538	14749.36
746.877	14915.68
747.216	14857.6
747.556	14889.24
747.895	14959.07
748.234	14958.62
748.573	15013.08
748.911	15139.4
749.25	15208.55
749.589	15113.42
749.928	15249.91
750.267	15293.52
750.605	15330.13
750.944	15385.95
751.283	15426.18
751.621	15533.97
751.96	15587.75
752.298	15676.34
752.636	15790.46
752.975	15804.25
753.313	15875.66
753.651	16081.3
753.989	16092.15
754.327	16168.08
754.666	16254.18
755.004	16394.06
755.342	16477.45
755.679	16658.91
756.017	16587.73
756.355	16816.87
756.693	16947.94
757.031	17037.43
757.368	17043.99
757.706	17204.66
758.044	17246.02
758.381	17293.7
758.719	17425.45
759.056	17669.28
759.394	17648.72
759.731	17647.81
