Data from hue_270_FLMS001491_00037.txt Node
Date: Tue Feb 07 15:57:07 GMT 2017
User: dcchb
Spectrometer: FLMS00149
Trigger mode: 0
Integration Time (sec): 2.000000E-2
Scans to average: 10
Electric dark correction enabled: true
Nonlinearity correction enabled: false
Boxcar width: 0
XAxis mode: Wavelengths
Number of Pixels in Spectrum: 2048
>>>>>Begin Spectral Data<<<<<
341.393	-23.97
341.776	-23.97
342.16	-23.97
342.543	-63.52
342.927	-73.91
343.31	-55.83
343.693	-81.14
344.077	-86.11
344.46	-64.42
344.843	-33.46
345.226	-40.92
345.61	-25.55
345.993	-23.29
346.376	1.12
346.759	9.93
347.142	25.75
347.525	30.72
347.908	38.18
348.291	100.32
348.674	92.19
349.057	112.53
349.44	104.39
349.823	134.45
350.206	150.72
350.588	186.2
350.971	209.47
351.354	209.92
351.737	223.93
352.119	264.39
352.502	273.43
352.884	271.17
353.267	261.45
353.65	277.94
354.032	279.75
354.414	303.93
354.797	299.19
355.179	300.32
355.562	335.57
355.944	326.53
356.326	315.23
356.709	369.24
357.091	332.18
357.473	330.6
357.855	314.55
358.238	317.04
358.62	325.63
359.002	313.2
359.384	327.66
359.766	333.99
360.148	324.27
360.53	338.73
360.912	322.01
361.294	325.63
361.676	312.07
362.057	333.08
362.439	320.43
362.821	319.07
363.203	320.43
363.584	324.27
363.966	322.69
364.348	321.11
364.729	308.23
365.111	312.07
365.493	312.07
365.874	308.23
366.256	310.49
366.637	306.64
367.019	317.27
367.4	310.03
367.781	301.67
368.163	317.49
368.544	298.51
368.925	292.63
369.306	322.01
369.688	303.71
370.069	315.01
370.45	286.31
370.831	306.19
371.212	309.36
371.593	283.37
371.974	316.59
372.355	297.38
372.736	308
373.117	312.52
373.498	308.9
373.879	296.48
374.26	295.12
374.641	309.36
375.021	298.74
375.402	296.48
375.783	336.7
376.163	325.4
376.544	320.2
376.925	313.42
377.305	327.66
377.686	315.91
378.066	303.93
378.447	317.94
378.827	329.02
379.208	317.94
379.588	322.01
379.968	315.23
380.349	337.15
380.729	326.08
381.109	325.18
381.489	320.43
381.87	316.14
382.25	345.06
382.63	350.03
383.01	330.82
383.39	329.02
383.77	326.3
384.15	340.09
384.53	329.92
384.91	353.65
385.29	343.25
385.67	337.6
386.049	335.12
386.429	330.82
386.809	364.95
387.189	330.82
387.568	354.33
387.948	356.13
388.328	343.71
388.707	352.29
389.087	355.68
389.466	350.26
389.846	331.28
390.225	376.47
390.605	383.25
390.984	361.33
391.363	368.11
391.743	373.54
392.122	369.47
392.501	363.14
392.881	385.51
393.26	361.33
393.639	380.99
394.018	385.96
394.397	358.85
394.776	375.8
395.155	380.31
395.534	404.27
395.913	370.6
396.292	397.49
396.671	384.83
397.05	392.97
397.429	378.73
397.808	400.2
398.186	398.39
398.565	380.09
398.944	401.33
399.323	392.97
399.701	409.24
400.08	397.04
400.458	417.15
400.837	408.56
401.215	391.16
401.594	394.55
401.972	412.86
402.351	410.37
402.729	426.42
403.107	416.92
403.486	428.68
403.864	429.13
404.242	436.36
404.62	432.52
404.999	451.95
405.377	427.32
405.755	446.3
406.133	427.09
406.511	442.01
406.889	450.6
407.267	458.05
407.645	489.01
408.023	448.56
408.401	446.75
408.779	458.05
409.156	477.49
409.534	470.03
409.912	509.8
410.29	500.99
410.667	503.25
411.045	501.44
411.422	490.37
411.8	518.16
412.178	529.69
412.555	548.67
412.933	538.5
413.31	547.99
413.687	541.89
414.065	566.07
414.442	544.6
414.819	548.9
415.197	553.87
415.574	558.39
415.951	578.05
416.328	597.71
416.705	578.5
417.082	620.76
417.46	597.48
417.837	604.04
418.214	597.71
418.591	623.25
418.967	643.36
419.344	650.59
419.721	646.52
420.098	658.5
420.475	659.63
420.852	679.29
421.228	663.92
421.605	680.87
421.982	694.2
422.358	719.97
422.735	736.46
423.111	710.25
423.488	726.29
423.864	749.57
424.241	744.6
424.617	760.64
424.994	766.29
425.37	783.92
425.746	798.38
426.123	797.93
426.499	791.83
426.875	810.36
427.251	836.12
427.627	857.36
428.003	841.32
428.379	867.08
428.756	860.98
429.132	868.89
429.507	865.5
429.883	884.93
430.259	905.27
430.635	924.26
431.011	918.83
431.387	936.23
431.763	958.6
432.138	951.37
432.514	959.96
432.89	968.1
433.265	991.15
433.641	1020.07
434.016	1036.12
434.392	1049.45
434.767	1066.85
435.143	1065.95
435.518	1100.3
435.894	1114.08
436.269	1106.62
436.644	1110.24
437.02	1156.57
437.395	1163.8
437.77	1168.99
438.145	1195.43
438.52	1205.6
438.895	1206.73
439.271	1226.17
439.646	1269.33
440.021	1260.52
440.395	1293.96
440.77	1269.78
441.145	1278.6
441.52	1323.34
441.895	1321.99
442.27	1348.88
442.645	1331.48
443.019	1337.58
443.394	1373.51
443.769	1384.13
444.143	1400.4
444.518	1405.6
444.892	1397.46
445.267	1425.94
445.641	1448.31
446.016	1449.44
446.39	1477.46
446.764	1469.1
447.139	1444.69
447.513	1463
447.887	1480.62
448.262	1496.44
448.636	1524.92
449.01	1525.82
449.384	1521.75
449.758	1513.17
450.132	1561.75
450.506	1543.22
450.88	1586.84
451.254	1570.79
451.628	1590.23
452.002	1573.05
452.376	1605.37
452.75	1626.16
453.123	1639.94
453.497	1635.42
453.871	1634.52
454.244	1692.14
454.618	1718.36
454.992	1701.18
455.365	1730.79
455.739	1765.82
456.112	1758.36
456.486	1811.69
456.859	1780.28
457.232	1815.98
457.606	1822.76
457.979	1838.58
458.352	1883.55
458.725	1880.39
459.099	1868.41
459.472	1938.47
459.845	1957.45
460.218	1969.43
460.591	1968.97
460.964	1985.24
461.337	2049.2
461.71	2030.44
462.083	2043.1
462.456	2048.52
462.829	2060.72
463.201	2076.99
463.574	2109.53
463.947	2101.17
464.32	2153.83
464.692	2184.34
465.065	2192.02
465.438	2218.01
465.81	2190.44
466.183	2261.17
466.555	2285.35
466.928	2310.66
467.3	2274.73
467.672	2328.29
468.045	2346.82
468.417	2402.41
468.789	2418.23
469.161	2427.27
469.534	2467.04
469.906	2517.89
470.278	2499.36
470.65	2538
471.022	2592.01
471.394	2603.31
471.766	2643.98
472.138	2698.45
472.51	2721.27
472.882	2734.15
473.253	2751.1
473.625	2753.81
473.997	2833.58
474.369	2849.63
474.74	2899.34
475.112	2908.38
475.484	2975.27
475.855	2993.35
476.227	3048.49
476.598	3072.22
476.97	3088.27
477.341	3161.94
477.713	3193.12
478.084	3224.99
478.455	3261.6
478.827	3294.81
479.198	3373.91
479.569	3379.78
479.94	3470.4
480.311	3472.21
480.682	3504.98
481.053	3595.6
481.424	3674.69
481.795	3629.72
482.166	3710.17
482.537	3746.33
482.908	3837.63
483.279	3835.59
483.65	3911.3
484.021	3920.33
484.391	3981.35
484.762	3990.16
485.133	4033.33
485.503	4078.97
485.874	4177.28
486.244	4216.15
486.615	4242.36
486.985	4292.75
487.356	4340.44
487.726	4338.18
488.097	4401.45
488.467	4438.06
488.837	4526.87
489.207	4578.4
489.578	4643.48
489.948	4642.12
490.318	4688.9
490.688	4713.76
491.058	4757.83
491.428	4845.73
491.798	4883.93
492.168	4904.72
492.538	4956.92
492.908	4949.23
493.278	4990.59
493.648	5019.06
494.017	5090.93
494.387	5141.77
494.757	5125.05
495.126	5239.4
495.496	5147.42
495.866	5243.69
496.235	5282.78
496.605	5272.16
496.974	5309.9
497.344	5391.71
497.713	5349.68
498.082	5395.1
498.452	5420.63
498.821	5431.93
499.19	5464.7
499.559	5540.18
499.928	5531.82
500.298	5563.68
500.667	5612.04
501.036	5591.48
501.405	5647.75
501.774	5649.33
502.143	5749.21
502.512	5699.5
502.88	5740.63
503.249	5723
503.618	5780.4
503.987	5788.08
504.356	5803.22
504.724	5802.77
505.093	5819.27
505.462	5845.71
505.83	5831.47
506.199	5923.22
506.567	5945.59
506.936	5911.69
507.304	5934.29
507.672	5973.84
508.041	5940.62
508.409	6003.44
508.777	6038.25
509.145	6055.87
509.514	6083.44
509.882	6066.04
510.25	6106.04
510.618	6124.8
510.986	6102.42
511.354	6173.83
511.722	6196.43
512.09	6242.99
512.458	6165.47
512.826	6224.23
513.193	6219.94
513.561	6237.56
513.929	6273.49
514.297	6312.14
514.664	6324.34
515.032	6324.11
515.4	6345.36
515.767	6316.88
516.135	6365.02
516.502	6264.68
516.869	6425.81
517.237	6378.58
517.604	6327.96
517.972	6396.43
518.339	6447.27
518.706	6419.03
519.073	6398.24
519.44	6422.42
519.808	6455.64
520.175	6397.56
520.542	6535.18
520.909	6490.89
521.276	6552.13
521.643	6566.82
522.009	6540.38
522.376	6550.77
522.743	6592.81
523.11	6650.21
523.477	6667.16
523.843	6675.74
524.21	6742.63
524.577	6732.69
524.943	6719.36
525.31	6746.48
525.676	6802.97
526.043	6729.3
526.409	6739.7
526.776	6842.52
527.142	6798.45
527.508	6769.53
527.874	6886.13
528.241	6926.13
528.607	6969.52
528.973	6914.61
529.339	6901.95
529.705	6963.42
530.071	7006.13
530.437	6979.24
530.803	7037.77
531.169	7088.16
531.535	6975.4
531.901	7007.03
532.267	7081.16
532.632	7019.01
532.998	7042.29
533.364	7105.56
533.73	7096.52
534.095	7066.47
534.461	7093.58
534.826	7124.54
535.192	7133.36
535.557	7132
535.923	7146.24
536.288	7111.44
536.653	7079.8
537.019	7096.75
537.384	7158.44
537.749	7155.28
538.114	7126.35
538.479	7172.68
538.845	7230.3
539.21	7133.58
539.575	7153.02
539.94	7129.29
540.305	7200.93
540.67	7256.97
541.034	7207.93
541.399	7201.6
541.764	7174.71
542.129	7175.16
542.494	7185.11
542.858	7251.77
543.223	7210.64
543.587	7235.95
543.952	7214.26
544.316	7256.07
544.681	7249.29
545.045	7216.29
545.41	7258.1
545.774	7268.04
546.138	7233.47
546.503	7287.7
546.867	7314.14
547.231	7293.35
547.595	7307.59
547.959	7284.09
548.324	7292
548.688	7292
549.052	7334.03
549.416	7292.68
549.779	7294.26
550.143	7318.44
550.507	7341.49
550.871	7322.05
551.235	7286.35
551.599	7311.21
551.962	7335.84
552.326	7347.36
552.689	7390.75
553.053	7321.15
553.417	7362.73
553.78	7457.19
554.143	7338.55
554.507	7415.61
554.87	7386.91
555.234	7389.4
555.597	7363.86
555.96	7456.74
556.323	7481.82
556.686	7424.2
557.05	7454.48
557.413	7491.09
557.776	7493.57
558.139	7561.14
558.502	7530.18
558.865	7543.52
559.228	7600.24
559.59	7569.5
559.953	7602.72
560.316	7628.71
560.679	7592.1
561.041	7641.14
561.404	7667.13
561.767	7727.69
562.129	7731.99
562.492	7801.36
562.854	7804.75
563.217	7764.08
563.579	7796.62
563.941	7834.58
564.304	7793.45
564.666	7849.5
565.028	7874.13
565.39	7939.44
565.753	7991.41
566.115	7926.11
566.477	8012.66
566.839	7967.91
567.201	8033.45
567.563	8055.37
567.925	8088.81
568.287	8121.81
568.648	8136.72
569.01	8123.16
569.372	8181.92
569.734	8168.36
570.095	8244.74
570.457	8267.79
570.819	8253.55
571.18	8286.77
571.542	8281.12
571.903	8356.38
572.265	8312.54
572.626	8355.47
572.987	8462.36
573.349	8368.13
573.71	8453.55
574.071	8451.74
574.432	8504.17
574.794	8544.85
575.155	8603.38
575.516	8536.48
575.877	8629.59
576.238	8550.95
576.599	8671.85
576.96	8648.35
577.32	8701.68
577.681	8750.04
578.042	8783.48
578.403	8762.24
578.763	8770.6
579.124	8854.89
579.485	8834.33
579.845	8951.39
580.206	8886.08
580.566	8924.72
580.927	8917.49
581.287	9041.56
581.648	9013.99
582.008	9110.93
582.368	9042.46
582.728	9099.86
583.089	9079.3
583.449	9157.49
583.809	9181.44
584.169	9156.81
584.529	9188.67
584.889	9287.2
585.249	9274.09
585.609	9254.43
585.969	9362
586.329	9324.94
586.688	9354.99
587.048	9447.42
587.408	9379.85
587.768	9426.18
588.127	9437.03
588.487	9444.71
588.846	9527.42
589.206	9541.88
589.565	9479.74
589.925	9547.76
590.284	9601.09
590.643	9598.38
591.003	9591.15
591.362	9665.49
591.721	9658.26
592.08	9748.2
592.44	9744.81
592.799	9716.79
593.158	9780.29
593.517	9809.22
593.876	9842.21
594.235	9765.83
594.593	9801.99
594.952	9871.36
595.311	9847.18
595.67	9917.24
596.029	9920.63
596.387	9975.99
596.746	9978.03
597.104	9952.27
597.463	9923.11
597.822	9952.72
598.18	10000.17
598.538	9967.86
598.897	10055.77
599.255	9942.1
599.613	10132.83
599.972	10057.35
600.33	10092.15
600.688	10083.56
601.046	10088.31
601.404	10148.65
601.762	10162.66
602.12	10137.12
602.478	10172.37
602.836	10271.58
603.194	10188.64
603.552	10194.97
603.91	10206.72
604.268	10241.52
604.625	10226.38
604.983	10269.55
605.341	10260.96
605.698	10249.66
606.056	10290.79
606.413	10307.96
606.771	10341.86
607.128	10354.74
607.485	10245.14
607.843	10296.89
608.2	10390.67
608.557	10423.67
608.914	10380.96
609.272	10449.88
609.629	10386.61
609.986	10425.47
610.343	10358.81
610.7	10484.23
611.057	10467.51
611.414	10468.86
611.771	10487.17
612.127	10542.99
612.484	10587.96
612.841	10552.48
613.198	10531.23
613.554	10485.36
613.911	10615.3
614.267	10565.13
614.624	10561.06
614.98	10635.41
615.337	10623.89
615.693	10599.26
616.05	10596.09
616.406	10719.25
616.762	10597.67
617.118	10608.97
617.475	10625.7
617.831	10703.21
618.187	10708.63
618.543	10729.65
618.899	10847.61
619.255	10771.45
619.611	10716.31
619.967	10679.48
620.323	10804.45
620.678	10695.98
621.034	10732.81
621.39	10669.54
621.746	10688.52
622.101	10844.45
622.457	10741.62
622.812	10746.6
623.168	10788.85
623.523	10797.22
623.879	10834.96
624.234	10759.03
624.589	10799.93
624.945	10781.85
625.3	10829.98
625.655	10756.09
626.01	10716.77
626.365	10861.62
626.72	10757.44
627.075	10765.35
627.43	10760.61
627.785	10714.28
628.14	10738.69
628.495	10786.14
628.85	10803.32
629.205	10653.49
629.559	10828.85
629.914	10697.11
630.269	10712.25
630.623	10706.37
630.978	10662.76
631.332	10764
631.687	10738.91
632.041	10625.7
632.396	10729.2
632.75	10721.29
633.104	10707.5
633.459	10656.88
633.813	10557.9
634.167	10594.06
634.521	10594.06
634.875	10607.39
635.229	10530.56
635.583	10658.46
635.937	10539.82
636.291	10558.13
636.645	10566.04
636.999	10521.97
637.352	10543.21
637.706	10440.84
638.06	10509.54
638.413	10462.08
638.767	10388.41
639.121	10473.61
639.474	10429.09
639.828	10406.49
640.181	10388.41
640.534	10415.98
640.888	10332.82
641.241	10345.93
641.594	10358.81
641.947	10347.28
642.301	10298.92
642.654	10463.21
643.007	10375.98
643.36	10281.98
643.713	10267.51
644.066	10397
644.419	10267.96
644.771	10220.51
645.124	10173.73
645.477	10208.98
645.83	10037.91
646.182	9957.92
646.535	10025.48
646.888	10020.74
647.24	9964.02
647.593	9962.66
647.945	9978.71
648.298	9919.73
648.65	9961.31
649.002	9902.55
649.355	9945.71
649.707	9970.35
650.059	9997.01
650.411	10097.8
650.763	10144.13
651.115	10230.9
651.467	10192.71
651.819	10247.63
652.171	10165.59
652.523	10193.62
652.875	10133.5
653.227	10123.79
653.578	10176.89
653.93	10151.36
654.282	10142.54
654.633	10131.7
654.985	10175.31
655.337	10196.33
655.688	10220.28
656.039	10191.36
656.391	10136.67
656.742	10147.74
657.094	10142.77
657.445	10173.28
657.796	10126.27
658.147	10133.73
658.498	10155.88
658.849	10152.71
659.2	10142.54
659.551	10138.48
659.902	10190.23
660.253	10123.11
660.604	10137.35
660.955	10132.37
661.306	10179.15
661.656	10140.06
662.007	10093.96
662.358	10173.28
662.708	10133.96
663.059	10187.74
663.409	10066.61
663.76	10173.05
664.11	10132.6
664.461	10163.11
664.811	10169.89
665.161	10208.98
665.511	10197.46
665.862	10136.67
666.212	10179.83
666.562	10207.4
666.912	10241.3
667.262	10200.62
667.612	10212.15
667.962	10218.02
668.312	10150
668.662	10205.82
669.011	10161.07
669.361	10084.69
669.711	10125.37
670.06	10071.59
670.41	10117.91
670.76	10051.47
671.109	10182.32
671.459	10121.53
671.808	10091.02
672.157	10127.4
672.507	10005.6
672.856	10089.66
673.205	10043.56
673.554	10089.89
673.904	10064.58
674.253	10044.92
674.602	10047.41
674.951	9888.54
675.3	9927.18
675.649	10033.85
675.998	9933.28
676.346	10021.42
676.695	10043.11
677.044	9943
677.393	10002.43
677.741	9994.75
678.09	9992.27
678.438	9915.43
678.787	9992.49
679.135	9947.29
679.484	9868.43
679.832	9931.25
680.181	9878.82
680.529	9907.07
680.877	9889.67
681.225	9910.01
681.573	9871.14
681.922	9786.4
682.27	9777.81
682.618	9778.94
682.966	9725.61
683.314	9744.81
683.661	9782.33
684.009	9646.96
684.357	9705.72
684.705	9641.54
685.053	9665.72
685.4	9668.43
685.748	9624.59
686.095	9589.56
686.443	9550.02
686.79	9539.4
687.138	9582.11
687.485	9609.9
687.832	9483.35
688.18	9490.13
688.527	9426.18
688.874	9504.37
689.221	9363.13
689.568	9272.28
689.915	9340.53
690.262	9283.81
690.609	9207.65
690.956	9200.2
691.303	9263.7
691.65	9112.97
691.997	9171.95
692.344	9136.69
692.69	9113.19
693.037	9095.11
693.383	9044.49
693.73	9044.95
694.077	8907.32
694.423	8931.95
694.769	8939.64
695.116	8932.41
695.462	8895.57
695.808	8843.37
696.155	8839.75
696.501	8856.48
696.847	8817.38
697.193	8765.63
697.539	8745.29
697.885	8656.71
698.231	8639.76
698.577	8722.24
698.923	8638.63
699.269	8631.4
699.614	8576.26
699.96	8516.37
700.306	8452.87
700.651	8419.65
700.997	8408.35
701.342	8360.9
701.688	8390.95
702.033	8393.44
702.379	8304.85
702.724	8329.94
703.069	8297.39
703.415	8248.81
703.76	8237.06
704.105	8300.56
704.45	8207.45
704.795	8196.83
705.14	8191.41
705.485	8187.57
705.83	8128.81
706.175	8100.56
706.52	8081.58
706.865	8038.87
707.209	7978.99
707.554	8019.89
707.899	8024.18
708.243	7967.91
708.588	7915.71
708.932	7825.09
709.277	7899.21
709.621	7832.1
709.966	7816.73
710.31	7769.27
710.654	7757.75
710.998	7713.23
711.342	7697.18
711.687	7788.71
712.031	7749.16
712.375	7630.97
712.719	7714.36
713.063	7681.14
713.407	7657.41
713.75	7629.16
714.094	7712.55
714.438	7639.56
714.782	7596.62
715.125	7590.07
715.469	7621.25
715.812	7515.49
716.156	7529.51
716.499	7536.28
716.843	7527.02
717.186	7507.59
717.53	7488.38
717.873	7467.59
718.216	7455.84
718.559	7418.1
718.902	7411.54
719.246	7451.32
719.589	7386.68
719.932	7360.92
720.275	7346.46
720.617	7360.92
720.96	7355.95
721.303	7372.22
721.646	7369.51
721.989	7346.01
722.331	7329.51
722.674	7325.44
723.016	7319.79
723.359	7320.7
723.701	7287.48
724.044	7244.99
724.386	7205.45
724.729	7306.69
725.071	7238.67
725.413	7252
725.755	7261.04
726.097	7225.78
726.439	7165.9
726.782	7182.62
727.124	7249.74
727.465	7200.25
727.807	7192.57
728.149	7203.86
728.491	7218.78
728.833	7194.37
729.175	7186.24
729.516	7176.75
729.858	7112.34
730.199	7147.14
730.541	7147.82
730.882	7111.44
731.224	7159.12
731.565	7162.96
731.906	7150.98
732.248	7179.68
732.589	7088.16
732.93	7134.26
733.271	7121.61
733.612	7112.79
733.953	7121.83
734.294	7094.26
734.635	7160.02
734.976	7164.09
735.317	7103.08
735.658	7143.98
735.999	7113.02
736.339	7091.32
736.68	7146.01
737.021	7094.49
737.361	7102.85
737.702	7191.44
738.042	7103.53
738.383	7174.94
738.723	7203.19
739.063	7107.37
739.404	7179.23
739.744	7186.92
740.084	7156.18
740.424	7205.67
740.764	7174.26
741.104	7274.6
741.444	7198.21
741.784	7096.07
742.124	7257.87
742.464	7215.84
742.804	7207.71
743.143	7251.09
743.483	7329.06
743.823	7268.04
744.162	7319.79
744.502	7347.14
744.841	7338.78
745.181	7435.5
745.52	7365.67
745.86	7393.46
746.199	7427.14
746.538	7482.95
746.877	7541.71
747.216	7563.18
747.556	7544.19
747.895	7609.05
748.234	7698.31
748.573	7698.77
748.911	7769.5
749.25	7808.14
749.589	7871.42
749.928	7863.73
750.267	7941.47
750.605	7959.55
750.944	8109.38
751.283	8098.53
751.621	8195.93
751.96	8255.59
752.298	8329.03
752.636	8384.85
752.975	8437.28
753.313	8544.85
753.651	8656.26
753.989	8709.59
754.327	8798.4
754.666	8840.43
755.004	8984.38
755.342	9124.72
755.679	9206.98
756.017	9399.06
756.355	9460.53
756.693	9544.59
757.031	9733.52
757.368	9798.37
757.706	9903.91
758.044	10039.5
758.381	10237.68
758.719	10296.44
759.056	10393.84
759.394	10623.21
759.731	10710.66
760.068	10795.18
760.405	11022.97
760.743	11088.28
761.08	11278.56
761.417	11435.39
761.754	11534.6
762.091	11813.23
762.428	11860.92
762.765	12005.09
763.102	12177.29
763.438	12320.34
763.775	12431.3
764.112	12612.08
764.449	12796.03
764.785	12930.04
765.122	13015.24
