Data from hue_340_FLMS001491_81.txt Node
Date: Mon Feb 06 15:43:43 GMT 2017
User: dcchb
Spectrometer: FLMS00149
Trigger mode: 0
Integration Time (sec): 2.000000E-2
Scans to average: 10
Electric dark correction enabled: true
Nonlinearity correction enabled: false
Boxcar width: 0
XAxis mode: Wavelengths
Number of Pixels in Spectrum: 2048
>>>>>Begin Spectral Data<<<<<
341.393	-5.35
341.776	-5.35
342.16	-5.35
342.543	-58.46
342.927	-74.96
343.31	-49.65
343.693	-57.1
344.077	-58.68
344.46	-67.27
344.843	-39.48
345.226	-48.52
345.61	-20.49
345.993	-11.45
346.376	2.33
346.759	10.92
347.142	23.8
347.525	27.19
347.908	40.07
348.291	61.09
348.674	80.52
349.057	106.73
349.44	127.98
349.823	126.17
350.206	172.27
350.588	190.57
350.971	206.17
351.354	220.63
351.737	227.41
352.119	247.97
352.502	253.4
352.884	241.19
353.267	285.94
353.65	291.14
354.032	297.92
354.414	300.4
354.797	299.72
355.179	300.63
355.562	313.51
355.944	323.9
356.326	348.08
356.709	330.91
357.091	330.68
357.473	335.88
357.855	330.68
358.238	327.07
358.62	344.69
359.002	341.3
359.384	333.85
359.766	353.28
360.148	324.13
360.53	348.08
360.912	327.29
361.294	330.01
361.676	333.85
362.057	330.91
362.439	312.83
362.821	313.96
363.203	328.42
363.584	332.94
363.966	296.79
364.348	321.42
364.729	332.04
365.111	325.03
365.493	307.63
365.874	336.56
366.256	305.15
366.637	308.54
367.019	307.41
367.4	309.67
367.781	298.59
368.163	296.33
368.544	290.01
368.925	300.18
369.306	308.31
369.688	309.44
370.069	311.47
370.45	310.34
370.831	304.47
371.212	293.62
371.593	306.05
371.974	317.8
372.355	316.67
372.736	315.99
373.117	308.09
373.498	297.01
373.879	290.68
374.26	307.63
374.641	323.45
375.021	323.9
375.402	329.55
375.783	306.73
376.163	297.69
376.544	305.6
376.925	311.93
377.305	309.67
377.686	329.55
378.066	325.26
378.447	328.88
378.827	333.17
379.208	334.75
379.588	312.38
379.968	351.7
380.349	320.97
380.729	316.22
381.109	327.52
381.489	325.03
381.87	334.07
382.25	348.76
382.63	311.25
383.01	328.65
383.39	306.96
383.77	353.06
384.15	321.64
384.53	323.9
384.91	333.4
385.29	332.27
385.67	337.24
386.049	341.08
386.429	347.63
386.809	335.88
387.189	330.68
387.568	363.22
387.948	337.24
388.328	328.42
388.707	345.82
389.087	326.39
389.466	348.08
389.846	346.95
390.225	343.56
390.605	337.91
390.984	367.97
391.363	341.08
391.743	347.18
392.122	337.24
392.501	349.89
392.881	373.85
393.26	348.99
393.639	353.51
394.018	360.74
394.397	359.16
394.776	355.09
395.155	370.46
395.534	399.38
395.913	363.45
396.292	386.28
396.671	381.3
397.05	376.56
397.429	379.5
397.808	362.09
398.186	366.61
398.565	369.55
398.944	382.43
399.323	380.17
399.701	362.09
400.08	386.5
400.458	367.29
400.837	395.99
401.215	377.69
401.594	360.97
401.972	388.53
402.351	381.3
402.729	404.13
403.107	390.57
403.486	391.02
403.864	399.38
404.242	404.58
404.62	389.44
404.999	416.1
405.377	414.3
405.755	407.52
406.133	422.21
406.511	398.93
406.889	402.55
407.267	433.28
407.645	431.02
408.023	417.69
408.401	443.67
408.779	437.12
409.156	432.83
409.534	435.77
409.912	424.24
410.29	426.73
410.667	440.51
411.045	420.85
411.422	438.03
411.8	470.57
412.178	466.95
412.555	459.95
412.933	456.56
413.31	495.2
413.687	466.5
414.065	448.19
414.442	483.67
414.819	497.01
415.197	483.45
415.574	470.11
415.951	495.65
416.328	475.99
416.705	534.97
417.082	504.46
417.46	520.28
417.837	527.51
418.214	532.94
418.591	522.99
418.967	518.48
419.344	532.49
419.721	542.66
420.098	530.23
420.475	559.83
420.852	542.43
421.228	549.89
421.605	557.34
421.982	578.13
422.358	562.77
422.735	580.85
423.111	557.34
423.488	573.84
423.864	593.73
424.241	559.83
424.617	599.83
424.994	608.42
425.37	581.3
425.746	608.64
426.123	614.74
426.499	616.33
426.875	611.81
427.251	602.31
427.627	611.35
428.003	639.6
428.379	637.57
428.756	642.77
429.132	645.03
429.507	659.04
429.883	664.91
430.259	671.01
430.635	689.32
431.011	680.96
431.387	687.28
431.763	692.03
432.138	704.23
432.514	698.81
432.89	701.97
433.265	700.17
433.641	698.81
434.016	725.93
434.392	734.74
434.767	758.02
435.143	745.14
435.518	745.81
435.894	758.24
436.269	751.69
436.644	777.23
437.02	778.36
437.395	784.91
437.77	799.15
438.145	779.94
438.52	796.89
438.895	802.54
439.271	792.82
439.646	838.69
440.021	819.71
440.395	834.4
440.77	829.43
441.145	839.14
441.52	831.46
441.895	835.98
442.27	834.62
442.645	856.09
443.019	868.97
443.394	865.13
443.769	871.46
444.143	847.51
444.518	872.82
444.892	901.74
445.267	895.41
445.641	867.39
446.016	902.19
446.39	900.84
446.764	883.66
447.139	902.65
447.513	885.92
447.887	902.19
448.262	937.67
448.636	906.04
449.01	902.65
449.384	941.74
449.758	920.72
450.132	938.8
450.506	928.63
450.88	933.38
451.254	942.19
451.628	968.63
452.002	972.47
452.376	959.14
452.75	966.6
453.123	971.12
453.497	974.28
453.871	984.23
454.244	994.62
454.618	1002.76
454.992	1004.56
455.365	994.62
455.739	1023.55
456.112	1032.59
456.486	1025.13
456.859	1041.85
457.232	1075.52
457.606	1060.61
457.979	1090.21
458.352	1081.85
458.725	1124.79
459.099	1111.68
459.472	1132.7
459.845	1141.74
460.218	1125.01
460.591	1150.32
460.964	1125.46
461.337	1146.48
461.71	1168.4
462.083	1177.21
462.456	1175.86
462.829	1185.35
463.201	1211.56
463.574	1211.11
463.947	1240.04
464.32	1237.33
464.692	1261.05
465.065	1276.87
465.438	1281.17
465.81	1264.67
466.183	1333.59
466.555	1315.97
466.928	1342.63
467.3	1337.44
467.672	1351
468.045	1381.28
468.417	1379.92
468.789	1352.13
469.161	1414.04
469.534	1413.82
469.906	1438
470.278	1484.33
470.65	1476.42
471.022	1490.2
471.394	1500.37
471.766	1521.16
472.138	1558.67
472.51	1564.1
472.882	1561.16
473.253	1599.12
473.625	1604.32
473.997	1638.67
474.369	1665.11
474.74	1678.9
475.112	1711.66
475.484	1708.5
475.855	1758.67
476.227	1762.74
476.598	1821.27
476.97	1823.3
477.341	1868.95
477.713	1886.8
478.084	1870.53
478.455	1925.9
478.827	1920.92
479.198	2001.83
479.569	1990.07
479.94	2046.34
480.311	2059.23
480.682	2082.95
481.053	2118.43
481.424	2164.08
481.795	2171.54
482.166	2219.67
482.537	2211.76
482.908	2267.81
483.279	2288.82
483.65	2326.11
484.021	2366.11
484.391	2419.67
484.762	2423.96
485.133	2455.83
485.503	2491.98
485.874	2543.96
486.244	2564.52
486.615	2586.9
486.985	2634.58
487.356	2651.75
487.726	2716.61
488.097	2762.48
488.467	2722.94
488.837	2824.4
489.207	2816.27
489.578	2854.01
489.948	2906.43
490.318	2919.54
490.688	2929.26
491.058	2938.98
491.428	3011.74
491.798	3032.53
492.168	3102.36
492.538	3110.5
492.908	3173.32
493.278	3197.27
493.648	3196.6
494.017	3232.98
494.387	3252.41
494.757	3305.52
495.126	3320.66
495.496	3336.71
495.866	3336.71
496.235	3366.08
496.605	3395.24
496.974	3402.47
497.344	3490.37
497.713	3486.31
498.082	3477.49
498.452	3477.95
498.821	3551.16
499.19	3535.57
499.559	3590.71
499.928	3599.07
500.298	3592.74
500.667	3653.76
501.036	3647.43
501.405	3649.47
501.774	3653.76
502.143	3709.13
502.512	3723.14
502.88	3760.65
503.249	3760.2
503.618	3784.83
503.987	3810.37
504.356	3787.09
504.724	3831.38
505.093	3806.52
505.462	3828.44
505.83	3862.12
506.199	3910.7
506.567	3946.18
506.936	3952.96
507.304	4004.03
507.672	3953.41
508.041	4010.59
508.409	4015.78
508.777	4056.46
509.145	4073.41
509.514	4078.16
509.882	4090.58
510.25	4091.26
510.618	4112.73
510.986	4074.99
511.354	4134.43
511.722	4140.53
512.09	4172.84
512.458	4257.13
512.826	4227.08
513.193	4212.84
513.561	4249
513.929	4251.94
514.297	4285.61
514.664	4298.71
515.032	4270.92
515.4	4323.12
515.767	4323.8
516.135	4328.09
516.502	4354.98
516.869	4349.11
517.237	4385.72
517.604	4350.01
517.972	4400.41
518.339	4427.07
518.706	4409.45
519.073	4479.5
519.44	4493.06
519.808	4523.79
520.175	4505.71
520.542	4537.8
520.909	4553.62
521.276	4552.72
521.643	4582.77
522.009	4595.43
522.376	4606.28
522.743	4622.1
523.11	4703.9
523.477	4686.73
523.843	4714.97
524.21	4796.33
524.577	4783.22
524.943	4796.55
525.31	4792.71
525.676	4815.99
526.043	4875.87
526.409	4864.12
526.776	4945.93
527.142	4886.95
527.508	4932.6
527.874	4966.04
528.241	5051.01
528.607	5020.28
528.973	5068.19
529.339	5041.52
529.705	5149.77
530.071	5160.16
530.437	5140.27
530.803	5163.1
531.169	5204.23
531.535	5158.58
531.901	5226.6
532.267	5230.67
532.632	5273.6
532.998	5284.45
533.364	5279.25
533.73	5307.95
534.095	5340.95
534.461	5375.52
534.826	5399.25
535.192	5406.03
535.557	5456.2
535.923	5455.29
536.288	5446.93
536.653	5462.75
537.019	5503.43
537.384	5485.35
537.749	5538
538.114	5576.87
538.479	5583.2
538.845	5618.45
539.21	5645.12
539.575	5646.93
539.94	5681.28
540.305	5695.29
540.67	5726.93
541.034	5742.07
541.399	5803.76
541.764	5822.97
542.129	5794.49
542.494	5887.15
542.858	5855.51
543.223	5901.16
543.587	5934.83
543.952	5977.99
544.316	5940.25
544.681	5924.43
545.045	5950.65
545.41	6025.45
545.774	6086.24
546.138	6063.64
546.503	6050.98
546.867	6056.63
547.231	6133.92
547.595	6168.72
547.959	6189.51
548.324	6204.43
548.688	6164.2
549.052	6234.03
549.416	6213.01
549.779	6240.81
550.143	6251.88
550.507	6307.7
550.871	6324.2
551.235	6352.22
551.599	6399.9
551.962	6406.91
552.326	6424.76
552.689	6454.36
553.053	6474.93
553.417	6461.82
553.78	6512.22
554.143	6493.23
554.507	6474.02
554.87	6598.32
555.234	6589.73
555.597	6588.82
555.96	6622.95
556.323	6620.69
556.686	6658.2
557.05	6692.32
557.413	6633.79
557.776	6667.47
558.139	6775.03
558.502	6761.02
558.865	6748.37
559.228	6783.4
559.59	6822.26
559.953	6823.17
560.316	6916.05
560.679	6895.71
561.041	6949.04
561.404	6957.85
561.767	6980
562.129	6982.03
562.492	7011.64
562.854	7017.74
563.217	7031.75
563.579	7071.75
563.941	7152.42
564.304	7134.8
564.666	7222.03
565.028	7182.25
565.39	7192.42
565.753	7222.48
566.115	7279.65
566.477	7259.54
566.839	7282.37
567.201	7318.75
567.563	7380.67
567.925	7385.19
568.287	7382.02
568.648	7405.98
569.01	7441.68
569.372	7537.95
569.734	7501.79
570.095	7529.14
570.457	7560.78
570.819	7650.04
571.18	7628.12
571.542	7711.73
571.903	7818.85
572.265	7797.15
572.626	7805.52
572.987	7804.39
573.349	7844.38
573.71	7907.89
574.071	7978.17
574.432	7937.49
574.794	8070.37
575.155	8132.29
575.516	8127.99
575.877	8243.92
576.238	8225.17
576.599	8302
576.96	8330.47
577.32	8405.95
577.681	8523.91
578.042	8617.7
578.403	8667.87
578.763	8713.74
579.124	8849.33
579.485	8944.24
579.845	9031.7
580.206	9101.53
580.566	9249.54
580.927	9269.66
581.287	9414.96
581.648	9551.01
582.008	9734.96
582.368	9887.49
582.728	9973.59
583.089	10095.85
583.449	10227.15
583.809	10381.04
584.169	10590.07
584.529	10608.38
584.889	10865.32
585.249	11017.41
585.609	11115.48
585.969	11437.06
586.329	11593.44
586.688	11747.78
587.048	12038.62
587.408	12150.71
587.768	12324.27
588.127	12561.32
588.487	12806.51
588.846	13071.37
589.206	13258.93
589.565	13405.14
589.925	13718.13
590.284	13969.42
590.643	14313.59
591.003	14475.62
591.362	14842.62
591.721	14929.85
592.08	15178.43
592.44	15557.63
592.799	15702.71
593.158	15954.45
593.517	16335.69
593.876	16597.83
594.235	16860.19
594.593	17096.8
594.952	17535.65
595.311	17637.35
595.67	18012.25
596.029	18361.62
596.387	18648.85
596.746	18943.98
597.104	19101.94
597.463	19334.7
597.822	19756.16
598.18	19942.82
598.538	20249.26
598.897	20590.49
599.255	20618.96
599.613	21214.43
599.972	21440.64
600.33	21780.97
600.688	21935.09
601.046	22244.68
601.404	22606.03
601.762	22759.25
602.12	23231.78
602.478	23410.3
602.836	23616.4
603.194	23861.59
603.552	24056.39
603.91	24295.93
604.268	24575.92
604.625	24727.56
604.983	25136.81
605.341	25173.65
605.698	25543.58
606.056	25833.06
606.413	26025.6
606.771	26329.55
607.128	26572.71
607.485	26762.76
607.843	26851.12
608.2	27251.56
608.557	27545.11
608.914	27558.89
609.272	27994.81
609.629	28151.65
609.986	28416.72
610.343	28510.06
610.7	28877.96
611.057	28949.37
611.414	29093.09
611.771	29433.87
612.127	29646.75
612.484	29744.15
612.841	30081.99
613.198	30108.66
613.554	30198.15
613.911	30592.71
614.267	30780.05
614.624	30847.85
614.98	30923.55
615.337	31292.58
615.693	31355.86
616.05	31534.83
616.406	31872
616.762	31851.21
617.118	31930.98
617.475	32010.75
617.831	32223.18
618.187	32487.13
618.543	32604.19
618.899	32877.85
619.255	32856.38
619.611	32967.57
619.967	33281.23
620.323	33318.52
620.678	33349.02
621.034	33390.61
621.39	33566.65
621.746	33598.96
622.101	34201.66
622.457	33827.88
622.812	34003.47
623.168	34049.57
623.523	34261.09
623.879	34395.1
624.234	34203.69
624.589	34492.95
624.945	34565.04
625.3	34562.55
625.655	34855.43
626.01	34735.88
626.365	34933.62
626.72	34965.48
627.075	34871.24
627.43	34973.84
627.785	34990.34
628.14	35097.45
628.495	35257.22
628.85	35253.15
629.205	35278.01
629.559	35494.05
629.914	35323.89
630.269	35490.89
630.623	35455.18
630.978	35453.6
631.332	35708.96
631.687	35614.05
632.041	35633.26
632.396	35740.37
632.75	35590.32
633.104	35568.17
633.459	35486.82
633.813	35533.83
634.167	35612.02
634.521	35620.83
634.875	35788.51
635.229	35577.67
635.583	35594.39
635.937	35608.17
636.291	35614.73
636.645	35712.13
636.999	35630.32
637.352	35701.5
637.706	35624.9
638.06	35831.67
638.413	35631
638.767	35741.28
639.121	35719.36
639.474	35510.1
639.828	35529.08
640.181	35642.98
640.534	35650.66
640.888	35583.54
641.241	35309.2
641.594	35490.44
641.947	35667.61
642.301	35669.64
642.654	35559.81
643.007	35582.64
643.36	35597.33
643.713	35539.7
644.066	35656.31
644.419	35467.61
644.771	35134.29
645.124	34819.72
645.477	34925.03
645.83	34652.72
646.182	34534.53
646.535	34493.17
646.888	34521.65
647.24	34225.16
647.593	34619.73
647.945	34563.91
648.298	34303.58
648.65	34314.2
649.002	34320.52
649.355	34460.18
649.707	34270.13
650.059	34437.13
650.411	35017
650.763	34927.29
651.115	35345.81
651.467	35236.66
651.819	35259.48
652.171	35037.57
652.523	35079.6
652.875	35059.71
653.227	34841.64
653.578	35167.06
653.93	35062.88
654.282	35005.7
654.633	34897.01
654.985	35049.54
655.337	35033.05
655.688	34993.95
656.039	35078.02
656.391	34792.15
656.742	34859.72
657.094	34793.73
657.445	35048.64
657.796	34944.91
658.147	35005.93
658.498	34854.52
658.849	34813.62
659.2	34788.53
659.551	34761.87
659.902	35007.29
660.253	34827.18
660.604	34856.33
660.955	34752.6
661.306	34878.7
661.656	34814.75
662.007	34748.76
662.358	34648.65
662.708	34781.08
663.059	34714.19
663.409	34621.99
663.76	34738.82
664.11	34787.63
664.461	34724.36
664.811	34668.76
665.161	34684.36
665.511	34678.93
665.862	34748.99
666.212	34811.81
666.562	34840.74
666.912	34780.85
667.262	34701.76
667.612	34690.23
667.962	34775.2
668.312	34732.49
668.662	34762.55
669.011	34570.69
669.361	34526.85
669.711	34597.58
670.06	34502.89
670.41	34521.65
670.76	34411.82
671.109	34654.3
671.459	34681.19
671.808	34569.11
672.157	34620.63
672.507	34374.99
672.856	34390.58
673.205	34445.27
673.554	34549.22
673.904	34467.64
674.253	34609.56
674.602	34555.55
674.951	33873.08
675.3	33853.42
675.649	34402.78
675.998	34254.76
676.346	34456.79
676.695	34524.81
677.044	34216.35
677.393	34325.27
677.741	34385.83
678.09	34233.29
678.438	34226.74
678.787	34260.64
679.135	34370.92
679.484	34074.43
679.832	34110.36
680.181	33969.35
680.529	34032.85
680.877	33970.02
681.225	33967.09
681.573	34146.97
681.922	33808
682.27	33813.64
682.618	33749.69
682.966	33673.54
683.314	33810.48
683.661	33681.44
684.009	33529.81
684.357	33400.55
684.705	33484.61
685.053	33513.09
685.4	33432.86
685.748	33264.73
686.095	33326.88
686.443	33182.25
686.79	33040.56
687.138	33173.21
687.485	33044.63
687.832	33044.63
688.18	32982.03
688.527	32753.56
688.874	32827
689.221	32707.01
689.568	32723.28
689.915	32563.28
690.262	32648.93
690.609	32515.37
690.956	32393.57
691.303	32468.6
691.65	32215.04
691.997	32095.27
692.344	32127.14
692.69	32127.81
693.037	32064.76
693.383	31708.62
693.73	31983.18
694.077	31736.64
694.423	31796.52
694.769	31728.28
695.116	31598.79
695.462	31657.32
695.808	31448.51
696.155	31467.49
696.501	31244.45
696.847	31173.04
697.193	30978.47
697.539	31092.59
697.885	30929.88
698.231	30845.14
698.577	30899.15
698.923	30846.49
699.269	30703.44
699.614	30600.17
699.96	30545.26
700.306	30499.38
700.651	30402.44
700.997	30302.32
701.342	30241.76
701.688	30249.44
702.033	30031.82
702.379	30102.56
702.724	29889.23
703.069	29902.79
703.415	29712.51
703.76	29671.61
704.105	29721.32
704.45	29504.38
704.795	29453.99
705.14	29416.92
705.485	29336.47
705.83	29285.85
706.175	29382.57
706.52	29329.47
706.865	29179.42
707.209	29159.08
707.554	29000.89
707.899	29067.33
708.243	28853.55
708.588	28864.85
708.932	28731.29
709.277	28622.14
709.621	28666.89
709.966	28551.41
710.31	28587.12
710.654	28349.16
710.998	28279.33
711.342	28338.76
711.687	28318.87
712.031	28152.55
712.375	28074.81
712.719	28117.3
713.063	27936.06
713.407	28136.05
713.75	27886.57
714.094	27948.26
714.438	27719.57
714.782	27907.59
715.125	27694.03
715.469	27682.73
715.812	27613.13
716.156	27480.7
716.499	27487.26
716.843	27488.39
717.186	27271.44
717.53	27336.98
717.873	27358.45
718.216	27383.08
718.559	27173.37
718.902	27022.18
719.246	27182.41
719.589	27123.88
719.932	26929.31
720.275	27031.9
720.617	26809.54
720.96	26862.19
721.303	26797.56
721.646	26821.29
721.989	26633.95
722.331	26807.5
722.674	26646.6
723.016	26626.26
723.359	26567.06
723.701	26630.56
724.044	26356.44
724.386	26319.15
724.729	26436.66
725.071	26411.13
725.413	26385.82
725.755	26350.79
726.097	26269.44
726.439	26066.5
726.782	26082.77
727.124	26202.32
727.465	25995.77
727.807	26102.66
728.149	25860.18
728.491	25908.99
728.833	25918.94
729.175	25812.05
729.516	25847.75
729.858	25818.37
730.199	25777.47
730.541	25775.44
730.882	25690.92
731.224	25671.71
731.565	25514.2
731.906	25574.09
732.248	25545.84
732.589	25484.82
732.93	25289.8
733.271	25299.97
733.612	25367.09
733.953	25342.23
734.294	25229.92
734.635	25212.97
734.976	25303.81
735.317	25174.32
735.658	24993.99
735.999	25146.3
736.339	25013.2
736.68	25142.46
737.021	25054.78
737.361	24939.53
737.702	25079.64
738.042	25022.01
738.383	24803.26
738.723	24966.87
739.063	24896.82
739.404	25015.46
739.744	24903.37
740.084	24684.39
740.424	24598.07
740.764	24628.8
741.104	24754.67
741.444	24672.19
741.784	24463.83
742.124	24570.05
742.464	24485.53
742.804	24462.48
743.143	24409.37
743.483	24427
743.823	24344.74
744.162	24359.66
744.502	24348.36
744.841	24138.87
745.181	24315.59
745.52	24184.29
745.86	24173.45
746.199	24105.65
746.538	24177.29
746.877	24187.01
747.216	24083.51
747.556	24069.72
747.895	24053.68
748.234	23866.11
748.573	23791.08
748.911	23812.55
749.25	23827.92
749.589	23625.66
749.928	23707.24
750.267	23778.2
750.605	23617.98
750.944	23532.56
751.283	23556.51
751.621	23539.56
751.96	23448.72
752.298	23407.82
752.636	23464.31
752.975	23295.96
753.313	23095.06
753.651	23396.07
753.989	23128.95
754.327	23258.44
754.666	23122.85
755.004	23044.21
755.342	23042.85
755.679	23024.78
756.017	22876.31
756.355	22954.04
756.693	22767.38
757.031	22843.09
757.368	22777.55
757.706	22706.59
758.044	22701.17
758.381	22680.15
758.719	22504.34
759.056	22507.05
759.394	22516.99
759.731	22325.59
760.068	22353.83
760.405	22256.89
760.743	22122.65
