Data from hue_220_FLMS001491_00001.txt Node
Date: Tue Feb 07 16:38:26 GMT 2017
User: dcchb
Spectrometer: FLMS00149
Trigger mode: 0
Integration Time (sec): 2.000000E-2
Scans to average: 10
Electric dark correction enabled: true
Nonlinearity correction enabled: false
Boxcar width: 0
XAxis mode: Wavelengths
Number of Pixels in Spectrum: 2048
>>>>>Begin Spectral Data<<<<<
341.393	-5.95
341.776	-5.95
342.16	-5.95
342.543	-49.56
342.927	-70.58
343.31	-74.19
343.693	-82.78
344.077	-67.19
344.46	-56.34
344.843	-60.18
345.226	-33.52
345.61	-24.93
345.993	-23.57
346.376	-19.05
346.759	1.74
347.142	35.41
347.525	49.65
347.908	66.59
348.291	81.51
348.674	98.46
349.057	108.4
349.44	107.72
349.823	129.64
350.206	159.47
350.588	194.27
350.971	211.45
351.354	229.98
351.737	227.95
352.119	242.18
352.502	242.63
352.884	276.53
353.267	285.8
353.65	279.24
354.032	300.03
354.414	305.23
354.797	302.07
355.179	336.87
355.562	338.9
355.944	325.12
356.326	351.11
356.709	326.02
357.091	335.06
357.473	350.65
357.855	326.47
358.238	336.42
358.62	326.02
359.002	338.45
359.384	330.99
359.766	333.71
360.148	353.82
360.53	333.25
360.912	338.68
361.294	335.74
361.676	329.86
362.057	311.56
362.439	321.05
362.821	345.91
363.203	317.21
363.584	306.81
363.966	304.1
364.348	316.98
364.729	330.77
365.111	338.9
365.493	316.53
365.874	314.72
366.256	299.81
366.637	327.38
367.019	320.82
367.4	305.01
367.781	323.76
368.163	297.55
368.544	307.04
368.925	307.49
369.306	342.29
369.688	291.22
370.069	305.01
370.45	318.79
370.831	291.9
371.212	311.79
371.593	306.81
371.974	338.9
372.355	321.28
372.736	319.92
373.117	308.4
373.498	328.73
373.879	325.12
374.26	307.72
374.641	301.84
375.021	317.44
375.402	302.29
375.783	353.37
376.163	346.81
376.544	333.48
376.925	338.45
377.305	326.47
377.686	350.88
378.066	321.95
378.447	330.77
378.827	323.76
379.208	322.63
379.588	332.35
379.968	330.77
380.349	340.94
380.729	330.99
381.109	341.84
381.489	348.85
381.87	330.32
382.25	331.22
382.63	348.85
383.01	328.06
383.39	328.28
383.77	344.1
384.15	354.04
384.53	348.17
384.91	357.66
385.29	366.25
385.67	358.56
386.049	361.95
386.429	356.53
386.809	355.17
387.189	355.4
387.568	374.16
387.948	360.6
388.328	345.68
388.707	348.85
389.087	363.54
389.466	365.12
389.846	358.34
390.225	370.99
390.605	378.68
390.984	371.22
391.363	368.51
391.743	352.91
392.122	393.59
392.501	371.45
392.881	388.85
393.26	393.37
393.639	382.97
394.018	368.06
394.397	395.4
394.776	389.98
395.155	399.92
395.534	388.62
395.913	391.11
396.292	408.28
396.671	393.14
397.05	381.61
397.429	384.1
397.808	414.61
398.186	419.58
398.565	410.77
398.944	412.35
399.323	426.58
399.701	413.03
400.08	404.66
400.458	430.65
400.837	415.29
401.215	409.86
401.594	433.82
401.972	446.47
402.351	443.08
402.729	419.81
403.107	429.75
403.486	473.14
403.864	439.92
404.242	451.89
404.62	453.25
404.999	441.27
405.377	457.09
405.755	476.3
406.133	469.97
406.511	443.08
406.889	482.85
407.267	494.15
407.645	495.28
408.023	482.4
408.401	500.93
408.779	514.49
409.156	505
409.534	520.14
409.912	529.41
410.29	544.32
410.667	544.1
411.045	522.18
411.422	541.61
411.8	576.64
412.178	571.67
412.555	582.74
412.933	582.74
413.31	599.91
413.687	599.24
414.065	616.18
414.442	615.51
414.819	630.65
415.197	632.23
415.574	639.46
415.951	654.38
416.328	658.67
416.705	663.64
417.082	685.11
417.46	678.1
417.837	707.26
418.214	704.77
418.591	719.68
418.967	713.81
419.344	725.56
419.721	739.12
420.098	736.86
420.475	764.2
420.852	769.85
421.228	794.03
421.605	778.21
421.982	804.43
422.358	819.57
422.735	832.45
423.111	846.46
423.488	844.65
423.864	872.45
424.241	888.49
424.617	888.95
424.994	914.71
425.37	905.89
425.746	919.91
426.123	956.29
426.499	958.55
426.875	950.19
427.251	977.53
427.627	1018.43
428.003	1012.11
428.379	1049.17
428.756	1034.03
429.132	1055.04
429.507	1096.85
429.883	1074.48
430.259	1091.43
430.635	1120.35
431.011	1110.18
431.387	1121.93
431.763	1175.49
432.138	1164.64
432.514	1193.34
432.89	1196.96
433.265	1236.96
433.641	1222.5
434.016	1260.01
434.392	1282.38
434.767	1311.53
435.143	1326.22
435.518	1337.52
435.894	1387.92
436.269	1400.8
436.644	1423.62
437.02	1447.12
437.395	1437.86
437.77	1478.31
438.145	1495.03
438.52	1503.17
438.895	1555.82
439.271	1552.2
439.646	1590.4
440.021	1619.1
440.395	1612.09
440.77	1634.01
441.145	1656.83
441.52	1691.41
441.895	1689.83
442.27	1714.23
442.645	1720.56
443.019	1740.22
443.394	1765.76
443.769	1771.41
444.143	1803.05
444.518	1821.12
444.892	1791.97
445.267	1859.09
445.641	1833.78
446.016	1872.2
446.39	1869.48
446.764	1912.2
447.139	1898.18
447.513	1942.03
447.887	1918.75
448.262	1957.17
448.636	1922.59
449.01	1964.17
449.384	1997.17
449.758	1994.91
450.132	2043.27
450.506	2031.74
450.88	2053.21
451.254	2055.92
451.628	2050.27
452.002	2116.94
452.376	2141.57
452.75	2133.66
453.123	2147.67
453.497	2164.17
453.871	2193.54
454.244	2243.49
454.618	2274.45
454.992	2281.45
455.365	2291.85
455.739	2339.3
456.112	2359.64
456.486	2365.97
456.859	2410.04
457.232	2418.4
457.606	2444.61
457.979	2463.37
458.352	2521.22
458.725	2529.58
459.099	2541.11
459.472	2593.08
459.845	2581.33
460.218	2642.35
460.591	2644.83
460.964	2687.77
461.337	2724.15
461.71	2760.31
462.083	2794.43
462.456	2789.23
462.829	2833.08
463.201	2858.61
463.574	2868.33
463.947	2915.56
464.32	2925.73
464.692	2959.63
465.065	2951.72
465.438	3031.04
465.81	3081.66
466.183	3113.75
466.555	3196.68
466.928	3199.17
467.3	3156.23
467.672	3183.8
468.045	3279.84
468.417	3292.27
468.789	3316.9
469.161	3339.95
469.534	3386.73
469.906	3443.91
470.278	3493.4
470.65	3471.7
471.022	3541.76
471.394	3659.27
471.766	3643
472.138	3687.97
472.51	3760.73
472.882	3818.81
473.253	3861.75
473.625	3894.74
473.997	3958.47
474.369	3998.02
474.74	4027.39
475.112	4086.38
475.484	4154.17
475.855	4213.6
476.227	4227.61
476.598	4287.95
476.97	4395.29
477.341	4435.29
477.713	4543.76
478.084	4499.47
478.455	4635.74
478.827	4665.34
479.198	4769.07
479.569	4739.92
479.94	4876.41
480.311	4959.35
480.682	4971.55
481.053	5064.88
481.424	5143.3
481.795	5182.17
482.166	5269.62
482.537	5331.31
482.908	5428.49
483.279	5454.02
483.65	5569.05
484.021	5665.09
484.391	5640.46
484.762	5745.54
485.133	5779.44
485.503	5799.1
485.874	5954.8
486.244	5959.55
486.615	6076.15
486.985	6128.81
487.356	6240.22
487.726	6218.52
488.097	6395.02
488.467	6399.54
488.837	6473.88
489.207	6562.69
489.578	6639.98
489.948	6654.9
490.318	6802.24
490.688	6785.06
491.058	6875.91
491.428	6925.17
491.798	7000.2
492.168	7074.09
492.538	7127.88
492.908	7171.72
493.278	7250.13
493.648	7260.08
494.017	7367.65
494.387	7436.12
494.757	7439.51
495.126	7470.24
495.496	7483.8
495.866	7552.95
496.235	7663.68
496.605	7630.01
496.974	7649.67
497.344	7725.15
497.713	7742.78
498.082	7768.31
498.452	7849.89
498.821	7893.73
499.19	7935.77
499.559	8008.53
499.928	8081.3
500.298	8038.59
500.667	8062.54
501.036	8048.53
501.405	8189.09
501.774	8157.46
502.143	8185.02
502.512	8216.66
502.88	8277.45
503.249	8264.34
503.618	8279.03
503.987	8322.65
504.356	8323.55
504.724	8380.27
505.093	8374.62
505.462	8453.72
505.83	8424.11
506.199	8460.27
506.567	8516.99
506.936	8462.31
507.304	8615.75
507.672	8621.85
508.041	8620.95
508.409	8718.34
508.777	8689.42
509.145	8775.29
509.514	8728.97
509.882	8777.78
510.25	8746.59
510.618	8789.08
510.986	8759.93
511.354	8825.91
511.722	8882.18
512.09	8873.14
512.458	8838.79
512.826	8916.08
513.193	8895.74
513.561	8864.1
513.929	8930.09
514.297	9017.09
514.664	9017.77
515.032	8960.15
515.4	9062.06
515.767	9035.85
516.135	9117.66
516.502	9036.75
516.869	9126.92
517.237	9154.49
517.604	9060.03
517.972	9187.48
518.339	9201.5
518.706	9148.39
519.073	9154.49
519.44	9234.94
519.808	9233.36
520.175	9196.07
520.542	9253.47
520.909	9149.29
521.276	9265.45
521.643	9271.78
522.009	9268.61
522.376	9256.64
522.743	9278.1
523.11	9353.81
523.477	9350.64
523.843	9348.16
524.21	9448.72
524.577	9494.14
524.943	9428.83
525.31	9475.39
525.676	9488.95
526.043	9488.27
526.409	9523.97
526.776	9531.88
527.142	9550.64
527.508	9543.41
527.874	9543.41
528.241	9567.36
528.607	9576.85
528.973	9529.85
529.339	9522.84
529.705	9648.49
530.071	9626.12
530.437	9639.9
530.803	9580.47
531.169	9618.21
531.535	9574.14
531.901	9596.29
532.267	9566.46
532.632	9618.21
532.998	9574.82
533.364	9633.35
533.73	9633.57
534.095	9602.39
534.461	9558.55
534.826	9533.01
535.192	9603.52
535.557	9628.83
535.923	9514.26
536.288	9487.36
536.653	9540.7
537.019	9501.83
537.384	9490.75
537.749	9460.02
538.114	9477.87
538.479	9443.52
538.845	9430.19
539.21	9434.26
539.575	9432.9
539.94	9428.16
540.305	9409.85
540.67	9319.46
541.034	9388.16
541.399	9361.27
541.764	9342.28
542.129	9356.29
542.494	9310.42
542.858	9361.49
543.223	9281.04
543.587	9293.24
543.952	9251.21
544.316	9239.69
544.681	9241.49
545.045	9210.53
545.41	9257.99
545.774	9144.55
546.138	9207.14
546.503	9160.37
546.867	9132.12
547.231	9090.76
547.595	9073.59
547.959	9154.04
548.324	9033.59
548.688	9077.43
549.052	9079.46
549.416	9029.3
549.779	8907.72
550.143	8983.2
550.507	8995.4
550.871	8903.65
551.235	8870.66
551.599	8967.6
551.962	8921.95
552.326	8919.02
552.689	8904.55
553.053	8865.01
553.417	8801.51
553.78	8852.13
554.143	8845.8
554.507	8872.24
554.87	8834.95
555.234	8873.82
555.597	8761.96
555.96	8777.1
556.323	8798.34
556.686	8751.79
557.05	8825.23
557.413	8848.06
557.776	8780.26
558.139	8810.32
558.502	8745.69
558.865	8774.61
559.228	8773.26
559.59	8828.62
559.953	8866.59
560.316	8835.18
560.679	8867.49
561.041	8871.33
561.404	8882.63
561.767	8938.23
562.129	8822.3
562.492	8847.61
562.854	8836.53
563.217	8837.44
563.579	8835.18
563.941	8869.53
564.304	8917.44
564.666	9000.37
565.028	8911.33
565.39	8929.64
565.753	8981.16
566.115	9015.06
566.477	9012.57
566.839	9004.89
567.201	9065.68
567.563	9011.67
567.925	9056.87
568.287	9082.4
568.648	9086.02
569.01	9085.34
569.372	9136.64
569.734	9145.9
570.095	9161.72
570.457	9190.65
570.819	9171.44
571.18	9211.89
571.542	9236.3
571.903	9227.48
572.265	9265
572.626	9236.3
572.987	9236.3
573.349	9266.8
573.71	9323.07
574.071	9251.21
574.432	9433.81
574.794	9404.88
575.155	9419.57
575.516	9367.14
575.877	9441.26
576.238	9459.79
576.599	9512.9
576.96	9489.17
577.32	9523.97
577.681	9522.39
578.042	9443.97
578.403	9553.12
578.763	9597.42
579.124	9575.95
579.485	9642.84
579.845	9685.78
580.206	9610.98
580.566	9625.66
580.927	9727.58
581.287	9759.45
581.648	9705.21
582.008	9786.11
582.368	9714.93
582.728	9765.77
583.089	9730.75
583.449	9761.93
583.809	9828.82
584.169	9857.52
584.529	9754.7
584.889	9918.09
585.249	9867.92
585.609	9881.93
585.969	9933.91
586.329	9918.76
586.688	9928.03
587.048	9945.2
587.408	9986.56
587.768	9921.48
588.127	9955.83
588.487	10008.48
588.846	10015.49
589.206	9913.34
589.565	10034.24
589.925	10055.71
590.284	10058.87
590.643	10099.78
591.003	10108.59
591.362	10156.27
591.721	10134.8
592.08	10105.43
592.44	10174.8
592.799	10177.74
593.158	10087.12
593.517	10143.39
593.876	10196.95
594.235	10111.3
594.593	10140
594.952	10187.46
595.311	10186.55
595.67	10158.31
596.029	10270.85
596.387	10249.6
596.746	10304.97
597.104	10229.49
597.463	10280.56
597.822	10252.99
598.18	10212.32
598.538	10228.59
598.897	10333.44
599.255	10277.17
599.613	10384.74
599.972	10347
600.33	10352.43
600.688	10304.52
601.046	10397.85
601.404	10351.3
601.762	10387.9
602.12	10409.15
602.478	10402.37
602.836	10329.83
603.194	10382.48
603.552	10405.98
603.91	10391.52
604.268	10391.07
604.625	10369.37
604.983	10457.06
605.341	10429.94
605.698	10402.14
606.056	10439.2
606.413	10413.44
606.771	10440.56
607.128	10493.21
607.485	10413.21
607.843	10455.93
608.2	10527.56
608.557	10464.29
608.914	10450.28
609.272	10563.72
609.629	10566.43
609.986	10635.81
610.343	10598.29
610.7	10625.19
611.057	10605.07
611.414	10576.6
611.771	10605.75
612.127	10609.59
612.484	10613.66
612.841	10645.3
613.198	10602.81
613.554	10588.58
613.911	10678.07
614.267	10745.86
614.624	10698.63
614.98	10683.04
615.337	10774.79
615.693	10780.89
616.05	10648.91
616.406	10758.74
616.762	10689.37
617.118	10739.76
617.475	10742.47
617.831	10750.38
618.187	10797.84
618.543	10789.48
618.899	10872.19
619.255	10814.33
619.611	10796.71
619.967	10870.38
620.323	10820.21
620.678	10853.88
621.034	10833.32
621.39	10783.83
621.746	10755.8
622.101	11036.02
622.457	10848.91
622.812	10822.47
623.168	10859.53
623.523	10803.49
623.879	10876.48
624.234	10783.37
624.589	10883.26
624.945	10832.86
625.3	10819.76
625.655	10920.09
626.01	10834.45
626.365	10871.73
626.72	10865.18
627.075	10889.13
627.43	10741.57
627.785	10751.06
628.14	10815.24
628.495	10784.73
628.85	10740.21
629.205	10818.18
629.559	10829.7
629.914	10799.65
630.269	10811.62
630.623	10735.01
630.978	10729.59
631.332	10807.33
631.687	10698.86
632.041	10756.26
632.396	10726.43
632.75	10697.5
633.104	10706.09
633.459	10669.93
633.813	10696.6
634.167	10665.19
634.521	10695.69
634.875	10661.12
635.229	10573.89
635.583	10612.98
635.937	10608.46
636.291	10595.36
636.645	10530.5
636.999	10488.69
637.352	10539.77
637.706	10489.15
638.06	10538.41
638.413	10492.76
638.767	10503.83
639.121	10457.06
639.474	10537.73
639.828	10476.26
640.181	10422.03
640.534	10459.09
640.888	10422.93
641.241	10352.43
641.594	10360.56
641.947	10434.01
642.301	10418.41
642.654	10474.68
643.007	10420.67
643.36	10445.53
643.713	10348.13
644.066	10403.27
644.419	10280.34
644.771	10264.29
645.124	10163.96
645.477	10143.84
645.83	10172.54
646.182	10098.87
646.535	10070.17
646.888	10060.46
647.24	9981.14
647.593	9998.54
647.945	10033.11
648.298	10007.58
648.65	10016.62
649.002	9921.25
649.355	10029.72
649.707	10017.75
650.059	10052.32
650.411	10154.69
650.763	10217.06
651.115	10212.32
651.467	10228.59
651.819	10268.13
652.171	10261.35
652.523	10183.62
652.875	10211.19
653.227	10153.56
653.578	10273.78
653.93	10234.01
654.282	10204.18
654.633	10242.6
654.985	10185.42
655.337	10281.69
655.688	10208.02
656.039	10295.7
656.391	10161.24
656.742	10153.33
657.094	10250.28
657.445	10272.2
657.796	10229.94
658.147	10166.89
658.498	10293.67
658.849	10257.96
659.2	10293.9
659.551	10186.55
659.902	10236.95
660.253	10225.65
660.604	10274.24
660.955	10163.73
661.306	10177.29
661.656	10188.14
662.007	10325.76
662.358	10257.96
662.708	10271.3
663.059	10286.66
663.409	10203.5
663.76	10282.82
664.11	10274.91
664.461	10308.58
664.811	10310.17
665.161	10245.08
665.511	10269.04
665.862	10268.59
666.212	10325.53
666.562	10295.48
666.912	10301.35
667.262	10294.12
667.612	10316.04
667.962	10352.43
668.312	10273.78
668.662	10343.39
669.011	10332.09
669.361	10282.6
669.711	10265.42
670.06	10331.41
670.41	10264.29
670.76	10202.6
671.109	10244.63
671.459	10238.3
671.808	10201.92
672.157	10259.55
672.507	10252.32
672.856	10212.32
673.205	10267.68
673.554	10137.29
673.904	10228.59
674.253	10240.56
674.602	10153.33
674.951	10001.02
675.3	9998.76
675.649	10121.92
675.998	10142.26
676.346	10170.96
676.695	10188.36
677.044	10115.37
677.393	10041.25
677.741	10069.27
678.09	10035.37
678.438	10030.63
678.787	10065.88
679.135	10119.44
679.484	9998.31
679.832	10058.65
680.181	9956.96
680.529	9987.69
680.877	9968.71
681.225	9977.97
681.573	10022.94
681.922	9874.25
682.27	9912.44
682.618	9875.38
682.966	9871.08
683.314	9915.6
683.661	9826.11
684.009	9824.08
684.357	9787.47
684.705	9796.73
685.053	9732.33
685.4	9747.47
685.748	9658.66
686.095	9701.82
686.443	9673.8
686.79	9634.7
687.138	9667.92
687.485	9573.24
687.832	9542.28
688.18	9581.15
688.527	9520.36
688.874	9544.09
689.221	9548.38
689.568	9410.53
689.915	9434.48
690.262	9410.3
690.609	9407.37
690.956	9377.08
691.303	9398.78
691.65	9242.85
691.997	9310.87
692.344	9215.73
692.69	9181.83
693.037	9206.02
693.383	9111.1
693.73	9152.68
694.077	9076.98
694.423	8996.98
694.769	8970.31
695.116	8933.93
695.462	8980.94
695.808	8954.04
696.155	8965.34
696.501	8812.58
696.847	8839.02
697.193	8789.98
697.539	8820.04
697.885	8747.27
698.231	8683.77
698.577	8681.96
698.923	8594.05
699.269	8592.92
699.614	8614.39
699.96	8600.61
700.306	8559.48
700.651	8559.03
700.997	8479.71
701.342	8472.93
701.688	8436.77
702.033	8381.18
702.379	8367.62
702.724	8356.77
703.069	8390.67
703.415	8267.51
703.76	8307.96
704.105	8196.32
704.45	8249.2
704.795	8210.11
705.14	8205.82
705.485	8191.13
705.83	8121.07
706.175	8157
706.52	8056.89
706.865	8039.72
707.209	8123.56
707.554	7964.92
707.899	8014.86
708.243	7972.15
708.588	7990.68
708.932	7874.98
709.277	7858.71
709.621	7875.2
709.966	7816
710.31	7811.02
710.654	7749.1
710.998	7759.27
711.342	7776.22
711.687	7784.36
712.031	7732.61
712.375	7733.51
712.719	7705.72
713.063	7689.67
713.407	7703
713.75	7657.36
714.094	7641.54
714.438	7580.52
714.782	7645.6
715.125	7611.03
715.469	7599.05
715.812	7532.16
716.156	7536.23
716.499	7464.59
716.843	7510.47
717.186	7457.36
717.53	7509.34
717.873	7477.7
718.216	7491.03
718.559	7394.54
718.902	7370.81
719.246	7408.32
719.589	7383.01
719.932	7361.54
720.275	7349.57
720.617	7404.71
720.96	7343.92
721.303	7321.54
721.646	7346.18
721.989	7375.33
722.331	7300.3
722.674	7336.23
723.016	7426.4
723.359	7378.49
723.701	7298.72
724.044	7308.21
724.386	7318.38
724.729	7276.12
725.071	7286.29
725.413	7260.3
725.755	7270.7
726.097	7247.42
726.439	7207.42
726.782	7197.71
727.124	7233.64
727.465	7182.11
727.807	7237.93
728.149	7203.58
728.491	7162
728.833	7163.81
729.175	7209.68
729.516	7257.14
729.858	7200.87
730.199	7189.57
730.541	7170.14
730.882	7185.05
731.224	7212.62
731.565	7175.79
731.906	7149.35
732.248	7241.55
732.589	7187.09
732.93	7128.33
733.271	7186.41
733.612	7147.54
733.953	7176.92
734.294	7143.7
734.635	7153.19
734.976	7189.12
735.317	7123.13
735.658	7184.83
735.999	7129.23
736.339	7178.27
736.68	7196.58
737.021	7174.88
737.361	7159.29
737.702	7217.82
738.042	7158.16
738.383	7277.7
738.723	7198.61
739.063	7226.41
739.404	7270.92
739.744	7201.77
740.084	7195.9
740.424	7254.43
740.764	7184.6
741.104	7326.74
741.444	7240.42
741.784	7276.57
742.124	7310.47
742.464	7363.13
742.804	7337.59
743.143	7378.49
743.483	7336.23
743.823	7392.05
744.162	7391.6
744.502	7458.04
744.841	7430.47
745.181	7473.41
745.52	7542.56
745.86	7543.91
746.199	7567.64
746.538	7608.54
746.877	7767.18
747.216	7718.37
747.556	7773.28
747.895	7855.09
748.234	7880.17
748.573	7934.64
748.911	7935.31
749.25	8013.73
749.589	8014.41
749.928	8131.69
750.267	8190.22
750.605	8256.44
750.944	8255.53
751.283	8407.84
751.621	8493.94
751.96	8504.56
752.298	8662.98
752.636	8716.31
752.975	8835.63
753.313	8889.87
753.651	9045.12
753.989	9137.09
754.327	9257.77
754.666	9280.14
755.004	9455.5
755.342	9617.3
755.679	9681.71
756.017	9806.9
756.355	10028.14
756.693	10111.3
757.031	10279.89
757.368	10289.83
757.706	10574.11
758.044	10645.53
758.381	10814.79
758.719	11002.58
759.056	11194.21
759.394	11288.45
759.731	11410.25
760.068	11584.48
760.405	11780.86
760.743	11895.89
761.08	12170.91
761.417	12266.05
761.754	12502.88
762.091	12618.58
762.428	12839.82
762.765	12915.3
763.102	13163.88
763.438	13353.25
763.775	13461.95
