Data from hue_320_FLMS001491_83.txt Node
Date: Mon Feb 06 15:47:49 GMT 2017
User: dcchb
Spectrometer: FLMS00149
Trigger mode: 0
Integration Time (sec): 2.000000E-2
Scans to average: 10
Electric dark correction enabled: true
Nonlinearity correction enabled: false
Boxcar width: 0
XAxis mode: Wavelengths
Number of Pixels in Spectrum: 2048
>>>>>Begin Spectral Data<<<<<
341.393	-12.8
341.776	-12.8
342.16	-12.8
342.543	-58.44
342.927	-61.38
343.31	-57.77
343.693	-75.85
344.077	-85.11
344.46	-56.64
344.843	-44.89
345.226	-46.47
345.61	-38.33
345.993	-3.98
346.376	-17.09
346.759	8.67
347.142	38.73
347.525	27.43
347.908	53.42
348.291	89.8
348.674	87.77
349.057	120.31
349.44	119.86
349.823	115.79
350.206	145.84
350.588	182.68
350.971	227.65
351.354	238.95
351.737	240.76
352.119	254.54
352.502	260.87
352.884	264.94
353.267	267.2
353.65	298.83
354.032	312.39
354.414	312.39
354.797	322.56
355.179	327.08
355.562	311.94
355.944	302.9
356.326	329.34
356.709	310.81
357.091	343.13
357.473	320.75
357.855	325.95
358.238	333.41
358.62	333.18
359.002	343.35
359.384	343.58
359.766	346.97
360.148	341.32
360.53	338.61
360.912	333.64
361.294	330.02
361.676	316.23
362.057	321.66
362.439	313.97
362.821	323.01
363.203	328.21
363.584	314.2
363.966	313.07
364.348	336.8
364.729	346.52
365.111	328.66
365.493	317.14
365.874	287.76
366.256	317.36
366.637	325.95
367.019	318.27
367.4	329.12
367.781	320.98
368.163	316.46
368.544	306.52
368.925	299.51
369.306	311.94
369.688	317.59
370.069	325.05
370.45	298.83
370.831	306.52
371.212	312.17
371.593	301.09
371.974	322.34
372.355	313.97
372.736	304.94
373.117	313.75
373.498	306.52
373.879	319.62
374.26	322.56
374.641	312.62
375.021	312.84
375.402	302
375.783	331.6
376.163	300.87
376.544	334.31
376.925	320.3
377.305	307.87
377.686	316.69
378.066	314.2
378.447	336.8
378.827	323.92
379.208	326.4
379.588	334.54
379.968	314.88
380.349	318.04
380.729	328.89
381.109	334.09
381.489	325.73
381.87	316.46
382.25	329.12
382.63	313.75
383.01	339.51
383.39	332.96
383.77	342.22
384.15	337.48
384.53	326.4
384.91	360.3
385.29	345.61
385.67	351.26
386.049	334.31
386.429	349.91
386.809	358.27
387.189	344.26
387.568	360.53
387.948	356.91
388.328	343.35
388.707	358.95
389.087	373.86
389.466	345.84
389.846	370.92
390.225	382
390.605	329.34
390.984	357.59
391.363	365.05
391.743	382
392.122	378.61
392.501	367.53
392.881	376.12
393.26	393.52
393.639	369.11
394.018	376.8
394.397	354.43
394.776	398.72
395.155	367.98
395.534	382.22
395.913	362.11
396.292	383.13
396.671	384.03
397.05	372.96
397.429	388.78
397.808	387.87
398.186	401.88
398.565	383.58
398.944	388.32
399.323	386.06
399.701	413.63
400.08	388.78
400.458	386.06
400.837	399.17
401.215	412.5
401.594	405.27
401.972	409.57
402.351	421.32
402.729	407.31
403.107	426.74
403.486	405.5
403.864	412.28
404.242	423.35
404.62	408.66
404.999	452.73
405.377	439.62
405.755	433.07
406.133	454.76
406.511	439.62
406.889	463.8
407.267	437.81
407.645	453.63
408.023	464.71
408.401	450.92
408.779	462.22
409.156	470.81
409.534	480.07
409.912	476.46
410.29	494.31
410.667	482.33
411.045	478.26
411.422	513.29
411.8	509.68
412.178	525.04
412.555	525.27
412.933	518.72
413.31	527.08
413.687	528.21
414.065	540.86
414.442	537.02
414.819	542.22
415.197	549
415.574	570.92
415.951	578.83
416.328	573.85
416.705	592.84
417.082	589.22
417.46	584.02
417.837	611.14
418.214	611.59
418.591	605.94
418.967	593.29
419.344	621.31
419.721	642.55
420.098	621.09
420.475	625.15
420.852	645.04
421.228	646.62
421.605	659.05
421.982	657.69
422.358	677.36
422.735	661.54
423.111	708.09
423.488	694.53
423.864	693.17
424.241	722.55
424.617	735.66
424.994	701.54
425.37	737.01
425.746	742.21
426.123	719.61
426.499	738.6
426.875	732.72
427.251	748.09
427.627	765.26
428.003	765.94
428.379	783.79
428.756	792.38
429.132	808.65
429.507	799.61
429.883	810.68
430.259	839.61
430.635	809.33
431.011	842.1
431.387	848.88
431.763	870.8
432.138	876.67
432.514	891.13
432.89	864.02
433.265	926.16
433.641	906.5
434.016	909.89
434.392	921.87
434.767	957.35
435.143	944.92
435.518	935.43
435.894	957.12
436.269	966.39
436.644	989.21
437.02	975.65
437.395	979.49
437.77	1000.51
438.145	1002.09
438.52	1044.13
438.895	1043.22
439.271	1036.89
439.646	1061.75
440.021	1052.49
440.395	1056.78
440.77	1060.4
441.145	1078.7
441.52	1089.77
441.895	1065.14
442.27	1106.04
442.645	1081.19
443.019	1074.41
443.394	1106.04
443.769	1108.08
444.143	1096.1
444.518	1098.81
444.892	1124.8
445.267	1107.17
445.641	1143.33
446.016	1125.7
446.39	1138.13
446.764	1122.09
447.139	1139.49
447.513	1154.63
447.887	1150.11
448.262	1162.09
448.636	1155.08
449.01	1165.48
449.384	1171.81
449.758	1165.03
450.132	1218.13
450.506	1187.85
450.88	1193.05
451.254	1212.71
451.628	1208.41
452.002	1230.79
452.376	1231.01
452.75	1234.18
453.123	1238.7
453.497	1284.57
453.871	1271.92
454.244	1265.81
454.618	1303.1
454.992	1306.04
455.365	1314.85
455.739	1333.38
456.112	1343.1
456.486	1362.08
456.859	1326.83
457.232	1339.94
457.606	1357.34
457.979	1361.18
458.352	1366.83
458.725	1398.92
459.099	1384.68
459.472	1415.87
459.845	1400.27
460.218	1444.11
460.591	1464.45
460.964	1448.41
461.337	1465.81
461.71	1488.86
462.083	1502.87
462.456	1485.02
462.829	1517.11
463.201	1528.18
463.574	1523.66
463.947	1539.71
464.32	1572.25
464.692	1596.43
465.065	1589.65
465.438	1595.75
465.81	1616.31
466.183	1607.95
466.555	1647.05
466.928	1662.19
467.3	1631
467.672	1673.71
468.045	1711
468.417	1724.79
468.789	1726.14
469.161	1752.36
469.534	1757.1
469.906	1775.63
470.278	1782.64
470.65	1815.18
471.022	1851.79
471.394	1860.6
471.766	1901.05
472.138	1875.06
472.51	1920.49
472.882	1905.8
473.253	1925.91
473.625	1993.03
473.997	1991.67
474.369	2004.55
474.74	2019.47
475.112	2029.86
475.484	2081.61
475.855	2131.78
476.227	2109.63
476.598	2164.55
476.97	2159.8
477.341	2207.48
477.713	2265.34
478.084	2244.55
478.455	2302.17
478.827	2280.25
479.198	2334.94
479.569	2371.55
479.94	2378.1
480.311	2395.95
480.682	2453.81
481.053	2507.59
481.424	2537.42
481.795	2559.57
482.166	2583.29
482.537	2577.42
482.908	2630.98
483.279	2646.79
483.65	2690.64
484.021	2715.04
484.391	2741.71
484.762	2759.79
485.133	2793.91
485.503	2810.86
485.874	2856.73
486.244	2887.24
486.615	2932.44
486.985	2951.19
487.356	3028.03
487.726	3029.61
488.097	3120.91
488.467	3055.6
488.837	3100.79
489.207	3176.5
489.578	3197.51
489.948	3214.24
490.318	3248.81
490.688	3259.66
491.058	3297.4
491.428	3341.01
491.798	3368.58
492.168	3401.35
492.538	3395.02
492.908	3432.54
493.278	3472.08
493.648	3488.58
494.017	3523.61
494.387	3551.18
494.757	3543.72
495.126	3568.58
495.496	3634.79
495.866	3629.59
496.235	3640.22
496.605	3682.93
496.974	3717.95
497.344	3710.04
497.713	3734.9
498.082	3701.91
498.452	3811.74
498.821	3785.75
499.19	3817.61
499.559	3850.6
499.928	3869.59
500.298	3889.02
500.667	3902.36
501.036	3920.89
501.405	3924.05
501.774	3933.77
502.143	3942.13
502.512	3987.1
502.88	3993.88
503.249	4011.73
503.618	4056.7
503.987	3997.04
504.356	4040.66
504.724	4084.95
505.093	4094.89
505.462	4127.89
505.83	4118.62
506.199	4158.17
506.567	4197.26
506.936	4152.74
507.304	4226.19
507.672	4235.23
508.041	4280.2
508.409	4284.49
508.777	4319.07
509.145	4306.41
509.514	4283.36
509.882	4334.89
510.25	4361.33
510.618	4291.5
510.986	4369.46
511.354	4446.3
511.722	4404.26
512.09	4454.88
512.458	4435.45
512.826	4465.96
513.193	4459.63
513.561	4509.57
513.929	4476.35
514.297	4517.71
514.664	4532.39
515.032	4555.9
515.4	4566.74
515.767	4609
516.135	4562.9
516.502	4586.86
516.869	4654.88
517.237	4633.86
517.604	4611.94
517.972	4693.97
518.339	4721.77
518.706	4690.81
519.073	4710.02
519.44	4726.06
519.808	4765.16
520.175	4722.45
520.542	4815.55
520.909	4811.26
521.276	4819.85
521.643	4834.08
522.009	4871.14
522.376	4868.66
522.743	4889.9
523.11	4961.08
523.477	4978.03
523.843	4985.72
524.21	4991.59
524.577	5065.26
524.943	5085.6
525.31	5101.19
525.676	5134.86
526.043	5145.26
526.409	5146.16
526.776	5209.44
527.142	5192.72
527.508	5218.48
527.874	5272.71
528.241	5244.24
528.607	5340.74
528.973	5395.88
529.339	5341.87
529.705	5414.86
530.071	5433.16
530.437	5396.33
530.803	5475.2
531.169	5517.91
531.535	5460.96
531.901	5566.72
532.267	5571.01
532.632	5562.2
532.998	5627.28
533.364	5671.8
533.73	5658.47
534.095	5733.04
534.461	5713.38
534.826	5724.91
535.192	5717.22
535.557	5833.38
535.923	5818.01
536.288	5838.8
536.653	5844.45
537.019	5857.56
537.384	5884
537.749	5893.04
538.114	5952.92
538.479	5975.52
538.845	6013.03
539.21	6021.17
539.575	6030.43
539.94	5999.93
540.305	6070.43
540.67	6100.04
541.034	6124.44
541.399	6137.1
541.764	6147.49
542.129	6182.3
542.494	6239.24
542.858	6206.25
543.223	6241.5
543.587	6295.06
543.952	6321.5
544.316	6330.54
544.681	6338.45
545.045	6413.93
545.41	6399.24
545.774	6357.43
546.138	6410.99
546.503	6446.47
546.867	6502.51
547.231	6497.77
547.595	6492.57
547.959	6537.09
548.324	6595.84
548.688	6558.33
549.052	6624.09
549.416	6624.54
549.779	6714.26
550.143	6668.16
550.507	6726.01
550.871	6789.28
551.235	6693.92
551.599	6834.71
551.962	6820.47
552.326	6830.41
552.689	6902.73
553.053	6846.01
553.417	6875.61
553.78	6917.64
554.143	6911.54
554.507	6969.84
554.87	6984.53
555.234	7091.2
555.597	6981.37
555.96	7089.62
556.323	7116.06
556.686	7039.9
557.05	7133
557.413	7136.62
557.776	7188.37
558.139	7192.21
558.502	7205.77
558.865	7241.7
559.228	7234.47
559.59	7270.85
559.953	7335.26
560.316	7403.05
560.679	7331.87
561.041	7373.45
561.404	7403.96
561.767	7470.4
562.129	7472.66
562.492	7492.32
562.854	7508.81
563.217	7534.35
563.579	7575.48
563.941	7575.93
564.304	7635.36
564.666	7609.38
565.028	7684.63
565.39	7719.66
565.753	7741.8
566.115	7732.99
566.477	7772.76
566.839	7772.76
567.201	7869.26
567.563	7788.58
567.925	7957.16
568.287	7879.88
568.648	8007.78
569.01	7927.56
569.372	8020.44
569.734	8050.95
570.095	8063.6
570.457	8142.24
570.819	8177.72
571.18	8188.34
571.542	8186.31
571.903	8220.43
572.265	8260.66
572.626	8254.11
572.987	8329.81
573.349	8400.32
573.71	8510.82
574.071	8520.31
574.432	8528.22
574.794	8690.93
575.155	8677.82
575.516	8703.36
575.877	8782.45
576.238	8843.69
576.599	8882.34
576.96	8880.3
577.32	8993.97
577.681	9054.76
578.042	9219.05
578.403	9242.78
578.763	9250.46
579.124	9344.7
579.485	9538.82
579.845	9569.1
580.206	9694.07
580.566	9820.62
580.927	9899.71
581.287	10047.5
581.648	10144.68
582.008	10324.79
582.368	10387.38
582.728	10577.43
583.089	10713.48
583.449	10793.93
583.809	10895.62
584.169	11087.93
584.529	11289.96
584.889	11557.29
585.249	11607.92
585.609	11739.89
585.969	11998.41
586.329	12171.06
586.688	12408.57
587.048	12581.67
587.408	12719.98
587.768	13025.05
588.127	13136.24
588.487	13378.26
588.846	13719.95
589.206	13778.93
589.565	14058.25
589.925	14433.15
590.284	14528.29
590.643	14881.95
591.003	15194.49
591.362	15361.49
591.721	15627.02
592.08	15936.84
592.44	16221.58
592.799	16546.32
593.158	16653.21
593.517	17016.13
593.876	17426.75
594.235	17561.43
594.593	17912.83
594.952	18130.23
595.311	18392.82
595.67	18736.09
596.029	19149.19
596.387	19441.38
596.746	19689.51
597.104	19971.31
597.463	20135.6
597.822	20582.82
598.18	20727
598.538	21039.53
598.897	21427.32
599.255	21459.86
599.613	22096.23
599.972	22342.1
600.33	22517.68
600.688	22805.59
601.046	23053.26
601.404	23419.36
601.762	23634.94
602.12	24083.52
602.478	24247.36
602.836	24417.97
603.194	24707.68
603.552	24838.3
603.91	25145.64
604.268	25457.27
604.625	25677.6
604.983	25967.99
605.341	26132.05
605.698	26517.35
606.056	26823.11
606.413	26921.18
606.771	27270.78
607.128	27455.63
607.485	27719.36
607.843	27931.78
608.2	28210.87
608.557	28526.79
608.914	28622.16
609.272	29021.47
609.629	29175.14
609.986	29438.41
610.343	29471.63
610.7	29927.43
611.057	30083.14
611.414	30206.75
611.771	30517.02
612.127	30813.74
612.484	30964.47
612.841	31173.5
613.198	31122.2
613.554	31445.81
613.911	31718.8
614.267	31961.05
614.624	31943.88
614.98	32130.77
615.337	32558.1
615.693	32566.91
616.05	32698.66
616.406	32956.51
616.762	33046
617.118	33196.95
617.475	33304.97
617.831	33618.86
618.187	33590.84
618.543	33865.41
618.899	34156.02
619.255	34181.33
619.611	34208
619.967	34500.87
620.323	34697.93
620.678	34539.29
621.034	34732.73
621.39	34854.54
621.746	34866.06
622.101	35378.36
622.457	34947.64
622.812	35277.8
623.168	35527.96
623.523	35492.03
623.879	35805.24
624.234	35498.36
624.589	35694.29
624.945	35891.12
625.3	35936.99
625.655	36101.73
626.01	36091.34
626.365	36221.28
626.72	36280.26
627.075	36328.62
627.43	36327.94
627.785	36392.57
628.14	36515.06
628.495	36715.73
628.85	36552.12
629.205	36596.64
629.559	36781.72
629.914	36667.6
630.269	36844.99
630.623	36685.9
630.978	36694.94
631.332	36968.15
631.687	36982.39
632.041	36841.15
632.396	36980.81
632.75	36868.49
633.104	36936.51
633.459	36891.77
633.813	36927.25
634.167	36918.21
634.521	36895.61
634.875	37099.45
635.229	36937.64
635.583	36973.12
635.937	36989.85
636.291	36932.22
636.645	37004.54
636.999	36810.42
637.352	37138.77
637.706	36932.45
638.06	37207.69
638.413	36953.01
638.767	36930.19
639.121	37109.17
639.474	36802.96
639.828	36962.28
640.181	37019.45
640.534	37123.85
640.888	36891.09
641.241	36691.78
641.594	36849.96
641.947	37013.35
642.301	36822.17
642.654	36923.18
643.007	36798.89
643.36	36968.6
643.713	36880.02
644.066	36948.94
644.419	36744.43
644.771	36632.12
645.124	36252.46
645.477	36238.23
645.83	35966.82
646.182	35832.14
646.535	35869.2
646.888	35777
647.24	35787.84
647.593	35981.29
647.945	35892.02
648.298	35654.97
648.65	35674.17
649.002	35551.01
649.355	35786.04
649.707	35713.04
650.059	35898.8
650.411	36186.48
650.763	36278.45
651.115	36722.06
651.467	36438
651.819	36562.97
652.171	36408.84
652.523	36393.7
652.875	36484.78
653.227	36151.68
653.578	36624.43
653.93	36438.22
654.282	36301.96
654.633	36210.43
654.985	36355.96
655.337	36324.78
655.688	36343.54
656.039	36378.11
656.391	36044.79
656.742	36308.28
657.094	36307.15
657.445	36364.55
657.796	36251.79
658.147	36209.53
658.498	36247.04
658.849	36299.7
659.2	36278.45
659.551	36170.43
659.902	36271.9
660.253	36204.1
660.604	36281.84
660.955	36047.27
661.306	36256.76
661.656	36108.74
662.007	36122.98
662.358	36070.32
662.708	36094.28
663.059	36195.74
663.409	36044.33
663.76	36040.49
664.11	35947.16
664.461	36129.53
664.811	36012.02
665.161	36175.86
665.511	36047.27
665.862	36007.05
666.212	36191.45
666.562	36173.37
666.912	36086.82
667.262	36116.65
667.612	35974.28
667.962	36083.2
668.312	35978.8
668.662	36066.26
669.011	36015.41
669.361	35953.72
669.711	36025.35
670.06	35909.65
670.41	35896.32
670.76	35897.67
671.109	36021.28
671.459	36082.07
671.808	35909.88
672.157	35896.09
672.507	35602.54
672.856	35813.61
673.205	35771.12
673.554	35828.97
673.904	35796.21
674.253	36002.53
674.602	35718.02
674.951	35440.96
675.3	35217.24
675.649	35647.74
675.998	35657.23
676.346	35763.66
676.695	35924.79
677.044	35603.67
677.393	35533.16
677.741	35660.84
678.09	35542.43
678.438	35598.7
678.787	35649.09
679.135	35615.19
679.484	35314.64
679.832	35483.22
680.181	35255.43
680.529	35461.07
680.877	35294.52
681.225	35260.85
681.573	35448.64
681.922	35159.16
682.27	35017.92
682.618	35152.38
682.966	35091.14
683.314	35087.07
683.661	35000.75
684.009	34888.88
684.357	34865.83
684.705	34669.46
685.053	34741.54
685.4	34651.15
685.748	34625.61
686.095	34538.16
686.443	34318.05
686.79	34485.28
687.138	34581.32
687.485	34388.56
687.832	34261.56
688.18	34303.59
688.527	34148.79
688.874	34143.59
689.221	34127.1
689.568	34010.04
689.915	33923.71
690.262	33830.16
690.609	33798.07
690.956	33841.68
691.303	33554
691.65	33513.33
691.997	33635.81
692.344	33311.07
692.69	33269.94
693.037	33403.27
693.383	33057.52
693.73	33272.66
694.077	33017.3
694.423	32969.61
694.769	32979.56
695.116	32758.32
695.462	32708.15
695.808	32672.67
696.155	32709.28
696.501	32463.19
696.847	32494.15
697.193	32346.58
697.539	32333.25
697.885	32126.02
698.231	32068.17
698.577	32143.42
698.923	31893.26
699.269	31754.05
699.614	31738.91
699.96	31660.72
700.306	31544.11
700.651	31523.32
700.997	31459.37
701.342	31384.34
701.688	31492.82
702.033	31198.81
702.379	31203.78
702.724	31034.52
703.069	31182.54
703.415	30752.95
703.76	30950.23
704.105	30941.42
704.45	30825.71
704.795	30621.2
705.14	30510.02
705.485	30585.95
705.83	30462.33
706.175	30482.22
706.52	30383.69
706.865	30281.1
707.209	30249.91
707.554	30251.04
707.899	30293.07
708.243	29926.76
708.588	30020.54
708.932	29677.5
709.277	29715.91
709.621	29763.37
709.966	29434.79
710.31	29576.03
710.654	29313.89
710.998	29441.57
711.342	29413.1
711.687	29262.14
712.031	29184.63
712.375	29029.15
712.719	29134.23
713.063	29029.83
713.407	29166.32
713.75	28961.13
714.094	28963.39
714.438	28795.03
714.782	28856.05
715.125	28627.13
715.469	28791.19
715.812	28579.9
716.156	28433.91
716.499	28547.81
716.843	28486.12
717.186	28324.99
717.53	28434.82
717.873	28410.19
718.216	28340.13
718.559	28176.75
718.902	28056.75
719.246	28164.77
719.589	28142.62
719.932	27913.93
720.275	28052.91
720.617	27870.99
720.96	27880.93
721.303	27798
721.646	27842.74
721.989	27640.94
722.331	27800.03
722.674	27716.19
723.016	27658.11
723.359	27485.69
723.701	27579.47
724.044	27411.34
724.386	27300.61
724.729	27430.1
725.071	27396.65
725.413	27310.78
725.755	27292.93
726.097	27203.21
726.439	27064.91
726.782	27173.38
727.124	27250.89
727.465	26961.86
727.807	26971.58
728.149	26866.95
728.491	27095.64
728.833	26954.18
729.175	26793.05
729.516	26845.71
729.858	26752.83
730.199	26831.7
730.541	26726.84
730.882	26659.72
731.224	26725.26
731.565	26583.11
731.906	26424.25
732.248	26558.93
732.589	26425.6
732.93	26335.21
733.271	26367.3
733.612	26379.73
733.953	26244.14
734.294	26225.84
734.635	26199.62
734.976	26289.34
735.317	26040.98
735.658	26098.83
735.999	26071.04
736.339	25972.74
736.68	26087.53
737.021	26008.67
737.361	25784.27
737.702	26055.44
738.042	25821.55
738.383	25765.96
738.723	25907.2
739.063	25721.22
739.404	25839.18
739.744	25696.36
740.084	25664.49
740.424	25635.34
740.764	25565.29
741.104	25567.77
741.444	25507.21
741.784	25442.81
742.124	25455.23
742.464	25408.91
742.804	25473.09
743.143	25323.49
743.483	25347.89
743.823	25182.02
744.162	25195.58
744.502	25205.07
744.841	25048.69
745.181	25299.53
745.52	25056.83
745.86	25067.45
746.199	25088.01
746.538	24952.87
746.877	24964.17
747.216	24980.67
747.556	24925.08
747.895	25057.73
748.234	24793.33
748.573	24811.86
748.911	24798.53
749.25	24678.08
749.589	24655.03
749.928	24706.33
750.267	24724.63
750.605	24655.71
750.944	24544.75
751.283	24425.88
751.621	24488.25
751.96	24319.67
752.298	24427.24
752.636	24354.92
752.975	24234.7
753.313	24181.6
753.651	24264.53
753.989	24118.09
754.327	24033.35
754.666	23993.58
755.004	24035.16
755.342	24024.09
755.679	23922.17
756.017	23750.42
756.355	23792
756.693	23566.24
757.031	23695.05
757.368	23639.92
757.706	23615.06
758.044	23570.54
758.381	23504.1
758.719	23350.66
759.056	23498.22
759.394	23245.8
759.731	23215.97
760.068	23186.59
