Data from hue_210_FLMS001491_00098.txt Node
Date: Tue Feb 07 16:42:01 GMT 2017
User: dcchb
Spectrometer: FLMS00149
Trigger mode: 0
Integration Time (sec): 2.000000E-2
Scans to average: 10
Electric dark correction enabled: true
Nonlinearity correction enabled: false
Boxcar width: 0
XAxis mode: Wavelengths
Number of Pixels in Spectrum: 2048
>>>>>Begin Spectral Data<<<<<
341.393	-18.35
341.776	-18.35
342.16	-18.35
342.543	-80.49
342.927	-67.61
343.31	-41.85
343.693	-68.06
344.077	-68.52
344.46	-84.79
344.843	-49.98
345.226	-38.69
345.61	-32.81
345.993	-11.34
346.376	-7.27
346.759	16.68
347.142	24.82
347.525	34.76
347.908	78.83
348.291	65.49
348.674	76.57
349.057	106.17
349.44	140.74
349.823	136.45
350.206	163.34
350.588	192.49
350.971	217.81
351.354	226.84
351.737	244.47
352.119	253.96
352.502	254.19
352.884	273.62
353.267	273.17
353.65	278.14
354.032	281.76
354.414	278.82
354.797	307.75
355.179	334.86
355.562	324.24
355.944	318.37
356.326	331.25
356.709	345.49
357.091	326.28
357.473	338.48
357.855	340.29
358.238	331.25
358.62	318.14
359.002	341.19
359.384	320.18
359.766	329.89
360.148	328.31
360.53	340.97
360.912	344.36
361.294	343
361.676	321.76
362.057	345.49
362.439	344.58
362.821	323.56
363.203	315.88
363.584	315.43
363.966	313.17
364.348	315.43
364.729	322.89
365.111	304.81
365.493	314.07
365.874	322.44
366.256	311.81
366.637	312.04
367.019	317.01
367.4	315.66
367.781	309.55
368.163	318.37
368.544	291.48
368.925	307.07
369.306	319.72
369.688	308.65
370.069	298.25
370.45	315.43
370.831	314.98
371.212	288.54
371.593	313.62
371.974	324.92
372.355	322.89
372.736	307.07
373.117	333.96
373.498	322.21
373.879	324.24
374.26	304.36
374.641	328.54
375.021	313.17
375.402	299.84
375.783	316.33
376.163	331.25
376.544	303.45
376.925	331.7
377.305	324.92
377.686	324.69
378.066	316.56
378.447	330.8
378.827	320.85
379.208	345.94
379.588	300.06
379.968	308.42
380.349	337.8
380.729	334.64
381.109	329.44
381.489	331.93
381.87	346.16
382.25	357.24
382.63	347.07
383.01	342.77
383.39	329.44
383.77	330.12
384.15	354.98
384.53	342.77
384.91	348.65
385.29	343.23
385.67	353.62
386.049	351.81
386.429	353.39
386.809	350.46
387.189	357.46
387.568	343.23
387.948	350
388.328	347.07
388.707	374.41
389.087	350.68
389.466	347.07
389.846	348.2
390.225	375.99
390.605	370.12
390.984	382.77
391.363	386.39
391.743	357.46
392.122	355.2
392.501	353.17
392.881	368.31
393.26	377.57
393.639	347.75
394.018	353.17
394.397	390.23
394.776	385.03
395.155	389.78
395.534	364.24
395.913	392.26
396.292	400.63
396.671	385.26
397.05	398.82
397.429	392.26
397.808	397.46
398.186	396.11
398.565	397.01
398.944	411.92
399.323	407.18
399.701	401.98
400.08	422.32
400.458	397.91
400.837	435.2
401.215	421.42
401.594	411.7
401.972	444.01
402.351	428.87
402.729	439.95
403.107	412.6
403.486	421.42
403.864	424.81
404.242	442.21
404.62	444.01
404.999	450.12
405.377	460.06
405.755	444.69
406.133	465.71
406.511	453.05
406.889	457.35
407.267	469.78
407.645	476.78
408.023	489.21
408.401	487.85
408.779	485.82
409.156	501.19
409.534	524.01
409.912	497.57
410.29	526.05
410.667	532.37
411.045	534.18
411.422	548.64
411.8	529.66
412.178	566.27
412.555	567.63
412.933	566.04
413.31	590
413.687	589.77
414.065	590.68
414.442	615.08
414.819	624.57
415.197	641.97
415.574	625.7
415.951	658.02
416.328	636.78
416.705	665.48
417.082	679.04
417.46	658.47
417.837	676.32
418.214	672.26
418.591	691.69
418.967	691.46
419.344	698.02
419.721	729.2
420.098	730.56
420.475	755.87
420.852	773.95
421.228	751.58
421.605	801.29
421.982	791.58
422.358	810.33
422.735	811.24
423.111	823.21
423.488	864.57
423.864	874.96
424.241	898.24
424.617	874.06
424.994	890.1
425.37	912.93
425.746	919.03
426.123	914.96
426.499	946.6
426.875	987.5
427.251	998.8
427.627	1015.3
428.003	1004.9
428.379	1015.52
428.756	1022.08
429.132	1053.26
429.507	1054.39
429.883	1067.5
430.259	1109.76
430.635	1081.74
431.011	1091.23
431.387	1128.29
431.763	1143.66
432.138	1167.61
432.514	1159.93
432.89	1187.95
433.265	1213.94
433.641	1220.72
434.016	1258.23
434.392	1267.04
434.767	1319.7
435.143	1316.53
435.518	1377.55
435.894	1369.64
436.269	1363.54
436.644	1411.22
437.02	1404.89
437.395	1451.44
437.77	1473.14
438.145	1516.3
438.52	1507.49
438.895	1537.54
439.271	1539.35
439.646	1593.81
440.021	1637.2
440.395	1632.68
440.77	1625.45
441.145	1639.01
441.52	1697.09
441.895	1716.52
442.27	1728.73
442.645	1772.11
443.019	1754.71
443.394	1764.66
443.769	1832.23
444.143	1774.83
444.518	1865.45
444.892	1824.54
445.267	1871.32
445.641	1886.01
446.016	1874.03
446.39	1872.45
446.764	1939.12
447.139	1928.49
447.513	1947.25
447.887	1972.56
448.262	1980.02
448.636	1991.32
449.01	2019.57
449.384	2031.77
449.758	2018.44
450.132	2093.01
450.506	2080.81
450.88	2100.02
451.254	2087.59
451.628	2117.42
452.002	2165.1
452.376	2181.14
452.75	2200.35
453.123	2210.75
453.497	2238.09
453.871	2252.1
454.244	2288.26
454.618	2314.47
454.992	2363.74
455.365	2342.95
455.739	2393.12
456.112	2404.19
456.486	2442.15
456.859	2481.25
457.232	2515.37
457.606	2516.5
457.979	2544.75
458.352	2589.27
458.725	2629.49
459.099	2642.6
459.472	2678.53
459.845	2669.04
460.218	2725.54
460.591	2724.18
460.964	2713.11
461.337	2780.68
461.71	2848.47
462.083	2885.76
462.456	2866.77
462.829	2889.15
463.201	2908.58
463.574	2955.13
463.947	3009.37
464.32	3079.65
464.692	3045.3
465.065	3111.06
465.438	3141.34
465.81	3172.76
466.183	3224.73
466.555	3273.09
466.928	3323.03
467.3	3310.15
467.672	3341.34
468.045	3427.66
468.417	3421.34
468.789	3480.77
469.161	3529.81
469.534	3555.34
469.906	3620.88
470.278	3645.29
470.65	3700.65
471.022	3733.42
471.394	3825.39
471.766	3858.84
472.138	3870.36
472.51	3950.14
472.882	3973.64
473.253	4015.9
473.625	4098.83
473.997	4161.88
474.369	4208.66
474.74	4220.41
475.112	4327.53
475.484	4388.32
475.855	4451.59
476.227	4464.92
476.598	4570.46
476.97	4633.06
477.341	4685.26
477.713	4736.56
478.084	4788.31
478.455	4922.77
478.827	4949.43
479.198	5044.57
479.569	5078.24
479.94	5205.47
480.311	5203.66
480.682	5325.24
481.053	5454.96
481.424	5536.31
481.795	5576.08
482.166	5625.57
482.537	5711.9
482.908	5769.52
483.279	5855.62
483.65	5967.71
484.021	6047.71
484.391	6044.32
484.762	6127.03
485.133	6131.77
485.503	6235.73
485.874	6394.37
486.244	6428.26
486.615	6567.02
486.985	6621.93
487.356	6716.84
487.726	6739.44
488.097	6877.52
488.467	6873.68
488.837	6989.15
489.207	7110.51
489.578	7171.52
489.948	7249.71
490.318	7299.65
490.688	7302.82
491.058	7428.69
491.428	7480.21
491.798	7585.52
492.168	7658.51
492.538	7699.19
492.908	7808.11
493.278	7896.47
493.648	7918.85
494.017	7953.19
494.387	8009.92
494.757	8067.77
495.126	8157.48
495.496	8162
495.866	8165.62
496.235	8323.81
496.605	8313.19
496.974	8375.78
497.344	8476.12
497.713	8495.78
498.082	8505.95
498.452	8655.55
498.821	8576.91
499.19	8631.82
499.559	8696.68
499.928	8770.35
500.298	8766.28
500.667	8820.52
501.036	8804.25
501.405	8846.73
501.774	8854.64
502.143	8867.3
502.512	8946.84
502.88	9031.13
503.249	8951.36
503.618	9060.51
503.987	9064.58
504.356	9113.16
504.724	9132.82
505.093	9108.64
505.462	9191.81
505.83	9259.15
506.199	9284.46
506.567	9355.42
506.936	9275.65
507.304	9391.35
507.672	9377.11
508.041	9347.73
508.409	9483.55
508.777	9510.44
509.145	9526.26
509.514	9534.4
509.882	9574.85
510.25	9500.27
510.618	9594.28
510.986	9537.79
511.354	9658.23
511.722	9647.61
512.09	9742.3
512.458	9698.91
512.826	9752.7
513.193	9712.7
513.561	9750.44
513.929	9777.33
514.297	9891.45
514.664	9889.64
515.032	9924.22
515.4	9876.31
515.767	9972.35
516.135	9897.1
516.502	9853.48
516.869	9930.77
517.237	9969.19
517.604	9940.49
517.972	9960.37
518.339	9965.35
518.706	10009.19
519.073	10000.37
519.44	9986.14
519.808	10088.96
520.175	10027.26
520.542	10120.14
520.909	10119.01
521.276	10096.42
521.643	10182.51
522.009	10117.21
522.376	10221.61
522.743	10172.12
523.11	10269.74
523.477	10255.96
523.843	10228.62
524.21	10293.25
524.577	10379.8
524.943	10333.02
525.31	10330.08
525.676	10357.65
526.043	10389.29
526.409	10329.63
526.776	10436.97
527.142	10407.82
527.508	10420.25
527.874	10401.94
528.241	10406.01
528.607	10349.06
528.973	10448.04
529.339	10414.83
529.705	10508.83
530.071	10471.32
530.437	10370.98
530.803	10475.39
531.169	10496.4
531.535	10436.52
531.901	10395.84
532.267	10408.05
532.632	10435.62
532.998	10402.17
533.364	10487.37
533.73	10372.79
534.095	10362.17
534.461	10448.27
534.826	10427.25
535.192	10433.36
535.557	10385.22
535.923	10311.55
536.288	10389.06
536.653	10254.15
537.019	10265.22
537.384	10245.11
537.749	10186.81
538.114	10221.16
538.479	10233.13
538.845	10143.19
539.21	10109.97
539.575	10102.52
539.94	10070.43
540.305	10083.76
540.67	10076.3
541.034	10012.12
541.399	9987.04
541.764	9975.51
542.129	9906.14
542.494	9900.26
542.858	9917.89
543.223	9828.4
543.587	9881.73
543.952	9811.9
544.316	9815.07
544.681	9760.83
545.045	9773.26
545.41	9797.21
545.774	9680.83
546.138	9754.28
546.503	9681.06
546.867	9597.45
547.231	9636.09
547.595	9548.86
547.959	9574.62
548.324	9620.72
548.688	9448.07
549.052	9523.1
549.416	9470.22
549.779	9488.75
550.143	9397.22
550.507	9349.09
550.871	9369.2
551.235	9285.82
551.599	9329.66
551.962	9325.81
552.326	9324.01
552.689	9269.32
553.053	9188.42
553.417	9221.86
553.78	9298.02
554.143	9164.24
554.507	9180.51
554.87	9215.08
555.234	9180.73
555.597	9122.43
555.96	9017.12
556.323	9036.33
556.686	9061.64
557.05	9056.67
557.413	9006.5
557.776	8961.76
558.139	9059.61
558.502	8998.82
558.865	8996.33
559.228	9043.34
559.59	8983
559.953	8950.91
560.316	9098.48
560.679	8967.41
561.041	9031.36
561.404	8955.88
561.767	9053.28
562.129	8972.38
562.492	9060.06
562.854	9009.44
563.217	8949.78
563.579	8990.46
563.941	8989.78
564.304	9057.35
564.666	8972.83
565.028	8965.15
565.39	9000.62
565.753	8985.26
566.115	8998.14
566.477	9021.42
566.839	9028.42
567.201	9047.63
567.563	9053.5
567.925	9030.68
568.287	9119.04
568.648	9103.45
569.01	9143.9
569.372	9120.17
569.734	9116.33
570.095	9157.23
570.457	9076.33
570.819	9131.69
571.18	9137.12
571.542	9161.52
571.903	9143.22
572.265	9151.13
572.626	9179.6
572.987	9209.21
573.349	9152.71
573.71	9212.82
574.071	9229.32
574.432	9180.96
574.794	9272.93
575.155	9273.84
575.516	9212.6
575.877	9233.84
576.238	9271.35
576.599	9293.72
576.96	9300.96
577.32	9376.43
577.681	9277
578.042	9324.46
578.403	9302.09
578.763	9284.01
579.124	9271.58
579.485	9342.99
579.845	9353.38
580.206	9383.44
580.566	9324.23
580.927	9316.1
581.287	9449.2
581.648	9382.76
582.008	9419.37
582.368	9392.71
582.728	9501.85
583.089	9429.31
583.449	9473.83
583.809	9395.42
584.169	9486.26
584.529	9446.49
584.889	9451.01
585.249	9494.4
585.609	9457.56
585.969	9532.59
586.329	9405.36
586.688	9477.67
587.048	9513.15
587.408	9535.53
587.768	9539.59
588.127	9488.97
588.487	9468.18
588.846	9558.12
589.206	9513.83
589.565	9540.05
589.925	9578.01
590.284	9531.23
590.643	9506.15
591.003	9505.02
591.362	9559.03
591.721	9489.43
592.08	9531.23
592.44	9524.68
592.799	9587.73
593.158	9529.88
593.517	9557.67
593.876	9513.83
594.235	9519.93
594.593	9537.79
594.952	9608.07
595.311	9546.15
595.67	9582.3
596.029	9633.15
596.387	9564.23
596.746	9613.04
597.104	9558.8
597.463	9619.82
597.822	9579.59
598.18	9582.98
598.538	9514.51
598.897	9629.99
599.255	9525.13
599.613	9655.07
599.972	9552.93
600.33	9683.54
600.688	9606.48
601.046	9585.47
601.404	9638.35
601.762	9576.65
602.12	9633.38
602.478	9668.63
602.836	9624.11
603.194	9613.04
603.552	9592.02
603.91	9601.06
604.268	9625.69
604.625	9601.29
604.983	9582.08
605.341	9608.97
605.698	9657.33
606.056	9625.92
606.413	9618.91
606.771	9679.25
607.128	9674.51
607.485	9646.03
607.843	9592.47
608.2	9658.91
608.557	9701.85
608.914	9730.1
609.272	9736.42
609.629	9710.21
609.986	9674.05
610.343	9714.28
610.7	9692.13
611.057	9694.39
611.414	9710.44
611.771	9776.65
612.127	9742.3
612.484	9720.83
612.841	9791.56
613.198	9789.3
613.554	9751.79
613.911	9790.21
614.267	9737.33
614.624	9747.05
614.98	9844.22
615.337	9833.15
615.693	9886.48
616.05	9807.16
616.406	9810.77
616.762	9854.16
617.118	9846.03
617.475	9873.14
617.831	9875.63
618.187	9843.09
618.543	9866.59
618.899	9871.11
619.255	9889.42
619.611	9861.17
619.967	9905.01
620.323	9951.11
620.678	9887.38
621.034	9881.51
621.39	9848.29
621.746	9942.97
622.101	10037.43
622.457	9899.81
622.812	9947.72
623.168	9929.87
623.523	9865.46
623.879	9935.74
624.234	9892.58
624.589	9937.78
624.945	9886.48
625.3	9925.8
625.655	9928.28
626.01	9851.9
626.365	9909.3
626.72	9822.75
627.075	9841.96
627.43	9845.8
627.785	9828.17
628.14	9819.81
628.495	9876.99
628.85	9824.56
629.205	9783.2
629.559	9914.5
629.914	9796.99
630.269	9850.32
630.623	9784.11
630.978	9758.12
631.332	9841.28
631.687	9806.71
632.041	9832.47
632.396	9819.59
632.75	9772.13
633.104	9774.62
633.459	9689.42
633.813	9690.1
634.167	9714.05
634.521	9743.43
634.875	9695.75
635.229	9686.03
635.583	9628.86
635.937	9623.89
636.291	9585.92
636.645	9657.33
636.999	9589.54
637.352	9566.49
637.706	9543.89
638.06	9588.41
638.413	9539.14
638.767	9519.93
639.121	9605.35
639.474	9480.61
639.828	9512.02
640.181	9511.8
640.534	9570.78
640.888	9502.76
641.241	9469.77
641.594	9520.16
641.947	9479.26
642.301	9414.4
642.654	9395.42
643.007	9444.46
643.36	9447.39
643.713	9439.94
644.066	9427.51
644.419	9374.4
644.771	9377.56
645.124	9313.39
645.477	9262.76
645.83	9239.49
646.182	9154.97
646.535	9139.38
646.888	9140.96
647.24	9085.82
647.593	9142.32
647.945	9139.38
648.298	9048.76
648.65	9079.49
649.002	9058.02
649.355	9121.75
649.707	9113.16
650.059	9122.88
650.411	9232.03
650.763	9230.22
651.115	9257.34
651.467	9331.69
651.819	9290.11
652.171	9367.85
652.523	9279.49
652.875	9314.06
653.227	9317
653.578	9347.51
653.93	9292.82
654.282	9270
654.633	9245.14
654.985	9244.69
655.337	9335.76
655.688	9332.59
656.039	9314.29
656.391	9327.85
656.742	9279.94
657.094	9351.12
657.445	9357.9
657.796	9288.75
658.147	9274.97
658.498	9314.74
658.849	9314.51
659.2	9298.24
659.551	9314.06
659.902	9338.47
660.253	9383.21
660.604	9327.85
660.955	9297.79
661.306	9310.9
661.656	9362.65
662.007	9324.23
662.358	9350.67
662.708	9346.6
663.059	9347.96
663.409	9272.03
663.76	9419.6
664.11	9447.84
664.461	9350.22
664.811	9360.62
665.161	9323.55
665.511	9379.15
665.862	9405.81
666.212	9419.82
666.562	9362.2
666.912	9465.47
667.262	9339.83
667.612	9400.16
667.962	9370.33
668.312	9394.51
668.662	9420.05
669.011	9379.37
669.361	9361.29
669.711	9377.34
670.06	9359.49
670.41	9308.64
670.76	9334.85
671.109	9352.71
671.459	9282.88
671.808	9375.76
672.157	9343.21
672.507	9260.28
672.856	9255.08
673.205	9326.04
673.554	9363.1
673.904	9286.72
674.253	9340.28
674.602	9243.78
674.951	9177.8
675.3	9070.23
675.649	9232.26
675.998	9231.58
676.346	9203.56
676.695	9225.25
677.044	9249.43
677.393	9198.36
677.741	9189.55
678.09	9132.82
678.438	9152.94
678.787	9162.88
679.135	9173.73
679.484	9151.81
679.832	9203.11
680.181	9114.07
680.529	9074.3
680.877	9054.41
681.225	9041.08
681.573	9079.72
681.922	9038.82
682.27	9014.18
682.618	9001.53
682.966	9008.53
683.314	9039.72
683.661	8881.31
684.009	8928.31
684.357	8944.81
684.705	8853.06
685.053	8857.58
685.4	8888.54
685.748	8783.68
686.095	8774.87
686.443	8785.04
686.79	8730.58
687.138	8787.98
687.485	8740.74
687.832	8717.24
688.18	8720.63
688.527	8702.78
688.874	8658.26
689.221	8659.39
689.568	8644.7
689.915	8538.49
690.262	8517.02
690.609	8543.69
690.956	8516.34
691.303	8497.14
691.65	8458.49
691.997	8453.29
692.344	8345.5
692.69	8378.49
693.037	8424.14
693.383	8326.52
693.73	8351.15
694.077	8300.08
694.423	8291.27
694.769	8170.36
695.116	8154.55
695.462	8138.95
695.808	8156.35
696.155	8156.35
696.501	8104.6
696.847	8001.56
697.193	8032.74
697.539	7988.67
697.885	7953.42
698.231	7923.37
698.577	7862.58
698.923	7910.94
699.269	7853.31
699.614	7830.26
699.96	7741.67
700.306	7795.23
700.651	7724.95
700.997	7737.83
701.342	7653.09
701.688	7659.87
702.033	7619.87
702.379	7631.17
702.724	7589.14
703.069	7593.2
703.415	7461.23
703.76	7506.88
704.105	7450.84
704.45	7449.71
704.795	7380.1
705.14	7339.43
705.485	7327.67
705.83	7339.2
706.175	7317.05
706.52	7299.88
706.865	7257.85
707.209	7225.53
707.554	7189.83
707.899	7260.78
708.243	7163.84
708.588	7129.26
708.932	7106.66
709.277	7085.2
709.621	7154.8
709.966	7070.51
710.31	7054.69
710.654	7004.29
710.998	7012.43
711.342	7071.64
711.687	7005.65
712.031	6966.55
712.375	6887.46
712.719	6966.1
713.063	6911.19
713.407	6962.94
713.75	6889.72
714.094	6880.23
714.438	6896.73
714.782	6822.38
715.125	6813.34
715.469	6835.48
715.812	6813.79
716.156	6805.43
716.499	6762.04
716.843	6782.83
717.186	6765.43
717.53	6758.42
717.873	6707.58
718.216	6707.35
718.559	6748.71
718.902	6681.82
719.246	6703.74
719.589	6690.4
719.932	6663.29
720.275	6630.29
720.617	6616.28
720.96	6663.51
721.303	6663.96
721.646	6612.21
721.989	6613.12
722.331	6634.13
722.674	6625.55
723.016	6611.31
723.359	6556.4
723.701	6591.42
724.044	6609.95
724.386	6536.73
724.729	6621.7
725.071	6531.99
725.413	6546.68
725.755	6548.49
726.097	6527.24
726.439	6503.06
726.782	6488.15
727.124	6579.45
727.465	6527.47
727.807	6473.46
728.149	6522.5
728.491	6509.62
728.833	6490.63
729.175	6455.61
729.516	6480.69
729.858	6480.92
730.199	6482.05
730.541	6480.01
730.882	6495.38
731.224	6520.46
731.565	6400.02
731.906	6508.71
732.248	6513.91
732.589	6431.88
732.93	6409.51
733.271	6421.26
733.612	6527.24
733.953	6487.92
734.294	6468.04
734.635	6424.65
734.976	6466.91
735.317	6457.19
735.658	6485.89
735.999	6475.72
736.339	6487.7
736.68	6544.19
737.021	6450.64
737.361	6439.11
737.702	6554.81
738.042	6505.1
738.383	6499.45
738.723	6547.81
739.063	6480.92
739.404	6521.37
739.744	6510.97
740.084	6564.76
740.424	6564.3
740.764	6501.26
741.104	6561.82
741.444	6569.73
741.784	6581.93
742.124	6546.9
742.464	6619.9
742.804	6683.4
743.143	6654.25
743.483	6670.06
743.823	6680.91
744.162	6723.62
744.502	6758.2
744.841	6726.11
745.181	6863.96
745.52	6823.73
745.86	6877.52
746.199	6952.54
746.538	6929.94
746.877	7002.71
747.216	6991.41
747.556	7031.64
747.895	7146.21
748.234	7106.21
748.573	7179.43
748.911	7204.51
749.25	7280.67
749.589	7329.71
749.928	7416.49
750.267	7475.92
750.605	7496.71
750.944	7545.3
751.283	7640.43
751.621	7811.73
751.96	7829.58
752.298	7875.23
752.636	8016.92
752.975	8075.45
753.313	8179.86
753.651	8302.34
753.989	8356.57
754.327	8456.46
754.666	8551.37
755.004	8687.86
755.342	8926.28
755.679	8942.77
756.017	9056.67
756.355	9223.9
756.693	9310.22
757.031	9446.94
757.368	9589.08
757.706	9668.18
758.044	9837.44
758.381	10032.46
758.719	10179.8
759.056	10335.73
759.394	10426.58
759.731	10600.81
760.068	10708.6
760.405	10849.62
760.743	11027.24
761.08	11280.56
761.417	11358.98
761.754	11517.17
762.091	11697.96
762.428	11827.67
762.765	11984.28
763.102	12230.82
763.438	12343.81
763.775	12446.18
764.112	12605.05
764.449	12868.32
764.785	13016.34
765.122	13037.13
765.458	13191.25
765.795	13343.11
766.131	13648.64
766.467	13742.42
766.804	13847.05
767.14	13963.43
