Data from hue_320_FLMS001491_54.txt Node
Date: Mon Feb 06 15:47:23 GMT 2017
User: dcchb
Spectrometer: FLMS00149
Trigger mode: 0
Integration Time (sec): 2.000000E-2
Scans to average: 10
Electric dark correction enabled: true
Nonlinearity correction enabled: false
Boxcar width: 0
XAxis mode: Wavelengths
Number of Pixels in Spectrum: 2048
>>>>>Begin Spectral Data<<<<<
341.393	-20.65
341.776	-20.65
342.16	-20.65
342.543	-64.04
342.927	-49.12
343.31	-82.12
343.693	-59.07
344.077	-66.3
344.46	-61.1
344.843	-50.93
345.226	-35.79
345.61	-35.34
345.993	-28.56
346.376	-16.58
346.759	17.54
347.142	37.65
347.525	31.1
347.908	60.48
348.291	71.33
348.674	96.18
349.057	121.49
349.44	122.85
349.823	141.61
350.206	178.44
350.588	187.71
350.971	200.14
351.354	240.59
351.737	227.03
352.119	224.99
352.502	257.54
352.884	282.17
353.267	268.83
353.65	288.04
354.032	313.13
354.414	302.96
354.797	303.86
355.179	332.11
355.562	328.27
355.944	321.49
356.326	341.15
356.709	332.79
357.091	337.99
357.473	325.78
357.855	342.05
358.238	338.21
358.62	342.96
359.002	331.43
359.384	327.36
359.766	343.64
360.148	339.79
360.53	317.2
360.912	322.84
361.294	335.73
361.676	341.15
362.057	326.91
362.439	315.16
362.821	309.74
363.203	338.89
363.584	328.04
363.966	323.52
364.348	309.51
364.729	306.35
365.111	329.4
365.493	312
365.874	312.22
366.256	328.27
366.637	324.65
367.019	298.66
367.4	329.62
367.781	313.13
368.163	299.34
368.544	312.45
368.925	300.7
369.306	325.33
369.688	301.83
370.069	300.02
370.45	319.91
370.831	315.61
371.212	301.6
371.593	272.68
371.974	302.51
372.355	306.12
372.736	308.16
373.117	314.48
373.498	328.95
373.879	334.14
374.26	314.48
374.641	317.87
375.021	288.72
375.402	323.07
375.783	303.18
376.163	327.36
376.544	321.94
376.925	336.63
377.305	302.96
377.686	311.09
378.066	311.55
378.447	331.88
378.827	309.06
379.208	316.97
379.588	339.12
379.968	331.88
380.349	327.59
380.729	333.01
381.109	313.35
381.489	329.17
381.87	325.56
382.25	329.62
382.63	329.4
383.01	339.12
383.39	338.21
383.77	333.01
384.15	353.13
384.53	330.98
384.91	352.22
385.29	345.22
385.67	354.71
386.049	370.53
386.429	350.41
386.809	356.97
387.189	352.67
387.568	328.95
387.948	333.92
388.328	363.97
388.707	350.41
389.087	350.41
389.466	357.42
389.846	348.61
390.225	367.59
390.605	355.61
390.984	365.33
391.363	346.57
391.743	373.69
392.122	376.4
392.501	363.3
392.881	347.48
393.26	369.4
393.639	361.71
394.018	386.57
394.397	376.18
394.776	390.19
395.155	367.36
395.534	391.09
395.913	378.44
396.292	398.55
396.671	380.92
397.05	374.82
397.429	393.35
397.808	385.67
398.186	391.32
398.565	392.67
398.944	399
399.323	392.67
399.701	367.14
400.08	399
400.458	395.16
400.837	395.39
401.215	391.32
401.594	406.46
401.972	425.44
402.351	416.4
402.729	417.08
403.107	411.66
403.486	410.07
403.864	418.89
404.242	432.45
404.62	426.57
404.999	417.76
405.377	420.24
405.755	442.62
406.133	430.41
406.511	438.1
406.889	433.12
407.267	424.54
407.645	469.51
408.023	460.69
408.401	475.83
408.779	470.64
409.156	456.63
409.534	471.77
409.912	471.77
410.29	468.38
410.667	471.54
411.045	476.51
411.422	495.5
411.8	509.73
412.178	494.82
412.555	507.02
412.933	529.39
413.31	521.26
413.687	545.89
414.065	503.63
414.442	536.85
414.819	560.13
415.197	557.64
415.574	546.79
415.951	578.21
416.328	559.45
416.705	589.5
417.082	572.78
417.46	588.83
417.837	599.22
418.214	593.12
418.591	595.61
418.967	607.58
419.344	600.8
419.721	611.42
420.098	604.87
420.475	637.86
420.852	632.89
421.228	634.25
421.605	636.96
421.982	666.56
422.358	656.62
422.735	673.57
423.111	651.88
423.488	665.43
423.864	651.65
424.241	693.23
424.617	712.21
424.994	672.21
425.37	732.55
425.746	690.97
426.123	717.41
426.499	735.72
426.875	733
427.251	760.8
427.627	777.3
428.003	749.73
428.379	766.9
428.756	770.97
429.132	776.17
429.507	788.14
429.883	790.4
430.259	806.9
430.635	834.92
431.011	826.56
431.387	832.66
431.763	864.3
432.138	868.82
432.514	863.4
432.89	880.57
433.265	880.12
433.641	878.54
434.016	876.28
434.392	902.49
434.767	920.57
435.143	903.39
435.518	947.23
435.894	944.07
436.269	943.17
436.644	949.27
437.02	981.58
437.395	977.74
437.77	956.73
438.145	993.79
438.52	1002.37
438.895	997.18
439.271	1021.81
439.646	1018.19
440.021	1036.72
440.395	1028.81
440.77	1037.63
441.145	1040.34
441.52	1072.88
441.895	1076.27
442.27	1088.93
442.645	1071.3
443.019	1077.4
443.394	1087.34
443.769	1079.21
444.143	1092.77
444.518	1096.38
444.892	1100.23
445.267	1105.42
445.641	1116.5
446.016	1103.39
446.39	1124.41
446.764	1144.97
447.139	1146.78
447.513	1142.03
447.887	1151.98
448.262	1137.29
448.636	1147.23
449.01	1202.14
449.384	1142.94
449.758	1177.51
450.132	1162.14
450.506	1180.68
450.88	1176.16
451.254	1195.59
451.628	1200.56
452.002	1201.47
452.376	1234.23
452.75	1231.97
453.123	1242.59
453.497	1267.68
453.871	1261.58
454.244	1260.9
454.618	1274.01
454.992	1230.17
455.365	1257.74
455.739	1298.86
456.112	1294.12
456.486	1317.39
456.859	1311.75
457.232	1320.56
457.606	1319.43
457.979	1372.08
458.352	1355.59
458.725	1358.75
459.099	1368.01
459.472	1369.82
459.845	1398.3
460.218	1415.47
460.591	1415.7
460.964	1415.7
461.337	1461.57
461.71	1458.86
462.083	1483.04
462.456	1504.28
462.829	1488.69
463.201	1495.24
463.574	1490.05
463.947	1530.72
464.32	1549.48
464.692	1542.02
465.065	1563.49
465.438	1542.25
465.81	1568.91
466.183	1575.69
466.555	1624.05
466.928	1619.76
467.3	1614.79
467.672	1623.15
468.045	1637.16
468.417	1684.84
468.789	1675.58
469.161	1694.11
469.534	1746.76
469.906	1740.21
470.278	1768.46
470.65	1769.13
471.022	1799.64
471.394	1816.82
471.766	1826.53
472.138	1838.51
472.51	1856.14
472.882	1864.27
473.253	1911.05
473.625	1933.88
473.997	1926.42
474.369	1936.59
474.74	1989.92
475.112	1983.82
475.484	2015
475.855	2037.38
476.227	2024.49
476.598	2116.02
476.97	2120.09
477.341	2164.38
477.713	2194.66
478.084	2190.14
478.455	2234.66
478.827	2251.38
479.198	2310.59
479.569	2290.48
479.94	2345.62
480.311	2358.72
480.682	2386.29
481.053	2435.78
481.424	2433.07
481.795	2458.16
482.166	2497.7
482.537	2542.9
482.908	2598.72
483.279	2620.41
483.65	2633.74
484.021	2681.43
484.391	2677.81
484.762	2704.7
485.133	2714.87
485.503	2754.42
485.874	2760.07
486.244	2817.47
486.615	2857.47
486.985	2869.67
487.356	2901.31
487.726	2930.69
488.097	2992.6
488.467	2996.22
488.837	3047.52
489.207	3072.15
489.578	3097.46
489.948	3098.14
490.318	3182.2
490.688	3158.25
491.058	3169.1
491.428	3229.43
491.798	3251.81
492.168	3332.26
492.538	3331.35
492.908	3376.1
493.278	3343.56
493.648	3380.84
494.017	3391.69
494.387	3453.84
494.757	3473.72
495.126	3485.7
495.496	3456.32
495.866	3522.08
496.235	3548.3
496.605	3564.57
496.974	3586.49
497.344	3635.53
497.713	3619.71
498.082	3672.14
498.452	3689.08
498.821	3677.78
499.19	3671.68
499.559	3718.91
499.928	3726.82
500.298	3725.47
500.667	3755.07
501.036	3782.87
501.405	3800.04
501.774	3797.56
502.143	3836.42
502.512	3860.15
502.88	3888.4
503.249	3885.91
503.618	3874.39
503.987	3903.54
504.356	3947.61
504.724	3964.78
505.093	3945.8
505.462	3976.31
505.83	4010.21
506.199	4005.91
506.567	3996.87
506.936	4028.51
507.304	4031
507.672	4100.15
508.041	4052.46
508.409	4091.56
508.777	4127.26
509.145	4110.54
509.514	4172.01
509.882	4166.59
510.25	4174.49
510.618	4190.54
510.986	4242.06
511.354	4249.52
511.722	4214.27
512.09	4236.41
512.458	4263.08
512.826	4262.4
513.193	4292.01
513.561	4313.25
513.929	4324.55
514.297	4332.46
514.664	4333.59
515.032	4383.75
515.4	4383.75
515.767	4381.95
516.135	4416.97
516.502	4373.13
516.869	4433.7
517.237	4437.99
517.604	4462.62
517.972	4471.21
518.339	4528.84
518.706	4479.35
519.073	4475.73
519.44	4509.63
519.808	4561.38
520.175	4554.15
520.542	4601.38
520.909	4582.62
521.276	4553.02
521.643	4558.89
522.009	4654.48
522.376	4665.33
522.743	4661.04
523.11	4652
523.477	4741.26
523.843	4742.84
524.21	4819
524.577	4781.03
524.943	4801.82
525.31	4866
525.676	4891.99
526.043	4920.01
526.409	4900.58
526.776	4933.12
527.142	4954.81
527.508	4973.12
527.874	4970.86
528.241	5030.07
528.607	5008.15
528.973	5108.48
529.339	5096.05
529.705	5083.17
530.071	5112.1
530.437	5177.86
530.803	5212.43
531.169	5219.89
531.535	5202.94
531.901	5183.51
532.267	5278.65
532.632	5320.45
532.998	5329.72
533.364	5322.26
533.73	5341.47
534.095	5416.5
534.461	5387.12
534.826	5411.75
535.192	5468.7
535.557	5522.26
535.923	5480.68
536.288	5563.38
536.653	5525.87
537.019	5521.35
537.384	5562.71
537.749	5592.54
538.114	5601.12
538.479	5655.36
538.845	5627.79
539.21	5681.35
539.575	5703.04
539.94	5757.96
540.305	5738.52
540.67	5720.44
541.034	5825.52
541.399	5796.15
541.764	5823.72
542.129	5865.52
542.494	5863.49
542.858	5914.56
543.223	5896.94
543.587	5995.69
543.952	5957.5
544.316	5939.87
544.681	6037.72
545.045	6076.14
545.41	6065.07
545.774	6070.04
546.138	6082.24
546.503	6160.21
546.867	6098.29
547.231	6193.42
547.595	6203.37
547.959	6209.92
548.324	6265.29
548.688	6236.36
549.052	6246.76
549.416	6313.2
549.779	6313.65
550.143	6362.46
550.507	6416.47
550.871	6371.27
551.235	6379.63
551.599	6401.33
551.962	6428.67
552.326	6415.11
552.689	6468.45
553.053	6439.29
553.417	6517.26
553.78	6552.29
554.143	6536.92
554.507	6618.27
554.87	6613.3
555.234	6708.44
555.597	6621.89
555.96	6695.33
556.323	6692.17
556.686	6662.79
557.05	6731.72
557.413	6754.54
557.776	6779.4
558.139	6806.52
558.502	6811.26
558.865	6839.28
559.228	6872.05
559.59	6868.21
559.953	6863.46
560.316	6967.19
560.679	6942.33
561.041	7014.65
561.404	7003.12
561.767	6985.27
562.129	7041.99
562.492	7123.57
562.854	7060.97
563.217	7054.42
563.579	7072.72
563.941	7170.12
564.304	7176.68
564.666	7254.19
565.028	7214.87
565.39	7222.78
565.753	7259.84
566.115	7278.14
566.477	7320.17
566.839	7359.95
567.201	7347.52
567.563	7432.49
567.925	7408.31
568.287	7384.81
568.648	7478.59
569.01	7520.4
569.372	7553.39
569.734	7558.59
570.095	7559.72
570.457	7698.47
570.819	7627.51
571.18	7725.59
571.542	7748.19
571.903	7809.2
572.265	7795.64
572.626	7826.38
572.987	7867.28
573.349	7872.7
573.71	7973.26
574.071	8040.83
574.432	8057.33
574.794	8190.66
575.155	8140.04
575.516	8191.11
575.877	8287.15
576.238	8310.43
576.599	8449.41
576.96	8457.09
577.32	8544.32
577.681	8543.42
578.042	8688.05
578.403	8769.4
578.763	8851.89
579.124	8877.87
579.485	8996.29
579.845	9203.29
580.206	9221.82
580.566	9345.66
580.927	9446.67
581.287	9588.59
581.648	9703.61
582.008	9794.46
582.368	9906.32
582.728	10140.67
583.089	10181.12
583.449	10445.29
583.809	10581.11
584.169	10768.45
584.529	10845.96
584.889	11142.67
585.249	11243.24
585.609	11403.46
585.969	11640.74
586.329	11835.99
586.688	12076.21
587.048	12360.72
587.408	12513.94
587.768	12661.96
588.127	12936.98
588.487	13162.06
588.846	13487.24
589.206	13566.79
589.565	13802.94
589.925	14171.07
590.284	14376.94
590.643	14620.1
591.003	14901.9
591.362	15284.71
591.721	15450.58
592.08	15781.42
592.44	16074.29
592.799	16379.37
593.158	16534.4
593.517	16971.9
593.876	17174.6
594.235	17450.08
594.593	17719.45
594.952	18127.35
595.311	18352.88
595.67	18609.14
596.029	19029.92
596.387	19317.37
596.746	19536.58
597.104	19854.99
597.463	20076.22
597.822	20515.99
598.18	20681.18
598.538	20966.6
598.897	21305.12
599.255	21569.74
599.613	22177.19
599.972	22292.66
600.33	22606.78
600.688	22713.89
601.046	23226.42
601.404	23473.65
601.762	23622.12
602.12	24119.06
602.478	24288.54
602.836	24519.5
603.194	24727.17
603.552	25081.06
603.91	25265.69
604.268	25667.04
604.625	25746.58
604.983	26117.87
605.341	26179.57
605.698	26703.85
606.056	26949.72
606.413	27152.2
606.771	27482.58
607.128	27669.7
607.485	27848.45
607.843	27992.4
608.2	28421.99
608.557	28772.27
608.914	28732.72
609.272	29159.37
609.629	29347.62
609.986	29674.62
610.343	29707.16
610.7	30116.86
611.057	30234.37
611.414	30470.3
611.771	30672.1
612.127	30998.65
612.484	31090.85
612.841	31420.78
613.198	31321.13
613.554	31657.84
613.911	31954.1
614.267	32047.89
614.624	32187.54
614.98	32385.96
615.337	32709.79
615.693	32821.65
616.05	32938.48
616.406	33293.96
616.762	33149.78
617.118	33347.06
617.475	33611.23
617.831	33740.5
618.187	33962.41
618.543	34072.69
618.899	34345.9
619.255	34390.65
619.611	34473.36
619.967	34760.13
620.323	34966.23
620.678	34804.65
621.034	34949.28
621.39	35177.52
621.746	35075.15
622.101	35634.68
622.457	35358.08
622.812	35564.86
623.168	35736.6
623.523	35892.3
623.879	36020.44
624.234	35898.86
624.589	36096.14
624.945	36242.13
625.3	36355.12
625.655	36221.79
626.01	36428.56
626.365	36439.18
626.72	36551.5
627.075	36575
627.43	36611.61
627.785	36594.43
628.14	36779.74
628.495	36880.75
628.85	36987.19
629.205	36866.52
629.559	37222.21
629.914	37019.73
630.269	37161.65
630.623	37087.08
630.978	37135.89
631.332	37211.14
631.687	37361.19
632.041	37216.11
632.396	37247.75
632.75	37189.22
633.104	37371.36
633.459	37207.98
633.813	37337.01
634.167	37304.7
634.521	37249.78
634.875	37470.12
635.229	37398.48
635.583	37305.6
635.937	37377.01
636.291	37326.17
636.645	37457.91
636.999	37270.35
637.352	37423.34
637.706	37320.52
638.06	37499.49
638.413	37346.28
638.767	37416.78
639.121	37531.81
639.474	37312.61
639.828	37231.25
640.181	37341.76
640.534	37451.81
640.888	37360.06
641.241	37197.13
641.594	37273.51
641.947	37428.31
642.301	37309.89
642.654	37393.96
643.007	37380.4
643.36	37248.88
643.713	37221.54
644.066	37499.04
644.419	37255.88
644.771	37133.4
645.124	36684.6
645.477	36672.4
645.83	36569.35
646.182	36369.81
646.535	36258.4
646.888	36267.21
647.24	36132.07
647.593	36330.49
647.945	36294.78
648.298	36265.63
648.65	35998.06
649.002	35958.29
649.355	36164.16
649.707	36043.71
650.059	36253.2
650.411	36668.1
650.763	36839.17
651.115	37102.22
651.467	36991.71
651.819	37001.65
652.171	36862.9
652.523	36854.09
652.875	36757.82
653.227	36764.6
653.578	37028.55
653.93	36854.31
654.282	36745.16
654.633	36703.81
654.985	36743.36
655.337	36703.81
655.688	36771.83
656.039	36975.89
656.391	36588.56
656.742	36515.34
657.094	36605.73
657.445	36673.3
657.796	36645.96
658.147	36615.9
658.498	36541.33
658.849	36763.92
659.2	36650.25
659.551	36584.04
659.902	36678.5
660.253	36691.61
660.604	36677.14
660.955	36480.09
661.306	36665.62
661.656	36596.69
662.007	36506.07
662.358	36634.21
662.708	36628.33
663.059	36682.57
663.409	36332.75
663.76	36706.52
664.11	36624.49
664.461	36654.54
664.811	36539.52
665.161	36708.33
665.511	36520.99
665.862	36513.98
666.212	36565.73
666.562	36589.24
666.912	36557.15
667.262	36429.01
667.612	36449.58
667.962	36366.19
668.312	36536.36
668.662	36523.7
669.011	36385.63
669.361	36356.47
669.711	36381.56
670.06	36384.27
670.41	36305.85
670.76	36262.69
671.109	36537.71
671.459	36415.68
671.808	36430.37
672.157	36385.4
672.507	36064.28
672.856	36269.92
673.205	36307.89
673.554	36490.93
673.904	36221.56
674.253	36323.93
674.602	36245.97
674.951	35766.88
675.3	35559.66
675.649	36124.39
675.998	36241.45
676.346	36147.21
676.695	36335.23
677.044	36032.87
677.393	36200.77
677.741	36167.55
678.09	36155.35
678.438	35914.9
678.787	36048.91
679.135	36097.5
679.484	35712.42
679.832	35934.34
680.181	35744.29
680.529	35845.75
680.877	35852.31
681.225	35782.03
681.573	35807.34
681.922	35678.3
682.27	35431.3
682.618	35456.16
682.966	35348.59
683.314	35557.85
683.661	35322.83
684.009	35309.72
684.357	35236.28
684.705	35231.31
685.053	35154.02
685.4	35090.97
685.748	34914.25
686.095	34902.27
686.443	34759.91
686.79	34820.24
687.138	34834.25
687.485	34899.11
687.832	34672.68
688.18	34809.4
688.527	34629.29
688.874	34603.07
689.221	34554.03
689.568	34333.93
689.915	34417.99
690.262	34301.39
690.609	34331.89
690.956	34092.13
691.303	34094.39
691.65	33988.17
691.997	34010.55
692.344	33736.2
692.69	33828.86
693.037	33821.62
693.383	33681.06
693.73	33770.78
694.077	33445.59
694.423	33468.87
694.769	33319.94
695.116	33201.3
695.462	33310
695.808	33187.74
696.155	33172.38
696.501	32829.79
696.847	32931.93
697.193	32670.02
697.539	32723.8
697.885	32671.6
698.231	32482.45
698.577	32362.45
698.923	32496.69
699.269	32214.44
699.614	32102.35
699.96	32016.02
700.306	32168.33
700.651	31935.35
700.997	32006.31
701.342	31773.32
701.688	31801.56
702.033	31671.62
702.379	31622.36
702.724	31544.62
703.069	31627.33
703.415	31324.97
703.76	31235.7
704.105	31352.99
704.45	31293.1
704.795	31016.73
705.14	30998.65
705.485	31009.27
705.83	30836.62
706.175	30807.01
706.52	30755.72
706.865	30652.22
707.209	30621.26
707.554	30530.86
707.899	30510.3
708.243	30454.03
708.588	30300.36
708.932	30193.47
709.277	30223.75
709.621	30196.41
709.966	29989.18
710.31	30161.16
710.654	29836.42
710.998	29911.9
711.342	29878.23
711.687	29793.48
712.031	29617.89
712.375	29642.3
712.719	29623.09
713.063	29506.48
713.407	29532.92
713.75	29500.16
714.094	29432.81
714.438	29265.13
714.782	29342.87
715.125	29130.22
715.469	29142.65
715.812	29087.06
716.156	28939.72
716.499	28820.4
716.843	28863.11
717.186	28664.47
717.53	28852.94
717.873	28835.99
718.216	28724.36
718.559	28574.08
718.902	28371.6
719.246	28495.89
719.589	28530.46
719.932	28351.71
720.275	28396
720.617	28323.92
720.96	28252.28
721.303	28277.14
721.646	28255.9
721.989	28022
722.331	28097.71
722.674	27998.05
723.016	28204.82
723.359	27986.98
723.701	28093.87
724.044	27814.33
724.386	27699.75
724.729	28029.01
725.071	27845.06
725.413	27876.24
725.755	27788.79
726.097	27629.92
726.439	27573.65
726.782	27486.88
727.124	27684.39
727.465	27387.22
727.807	27463.15
728.149	27340.67
728.491	27370.5
728.833	27322.59
729.175	27327.33
729.516	27254.11
729.858	27088.92
730.199	27169.6
730.541	27029.94
730.882	27030.16
731.224	27053.67
731.565	26862.03
731.906	26876.27
732.248	26925.53
732.589	26715.15
732.93	26824.29
733.271	26644.41
733.612	26639.67
733.953	26761.92
734.294	26684.86
734.635	26552.66
734.976	26701.36
735.317	26431.08
735.658	26498.88
735.999	26530.29
736.339	26391.99
736.68	26435.6
737.021	26288.26
737.361	26233.35
737.702	26377.98
738.042	26200.36
738.383	26227.02
738.723	26247.13
739.063	26191.54
739.404	26126.46
739.744	26102.51
740.084	25873.13
740.424	26080.59
740.764	25954.04
741.104	25985.67
741.444	25832.91
741.784	25792.46
742.124	25834.94
742.464	25648.51
742.804	25662.74
743.143	25672.46
743.483	25688.05
743.823	25482.41
744.162	25607.38
744.502	25563.76
744.841	25513.37
745.181	25531.67
745.52	25352.24
745.86	25471.34
746.199	25382.98
746.538	25289.87
746.877	25211.68
747.216	25378.68
747.556	25336.42
747.895	25228.4
748.234	25129.88
748.573	25207.84
748.911	25114.28
749.25	25058.92
749.589	24958.13
749.928	24983.21
750.267	25069.09
750.605	24855.53
750.944	24967.17
751.283	24652.37
751.621	24941.63
751.96	24704.8
752.298	24621.87
752.636	24693.73
752.975	24573.28
753.313	24444.92
753.651	24566.5
753.989	24412.38
754.327	24318.15
754.666	24200.18
755.004	24286.73
755.342	24189.11
755.679	24220.97
756.017	24079.06
756.355	24116.57
756.693	23970.81
757.031	24056.01
757.368	23885.39
757.706	23935.78
758.044	23785.5
758.381	23707.54
758.719	23642.23
759.056	23645.62
759.394	23530.37
759.731	23397.49
760.068	23356.82
