Data from hue_120_FLMS001491_00081.txt Node
Date: Tue Feb 07 17:00:08 GMT 2017
User: dcchb
Spectrometer: FLMS00149
Trigger mode: 0
Integration Time (sec): 2.000000E-2
Scans to average: 10
Electric dark correction enabled: true
Nonlinearity correction enabled: false
Boxcar width: 0
XAxis mode: Wavelengths
Number of Pixels in Spectrum: 2048
>>>>>Begin Spectral Data<<<<<
341.393	-18.16
341.776	-18.16
342.16	-18.16
342.543	-66.75
342.927	-62.23
343.31	-46.41
343.693	-57.48
344.077	-58.16
344.46	-67.88
344.843	-57.71
345.226	-58.16
345.61	-36.47
345.993	-33.53
346.376	-11.38
346.759	4.43
347.142	35.85
347.525	43.76
347.908	58.22
348.291	79.91
348.674	93.7
349.057	111.32
349.44	138.89
349.823	139.12
350.206	165.79
350.588	191.32
350.971	198.78
351.354	223.64
351.737	217.54
352.119	243.98
352.502	260.93
352.884	262.06
353.267	277.42
353.65	292.11
354.032	263.86
354.414	294.6
354.797	314.03
355.179	335.27
355.562	343.41
355.944	330.98
356.326	315.16
356.709	352
357.091	342.96
357.473	333.01
357.855	333.92
358.238	349.74
358.62	335.73
359.002	336.4
359.384	335.5
359.766	341.83
360.148	335.95
360.53	327.82
360.912	337.53
361.294	337.53
361.676	323.3
362.057	315.61
362.439	321.94
362.821	325.56
363.203	340.7
363.584	319.23
363.966	320.58
364.348	324.88
364.729	318.55
365.111	320.13
365.493	329.4
365.874	321.26
366.256	323.3
366.637	329.62
367.019	335.5
367.4	316.74
367.781	322.62
368.163	323.52
368.544	314.26
368.925	328.27
369.306	313.58
369.688	308.16
370.069	329.17
370.45	315.39
370.831	309.06
371.212	336.4
371.593	328.95
371.974	328.27
372.355	326.01
372.736	341.83
373.117	321.26
373.498	311.55
373.879	322.39
374.26	331.88
374.641	316.52
375.021	343.86
375.402	355.61
375.783	338.44
376.163	325.33
376.544	318.1
376.925	342.96
377.305	333.01
377.686	316.97
378.066	326.23
378.447	324.65
378.827	349.96
379.208	365.33
379.588	349.96
379.968	338.21
380.349	343.86
380.729	343.18
381.109	345.67
381.489	335.73
381.87	336.86
382.25	330.53
382.63	369.62
383.01	334.6
383.39	322.17
383.77	351.09
384.15	355.61
384.53	351.77
384.91	350.87
385.29	363.97
385.67	330.53
386.049	353.35
386.429	366.23
386.809	355.61
387.189	341.83
387.568	387.25
387.948	390.19
388.328	402.39
388.707	381.83
389.087	369.85
389.466	369.17
389.846	372.11
390.225	377.53
390.605	343.86
390.984	389.28
391.363	377.98
391.743	380.92
392.122	381.15
392.501	387.7
392.881	378.66
393.26	383.18
393.639	404.42
394.018	392.9
394.397	369.17
394.776	400.13
395.155	395.39
395.534	402.62
395.913	407.59
396.292	407.14
396.671	400.13
397.05	413.69
397.429	399.23
397.808	404.42
398.186	404.88
398.565	435.84
398.944	423.18
399.323	416.4
399.701	431.77
400.08	424.54
400.458	414.14
400.837	421.15
401.215	433.12
401.594	429.28
401.972	416.85
402.351	430.64
402.729	414.14
403.107	456.85
403.486	417.08
403.864	454.82
404.242	463.63
404.62	467.93
404.999	425.67
405.377	461.82
405.755	460.47
406.133	472.67
406.511	460.92
406.889	466.12
407.267	482.61
407.645	479.9
408.023	486.46
408.401	476.06
408.779	473.8
409.156	480.81
409.534	486.91
409.912	477.19
410.29	493.01
410.667	504.31
411.045	511.09
411.422	517.87
411.8	501.37
412.178	545.21
412.555	536.62
412.933	528.26
413.31	517.87
413.687	526.68
414.065	530.07
414.442	547.47
414.819	536.62
415.197	539.11
415.574	539.79
415.951	552.9
416.328	557.41
416.705	555.83
417.082	570.75
417.46	569.39
417.837	560.13
418.214	546.34
418.591	558.77
418.967	583.85
419.344	587.24
419.721	557.87
420.098	593.8
420.475	614.14
420.852	591.09
421.228	608.26
421.605	577.98
421.982	600.8
422.358	601.26
422.735	619.11
423.111	610.29
423.488	627.02
423.864	627.47
424.241	629.28
424.617	623.63
424.994	654.81
425.37	636.73
425.746	656.62
426.123	656.17
426.499	654.59
426.875	653.91
427.251	656.62
427.627	643.06
428.003	684.87
428.379	695.26
428.756	672.44
429.132	692.33
429.507	687.58
429.883	684.87
430.259	739.33
430.635	691.42
431.011	735.04
431.387	737.3
431.763	740.91
432.138	744.3
432.514	750.4
432.89	764.19
433.265	770.97
433.641	787.69
434.016	770.29
434.392	793.34
434.767	840.12
435.143	813.23
435.518	822.72
435.894	827.92
436.269	813
436.644	826.56
437.02	851.64
437.395	828.37
437.77	851.19
438.145	865.88
438.52	871.98
438.895	890.29
439.271	882.83
439.646	910.17
440.021	892.1
440.395	892.55
440.77	909.95
441.145	902.94
441.52	901.81
441.895	937.74
442.27	930.51
442.645	921.92
443.019	956.05
443.394	947.91
443.769	944.3
444.143	949.72
444.518	969.83
444.892	969.83
445.267	971.64
445.641	989.49
446.016	1015.03
446.39	1000.57
446.764	1013.67
447.139	1014.13
447.513	1023.17
447.887	1029.04
448.262	1031.07
448.636	1042.15
449.01	1046.67
449.384	1064.97
449.758	1063.39
450.132	1052.99
450.506	1069.49
450.88	1061.13
451.254	1080.56
451.628	1068.81
452.002	1121.24
452.376	1123.28
452.75	1129.83
453.123	1144.29
453.497	1124.41
453.871	1142.48
454.244	1165.31
454.618	1185.19
454.992	1189.49
455.365	1196.49
455.739	1233.1
456.112	1226.32
456.486	1253.22
456.859	1274.23
457.232	1293.21
457.606	1270.62
457.979	1308.13
458.352	1318.07
458.725	1350.16
459.099	1330.28
459.472	1379.54
459.845	1382.03
460.218	1400.33
460.591	1413.21
460.964	1408.92
461.337	1419.76
461.71	1455.7
462.083	1487.11
462.456	1508.12
462.829	1527.56
463.201	1536.82
463.574	1540.89
463.947	1597.39
464.32	1595.81
464.692	1624.28
465.065	1660.21
465.438	1665.63
465.81	1703.83
466.183	1706.76
466.555	1722.58
466.928	1760.09
467.3	1775.46
467.672	1799.87
468.045	1853.88
468.417	1845.06
468.789	1875.12
469.161	1895.01
469.534	1962.58
469.906	1961.22
470.278	2005.06
470.65	2037.38
471.022	2081.89
471.394	2151.95
471.766	2149.92
472.138	2176.13
472.51	2258.84
472.882	2326.18
473.253	2306.52
473.625	2397.59
473.997	2443.92
474.369	2472.39
474.74	2490.47
475.112	2555.78
475.484	2648.66
475.855	2714.65
476.227	2745.61
476.598	2861.99
476.97	2844.13
477.341	2977.24
477.713	3036.9
478.084	3100.4
478.455	3179.49
478.827	3250.9
479.198	3365.48
479.569	3425.14
479.94	3500.61
480.311	3587.62
480.682	3717.33
481.053	3819.7
481.424	3931.11
481.795	3968.85
482.166	4084.78
482.537	4156.87
482.908	4310.31
483.279	4364.55
483.65	4480.48
484.021	4625.1
484.391	4751.2
484.762	4861.48
485.133	4971.54
485.503	5059.67
485.874	5292.21
486.244	5324.3
486.615	5494.46
486.985	5682.03
487.356	5800.44
487.726	5868.24
488.097	6054.45
488.467	6159.3
488.837	6431.38
489.207	6500.76
489.578	6615.56
489.948	6760.87
490.318	6913.63
490.688	7001.77
491.058	7146.39
491.428	7363.11
491.798	7472.49
492.168	7684.68
492.538	7799.94
492.908	8005.81
493.278	8135.75
493.648	8301.62
494.017	8453.7
494.387	8575.96
494.757	8659.8
495.126	8827.71
495.496	8906.35
495.866	9053.91
496.235	9217.98
496.605	9334.13
496.974	9492.77
497.344	9640.34
497.713	9800.34
498.082	9895.93
498.452	10018.18
498.821	10097.73
499.19	10155.35
499.559	10405.52
499.928	10418.62
500.298	10558.51
500.667	10758.5
501.036	10747.43
501.405	10944.94
501.774	11010.47
502.143	11098.61
502.512	11245.95
502.88	11398.94
503.249	11415.66
503.618	11478.26
503.987	11590.8
504.356	11658.82
504.724	11764.58
505.093	11823.56
505.462	11906.95
505.83	11967.51
506.199	12083.89
506.567	12299.03
506.936	12376.76
507.304	12475.75
507.672	12588.74
508.041	12582.86
508.409	12752.8
508.777	12800.26
509.145	12883.64
509.514	12915.96
509.882	12977.65
510.25	13033.02
510.618	13172.68
510.986	13186.01
511.354	13367.25
511.722	13366.12
512.09	13463.06
512.458	13430.75
512.826	13537.19
513.193	13572.67
513.561	13630.07
513.929	13723.17
514.297	13823.96
514.664	13908.7
515.032	14000
515.4	13973.56
515.767	13986.67
516.135	14058.98
516.502	14002.48
516.869	14169.71
517.237	14224.17
517.604	14077.96
517.972	14396.82
518.339	14441.12
518.706	14302.59
519.073	14406.54
519.44	14497.16
519.808	14598.18
520.175	14546.65
520.542	14754.78
520.909	14748.91
521.276	14665.29
521.643	14760.88
522.009	14862.35
522.376	14863.93
522.743	14878.62
523.11	15118.61
523.477	15164.04
523.843	15124.04
524.21	15311.6
524.577	15307.31
524.943	15317.7
525.31	15403.35
525.676	15518.38
526.043	15453.07
526.409	15512.95
526.776	15601.54
527.142	15548.43
527.508	15548.66
527.874	15657.58
528.241	15736.68
528.607	15705.04
528.973	15787.07
529.339	15773.51
529.705	15886.96
530.071	15818.93
530.437	15828.2
530.803	15962.43
531.169	15883.11
531.535	15780.97
531.901	15785.04
532.267	15887.18
532.632	15957.24
532.998	15872.04
533.364	15939.61
533.73	15917.01
534.095	16000.4
534.461	15916.78
534.826	15973.96
535.192	15959.04
535.557	15995.2
535.923	15865.03
536.288	15967.86
536.653	15954.07
537.019	15835.88
537.384	15811.02
537.749	15810.12
538.114	15859.84
538.479	15780.07
538.845	15882.66
539.21	15721.76
539.575	15783
539.94	15686.28
540.305	15790.01
540.67	15612.84
541.034	15697.58
541.399	15640.86
541.764	15668.43
542.129	15677.02
542.494	15594.99
542.858	15573.97
543.223	15512.28
543.587	15616.23
543.952	15540.52
544.316	15434.99
544.681	15409
545.045	15472.05
545.41	15515.67
545.774	15355.9
546.138	15366.52
546.503	15337.82
546.867	15324.26
547.231	15299.85
547.595	15346.4
547.959	15353.18
548.324	15298.27
548.688	15151.61
549.052	15172.17
549.416	15134.21
549.779	15103.02
550.143	15094.66
550.507	15173.3
550.871	15125.17
551.235	15041.78
551.599	15080.87
551.962	15036.58
552.326	14999.97
552.689	15094.66
553.053	14961.78
553.417	14945.96
553.78	15077.03
554.143	14918.85
554.507	14982.12
554.87	14846.76
555.234	14974.89
555.597	14954.32
555.96	14859.86
556.323	14996.58
556.686	14931.73
557.05	14966.75
557.413	14851.28
557.776	14939.64
558.139	14983.48
558.502	14875
558.865	14883.37
559.228	14930.37
559.59	14925.62
559.953	14899.64
560.316	14979.41
560.679	14933.76
561.041	14995.68
561.404	14982.12
561.767	15081.78
562.129	14981.44
562.492	15010.37
562.854	15021.44
563.217	15015.34
563.579	15056.69
563.941	15182.57
564.304	15036.13
564.666	15197.03
565.028	15217.59
565.39	15232.51
565.753	15303.02
566.115	15208.78
566.477	15329.23
566.839	15224.37
567.201	15284.03
567.563	15348.89
567.925	15343.92
568.287	15314.31
568.648	15320.42
569.01	15438.15
569.372	15399.06
569.734	15397.93
570.095	15481.54
570.457	15442.67
570.819	15439.51
571.18	15535.1
571.542	15556.12
571.903	15559.73
572.265	15532.39
572.626	15557.47
572.987	15652.39
573.349	15640.63
573.71	15623.01
574.071	15717.47
574.432	15691.48
574.794	15739.84
575.155	15707.98
575.516	15648.32
575.877	15646.96
576.238	15757.02
576.599	15813.96
576.96	15767.18
577.32	15803.79
577.681	15890.57
578.042	15811.25
578.403	15825.94
578.763	15794.53
579.124	15832.72
579.485	15819.84
579.845	15813.96
580.206	15765.15
580.566	15883.57
580.927	15794.08
581.287	15906.84
581.648	15764.25
582.008	15899.84
582.368	15864.81
582.728	15859.84
583.089	15836.11
583.449	15807.86
583.809	15877.46
584.169	15809.67
584.529	15783.46
584.889	15900.74
585.249	15767.64
585.609	15698.49
585.969	15751.82
586.329	15679.28
586.688	15755.89
587.048	15669.56
587.408	15662.33
587.768	15728.99
588.127	15684.02
588.487	15621.43
588.846	15735.32
589.206	15606.28
589.565	15587.98
589.925	15635.89
590.284	15634.53
590.643	15679.05
591.003	15757.47
591.362	15708.2
591.721	15705.94
592.08	15679.05
592.44	15711.82
592.799	15732.38
593.158	15763.34
593.517	15603.35
593.876	15627.53
594.235	15595.89
594.593	15632.72
594.952	15693.74
595.311	15561.54
595.67	15670.92
596.029	15621.43
596.387	15712.95
596.746	15704.14
597.104	15611.03
597.463	15637.24
597.822	15662.55
598.18	15588.66
598.538	15549.34
598.897	15706.39
599.255	15494.42
599.613	15695.32
599.972	15628.88
600.33	15615.1
600.688	15554.76
601.046	15703.91
601.404	15647.19
601.762	15623.23
602.12	15654.19
602.478	15643.12
602.836	15657.81
603.194	15497.13
603.552	15593.63
603.91	15563.57
604.268	15571.71
604.625	15542.11
604.983	15595.21
605.341	15545.27
605.698	15638.6
606.056	15591.82
606.413	15610.35
606.771	15609.22
607.128	15683.12
607.485	15617.81
607.843	15606.74
608.2	15743.91
608.557	15793.17
608.914	15664.36
609.272	15741.2
609.629	15798.37
609.986	15792.72
610.343	15823
610.7	15767.18
611.057	15804.25
611.414	15846.73
611.771	15839.95
612.127	15919.72
612.484	15840.63
612.841	15883.11
613.198	15858.03
613.554	15883.34
613.911	15915.43
614.267	15869.55
614.624	16008.76
614.98	15953.17
615.337	15996.33
615.693	15988.2
616.05	16036.56
616.406	16140.28
616.762	16023.9
617.118	16082.88
617.475	16067.74
617.831	16015.09
618.187	16090.11
618.543	16044.92
618.899	16155.87
619.255	16135.54
619.611	16072.49
619.967	16126.04
620.323	16185.25
620.678	16115.2
621.034	16175.76
621.39	16102.99
621.746	16076.78
622.101	16260.73
622.457	16139.6
622.812	16182.99
623.168	16135.08
623.523	16175.76
623.879	16270.67
624.234	16060.06
624.589	16138.02
624.945	16147.74
625.3	16146.38
625.655	16085.37
626.01	16161.52
626.365	16228.19
626.72	16120.17
627.075	16121.07
627.43	16132.6
627.785	16089.21
628.14	16162.43
628.495	16116.1
628.85	16063.45
629.205	16056.22
629.559	16126.72
629.914	16150.68
630.269	16068.42
630.623	16049.89
630.978	16026.39
631.332	16069.78
631.687	16030.45
632.041	16030.45
632.396	16023
632.75	16006.5
633.104	16001.98
633.459	15846.73
633.813	15936.67
634.167	16027.74
634.521	15870.46
634.875	15889.67
635.229	15934.41
635.583	15779.39
635.937	15814.64
636.291	15784.81
636.645	15799.05
636.999	15743.46
637.352	15775.77
637.706	15659.84
638.06	15674.31
638.413	15627.75
638.767	15655.77
639.121	15698.71
639.474	15444.25
639.828	15621.43
640.181	15658.71
640.534	15672.95
640.888	15509.34
641.241	15526.06
641.594	15631.59
641.947	15628.2
642.301	15561.99
642.654	15601.09
643.007	15495.55
643.36	15456.23
643.713	15482.22
644.066	15432.05
644.419	15414.2
644.771	15334.65
645.124	15196.58
645.477	15235.9
645.83	15098.5
646.182	15113.19
646.535	14994.55
646.888	14965.62
647.24	14917.26
647.593	15020.31
647.945	14929.24
648.298	14892.41
648.65	14868
649.002	14872.74
649.355	14933.31
649.707	14985.06
650.059	14969.01
650.411	15128.56
650.763	15138.5
651.115	15362.45
651.467	15275.67
651.819	15305.28
652.171	15326.74
652.523	15243.36
652.875	15237.71
653.227	15112.29
653.578	15324.26
653.93	15223.02
654.282	15206.07
654.633	15120.2
654.985	15168.78
655.337	15186.63
655.688	15251.04
656.039	15235.9
656.391	15192.51
656.742	15126.07
657.094	15166.52
657.445	15272.96
657.796	15133.75
658.147	15138.27
658.498	15172.85
658.849	15184.15
659.2	15209.01
659.551	15247.2
659.902	15235.45
660.253	15237.48
660.604	15226.18
660.955	15099.63
661.306	15224.6
661.656	15175.11
662.007	15164.71
662.358	15250.14
662.708	15227.31
663.059	15235.45
663.409	15086.52
663.76	15259.18
664.11	15267.08
664.461	15318.83
664.811	15280.42
665.161	15264.82
665.511	15195.67
665.862	15241.1
666.212	15242.9
666.562	15298.5
666.912	15203.13
667.262	15171.49
667.612	15219.4
667.962	15284.71
668.312	15213.53
668.662	15265.95
669.011	15257.82
669.361	15257.59
669.711	15291.04
670.06	15169.69
670.41	15185.96
670.76	15174.66
671.109	15159.06
671.459	15138.95
671.808	15088.11
672.157	15147.31
672.507	15039.29
672.856	15043.36
673.205	15097.82
673.554	15075.45
673.904	15078.84
674.253	15176.01
674.602	15097.15
674.951	14945.28
675.3	14849.92
675.649	15103.7
675.998	15045.62
676.346	15006.3
676.695	15055.79
677.044	14903.48
677.393	14969.01
677.741	15020.31
678.09	14949.13
678.438	14895.34
678.787	14997.94
679.135	14948.45
679.484	14733.09
679.832	14859.86
680.181	14727.66
680.529	14772.18
680.877	14694.67
681.225	14755.01
681.573	14800.43
681.922	14675.91
682.27	14616.71
682.618	14734.44
682.966	14687.44
683.314	14648.12
683.661	14525.86
684.009	14503.71
684.357	14473.43
684.705	14473.66
685.053	14488.12
685.4	14404.06
685.748	14368.13
686.095	14378.97
686.443	14235.47
686.79	14331.74
687.138	14332.87
687.485	14321.35
687.832	14343.49
688.18	14209.71
688.527	14157.28
688.874	14118.41
689.221	14143.72
689.568	14032.09
689.915	14090.17
690.262	13913.9
690.609	14020.34
690.956	13889.27
691.303	13927.68
691.65	13866.22
691.997	13807.01
692.344	13661.02
692.69	13650.18
693.037	13662.38
693.383	13525.44
693.73	13535.83
694.077	13464.19
694.423	13481.59
694.769	13386
695.116	13397.76
695.462	13375.61
695.808	13266.91
696.155	13302.84
696.501	13282.96
696.847	13241.37
697.193	13079.12
697.539	13228.49
697.885	13000.25
698.231	12964.32
698.577	13001.16
698.923	12958.67
699.269	12959.35
699.614	12819.24
699.96	12862.18
700.306	12693.14
700.651	12711.22
700.997	12614.5
701.342	12584.22
701.688	12563.2
702.033	12532.24
702.379	12528.4
702.724	12455.41
703.069	12502.64
703.415	12290.21
703.76	12436.42
704.105	12368.18
704.45	12309.65
704.795	12182.87
705.14	12127.51
705.485	12192.59
705.83	12090.67
706.175	12082.54
706.52	12108.3
706.865	12008.87
707.209	11976.1
707.554	11934.52
707.899	11969.09
708.243	11890.45
708.588	11878.25
708.932	11776.1
709.277	11784.01
709.621	11749.44
709.966	11685.03
710.31	11757.35
710.654	11654.3
710.998	11616.56
711.342	11625.6
711.687	11574.3
712.031	11498.6
712.375	11417.24
712.719	11495.21
713.063	11555.09
713.407	11575.88
713.75	11380.86
714.094	11421.08
714.438	11337.24
714.782	11398.03
715.125	11373.18
715.469	11343.12
715.812	11278.71
716.156	11169.34
716.499	11327.3
716.843	11258.83
717.186	11219.28
717.53	11253.4
717.873	11146.97
718.216	11086.63
718.559	11153.97
718.902	11037.37
719.246	11039.85
719.589	11023.58
719.932	10991.49
720.275	11080.53
720.617	10967.54
720.96	11004.6
721.303	10972.06
721.646	10920.76
721.989	10956.69
722.331	10932.28
722.674	10869.46
723.016	10919.63
723.359	10913.75
723.701	10977.93
724.044	10802.12
724.386	10811.16
724.729	10873.75
725.071	10824.49
725.413	10859.29
725.755	10809.57
726.097	10786.75
726.439	10755.34
726.782	10751.72
727.124	10810.48
727.465	10710.14
727.807	10739.29
728.149	10684.15
728.491	10709.01
728.833	10717.15
729.175	10713.31
729.516	10699.07
729.858	10759.18
730.199	10744.04
730.541	10713.53
730.882	10723.02
731.224	10667.88
731.565	10663.82
731.906	10613.65
732.248	10652.74
732.589	10658.17
732.93	10618.85
733.271	10604.16
733.612	10663.59
733.953	10591.5
734.294	10558.51
734.635	10673.98
734.976	10603.25
735.317	10579.52
735.658	10628.79
735.999	10536.59
736.339	10570.26
736.68	10554.21
737.021	10566.19
737.361	10566.19
737.702	10604.16
738.042	10605.96
738.383	10609.58
738.723	10666.75
739.063	10580.2
739.404	10642.12
739.744	10658.17
740.084	10648.67
740.424	10605.29
740.764	10657.26
741.104	10679.63
741.444	10667.21
741.784	10696.36
742.124	10692.74
742.464	10745.17
742.804	10684.83
743.143	10747.43
743.483	10703.81
743.823	10730.48
744.162	10762.8
744.502	10827.2
744.841	10856.8
745.181	10914.43
745.52	10820.65
745.86	10887.09
746.199	10945.62
746.538	10888.89
746.877	11051.6
747.216	11065.61
747.556	11067.65
747.895	11185.61
748.234	11179.51
748.573	11191.03
748.911	11278.04
749.25	11266.51
749.589	11428.09
749.928	11446.39
750.267	11538.59
750.605	11546.5
750.944	11659.72
751.283	11680.74
751.621	11808.19
751.96	11827.17
752.298	12026.27
752.636	12144.23
752.975	12163.21
753.313	12082.54
753.651	12316.65
753.989	12426.93
754.327	12569.3
754.666	12624.22
755.004	12816.3
755.342	12872.35
755.679	13038.44
