Data from hue_34_FLMS001491_00049.txt Node
Date: Tue Feb 07 17:25:41 GMT 2017
User: dcchb
Spectrometer: FLMS00149
Trigger mode: 0
Integration Time (sec): 2.000000E-2
Scans to average: 10
Electric dark correction enabled: true
Nonlinearity correction enabled: false
Boxcar width: 0
XAxis mode: Wavelengths
Number of Pixels in Spectrum: 2048
>>>>>Begin Spectral Data<<<<<
341.393	-11.24
341.776	-11.24
342.16	-11.24
342.543	-69.77
342.927	-52.37
343.31	-70.68
343.693	-71.35
344.077	-57.12
344.46	-70.45
344.843	-52.15
345.226	-21.19
345.61	-36.33
345.993	-4.92
346.376	-5.14
346.759	26.95
347.142	11.81
347.525	50.45
347.908	33.95
348.291	60.62
348.674	90.9
349.057	114.63
349.44	152.59
349.823	157.79
350.206	162.09
350.588	188.53
350.971	203.89
351.354	198.92
351.737	257.22
352.119	244.12
352.502	259.03
352.884	280.73
353.267	275.3
353.65	295.19
354.032	305.59
354.414	316.43
354.797	318.69
355.179	331.12
355.562	328.86
355.944	324.34
356.326	336.32
356.709	345.13
357.091	344.91
357.473	333.16
357.855	357.11
358.238	344.68
358.62	351.91
359.002	349.43
359.384	353.72
359.766	340.84
360.148	319.82
360.53	329.77
360.912	329.77
361.294	353.72
361.676	311.69
362.057	352.36
362.439	333.83
362.821	335.19
363.203	339.71
363.584	338.13
363.966	321.4
364.348	325.02
364.729	322.31
365.111	299.48
365.493	325.92
365.874	319.82
366.256	317.34
366.637	334.51
367.019	329.54
367.4	316.21
367.781	319.82
368.163	323.66
368.544	329.99
368.925	324.79
369.306	316.43
369.688	308.07
370.069	312.59
370.45	295.42
370.831	322.08
371.212	314.4
371.593	315.75
371.974	320.5
372.355	315.98
372.736	323.66
373.117	342.42
373.498	329.09
373.879	297.68
374.26	311.01
374.641	322.31
375.021	331.57
375.402	340.84
375.783	314.62
376.163	326.83
376.544	351.46
376.925	327.28
377.305	333.83
377.686	318.01
378.066	304.68
378.447	349.2
378.827	359.82
379.208	350.56
379.588	338.35
379.968	332.93
380.349	341.29
380.729	329.99
381.109	352.14
381.489	361.18
381.87	330.67
382.25	342.65
382.63	353.04
383.01	341.06
383.39	344.23
383.77	332.93
384.15	357.79
384.53	347.17
384.91	335.41
385.29	346.94
385.67	351.69
386.049	380.39
386.429	379.48
386.809	367.28
387.189	375.19
387.568	362.08
387.948	372.25
388.328	375.64
388.707	386.49
389.087	358.47
389.466	353.95
389.846	352.82
390.225	387.39
390.605	378.13
390.984	373.15
391.363	391.23
391.743	374.28
392.122	378.35
392.501	396.2
392.881	388.75
393.26	370.22
393.639	378.13
394.018	379.93
394.397	378.35
394.776	388.97
395.155	383.78
395.534	368.86
395.913	399.14
396.292	380.84
396.671	395.75
397.05	393.04
397.429	392.81
397.808	385.81
398.186	386.04
398.565	407.5
398.944	396.43
399.323	394.85
399.701	406.37
400.08	400.5
400.458	405.92
400.837	411.12
401.215	395.3
401.594	380.39
401.972	436.43
402.351	389.2
402.729	423.32
403.107	423.32
403.486	431.68
403.864	432.36
404.242	414.96
404.62	451.57
404.999	424.45
405.377	416.32
405.755	427.16
406.133	428.29
406.511	448.41
406.889	435.75
407.267	450.67
407.645	452.02
408.023	431.68
408.401	440.95
408.779	455.64
409.156	453.38
409.534	442.53
409.912	444.79
410.29	454.96
410.667	461.06
411.045	447.28
411.422	467.61
411.8	469.87
412.178	498.35
412.555	485.02
412.933	506.48
413.31	499.93
413.687	492.02
414.065	481.17
414.442	500.83
414.819	504.22
415.197	491.12
415.574	492.25
415.951	488.41
416.328	507.84
416.705	508.52
417.082	497.44
417.46	523.66
417.837	500.83
418.214	511.91
418.591	509.87
418.967	488.41
419.344	533.83
419.721	553.49
420.098	540.16
420.475	524.56
420.852	535.18
421.228	529.99
421.605	552.81
421.982	554.17
422.358	552.13
422.735	544
423.111	544.9
423.488	555.3
423.864	577.44
424.241	561.17
424.617	578.35
424.994	602.3
425.37	591.45
425.746	565.24
426.123	567.5
426.499	587.84
426.875	595.3
427.251	602.53
427.627	613.83
428.003	610.21
428.379	608.85
428.756	605.69
429.132	615.18
429.507	632.36
429.883	638.23
430.259	631.23
430.635	637.1
431.011	653.15
431.387	658.57
431.763	655.18
432.138	668.74
432.514	668.74
432.89	655.18
433.265	673.71
433.641	689.98
434.016	684.56
434.392	697.67
434.767	719.81
435.143	693.82
435.518	703.77
435.894	724.11
436.269	724.78
436.644	712.13
437.02	730.66
437.395	721.62
437.77	749.19
438.145	766.36
438.52	748.51
438.895	767.95
439.271	795.29
439.646	781.96
440.021	786.7
440.395	778.34
440.77	771.56
441.145	816.53
441.52	809.3
441.895	813.37
442.27	815.63
442.645	833.71
443.019	826.48
443.394	835.29
443.769	849.3
444.143	810.88
444.518	843.42
444.892	843.42
445.267	849.3
445.641	848.62
446.016	834.16
446.39	844.1
446.764	859.24
447.139	860.6
447.513	882.97
447.887	866.25
448.262	870.09
448.636	872.35
449.01	887.49
449.384	911.9
449.758	890.88
450.132	906.25
450.506	914.61
450.88	933.59
451.254	918.68
451.628	921.16
452.002	925.23
452.376	947.38
452.75	956.19
453.123	960.26
453.497	965.68
453.871	967.26
454.244	979.47
454.618	995.74
454.992	1002.06
455.365	994.38
455.739	1037.09
456.112	1029.18
456.486	1052.46
456.859	1056.3
457.232	1074.6
457.606	1069.86
457.979	1057.43
458.352	1101.95
458.725	1097.65
459.099	1107.37
459.472	1116.86
459.845	1142.17
460.218	1151.21
460.591	1182.85
460.964	1160.25
461.337	1210.87
461.71	1217.2
462.083	1237.54
462.456	1237.54
462.829	1250.19
463.201	1227.82
463.574	1258.1
463.947	1311.21
464.32	1287.03
464.692	1327.48
465.065	1341.49
465.438	1362.28
465.81	1346.91
466.183	1357.31
466.555	1407.93
466.928	1397.08
467.3	1421.94
467.672	1452.9
468.045	1477.08
468.417	1505.33
468.789	1503.52
469.161	1509.4
469.534	1549.62
469.906	1584.87
470.278	1602.5
470.65	1604.76
471.022	1638.66
471.394	1657.87
471.766	1662.39
472.138	1710.52
472.51	1740.8
472.882	1770.86
473.253	1810.4
473.625	1838.65
473.997	1852.89
474.369	1898.54
474.74	1936.05
475.112	1960.46
475.484	2012.88
475.855	2088.59
476.227	2105.09
476.598	2136.05
476.97	2133.11
477.341	2227.34
477.713	2281.35
478.084	2290.39
478.455	2367.68
478.827	2422.82
479.198	2484.74
479.569	2541.91
479.94	2612.87
480.311	2618.97
480.682	2694.22
481.053	2805.18
481.424	2818.74
481.795	2890.83
482.166	2957.27
482.537	3029.36
482.908	3113.19
483.279	3149.58
483.65	3261.21
484.021	3332.4
484.391	3436.12
484.762	3437.71
485.133	3532.62
485.503	3619.4
485.874	3720.18
486.244	3774.65
486.615	3857.58
486.985	3937.35
487.356	4066.62
487.726	4076.79
488.097	4196.56
488.467	4248.31
488.837	4382.09
489.207	4436.1
489.578	4571.91
489.948	4615.3
490.318	4735.75
490.688	4765.35
491.058	4906.82
491.428	5014.61
491.798	5066.36
492.168	5252.57
492.538	5262.07
492.908	5353.59
493.278	5435.17
493.648	5472.45
494.017	5628.61
494.387	5655.05
494.757	5857.3
495.126	5879.68
495.496	5928.26
495.866	5962.61
496.235	6090.29
496.605	6231.08
496.974	6288.7
497.344	6318.76
497.713	6388.36
498.082	6490.06
498.452	6554.23
498.821	6643.27
499.19	6769.37
499.559	6833.55
499.928	6917.61
500.298	6914
500.667	7006.43
501.036	7022.24
501.405	7152.64
501.774	7183.6
502.143	7287.1
502.512	7325.51
502.88	7349.02
503.249	7442.57
503.618	7522.12
503.987	7609.12
504.356	7719.85
504.724	7708.55
505.093	7723.24
505.462	7839.85
505.83	7835.56
506.199	7983.12
506.567	8114.87
506.936	8084.59
507.304	8193.51
507.672	8234.64
508.041	8278.48
508.409	8360.74
508.777	8403.9
509.145	8460.85
509.514	8535.65
509.882	8518.93
510.25	8596.67
510.618	8720.73
510.986	8687.51
511.354	8774.29
511.722	8864.68
512.09	8932.7
512.458	8943.1
512.826	9059.25
513.193	9021.74
513.561	9082.76
513.929	9227.61
514.297	9251.11
514.664	9308.29
515.032	9317.55
515.4	9408.17
515.767	9451.33
516.135	9492.46
516.502	9433.25
516.869	9575.85
517.237	9677.54
517.604	9657.43
517.972	9747.6
518.339	9883.64
518.706	9861.49
519.073	9869.4
519.44	9915.5
519.808	10002.96
520.175	10009.74
520.542	10169.73
520.909	10116.4
521.276	10202.95
521.643	10265.32
522.009	10373.57
522.376	10405.66
522.743	10436.62
523.11	10599.78
523.477	10624.41
523.843	10701.24
524.21	10848.81
524.577	10870.28
524.943	10926.32
525.31	10988.69
525.676	11082.93
526.043	11082.48
526.409	11089.26
526.776	11366.09
527.142	11271.62
527.508	11446.54
527.874	11419.64
528.241	11433.88
528.607	11520.21
528.973	11629.36
529.339	11614.21
529.705	11787.32
530.071	11802.46
530.437	11886.3
530.803	11896.92
531.169	12046.75
531.535	12065.05
531.901	12013.3
532.267	12095.78
532.632	12218.27
532.998	12178.95
533.364	12434.53
533.73	12385.27
534.095	12534.42
534.461	12526.73
534.826	12605.37
535.192	12626.62
535.557	12717.46
535.923	12698.48
536.288	12823
536.653	12839.72
537.019	12892.15
537.384	12936.44
537.749	13046.27
538.114	13005.14
538.479	13058.02
538.845	13119.71
539.21	13137.79
539.575	13168.98
539.94	13248.07
540.305	13309.54
540.67	13279.03
541.034	13281.52
541.399	13444.22
541.764	13451.91
542.129	13537.78
542.494	13599.47
542.858	13562.41
543.223	13622.52
543.587	13754.05
543.952	13740.94
544.316	13874.04
544.681	13883.53
545.045	13973.47
545.41	14000.82
545.774	14003.53
546.138	14148.16
546.503	14039.69
546.867	14136.18
547.231	14249.63
547.595	14290.3
547.959	14389.51
548.324	14339.79
548.688	14376.63
549.052	14456.85
549.416	14488.49
549.779	14600.35
550.143	14464.53
550.507	14678.54
550.871	14797.41
551.235	14737.75
551.599	14833.79
551.962	14800.8
552.326	14940.68
552.689	15029.72
553.053	14942.04
553.417	14994.01
553.78	15175.25
554.143	15209.15
554.507	15170.96
554.87	15182.93
555.234	15361.01
555.597	15342.93
555.96	15389.93
556.323	15441.01
556.686	15467.9
557.05	15532.08
557.413	15576.37
557.776	15608.01
558.139	15770.26
558.502	15802.58
558.865	15796.48
559.228	15895.68
559.59	16015
559.953	15974.78
560.316	16200.53
560.679	16149.24
561.041	16282.57
561.404	16246.63
561.767	16446.4
562.129	16408.44
562.492	16553.29
562.854	16530.47
563.217	16528.21
563.579	16606.63
563.941	16633.52
564.304	16720.29
564.666	16897.24
565.028	16919.39
565.39	16920.29
565.753	16970.68
566.115	17039.83
566.477	17122.32
566.839	17237.8
567.201	17314.86
567.563	17293.39
567.925	17454.06
568.287	17406.6
568.648	17513.04
569.01	17527.51
569.372	17758.91
569.734	17599.14
570.095	17719.36
570.457	17905.57
570.819	17876.42
571.18	17917.55
571.542	18016.08
571.903	18103.76
572.265	18188.73
572.626	18266.47
572.987	18346.24
573.349	18375.62
573.71	18525.67
574.071	18663.07
574.432	18666.91
574.794	18829.62
575.155	18851.09
575.516	18904.87
575.877	18961.82
576.238	19035.71
576.599	19258.99
576.96	19336.95
577.32	19397.51
577.681	19509.6
578.042	19754.11
578.403	19748.24
578.763	19934.9
579.124	20017.61
579.485	20250.82
579.845	20468.9
580.206	20461.21
580.566	20695.78
580.927	20680.64
581.287	20987.98
581.648	21053.51
582.008	21354.3
582.368	21356.33
582.728	21566.5
583.089	21729.43
583.449	21908.18
583.809	22072.7
584.169	22379.13
584.529	22447.38
584.889	22859.79
585.249	22852.79
585.609	23038.55
585.969	23406.22
586.329	23517.4
586.688	23827.9
587.048	23996.04
587.408	24217.5
587.768	24374.1
588.127	24570.71
588.487	24777.71
588.846	25222.44
589.206	25248.66
589.565	25498.14
589.925	25921.63
590.284	25981.52
590.643	26357.56
591.003	26590.32
591.362	26883.19
591.721	26993.02
592.08	27231.43
592.44	27426
592.799	27755.71
593.158	27906.44
593.517	28162.25
593.876	28402.7
594.235	28603.15
594.593	28880.2
594.952	29186.86
595.311	29227.99
595.67	29738.48
596.029	30046.72
596.387	30362.65
596.746	30583.43
597.104	30596.99
597.463	30898.45
597.822	31250.08
598.18	31264.32
598.538	31499.79
598.897	32003.28
599.255	31911.31
599.613	32615.47
599.972	32493.67
600.33	32823.83
600.688	32840.32
601.046	33119.64
601.404	33439.4
601.762	33620.42
602.12	33924.59
602.478	34098.59
602.836	34284.13
603.194	34370.68
603.552	34735.19
603.91	34671.69
604.268	34993.03
604.625	35191.45
604.983	35467.15
605.341	35465.79
605.698	35763.86
606.056	36017.19
606.413	36086.34
606.771	36320.01
607.128	36439.32
607.485	36575.82
607.843	36695.36
608.2	37000.44
608.557	37248.34
608.914	37211.51
609.272	37643.13
609.629	37673.87
609.986	38024.59
610.343	37822.34
610.7	38311.37
611.057	38292.61
611.414	38395.88
611.771	38614.18
612.127	38954.29
612.484	38997.45
612.841	39240.38
613.198	39101.63
613.554	39185.01
613.911	39739.35
614.267	39717.2
614.624	39791.55
614.98	39838.33
615.337	40150.19
615.693	40206.46
616.05	40265.66
616.406	40559.67
616.762	40422.72
617.118	40701.59
617.475	40643.96
617.831	40891.86
618.187	40979.32
618.543	41040.79
618.899	41370.95
619.255	41247.11
619.611	41394.45
619.967	41589.7
620.323	41666.53
620.678	41579.53
621.034	41596.02
621.39	41630.37
621.746	41653.42
622.101	42207.99
622.457	41888.9
622.812	42056.13
623.168	42083.7
623.523	42111.72
623.879	42329.79
624.234	42223.81
624.589	42553.97
624.945	42420.18
625.3	42494.76
625.655	42402.33
626.01	42497.92
626.365	42480.97
626.72	42635.09
627.075	42712.61
627.43	42657.92
627.785	42577.24
628.14	42619.27
628.495	42797.58
628.85	42766.62
629.205	42801.87
629.559	42906.05
629.914	42812.26
630.269	42869.66
630.623	42820.85
630.978	42746.28
631.332	43015.65
631.687	43050.68
632.041	42981.75
632.396	42979.27
632.75	42813.62
633.104	42969.77
633.459	42964.35
633.813	42847.07
634.167	42888.87
634.521	42799.16
634.875	43015.2
635.229	42941.75
635.583	42730.01
635.937	42869.89
636.291	42658.6
636.645	42865.6
636.999	42757.12
637.352	42984.01
637.706	42751.25
638.06	42725.03
638.413	42875.31
638.767	42666.73
639.121	42824.47
639.474	42475.32
639.828	42499.05
640.181	42722.55
640.534	42653.4
640.888	42644.81
641.241	42401.43
641.594	42597.13
641.947	42585.83
642.301	42613.17
642.654	42481.43
643.007	42536.57
643.36	42330.47
643.713	42436.45
644.066	42660.18
644.419	42345.84
644.771	42138.16
645.124	41721.67
645.477	41707.66
645.83	41552.18
646.182	41329.14
646.535	41286.88
646.888	41398.97
647.24	40983.61
647.593	41321.23
647.945	41253.21
648.298	40956.49
648.65	41130.73
649.002	41117.62
649.355	41207.11
649.707	41115.81
650.059	41305.64
650.411	41721.22
650.763	41844.61
651.115	42210.02
651.467	42042.79
651.819	41987.2
652.171	41994.66
652.523	41943.59
652.875	41864.72
653.227	41737.94
653.578	42094.32
653.93	41982.23
654.282	41822.46
654.633	41853.65
654.985	41806.87
655.337	41913.76
655.688	41695.23
656.039	41893.87
656.391	41644.16
656.742	41765.96
657.094	41708.79
657.445	41732.07
657.796	41732.07
658.147	41561.45
658.498	41701.56
658.849	41630.83
659.2	41689.36
659.551	41540.21
659.902	41655.91
660.253	41624.72
660.604	41648.45
660.955	41371.4
661.306	41611.17
661.656	41326.2
662.007	41527.78
662.358	41544.73
662.708	41351.51
663.059	41389.93
663.409	41274.45
663.76	41467.44
664.11	41438.06
664.461	41411.4
664.811	41573.2
665.161	41331.85
665.511	41311.29
665.862	41309.48
666.212	41316.48
666.562	41362.36
666.912	41386.31
667.262	41307.22
667.612	41318.29
667.962	41285.07
668.312	41247.33
668.662	41322.81
669.011	41327.56
669.361	41255.24
669.711	41375.47
670.06	41140.44
670.41	41162.59
670.76	41063.61
671.109	41302.25
671.459	41280.33
671.808	41278.07
672.157	41267.9
672.507	41104.74
672.856	41113.78
673.205	41091.41
673.554	41179.54
673.904	41131.86
674.253	41292.76
674.602	40956.04
674.951	40708.14
675.3	40390.86
675.649	41068.13
675.998	40952.2
676.346	41078.07
676.695	41097.05
677.044	40836.95
677.393	40991.52
677.741	41067.23
678.09	40799.21
678.438	40809.15
678.787	40881.02
679.135	40732.54
679.484	40555.83
679.832	40531.19
680.181	40453.23
680.529	40652.09
680.877	40467.24
681.225	40441.03
681.573	40679.44
681.922	40544.08
682.27	40251.65
682.618	40247.59
682.966	40153.58
683.314	40217.98
683.661	40221.15
684.009	39882.4
684.357	39935.5
684.705	39848.27
685.053	39915.84
685.4	39701.39
685.748	39590.88
686.095	39501.84
686.443	39482.63
686.79	39343.2
687.138	39365.35
687.485	39566.7
687.832	39276.09
688.18	39315.86
688.527	39353.6
688.874	39162.64
689.221	39205.35
689.568	38966.94
689.915	38844.46
690.262	38985.7
690.609	38774.4
690.956	38654.86
691.303	38646.27
691.65	38441.31
691.997	38432.72
692.344	38390.69
692.69	38194.98
693.037	38249.22
693.383	38032.05
693.73	38126.74
694.077	37811.72
694.423	37989.79
694.769	37806.75
695.116	37705.96
695.462	37664.6
695.808	37553.87
696.155	37606.3
696.501	37374.22
696.847	37391.62
697.193	37104.17
697.539	37175.35
697.885	37039.31
698.231	36814.68
698.577	36831.63
698.923	36788.47
699.269	36614.91
699.614	36454.69
699.96	36338.54
700.306	36512.77
700.651	36263.74
700.997	36113.01
701.342	36056.28
701.688	35948.26
702.033	35867.14
702.379	35822.17
702.724	35732.68
703.069	35879.79
703.415	35372.23
703.76	35566.13
704.105	35448.62
704.45	35490.87
704.795	35149.19
705.14	35125.69
705.485	35176.98
705.83	34984
706.175	34925.24
706.52	34886.14
706.865	34779.48
707.209	34685.92
707.554	34552.82
707.899	34582.88
708.243	34353.96
708.588	34292.71
708.932	34133.17
709.277	34122.32
709.621	34112.83
709.966	34044.13
710.31	34092.95
710.654	33767.98
710.998	33794.42
711.342	33615.44
711.687	33739.96
712.031	33504.71
712.375	33452.28
712.719	33509.23
713.063	33500.19
713.407	33558.5
713.75	33304.04
714.094	33304.94
714.438	33211.39
714.782	33200.99
715.125	32981.79
715.469	33166.42
715.812	32890.94
716.156	32667.22
716.499	32910.6
716.843	32826.76
717.186	32617.73
717.53	32768.23
717.873	32642.14
718.216	32664.28
718.559	32458.41
718.902	32245.54
719.246	32283.28
719.589	32330.28
719.932	32113.79
720.275	32169.61
720.617	32107.91
720.96	32152.66
721.303	32046.45
721.646	31976.84
721.989	31871.99
722.331	31966
722.674	31858.43
723.016	31862.72
723.359	31700.69
723.701	31744.53
724.044	31482.84
724.386	31420.47
724.729	31665.21
725.071	31511.32
725.413	31430.19
725.755	31345.45
726.097	31226.81
726.439	31131.44
726.782	31180.03
727.124	31241.72
727.465	31211.44
727.807	31064.55
728.149	31003.76
728.491	30973.03
728.833	31086.7
729.175	30900.71
729.516	30738.01
729.858	30734.39
730.199	30736.2
730.541	30542.08
730.882	30672.92
731.224	30743.43
731.565	30623.88
731.906	30585.24
732.248	30486.03
732.589	30373.72
732.93	30368.98
733.271	30302.99
733.612	30474.74
733.953	30306.38
734.294	30240.39
734.635	30095.76
734.976	30321.75
735.317	30016.89
735.658	30101.41
735.999	30020.06
736.339	29951.59
736.68	30092.6
737.021	29820.06
737.361	29716.79
737.702	29872.49
738.042	29798.6
738.383	29746.39
738.723	29817.8
739.063	29721.08
739.404	29628.43
739.744	29569.45
740.084	29514.31
740.424	29544.59
740.764	29414.2
741.104	29601.54
741.444	29406.74
741.784	29296.46
742.124	29361.54
742.464	29280.42
742.804	29253.52
743.143	29135.11
743.483	29215.56
743.823	29109.35
744.162	28948.9
744.502	29077.26
744.841	28895.12
745.181	29029.58
745.52	28929.47
745.86	28944.38
746.199	28896.25
746.538	28781.67
746.877	28918.39
747.216	28731.05
747.556	28741.45
747.895	28684.05
748.234	28580.55
748.573	28524.28
748.911	28535.13
749.25	28550.72
749.589	28379.2
749.928	28383.94
750.267	28482.25
750.605	28286.09
750.944	28197.28
751.283	28124.29
751.621	28121.12
751.96	28051.52
752.298	28045.19
752.636	27954.12
752.975	27954.35
753.313	27854.47
753.651	27971.07
753.989	27806.56
754.327	27757.52
754.666	27614.25
755.004	27812.43
755.342	27709.16
755.679	27695.37
756.017	27526.11
756.355	27490.86
756.693	27319.79
757.031	27427.81
