Data from hue_110_FLMS001491_00068.txt Node
Date: Tue Feb 07 17:01:40 GMT 2017
User: dcchb
Spectrometer: FLMS00149
Trigger mode: 0
Integration Time (sec): 2.000000E-2
Scans to average: 10
Electric dark correction enabled: true
Nonlinearity correction enabled: false
Boxcar width: 0
XAxis mode: Wavelengths
Number of Pixels in Spectrum: 2048
>>>>>Begin Spectral Data<<<<<
341.393	-4.55
341.776	-4.55
342.16	-4.55
342.543	-61.04
342.927	-80.03
343.31	-73.02
343.693	-67.6
344.077	-62.63
344.46	-68.5
344.843	-55.85
345.226	-31.44
345.61	-31.67
345.993	-15.85
346.376	-17.2
346.759	-5.68
347.142	42.23
347.525	35.68
347.908	72.96
348.291	76.13
348.674	88.11
349.057	114.32
349.44	122.68
349.823	154.77
350.206	157.71
350.588	194.99
350.971	201.1
351.354	213.98
351.737	234.77
352.119	244.71
352.502	273.64
352.884	260.3
353.267	266.18
353.65	287.87
354.032	284.94
354.414	295.33
354.797	331.04
355.179	324.26
355.562	313.41
355.944	336.23
356.326	325.84
356.709	322.68
357.091	330.81
357.473	340.98
357.855	338.04
358.238	318.38
358.62	347.99
359.002	338.95
359.384	331.49
359.766	331.49
360.148	328.55
360.53	319.74
360.912	325.39
361.294	328.78
361.676	313.86
362.057	340.98
362.439	328.32
362.821	324.71
363.203	320.19
363.584	300.53
363.966	338.04
364.348	317.48
364.729	314.77
365.111	313.86
365.493	326.74
365.874	328.78
366.256	304.6
366.637	297.59
367.019	298.49
367.4	314.09
367.781	295.56
368.163	307.53
368.544	310.02
368.925	301.88
369.306	309.79
369.688	320.19
370.069	306.86
370.45	314.77
370.831	301.88
371.212	316.8
371.593	309.12
371.974	329.23
372.355	320.64
372.736	329.45
373.117	321.55
373.498	302.56
373.879	331.94
374.26	313.18
374.641	304.82
375.021	301.66
375.402	347.08
375.783	332.62
376.163	317.93
376.544	327.65
376.925	328.55
377.305	324.48
377.686	331.26
378.066	324.71
378.447	305.05
378.827	328.1
379.208	344.6
379.588	333.97
379.968	332.39
380.349	340.08
380.729	342.34
381.109	343.47
381.489	342.11
381.87	326.29
382.25	340.08
382.63	336.01
383.01	325.39
383.39	351.15
383.77	340.3
384.15	344.14
384.53	323.13
384.91	327.65
385.29	333.52
385.67	340.08
386.049	355.67
386.429	347.31
386.809	343.92
387.189	349.34
387.568	366.52
387.948	355.22
388.328	373.97
388.707	376.01
389.087	345.5
389.466	371.26
389.846	370.81
390.225	350.02
390.605	378.94
390.984	364.03
391.363	359.74
391.743	357.25
392.122	373.07
392.501	369.91
392.881	353.41
393.26	364.71
393.639	387.08
394.018	385.72
394.397	381.43
394.776	364.93
395.155	387.08
395.534	384.14
395.913	365.39
396.292	400.41
396.671	396.57
397.05	394.54
397.429	380.3
397.808	393.63
398.186	382.56
398.565	382.33
398.944	381.88
399.323	394.09
399.701	395.22
400.08	407.64
400.458	415.78
400.837	426.85
401.215	409.23
401.594	398.38
401.972	398.61
402.351	400.64
402.729	434.76
403.107	421.66
403.486	407.19
403.864	428.89
404.242	437.02
404.62	424.59
404.999	429.11
405.377	435.44
405.755	426.4
406.133	449.9
406.511	470.24
406.889	431.82
407.267	450.58
407.645	448.55
408.023	461.2
408.401	419.4
408.779	448.77
409.156	449.23
409.534	449.45
409.912	469.79
410.29	468.89
410.667	497.59
411.045	455.78
411.422	493.97
411.8	501.88
412.178	465.04
412.555	474.08
412.933	460.3
413.31	501.88
413.687	498.26
414.065	493.97
414.442	499.39
414.819	506.17
415.197	537.81
415.574	520.41
415.951	498.94
416.328	506.63
416.705	525.16
417.082	538.49
417.46	511.82
417.837	520.41
418.214	547.98
418.591	536.68
418.967	533.07
419.344	545.49
419.721	530.35
420.098	538.04
420.475	556.12
420.852	546.85
421.228	536.45
421.605	535.78
421.982	563.35
422.358	546.17
422.735	567.41
423.111	574.19
423.488	571.26
423.864	583.69
424.241	573.52
424.617	587.07
424.994	599.96
425.37	575.1
425.746	608.09
426.123	624.36
426.499	604.7
426.875	609.67
427.251	609.22
427.627	623.91
428.003	606.51
428.379	612.39
428.756	636.57
429.132	632.5
429.507	644.7
429.883	655.32
430.259	667.3
430.635	665.04
431.011	675.66
431.387	697.35
431.763	684.02
432.138	694.64
432.514	710.69
432.89	700.07
433.265	686.51
433.641	723.34
434.016	711.14
434.392	734.87
434.767	731.03
435.143	726.05
435.518	745.94
435.894	780.74
436.269	768.31
436.644	773.28
437.02	766.05
437.395	776.67
437.77	778.93
438.145	787.07
438.52	777.8
438.895	791.36
439.271	798.59
439.646	828.65
440.021	817.58
440.395	823.45
440.77	815.54
441.145	820.52
441.52	837.01
441.895	850.12
442.27	861.64
442.645	853.73
443.019	844.7
443.394	885.37
443.769	874.3
444.143	868.65
444.518	884.69
444.892	883.34
445.267	888.31
445.641	926.28
446.016	914.52
446.39	912.72
446.764	910.91
447.139	907.74
447.513	913.17
447.887	937.57
448.262	951.36
448.636	948.65
449.01	962.21
449.384	946.61
449.758	978.03
450.132	977.8
450.506	999.72
450.88	994.75
451.254	992.04
451.628	1014.86
452.002	1009.44
452.376	1036.33
452.75	1023.9
453.123	1046.72
453.497	1055.99
453.871	1070.23
454.244	1098.25
454.618	1070.68
454.992	1108.64
455.365	1110.45
455.739	1144.35
456.112	1162.43
456.486	1158.13
456.859	1163.56
457.232	1197.45
457.606	1178.92
457.979	1190.45
458.352	1222.31
458.725	1239.94
459.099	1251.46
459.472	1260.73
459.845	1259.83
460.218	1300.95
460.591	1309.32
460.964	1309.32
461.337	1336.66
461.71	1355.19
462.083	1374.62
462.456	1386.6
462.829	1397.22
463.201	1401.52
463.574	1418.24
463.947	1474.28
464.32	1483.77
464.692	1495.75
465.065	1490.78
465.438	1526.94
465.81	1558.8
466.183	1575.3
466.555	1622.08
466.928	1645.13
467.3	1643.32
467.672	1685.35
468.045	1745.91
468.417	1709.98
468.789	1757.89
469.161	1731.68
469.534	1797.89
469.906	1874.05
470.278	1843.77
470.65	1864.1
471.022	1983.65
471.394	2017.32
471.766	2012.57
472.138	2011.9
472.51	2100.71
472.882	2141.61
473.253	2177.32
473.625	2201.72
473.997	2246.01
474.369	2300.48
474.74	2364.43
475.112	2412.56
475.484	2448.04
475.855	2525.1
476.227	2572.56
476.598	2616.17
476.97	2679.9
477.341	2781.14
477.713	2811.88
478.084	2882.61
478.455	3022.72
478.827	3070.85
479.198	3150.85
479.569	3187.23
479.94	3298.19
480.311	3402.14
480.682	3474.91
481.053	3596.04
481.424	3688.91
481.795	3777.27
482.166	3858.4
482.537	3937.27
482.908	4111.5
483.279	4175.91
483.65	4328.22
484.021	4418.61
484.391	4565.73
484.762	4676.46
485.133	4727.31
485.503	4812.73
485.874	5000.52
486.244	5117.8
486.615	5220.4
486.985	5363.45
487.356	5539.94
487.726	5633.27
488.097	5762.08
488.467	5854.28
488.837	6062.86
489.207	6148.06
489.578	6323.2
489.948	6430.54
490.318	6671.21
490.688	6719.12
491.058	6896.29
491.428	7059
491.798	7212.44
492.168	7377.63
492.538	7477.97
492.908	7630.28
493.278	7715.02
493.648	7897.84
494.017	8014.68
494.387	8187.33
494.757	8327.44
495.126	8471.16
495.496	8523.14
495.866	8725.39
496.235	8875.22
496.605	9007.42
496.974	9054.87
497.344	9242.67
497.713	9338.26
498.082	9517.24
498.452	9632.03
498.821	9668.42
499.19	9821.86
499.559	9900.28
499.928	10113.38
500.298	10203.55
500.667	10312.92
501.036	10423.88
501.405	10569.41
501.774	10642.86
502.143	10724.89
502.512	10755.85
502.88	10951.32
503.249	11001.72
503.618	11130.07
503.987	11171.43
504.356	11253.01
504.724	11392.44
505.093	11424.76
505.462	11509.73
505.83	11596.05
506.199	11769.61
506.567	11842.6
506.936	11925.76
507.304	12039.43
507.672	12160.78
508.041	12215.02
508.409	12275.58
508.777	12375.69
509.145	12502.69
509.514	12469.47
509.882	12633.76
510.25	12625.18
510.618	12760.09
510.986	12737.49
511.354	12939.07
511.722	12975.9
512.09	13110.14
512.458	13112.4
512.826	13110.36
513.193	13229.23
513.561	13222.22
513.929	13336.8
514.297	13434.65
514.664	13448.43
515.032	13517.13
515.4	13611.37
515.767	13614.98
516.135	13780.4
516.502	13604.36
516.869	13881.87
517.237	13778.82
517.604	13829.66
517.972	13947.63
518.339	13916.44
518.706	13955.31
519.073	14067.62
519.44	14135.42
519.808	14234.4
520.175	14189.2
520.542	14394.85
520.909	14308.97
521.276	14366.83
521.643	14442.98
522.009	14486.37
522.376	14488.86
522.743	14630.77
523.11	14679.36
523.477	14770.2
523.843	14807.94
524.21	14824.21
524.577	14915.06
524.943	14921.84
525.31	14977.43
525.676	15115.73
526.043	15148.73
526.409	15112.12
526.776	15251.55
527.142	15148.27
527.508	15224.66
527.874	15243.64
528.241	15321.6
528.607	15393.47
528.973	15364.54
529.339	15351.88
529.705	15454.71
530.071	15515.72
530.437	15466.68
530.803	15503.97
531.169	15527.7
531.535	15464.2
531.901	15515.95
532.267	15485.89
532.632	15501.71
532.998	15543.97
533.364	15529.05
533.73	15520.47
534.095	15544.42
534.461	15538.09
534.826	15628.26
535.192	15638.43
535.557	15621.71
535.923	15539.22
536.288	15614.7
536.653	15494.48
537.019	15517.08
537.384	15382.17
537.749	15454.71
538.114	15522.95
538.479	15451.32
538.845	15412
539.21	15361.6
539.575	15368.38
539.94	15393.24
540.305	15371.09
540.67	15409.28
541.034	15366.35
541.399	15321.83
541.764	15273.47
542.129	15241.6
542.494	15279.57
542.858	15293.35
543.223	15260.14
543.587	15253.36
543.952	15189.63
544.316	15208.84
544.681	15044.32
545.045	15135.84
545.41	15147.37
545.774	15115.51
546.138	14938.34
546.503	15016.07
546.867	14960.26
547.231	15078.9
547.595	14957.09
547.959	14953.93
548.324	14924.33
548.688	14876.64
549.052	14910.99
549.416	14812.24
549.779	14815.63
550.143	14790.09
550.507	14881.61
550.871	14743.99
551.235	14763.43
551.599	14735.4
551.962	14688.63
552.326	14683.65
552.689	14729.75
553.053	14644.11
553.417	14565.46
553.78	14815.18
554.143	14651.34
554.507	14652.47
554.87	14610.44
555.234	14641.39
555.597	14529.08
555.96	14589.87
556.323	14545.58
556.686	14562.3
557.05	14576.76
557.413	14519.82
557.776	14518.91
558.139	14511.45
558.502	14592.36
558.865	14524.56
559.228	14602.98
559.59	14621.28
559.953	14520.04
560.316	14606.37
560.679	14589.19
561.041	14679.59
561.404	14704.44
561.767	14734.05
562.129	14618.8
562.492	14722.52
562.854	14689.3
563.217	14684.33
563.579	14649.53
563.941	14735.63
564.304	14687.04
564.666	14769.53
565.028	14803.2
565.39	14748.51
565.753	14833.93
566.115	14813.37
566.477	14817.89
566.839	14886.59
567.201	14991.44
567.563	14861.05
567.925	14912.57
568.287	14891.56
568.648	14920.71
569.01	14993.48
569.372	15005.68
569.734	14922.29
570.095	15027.15
570.457	15003.42
570.819	15024.66
571.18	15008.84
571.542	15060.14
571.903	15075.51
572.265	15038.22
572.626	15083.64
572.987	15088.16
573.349	15101.95
573.71	15162.28
574.071	15158.67
574.432	15157.31
574.794	15229.63
575.155	15237.99
575.516	15128.84
575.877	15179.91
576.238	15192.79
576.599	15225.79
576.96	15254.71
577.32	15154.15
577.681	15284.32
578.042	15301.49
578.403	15292.23
578.763	15327.7
579.124	15266.24
579.485	15358.44
579.845	15306.01
580.206	15289.06
580.566	15341.49
580.927	15246.58
581.287	15326.12
581.648	15226.24
582.008	15252.45
582.368	15344.43
582.728	15197.76
583.089	15251.77
583.449	15245.67
583.809	15185.11
584.169	15303.52
584.529	15220.59
584.889	15300.13
585.249	15147.37
585.609	15134.26
585.969	15319.12
586.329	15178.1
586.688	15265.56
587.048	15157.99
587.408	15085.9
587.768	15157.54
588.127	15179.46
588.487	15032.12
588.846	15231.44
589.206	15032.34
589.565	15110.99
589.925	15154.83
590.284	15107.6
590.643	15148.5
591.003	15141.95
591.362	15136.07
591.721	15025.57
592.08	15070.99
592.44	15184.88
592.799	15128.84
593.158	15045.68
593.517	14972.23
593.876	15075.73
594.235	15022.4
594.593	14998.22
594.952	15027.15
595.311	14977.66
595.67	14972.69
596.029	15034.83
596.387	15057.65
596.746	15088.61
597.104	15026.24
597.463	15008.16
597.822	14992.8
598.18	14983.76
598.538	14913.03
598.897	14929.52
599.255	14946.47
599.613	15061.27
599.972	14921.61
600.33	14960.48
600.688	14939.92
601.046	15023.76
601.404	14969.3
601.762	15008.16
602.12	14991.89
602.478	15040.71
602.836	15102.63
603.194	15021.05
603.552	14970.65
603.91	14920.71
604.268	15019.24
604.625	14992.35
604.983	15022.85
605.341	14876.19
605.698	14978.11
606.056	15072.57
606.413	15019.01
606.771	15041.38
607.128	15007.71
607.485	14943.31
607.843	14941.27
608.2	15051.78
608.557	15141.04
608.914	15033.25
609.272	15029.86
609.629	15075.28
609.986	15097.2
610.343	15026.47
610.7	15162.06
611.057	15116.64
611.414	15108.28
611.771	15103.98
612.127	15200.48
612.484	15169.74
612.841	15261.94
613.198	15174.04
613.554	15177.65
613.911	15296.29
614.267	15206.8
614.624	15217.65
614.98	15234.6
615.337	15320.47
615.693	15278.89
616.05	15286.12
616.406	15428.94
616.762	15309.17
617.118	15310.53
617.475	15386.46
617.831	15323.18
618.187	15395.5
618.543	15368.61
618.899	15456.74
619.255	15463.52
619.611	15351.66
619.967	15377.42
620.323	15401.15
620.678	15383.75
621.034	15300.13
621.39	15340.81
621.746	15333.35
622.101	15508.94
622.457	15432.11
622.812	15357.53
623.168	15370.64
623.523	15420.81
623.879	15562.05
624.234	15355.05
624.589	15480.24
624.945	15459
625.3	15470.3
625.655	15403.41
626.01	15453.12
626.365	15469.17
626.72	15445.22
627.075	15495.84
627.43	15397.31
627.785	15454.25
628.14	15418.32
628.495	15442.28
628.85	15341.04
629.205	15296.07
629.559	15425.78
629.914	15341.49
630.269	15323.86
630.623	15312.34
630.978	15321.15
631.332	15242.06
631.687	15370.19
632.041	15286.58
632.396	15371.54
632.75	15192.79
633.104	15292.23
633.459	15195.96
633.813	15272.34
634.167	15064.66
634.521	15199.35
634.875	15231.44
635.229	15143.08
635.583	14998.9
635.937	15118.44
636.291	15051.1
636.645	15150.99
636.999	14971.56
637.352	15103.53
637.706	14965.45
638.06	15080.03
638.413	14983.53
638.767	14975.4
639.121	14883.65
639.474	14822.18
639.828	14878.9
640.181	14874.38
640.534	14914.61
640.888	14881.61
641.241	14810.66
641.594	14801.39
641.947	14877.55
642.301	14811.11
642.654	14835.06
643.007	14849.07
643.36	14768.62
643.713	14795.97
644.066	14807.04
644.419	14754.61
644.771	14691.56
645.124	14501.74
645.477	14544.45
645.83	14404.56
646.182	14334.74
646.535	14381.06
646.888	14360.05
647.24	14273.04
647.593	14392.14
647.945	14274.17
648.298	14142.2
648.65	14205.7
649.002	14262.2
649.355	14233.95
649.707	14298.8
650.059	14384.23
650.411	14529.08
650.763	14514.39
651.115	14666.25
651.467	14582.87
651.819	14647.27
652.171	14615.18
652.523	14589.87
652.875	14614.5
653.227	14565.92
653.578	14655.86
653.93	14581.96
654.282	14496.99
654.633	14522.75
654.985	14549.42
655.337	14551.68
655.688	14558.23
656.039	14721.17
656.391	14501.96
656.742	14524.11
657.094	14592.58
657.445	14610.21
657.796	14563.2
658.147	14581.74
658.498	14528.86
658.849	14682.07
659.2	14546.48
659.551	14627.38
659.902	14665.8
660.253	14645.69
660.604	14698.57
660.955	14576.31
661.306	14708.29
661.656	14630.1
662.007	14549.42
662.358	14624.45
662.708	14614.28
663.059	14545.58
663.409	14577.89
663.76	14696.08
664.11	14586.25
664.461	14739.7
664.811	14661.06
665.161	14623.99
665.511	14550.78
665.862	14665.8
666.212	14704.67
666.562	14666.25
666.912	14594.39
667.262	14656.31
667.612	14626.03
667.962	14689.53
668.312	14656.08
668.662	14729.08
669.011	14573.37
669.361	14653.82
669.711	14586.03
670.06	14632.58
670.41	14544.22
670.76	14545.8
671.109	14673.94
671.459	14555.52
671.808	14631.9
672.157	14549.65
672.507	14518.69
672.856	14435.98
673.205	14546.03
673.554	14587.84
673.904	14487.05
674.253	14606.82
674.602	14518.91
674.951	14237.79
675.3	14209.77
675.649	14417.45
675.998	14427.39
676.346	14391.01
676.695	14411.8
677.044	14302.42
677.393	14316.21
677.741	14412.7
678.09	14304.91
678.438	14187.17
678.787	14327.96
679.135	14304.68
679.484	14168.86
679.832	14243.67
680.181	14233.95
680.529	14255.19
680.877	14111.24
681.225	14064.23
681.573	14259.03
681.922	13997.57
682.27	14087.51
682.618	14015.2
682.966	14002.99
683.314	14078.02
683.661	13926.16
684.009	13931.36
684.357	13891.81
684.705	13853.84
685.053	13979.04
685.4	13840.51
685.748	13822.66
686.095	13814.07
686.443	13747.63
686.79	13773.39
687.138	13743.11
687.485	13757.12
687.832	13630.57
688.18	13624.02
688.527	13505.15
688.874	13559.16
689.221	13442.1
689.568	13481.88
689.915	13436.68
690.262	13353.97
690.609	13374.08
690.956	13286.85
691.303	13300.86
691.65	13266.29
691.997	13271.94
692.344	13183.81
692.69	13083.24
693.037	13038.5
693.383	12994.43
693.73	13052.74
694.077	12964.83
694.423	12937.48
694.769	12910.82
695.116	12839.86
695.462	12809.58
695.808	12737.94
696.155	12779.52
696.501	12588.12
696.847	12640.32
697.193	12530.49
697.539	12628.79
697.885	12499.98
698.231	12299.54
698.577	12474.9
698.923	12360.1
699.269	12339.31
699.614	12242.81
699.96	12226.54
700.306	12136.15
700.651	12155.36
700.997	12099.54
701.342	12111.97
701.688	12052.08
702.033	11958.53
702.379	11963.5
702.724	11838.08
703.069	11960.79
703.415	11733.67
703.76	11782.03
704.105	11780
704.45	11710.4
704.795	11626.78
705.14	11527.35
705.485	11594.47
705.83	11491.65
706.175	11504.53
706.52	11518.09
706.865	11427.47
707.209	11335.04
707.554	11344.08
707.899	11373.46
708.243	11349.5
708.588	11241.26
708.932	11149.28
709.277	11142.05
709.621	11148.61
709.966	11121.71
710.31	11141.15
710.654	11017.08
710.998	11037.2
711.342	11041.04
711.687	10979.12
712.031	10961.72
712.375	10931.44
712.719	10941.6
713.063	10861.83
713.407	10833.13
713.75	10875.84
714.094	10876.52
714.438	10891.44
714.782	10755.85
715.125	10826.35
715.469	10756.53
715.812	10781.16
716.156	10687.37
716.499	10711.55
716.843	10681.27
717.186	10631.1
717.53	10679.92
717.873	10570.99
718.216	10674.04
718.559	10644.21
718.902	10606.02
719.246	10614.38
719.589	10489.19
719.932	10553.14
720.275	10513.59
720.617	10472.46
720.96	10480.83
721.303	10476.76
721.646	10478.11
721.989	10390.21
722.331	10462.3
722.674	10473.37
723.016	10388.63
723.359	10400.15
723.701	10359.25
724.044	10315.86
724.386	10342.75
724.729	10401.28
725.071	10336.42
725.413	10311.57
725.755	10251.91
726.097	10321.96
726.439	10209.65
726.782	10229.31
727.124	10262.75
727.465	10274.96
727.807	10182.75
728.149	10265.46
728.491	10219.36
728.833	10227.27
729.175	10162.64
729.516	10144.56
729.858	10182.75
730.199	10185.24
730.541	10175.75
730.882	10173.49
731.224	10200.16
731.565	10084.23
731.906	10189.99
732.248	10137.11
732.589	10133.72
732.93	10121.29
733.271	10121.51
733.612	10124.45
733.953	10149.54
734.294	10104.11
734.635	10060.27
734.976	10185.24
735.317	10099.14
735.658	10131.68
735.999	10104.11
736.339	10126.03
736.68	10125.58
737.021	10158.12
737.361	10150.44
737.702	10155.64
738.042	10127.62
738.383	10114.73
738.723	10137.56
739.063	10169.42
739.404	10191.57
739.744	10219.14
740.084	10253.49
740.424	10185.47
740.764	10232.25
741.104	10225.01
741.444	10248.06
741.784	10277.44
742.124	10257.33
742.464	10291.23
742.804	10223.88
743.143	10313.37
743.483	10311.34
743.823	10332.13
744.162	10373.71
744.502	10413.48
744.841	10391.11
745.181	10460.04
745.52	10464.1
745.86	10419.58
746.199	10531.67
746.538	10530.99
746.877	10716.53
747.216	10732.12
747.556	10759.01
747.895	10875.39
748.234	10811.44
748.573	10899.12
748.911	11015.95
749.25	10992.23
749.589	11007.37
749.928	11138.44
750.267	11237.42
750.605	11295.04
750.944	11373.01
751.283	11384.76
751.621	11538.88
751.96	11577.52
752.298	11659.55
752.636	11825.2
752.975	11863.61
753.313	11954.01
753.651	12149.03
753.989	12090.05
754.327	12211.63
754.666	12371.4
755.004	12473.54
755.342	12704.04
755.679	12775.46
756.017	12808.67
