Data from hue_280_FLMS001491_00006.txt Node
Date: Tue Feb 07 15:54:44 GMT 2017
User: dcchb
Spectrometer: FLMS00149
Trigger mode: 0
Integration Time (sec): 2.000000E-2
Scans to average: 10
Electric dark correction enabled: true
Nonlinearity correction enabled: false
Boxcar width: 0
XAxis mode: Wavelengths
Number of Pixels in Spectrum: 2048
>>>>>Begin Spectral Data<<<<<
341.393	-22.84
341.776	-22.84
342.16	-22.84
342.543	-76.4
342.927	-50.41
343.31	-79.33
343.693	-46.11
344.077	-62.61
344.46	-65.32
344.843	-47.92
345.226	-28.26
345.61	-36.4
345.993	-24.65
346.376	7.67
346.759	7.44
347.142	25.75
347.525	54
347.908	43.15
348.291	72.07
348.674	77.95
349.057	102.58
349.44	119.98
349.823	164.28
350.206	153.65
350.588	187.55
350.971	211.28
351.354	226.87
351.737	241.11
352.119	239.53
352.502	265.74
352.884	235.91
353.267	277.94
353.65	301.45
354.032	290.6
354.414	293.09
354.797	312.07
355.179	330.82
355.562	317.04
355.944	313.88
356.326	326.3
356.709	327.43
357.091	348.9
357.473	349.58
357.855	349.81
358.238	326.76
358.62	337.6
359.002	328.34
359.384	317.72
359.766	346.64
360.148	344.61
360.53	322.46
360.912	336.25
361.294	345.51
361.676	326.76
362.057	324.05
362.439	332.18
362.821	354.1
363.203	327.89
363.584	324.5
363.966	326.76
364.348	318.62
364.729	315.91
365.111	307.77
365.493	336.47
365.874	331.5
366.256	313.88
366.637	313.2
367.019	324.27
367.4	319.75
367.781	325.4
368.163	287.44
368.544	306.42
368.925	308.9
369.306	313.2
369.688	305.06
370.069	305.29
370.45	322.69
370.831	325.63
371.212	305.29
371.593	315.68
371.974	319.53
372.355	312.52
372.736	311.62
373.117	313.2
373.498	324.05
373.879	331.5
374.26	343.25
374.641	310.26
375.021	316.59
375.402	332.63
375.783	328.56
376.163	345.74
376.544	317.04
376.925	312.52
377.305	324.72
377.686	336.25
378.066	317.27
378.447	318.62
378.827	340.32
379.208	326.98
379.588	324.05
379.968	322.92
380.349	346.87
380.729	323.59
381.109	337.15
381.489	338.96
381.87	328.79
382.25	344.84
382.63	331.95
383.01	351.39
383.39	349.81
383.77	354.55
384.15	341.45
384.53	354.1
384.91	362.24
385.29	362.69
385.67	339.64
386.049	366.76
386.429	366.3
386.809	367.21
387.189	360.2
387.568	355.46
387.948	357.94
388.328	369.02
388.707	393.65
389.087	372.41
389.466	369.02
389.846	371.28
390.225	383.48
390.605	381.44
390.984	366.76
391.363	354.33
391.743	375.12
392.122	384.61
392.501	376.02
392.881	383.03
393.26	383.25
393.639	390.48
394.018	377.38
394.397	390.94
394.776	395
395.155	401.33
395.534	379.41
395.913	391.39
396.292	394.78
396.671	401.11
397.05	411.5
397.429	390.03
397.808	416.25
398.186	417.38
398.565	420.09
398.944	411.95
399.323	441.56
399.701	420.09
400.08	411.27
400.458	444.04
400.837	428
401.215	416.47
401.594	423.48
401.972	430.26
402.351	453.08
402.729	432.52
403.107	449.24
403.486	444.72
403.864	468.45
404.242	461.89
404.62	459.86
404.999	483.14
405.377	450.37
405.755	467.54
406.133	445.4
406.511	449.69
406.889	459.86
407.267	490.59
407.645	463.48
408.023	498.05
408.401	501.44
408.779	506.41
409.156	502.35
409.534	515
409.912	506.41
410.29	531.95
410.667	522.01
411.045	547.77
411.422	531.95
411.8	547.99
412.178	566.07
412.555	605.62
412.933	590.93
413.31	576.02
413.687	593.64
414.065	594.77
414.442	599.52
414.819	598.16
415.197	616.47
415.574	620.08
415.951	636.13
416.328	638.39
416.705	628.22
417.082	625.51
417.46	644.71
417.837	678.39
418.214	651.72
418.591	694.88
418.967	694.88
419.344	673.64
419.721	700.98
420.098	713.87
420.475	735.11
420.852	745.73
421.228	733.53
421.605	736.24
421.982	774.88
422.358	745.5
422.735	780.53
423.111	805.39
423.488	788.67
423.864	785.28
424.241	792.28
424.617	798.83
424.994	829.79
425.37	861.66
425.746	832.96
426.123	857.82
426.499	869.57
426.875	860.08
427.251	879.28
427.627	906.85
428.003	927.19
428.379	911.6
428.756	928.78
429.132	952.28
429.507	958.38
429.883	966.06
430.259	1005.38
430.635	1009.45
431.011	1006.97
431.387	990.02
431.763	1037.47
432.138	1017.59
432.514	1049
432.89	1034.31
433.265	1095.32
433.641	1062.78
434.016	1110.69
434.392	1143.91
434.767	1145.49
435.143	1155.66
435.518	1148.66
435.894	1178.03
436.269	1207.86
436.644	1183.91
437.02	1203.8
437.395	1228.65
437.77	1247.64
438.145	1265.26
438.52	1275.21
438.895	1314.75
439.271	1316.79
439.646	1349.1
440.021	1345.04
440.395	1328.54
440.77	1340.29
441.145	1368.99
441.52	1375.32
441.895	1398.14
442.27	1419.16
442.645	1381.42
443.019	1422.32
443.394	1399.05
443.769	1438.37
444.143	1442.66
444.518	1461.87
444.892	1481.98
445.267	1459.38
445.641	1469.78
446.016	1502.32
446.39	1514.07
446.764	1510
447.139	1512.49
447.513	1544.8
447.887	1533.28
448.262	1517.23
448.636	1550.68
449.01	1597.46
449.384	1570.11
449.758	1573.5
450.132	1615.76
450.506	1591.36
450.88	1601.53
451.254	1589.77
451.628	1640.85
452.002	1641.98
452.376	1639.72
452.75	1668.19
453.123	1705.93
453.497	1707.51
453.871	1686.5
454.244	1728.75
454.618	1736.44
454.992	1735.08
455.365	1761.07
455.739	1779.83
456.112	1817.11
456.486	1818.02
456.859	1800.16
457.232	1859.37
457.606	1858.02
457.979	1887.17
458.352	1912.03
458.725	1922.2
459.099	1918.13
459.472	1955.41
459.845	1982.08
460.218	1979.37
460.591	2003.77
460.964	1970.33
461.337	2031.8
461.71	2077.22
462.083	2081.51
462.456	2057.56
462.829	2065.92
463.201	2089.2
463.574	2123.55
463.947	2132.81
464.32	2178.69
464.692	2201.96
465.065	2185.24
465.438	2221.17
465.81	2252.36
466.183	2257.78
466.555	2309.76
466.928	2308.63
467.3	2285.8
467.672	2343.43
468.045	2381.17
468.417	2359.02
468.789	2405.35
469.161	2418.45
469.534	2452.8
469.906	2500.49
470.278	2495.74
470.65	2487.6
471.022	2563.99
471.394	2605.12
471.766	2610.99
472.138	2683.76
472.51	2718.56
472.882	2697.09
473.253	2749.74
473.625	2799.01
473.997	2820.93
474.369	2834.94
474.74	2845.56
475.112	2900.02
475.484	2907.03
475.855	2955.16
476.227	2949.74
476.598	3034.03
476.97	3040.36
477.341	3115.16
477.713	3121.03
478.084	3200.13
478.455	3245.1
478.827	3243.29
479.198	3343.85
479.569	3331.42
479.94	3448.93
480.311	3421.36
480.682	3482.83
481.053	3529.16
481.424	3578.65
481.795	3587.24
482.166	3660.45
482.537	3682.83
482.908	3738.64
483.279	3746.78
483.65	3831.07
484.021	3854.57
484.391	3893.67
484.762	3890.05
485.133	3942.71
485.503	4028.35
485.874	4058.41
486.244	4074.68
486.615	4177.28
486.985	4198.07
487.356	4252.08
487.726	4226.77
488.097	4322.58
488.467	4349.48
488.837	4399.87
489.207	4448
489.578	4450.49
489.948	4490.26
490.318	4528.45
490.688	4575.01
491.058	4639.86
491.428	4699.52
491.798	4674.67
492.168	4795.11
492.538	4773.19
492.908	4805.51
493.278	4900.2
493.648	4862.23
494.017	4949.23
494.387	4999.63
494.757	4977.71
495.126	5057.03
495.496	5050.93
495.866	5128.66
496.235	5172.96
496.605	5130.47
496.974	5157.82
497.344	5199.62
497.713	5247.08
498.082	5273.97
498.452	5308.32
498.821	5309.45
499.19	5339.51
499.559	5366.4
499.928	5404.36
500.298	5392.61
500.667	5467.86
501.036	5460.86
501.405	5434.19
501.774	5497.69
502.143	5519.84
502.512	5527.98
502.88	5571.59
503.249	5534.98
503.618	5612.72
503.987	5654.07
504.356	5680.97
504.724	5660.4
505.093	5716.67
505.462	5683.45
505.83	5710.12
506.199	5742.66
506.567	5802.55
506.936	5781.08
507.304	5884.12
507.672	5837.8
508.041	5869.66
508.409	5862.66
508.777	5904.69
509.145	5942.43
509.514	5981.3
509.882	5963.67
510.25	5992.82
510.618	5971.58
510.986	6050.22
511.354	6086.38
511.722	6089.09
512.09	6099.03
512.458	6104.23
512.826	6146.94
513.193	6204.34
513.561	6101.75
513.929	6222.2
514.297	6254.06
514.664	6287.05
515.032	6249.31
515.4	6309.42
515.767	6354.62
516.135	6332.93
516.502	6254.96
516.869	6388.52
517.237	6334.28
517.604	6334.51
517.972	6439.36
518.339	6358.46
518.706	6426.26
519.073	6391.46
519.44	6443.66
519.808	6469.42
520.175	6517.78
520.542	6525.69
520.909	6584.67
521.276	6528.63
521.643	6635.07
522.009	6600.72
522.376	6634.39
522.743	6645.23
523.11	6684.56
523.477	6693.37
523.843	6726.36
524.21	6868.51
524.577	6846.59
524.943	6881.16
525.31	6888.39
525.676	6912.35
526.043	6922.06
526.409	6972.23
526.776	6980.14
527.142	7036.19
527.508	6990.76
527.874	7058.56
528.241	7126.8
528.607	7127.26
528.973	7235.05
529.339	7171.32
529.705	7185.33
530.071	7220.81
530.437	7316.86
530.803	7270.98
531.169	7284.54
531.535	7313.01
531.901	7318.44
532.267	7374.71
532.632	7431.2
532.998	7444.54
533.364	7480.47
533.73	7502.39
534.095	7500.58
534.461	7484.76
534.826	7604.76
535.192	7576.06
535.557	7612.44
535.923	7625.77
536.288	7614.47
536.653	7656.28
537.019	7648.37
537.384	7666
537.749	7694.92
538.114	7699.44
538.479	7673
538.845	7741.48
539.21	7778.76
539.575	7768.6
539.94	7737.64
540.305	7831.87
540.67	7796.62
541.034	7841.14
541.399	7805.43
541.764	7822.38
542.129	7856.5
542.494	7911.87
542.858	7895.6
543.223	7940.12
543.587	7926.78
543.952	7898.31
544.316	7957.29
544.681	7898.54
545.045	8014.69
545.41	8013.33
545.774	8033.45
546.138	8082.49
546.503	8051.53
546.867	8117.29
547.231	8099.89
547.595	8104.41
547.959	8132.88
548.324	8094.46
548.688	8130.39
549.052	8145.31
549.416	8162.26
549.779	8171.97
550.143	8175.14
550.507	8193.44
550.871	8206.78
551.235	8214.91
551.599	8278.19
551.962	8298.98
552.326	8330.16
552.689	8309.15
553.053	8359.77
553.417	8308.02
553.78	8423.49
554.143	8373.1
554.507	8433.89
554.87	8427.56
555.234	8456.49
555.597	8405.19
555.96	8494
556.323	8511.4
556.686	8473.21
557.05	8530.61
557.413	8522.25
557.776	8629.82
558.139	8564.73
558.502	8612.64
558.865	8584.62
559.228	8693.99
559.59	8692.41
559.953	8709.81
560.316	8834.56
560.679	8765.18
561.041	8819.41
561.404	8869.36
561.767	8831.84
562.129	8884.05
562.492	8955
562.854	8919.53
563.217	8997.49
563.579	8951.39
563.941	8989.13
564.304	9015.57
564.666	9080.2
565.028	9171.72
565.39	9146.41
565.753	9152.06
566.115	9165.62
566.477	9195.22
566.839	9226.41
567.201	9310.02
567.563	9311.15
567.925	9415.33
568.287	9349.8
568.648	9409.46
569.01	9440.42
569.372	9493.52
569.734	9521.77
570.095	9584.82
570.457	9513.18
570.819	9591.15
571.18	9547.31
571.542	9686.06
571.903	9666.62
572.265	9763.34
572.626	9771.48
572.987	9741.2
573.349	9748.2
573.71	9838.82
574.071	9932.15
574.432	9880.86
574.794	10018.93
575.155	9929.44
575.516	10026.16
575.877	10068.87
576.238	10063
576.599	10160.4
576.96	10148.65
577.32	10143.9
577.681	10242.65
578.042	10288.3
578.403	10298.7
578.763	10338.47
579.124	10409.66
579.485	10468.19
579.845	10480.16
580.206	10568.75
580.566	10531.23
580.927	10603.55
581.287	10705.92
581.648	10674.96
582.008	10851.45
582.368	10792.24
582.728	10813.49
583.089	10874.73
583.449	10938.23
583.809	11023.2
584.169	11019.58
584.529	11098.9
584.889	11250.54
585.249	11231.78
585.609	11207.37
585.969	11302.29
586.329	11345
586.688	11449.18
587.048	11541.6
587.408	11598.78
587.768	11591.32
588.127	11707.7
588.487	11690.75
588.846	11801.26
589.206	11863.4
589.565	11924.19
589.925	11991.76
590.284	12111.31
590.643	12122.38
591.003	12215.94
591.362	12240.57
591.721	12350.85
592.08	12384.97
592.44	12569.82
592.799	12567.79
593.158	12619.09
593.517	12592.2
593.876	12828.35
594.235	12788.12
594.593	12864.28
594.952	12903.83
595.311	12960.78
595.67	13037.61
596.029	13134.33
596.387	13205.74
596.746	13273.54
597.104	13234.21
597.463	13321.9
597.822	13468.33
598.18	13432.18
598.538	13455.68
598.897	13538.61
599.255	13472.17
599.613	13759.85
599.972	13706.74
600.33	13743.58
600.688	13796.69
601.046	13835.1
601.404	13987.64
601.762	13987.64
602.12	14150.57
602.478	13992.84
602.836	14139.28
603.194	14184.47
603.552	14249.78
603.91	14227.86
604.268	14318.71
604.625	14240.52
604.983	14431.24
605.341	14392.83
605.698	14515.76
606.056	14604.35
606.413	14596.21
606.771	14583.78
607.128	14605.48
607.485	14573.61
607.843	14672.59
608.2	14726.6
608.557	14811.12
608.914	14783.78
609.272	14922.53
609.629	14899.26
609.986	14988.52
610.343	14971.12
610.7	15103.09
611.057	15047.73
611.414	15063.32
611.771	15108.29
612.127	15240.72
612.484	15144.22
612.841	15214.5
613.198	15133.15
613.554	15207.72
613.911	15297.21
614.267	15317.1
614.624	15312.8
614.98	15377.89
615.337	15456.75
615.693	15442.97
616.05	15492.46
616.406	15532.01
616.762	15576.98
617.118	15453.36
617.475	15493.36
617.831	15648.84
618.187	15583.98
618.543	15698.56
618.899	15673.7
619.255	15700.36
619.611	15724.09
619.967	15763.19
620.323	15731.55
620.678	15767.71
621.034	15763.64
621.39	15765.22
621.746	15679.57
622.101	15890.19
622.457	15729.06
622.812	15783.75
623.168	15804.77
623.523	15915.95
623.879	15904.88
624.234	15765.22
624.589	15864.2
624.945	15878.21
625.3	15892.68
625.655	15924.54
626.01	15888.38
626.365	15877.08
626.72	15878.44
627.075	15980.81
627.43	15886.8
627.785	15867.59
628.14	15938.55
628.495	15945.1
628.85	15940.81
629.205	15893.58
629.559	15987.36
629.914	15868.5
630.269	15917.31
630.623	15925.67
630.978	15839.57
631.332	15843.86
631.687	15946.23
632.041	15853.81
632.396	15853.81
632.75	15805.67
633.104	15794.82
633.459	15800.93
633.813	15778.78
634.167	15777.42
634.521	15771.77
634.875	15716.86
635.229	15716.86
635.583	15682.29
635.937	15691.55
636.291	15732.91
636.645	15633.47
636.999	15645.45
637.352	15630.54
637.706	15640.7
638.06	15682.51
638.413	15634.15
638.767	15598.67
639.121	15683.87
639.474	15467.38
639.828	15626.02
640.181	15518.22
640.534	15564.32
640.888	15503.98
641.241	15412.91
641.594	15471.44
641.947	15480.93
642.301	15520.26
642.654	15476.64
643.007	15438.68
643.36	15387.15
643.713	15425.57
644.066	15473.25
644.419	15393.93
644.771	15340.15
645.124	15191.68
645.477	15149.42
645.83	15040.95
646.182	14991.23
646.535	14930.21
646.888	14926.6
647.24	14814.96
647.593	14993.26
647.945	14942.19
648.298	14937.67
648.65	14793.27
649.002	14813.61
649.355	14908.75
649.707	14914.4
650.059	15081.85
650.411	15144.67
650.763	15137.89
651.115	15331.33
651.467	15299.02
651.819	15326.81
652.171	15263.77
652.523	15259.25
652.875	15258.79
653.227	15176.99
653.578	15317.1
653.93	15304.67
654.282	15201.85
654.633	15212.69
654.985	15228.51
655.337	15240.04
655.688	15283.43
656.039	15347.15
656.391	15298.34
656.742	15224.67
657.094	15237.55
657.445	15265.12
657.796	15274.39
658.147	15247.95
658.498	15200.72
658.849	15280.04
659.2	15324.1
659.551	15221.73
659.902	15290.66
660.253	15337.44
660.604	15324.1
660.955	15252.01
661.306	15425.12
661.656	15363.88
662.007	15376.76
662.358	15273.71
662.708	15370.2
663.059	15357.1
663.409	15238.68
663.76	15394.61
664.11	15407.04
664.461	15371.33
664.811	15417.21
665.161	15454.72
665.511	15306.25
665.862	15357.77
666.212	15415.85
666.562	15436.64
666.912	15430.77
667.262	15361.62
667.612	15349.86
667.962	15383.31
668.312	15347.15
668.662	15385.57
669.011	15383.54
669.361	15412.46
669.711	15394.84
670.06	15282.75
670.41	15266.48
670.76	15269.87
671.109	15391.9
671.459	15380.37
671.808	15243.2
672.157	15302.41
672.507	15233.94
672.856	15253.6
673.205	15245.69
673.554	15253.6
673.904	15175.63
674.253	15245.46
674.602	15306.93
674.951	15024.68
675.3	14971.8
675.649	15163.43
675.998	15159.81
676.346	15231.22
676.695	15221.05
677.044	15067.84
677.393	15108.06
677.741	15078.46
678.09	15072.58
678.438	15024.9
678.787	15091.34
679.135	15130.44
679.484	14957.33
679.832	15101.51
680.181	14857
680.529	14956.88
680.877	14889.31
681.225	14836.43
681.573	14918.24
681.922	14747.85
682.27	14822.2
682.618	14901.74
682.966	14739.26
683.314	14758.69
683.661	14723.21
684.009	14658.13
684.357	14625.82
684.705	14592.37
685.053	14548.53
685.4	14628.53
685.748	14503.79
686.095	14433.96
686.443	14445.48
686.79	14355.31
687.138	14428.76
687.485	14391.25
687.832	14353.51
688.18	14330
688.527	14325.71
688.874	14196.9
689.221	14189.67
689.568	14148.31
689.915	14035.55
690.262	14047.75
690.609	14033.52
690.956	14029.22
691.303	13900.64
691.65	13902.22
691.997	13902.45
692.344	13765.73
692.69	13767.08
693.037	13791.71
693.383	13668.33
693.73	13654.54
694.077	13600.53
694.423	13615.22
694.769	13579.97
695.116	13490.7
695.462	13501.1
695.808	13430.82
696.155	13431.05
696.501	13308.34
696.847	13325.96
697.193	13202.12
697.539	13280.09
697.885	13161.67
698.231	13125.52
698.577	13014.33
698.923	13024.5
699.269	12985.63
699.614	12910.15
699.96	12810.27
700.306	12825.41
700.651	12774.79
700.997	12822.02
701.342	12708.35
701.688	12682.14
702.033	12608.69
702.379	12628.35
702.724	12528.02
703.069	12577.51
703.415	12438.08
703.76	12332.77
704.105	12479.88
704.45	12371.19
704.795	12313.56
705.14	12209.16
705.485	12215.94
705.83	12102.49
706.175	12137.52
706.52	12147.24
706.865	12113.79
707.209	12083.96
707.554	11971.65
707.899	12050.06
708.243	11924.87
708.588	12009.16
708.932	11864.98
709.277	11880.8
709.621	11771.43
709.966	11784.99
710.31	11799.45
710.654	11621.83
710.998	11639
711.342	11608.72
711.687	11682.39
712.031	11608.72
712.375	11531.21
712.719	11587.48
713.063	11541.15
713.407	11546.8
713.75	11460.7
714.094	11446.01
714.438	11413.92
714.782	11417.31
715.125	11355.85
715.469	11323.98
715.812	11300.48
716.156	11200.6
716.499	11271.33
716.843	11289.86
717.186	11168.96
717.53	11252.57
717.873	11238.56
718.216	11211.44
718.559	11155.85
718.902	11071.33
719.246	11121.5
719.589	11123.76
719.932	11018.68
720.275	11066.81
720.617	11079.24
720.96	11009.19
721.303	10995.63
721.646	11038.57
721.989	11013.03
722.331	11068.62
722.674	10973.03
723.016	10948.85
723.359	10904.33
723.701	11017.32
724.044	10833.83
724.386	10881.28
724.729	10874.73
725.071	10845.58
725.413	10875.41
725.755	10800.15
726.097	10850.32
726.439	10821.4
726.782	10843.09
727.124	10853.03
727.465	10816.65
727.807	10760.38
728.149	10751.57
728.491	10824.56
728.833	10807.61
729.175	10735.52
729.516	10813.03
729.858	10664.34
730.199	10736.88
730.541	10718.8
730.882	10727.61
731.224	10815.52
731.565	10752.92
731.906	10698.46
732.248	10722.64
732.589	10696.65
732.93	10684.9
733.271	10687.16
733.612	10745.69
733.953	10693.72
734.294	10623.44
734.635	10621.18
734.976	10735.3
735.317	10642.42
735.658	10637.67
735.999	10658.91
736.339	10710.44
736.68	10667.95
737.021	10649.88
737.361	10633.83
737.702	10666.37
738.042	10713.6
738.383	10754.96
738.723	10722.87
739.063	10674.73
739.404	10723.09
739.744	10739.36
740.084	10706.37
740.424	10690.78
740.764	10710.44
741.104	10750.21
741.444	10781.85
741.784	10759.48
742.124	10862.75
742.464	10840.83
742.804	10792.02
743.143	10808.52
743.483	10834.5
743.823	10900.72
744.162	10842.19
744.502	10930.32
744.841	10880.38
745.181	10959.47
745.52	10964.22
745.86	11129.64
746.199	11041.96
746.538	11173.48
746.877	11219.8
747.216	11235.17
747.556	11246.7
747.895	11340.93
748.234	11377.31
748.573	11375.05
748.911	11489.63
749.25	11515.84
749.589	11591.55
749.928	11649.62
750.267	11730.75
750.605	11720.81
750.944	11878.09
751.283	11879.22
751.621	12008.03
751.96	12051.65
752.298	12219.78
752.636	12296.39
752.975	12307.46
753.313	12374.58
753.651	12638.07
753.989	12662.25
754.327	12750.61
754.666	12859.99
755.004	12979.53
755.342	13176.14
755.679	13306.08
756.017	13354.66
756.355	13533.64
756.693	13612.51
757.031	13802.11
757.368	13904.25
757.706	13969.56
758.044	14174.98
758.381	14314.86
758.719	14497.01
759.056	14601.41
759.394	14722.76
