Data from hue_40_FLMS001491_25.txt Node
Date: Mon Feb 06 15:07:40 GMT 2017
User: dcchb
Spectrometer: FLMS00149
Trigger mode: 0
Integration Time (sec): 2.000000E-2
Scans to average: 10
Electric dark correction enabled: true
Nonlinearity correction enabled: false
Boxcar width: 0
XAxis mode: Wavelengths
Number of Pixels in Spectrum: 2048
>>>>>Begin Spectral Data<<<<<
341.393	-26.78
341.776	-26.78
342.16	-26.78
342.543	-45.76
342.927	-65.65
343.31	-89.15
343.693	-46.44
344.077	-62.48
344.46	-41.69
344.843	-64.07
345.226	-42.37
345.61	-14.8
345.993	-27.46
346.376	-5.31
346.759	11.64
347.142	18.19
347.525	37.63
347.908	58.64
348.291	68.59
348.674	89.15
349.057	109.94
349.44	109.94
349.823	134.8
350.206	177.06
350.588	197.17
350.971	202.37
351.354	233.1
351.737	234.46
352.119	242.82
352.502	248.92
352.884	267.9
353.267	280.11
353.65	286.66
354.032	317.39
354.414	314
354.797	306.32
355.179	309.71
355.562	315.81
355.944	322.14
356.326	323.95
356.709	355.36
357.091	322.59
357.473	321.91
357.855	334.12
358.238	349.26
358.62	344.06
359.002	330.73
359.384	347.22
359.766	330.73
360.148	325.53
360.53	344.51
360.912	323.04
361.294	367.79
361.676	325.98
362.057	323.27
362.439	322.36
362.821	324.85
363.203	335.02
363.584	323.49
363.966	340.22
364.348	335.25
364.729	320.56
365.111	321.01
365.493	322.59
365.874	327.79
366.256	307.68
366.637	306.32
367.019	311.29
367.4	331.86
367.781	327.79
368.163	330.05
368.544	312.87
368.925	322.59
369.306	311.74
369.688	319.65
370.069	320.78
370.45	305.64
370.831	335.47
371.212	321.46
371.593	332.08
371.974	317.84
372.355	298.18
372.736	310.16
373.117	321.01
373.498	318.75
373.879	304.06
374.26	314
374.641	309.71
375.021	314.91
375.402	314.23
375.783	316.94
376.163	335.47
376.544	344.51
376.925	337.05
377.305	338.64
377.686	332.76
378.066	336.6
378.447	342.02
378.827	332.31
379.208	317.17
379.588	316.49
379.968	330.5
380.349	347.45
380.729	356.26
381.109	316.49
381.489	317.17
381.87	344.51
382.25	322.36
382.63	339.09
383.01	338.41
383.39	340.22
383.77	348.58
384.15	342.48
384.53	336.83
384.91	361.46
385.29	366.21
385.67	353.78
386.049	354.68
386.429	337.05
386.809	353.55
387.189	342.93
387.568	366.43
387.948	349.93
388.328	343.38
388.707	361.01
389.087	384.06
389.466	344.28
389.846	378.63
390.225	378.63
390.605	368.24
390.984	373.44
391.363	369.82
391.743	356.71
392.122	372.76
392.501	363.27
392.881	378.41
393.26	368.46
393.639	379.31
394.018	369.82
394.397	392.19
394.776	375.24
395.155	377.5
395.534	364.62
395.913	381.8
396.292	391.74
396.671	378.18
397.05	389.03
397.429	387
397.808	405.3
398.186	387.22
398.565	412.08
398.944	404.4
399.323	393.77
399.701	400.55
400.08	391.97
400.458	402.81
400.837	404.62
401.215	413.44
401.594	418.18
401.972	397.84
402.351	402.14
402.729	426.77
403.107	400.78
403.486	415.7
403.864	410.27
404.242	401.91
404.62	423.6
404.999	420.67
405.377	428.35
405.755	436.26
406.133	426.54
406.511	417.96
406.889	430.84
407.267	426.54
407.645	418.18
408.023	444.85
408.401	464.28
408.779	431.06
409.156	456.37
409.534	455.24
409.912	453.66
410.29	451.4
410.667	481.68
411.045	467.22
411.422	448.91
411.8	468.12
412.178	484.17
412.555	464.73
412.933	453.89
413.31	468.12
413.687	470.16
414.065	517.84
414.442	506.99
414.819	503.38
415.197	500.66
415.574	502.02
415.951	510.83
416.328	503.38
416.705	494.56
417.082	521.23
417.46	518.07
417.837	531.85
418.214	549.48
418.591	517.39
418.967	533.43
419.344	511.96
419.721	537.5
420.098	546.77
420.475	550.16
420.852	549.03
421.228	552.87
421.605	534.79
421.982	556.71
422.358	567.33
422.735	549.48
423.111	575.92
423.488	565.3
423.864	561.23
424.241	555.58
424.617	559.87
424.994	551.51
425.37	577.95
425.746	594.45
426.123	595.35
426.499	592.64
426.875	608.46
427.251	573.66
427.627	600.1
428.003	606.65
428.379	621.57
428.756	635.58
429.132	612.53
429.507	621.57
429.883	632.64
430.259	633.09
430.635	631.73
431.011	631.96
431.387	670.38
431.763	672.19
432.138	671.51
432.514	671.96
432.89	675.12
433.265	673.99
433.641	684.39
434.016	684.84
434.392	697.27
434.767	715.57
435.143	715.8
435.518	722.13
435.894	702.02
436.269	745.63
436.644	742.01
437.02	727.78
437.395	747.89
437.77	787.66
438.145	763.48
438.52	766.65
438.895	786.08
439.271	771.17
439.646	767.1
440.021	788.79
440.395	784.73
440.77	786.53
441.145	789.24
441.52	784.27
441.895	819.07
442.27	827.66
442.645	813.2
443.019	814.33
443.394	840.32
443.769	803.93
444.143	826.98
444.518	853.2
444.892	828.34
445.267	833.31
445.641	850.49
446.016	846.87
446.39	849.13
446.764	865.63
447.139	856.59
447.513	858.62
447.887	878.96
448.262	880.77
448.636	889.81
449.01	876.7
449.384	902.01
449.758	902.91
450.132	938.17
450.506	916.02
450.88	906.53
451.254	908.11
451.628	929.13
452.002	917.15
452.376	976.58
452.75	961.44
453.123	959.86
453.497	966.64
453.871	966.19
454.244	996.92
454.618	1011.39
454.992	1043.7
455.365	1008
455.739	1041.22
456.112	1016.13
456.486	1036.02
456.859	1071.95
457.232	1073.76
457.606	1087.32
457.979	1069.24
458.352	1117.15
458.725	1118.5
459.099	1104.94
459.472	1144.49
459.845	1142
460.218	1177.94
460.591	1177.48
460.964	1175.68
461.337	1184.71
461.71	1240.53
462.083	1204.6
462.456	1218.39
462.829	1272.17
463.201	1275.11
463.574	1274.2
463.947	1294.77
464.32	1322.34
464.692	1356.69
465.065	1353.98
465.438	1344.26
465.81	1386.29
466.183	1403.24
466.555	1426.74
466.928	1424.48
467.3	1457.48
467.672	1457.7
468.045	1483.69
468.417	1518.27
468.789	1532.05
469.161	1545.38
469.534	1564.59
469.906	1601.43
470.278	1622.44
470.65	1648.43
471.022	1667.64
471.394	1735.43
471.766	1718.49
472.138	1757.58
472.51	1802.55
472.882	1831.48
473.253	1853.85
473.625	1918.71
473.997	1942.21
474.369	2030.57
474.74	1994.64
475.112	2061.53
475.484	2070.79
475.855	2114.41
476.227	2161.64
476.598	2257.23
476.97	2275.31
477.341	2328.19
477.713	2377.9
478.084	2397.79
478.455	2482.76
478.827	2536.54
479.198	2610.21
479.569	2610.89
479.94	2777.67
480.311	2823.77
480.682	2893.14
481.053	2954.39
481.424	2992.35
481.795	3094.95
482.166	3228.73
482.537	3278.44
482.908	3327.26
483.279	3447.93
483.65	3514.37
484.021	3625.1
484.391	3729.28
484.762	3794.36
485.133	3836.62
485.503	3912.78
485.874	4043.62
486.244	4105.99
486.615	4211.3
486.985	4349.15
487.356	4491.97
487.726	4521.58
488.097	4677.96
488.467	4736.26
488.837	4869.14
489.207	4978.74
489.578	5033.88
489.948	5211.28
490.318	5278.84
490.688	5373.76
491.058	5513.41
491.428	5638.61
491.798	5736.69
492.168	5871.37
492.538	5925.83
492.908	6051.03
493.278	6190.46
493.648	6255.09
494.017	6443.79
494.387	6457.12
494.757	6573.95
495.126	6728.75
495.496	6755.87
495.866	6878.12
496.235	6989.31
496.605	7142.98
496.974	7232.24
497.344	7327.83
497.713	7417.77
498.082	7514.27
498.452	7639.91
498.821	7743.86
499.19	7792.45
499.559	7912.45
499.928	8020.47
500.298	8161.48
500.667	8255.26
501.036	8229.05
501.405	8385.2
501.774	8467.69
502.143	8514.92
502.512	8629.26
502.88	8740.22
503.249	8812.99
503.618	8907.22
503.987	8960.56
504.356	9071.51
504.724	9161.45
505.093	9218.85
505.462	9271.96
505.83	9374.56
506.199	9485.74
506.567	9602.57
506.936	9634.66
507.304	9801.44
507.672	9865.39
508.041	9893.41
508.409	10023.35
508.777	10110.58
509.145	10149
509.514	10203.46
509.882	10297.47
510.25	10356.9
510.618	10487.29
510.986	10537.92
511.354	10664.24
511.722	10731.81
512.09	10792.6
512.458	10844.35
512.826	10952.14
513.193	10975.64
513.561	11052.48
513.929	11140.16
514.297	11240.95
514.664	11358.91
515.032	11416.31
515.4	11530.21
515.767	11508.51
516.135	11620.15
516.502	11528.62
516.869	11792.35
517.237	11809.07
517.604	11857.88
517.972	11897.65
518.339	12009.51
518.706	12113.01
519.073	12144.2
519.44	12155.5
519.808	12304.65
520.175	12333.8
520.542	12559.33
520.909	12604.98
521.276	12608.82
521.643	12771.3
522.009	12858.31
522.376	12865.99
522.743	12973.11
523.11	13017.85
523.477	13124.97
523.843	13201.35
524.21	13332.87
524.577	13459.19
524.943	13519.08
525.31	13590.49
525.676	13659.87
526.043	13795.23
526.409	13849.24
526.776	14022.8
527.142	14051.27
527.508	14127.43
527.874	14308.66
528.241	14308.89
528.607	14348.66
528.973	14487.87
529.339	14562.44
529.705	14685.6
530.071	14854.86
530.437	14781.87
530.803	14914.07
531.169	14908.87
531.535	15045.82
531.901	15079.72
532.267	15106.83
532.632	15251.69
532.998	15271.8
533.364	15373.04
533.73	15370.78
534.095	15547.05
534.461	15616.88
534.826	15657.78
535.192	15737.1
535.557	15837.44
535.923	15920.6
536.288	15980.03
536.653	15942.29
537.019	16025.91
537.384	16075.85
537.749	16128.95
538.114	16162.17
538.479	16234.71
538.845	16328.27
539.21	16382.51
539.575	16382.28
539.94	16506.8
540.305	16484.43
540.67	16560.13
541.034	16670.64
541.399	16745.21
541.764	16742.27
542.129	16956.28
542.494	16980.91
542.858	16998.31
543.223	16951.53
543.587	17244.18
543.952	17204.63
544.316	17224.52
544.681	17227.46
545.045	17338.19
545.41	17541.57
545.774	17549.26
546.138	17552.19
546.503	17564.85
546.867	17674.45
547.231	17725.3
547.595	17833.77
547.959	17889.13
548.324	17918.74
548.688	17848.68
549.052	18026.31
549.416	18083.03
549.779	18155.79
550.143	18237.6
550.507	18257.26
550.871	18268.11
551.235	18410.93
551.599	18440.76
551.962	18515.33
552.326	18527.76
552.689	18601.43
553.053	18605.27
553.417	18656.35
553.78	18876.68
554.143	18838.94
554.507	18937.02
554.87	19010.01
555.234	19134.75
555.597	19095.43
555.96	19187.63
556.323	19273.96
556.686	19373.84
557.05	19368.64
557.413	19503.33
557.776	19559.82
558.139	19614.96
558.502	19704.45
558.865	19690.44
559.228	19909.19
559.59	19876.43
559.953	19994.39
560.316	20070.09
560.679	20080.04
561.041	20303.08
561.404	20399.12
561.767	20460.82
562.129	20392.57
562.492	20520.03
562.854	20457.2
563.217	20635.5
563.579	20680.7
563.941	20878.43
564.304	20795.27
564.666	21016.74
565.028	21102.83
565.39	21067.13
565.753	21295.37
566.115	21281.59
566.477	21475.93
566.839	21505.31
567.201	21599.77
567.563	21611.3
567.925	21804.74
568.287	21775.13
568.648	21869.82
569.01	21947.33
569.372	22035.92
569.734	22084.96
570.095	22246.08
570.457	22287.89
570.819	22306.19
571.18	22456.47
571.542	22620.54
571.903	22636.58
572.265	22704.6
572.626	22712.74
572.987	22884.93
573.349	22955.89
573.71	22998.83
574.071	23142.56
574.432	23255.09
574.794	23459.84
575.155	23481.3
575.516	23486.05
575.877	23609.44
576.238	23700.96
576.599	23879.49
576.96	23957
577.32	24114.06
577.681	24199.48
578.042	24361.73
578.403	24426.59
578.763	24541.39
579.124	24602.4
579.485	24896.86
579.845	24971.89
580.206	24943.86
580.566	25220.47
580.927	25236.96
581.287	25661.13
581.648	25542.72
582.008	25913.33
582.368	25894.35
582.728	26170.5
583.089	26163.04
583.449	26361.23
583.809	26601.22
584.169	26798.73
584.529	26855.45
584.889	27309.45
585.249	27202.34
585.609	27342.44
585.969	27660.85
586.329	27745.82
586.688	27999.83
587.048	28077.11
587.408	28228.07
587.768	28360.05
588.127	28675.52
588.487	28806.36
588.846	29141.49
589.206	29101.04
589.565	29348.72
589.925	29550.07
590.284	29712.1
590.643	29984.64
591.003	30228.92
591.362	30465.98
591.721	30576.71
592.08	30723.82
592.44	31008.56
592.799	31170.59
593.158	31304.83
593.517	31446.52
593.876	31718.6
594.235	31853.29
594.593	31954.08
594.952	32302.31
595.311	32307.29
595.67	32680.16
596.029	32918.34
596.387	33124.21
596.746	33252.35
597.104	33337.99
597.463	33461.15
597.822	33831.77
598.18	33795.16
598.538	33923.06
598.897	34324.86
599.255	34165.32
599.613	34827.45
599.972	34744.28
600.33	34977.72
600.688	34972.53
601.046	35202.8
601.404	35484.6
601.762	35514.66
602.12	35897.93
602.478	35953.29
602.836	36090.01
603.194	36021.31
603.552	36233.28
603.91	36270.57
604.268	36489.55
604.625	36655.19
604.983	36815.87
605.341	36661.3
605.698	36909.2
606.056	37277.32
606.413	37428.51
606.771	37455.63
607.128	37654.04
607.485	37612.01
607.843	37690.2
608.2	37965.22
608.557	38258.32
608.914	38145.1
609.272	38559.55
609.629	38514.81
609.986	38725.65
610.343	38643.39
610.7	39023.95
611.057	38970.16
611.414	38904.85
611.771	39234.34
612.127	39428
612.484	39430.49
612.841	39590.48
613.198	39456.48
613.554	39671.16
613.911	39868.67
614.267	39891.04
614.624	39949.57
614.98	40140.53
615.337	40335.55
615.693	40312.05
616.05	40371.48
616.406	40665.03
616.762	40605.6
617.118	40701.64
617.475	40678.37
617.831	40994.29
618.187	40955.42
618.543	40979.83
618.899	41333.49
619.255	41276.77
619.611	41408.29
619.967	41432.47
620.323	41571.22
620.678	41453.71
621.034	41381.4
621.39	41504.11
621.746	41521.73
622.101	41977.31
622.457	41744.78
622.812	41819.58
623.168	41901.84
623.523	42018.67
623.879	42083.3
624.234	41904.77
624.589	42109.74
624.945	42137.76
625.3	42219.12
625.655	42196.29
626.01	42202.85
626.365	42371.65
626.72	42381.37
627.075	42333.24
627.43	42258.66
627.785	42238.78
628.14	42499.79
628.495	42404.87
628.85	42440.8
629.205	42356.06
629.559	42627.69
629.914	42463.18
630.269	42515.61
630.623	42463.4
630.978	42388.38
631.332	42629.73
631.687	42598.31
632.041	42372.78
632.396	42617.3
632.75	42416.17
633.104	42441.03
633.459	42224.54
633.813	42358.1
634.167	42355.16
634.521	42262.05
634.875	42375.04
635.229	42325.1
635.583	42105.67
635.937	42201.49
636.291	42263.41
636.645	42244.2
636.999	42081.49
637.352	42264.54
637.706	42018.9
638.06	42250.53
638.413	42248.04
638.767	41910.42
639.121	42099.8
639.474	41991.78
639.828	41983.19
640.181	41912.23
640.534	42058.44
640.888	41968.5
641.241	41830.2
641.594	41964.66
641.947	41950.42
642.301	41898.9
642.654	41970.08
643.007	41945.68
643.36	41897.99
643.713	41872.68
644.066	41929.41
644.419	41756.3
644.771	41518.12
645.124	41034.51
645.477	41020.05
645.83	40659.16
646.182	40713.17
646.535	40507.75
646.888	40542.78
647.24	40405.6
647.593	40684.47
647.945	40531.7
648.298	40449.22
648.65	40335.78
649.002	40225.04
649.355	40358.37
649.707	40303.46
650.059	40419.62
650.411	40966.49
650.763	41013.27
651.115	41376.88
651.467	41193.15
651.819	41319.93
652.171	41224.79
652.523	41181.86
652.875	41098.02
653.227	41003.55
653.578	41242.87
653.93	41197.45
654.282	40980.73
654.633	40855.99
654.985	40990.67
655.337	40947.51
655.688	40983.89
656.039	41036.77
656.391	40766.95
656.742	40862.32
657.094	40773.96
657.445	40985.7
657.796	40863.22
658.147	40682.89
658.498	40739.83
658.849	40743.22
659.2	40646.73
659.551	40666.16
659.902	40923.78
660.253	40705.26
660.604	40651.02
660.955	40460.97
661.306	40749.55
661.656	40735.54
662.007	40667.97
662.358	40757.69
662.708	40845.59
663.059	40608.31
663.409	40506.39
663.76	40753.17
664.11	40575.77
664.461	40505.49
664.811	40597.46
665.161	40609.44
665.511	40551.14
665.862	40513.85
666.212	40526.73
666.562	40591.14
666.912	40563.79
667.262	40599.5
667.612	40516.11
667.962	40666.16
668.312	40493.06
668.662	40726.95
669.011	40582.32
669.361	40528.99
669.711	40474.3
670.06	40323.8
670.41	40441.99
670.76	40279.51
671.109	40497.81
671.459	40303.23
671.808	40419.16
672.157	40443.57
672.507	40145.5
672.856	40274.31
673.205	40143.46
673.554	40298.49
673.904	40217.13
674.253	40244.03
674.602	40197.93
674.951	39653.99
675.3	39502.58
675.649	40131.49
675.998	40079.06
676.346	40128.78
676.695	40258.04
677.044	39873.87
677.393	39980.3
677.741	40044.48
678.09	40024.37
678.438	39783.7
678.787	39908.89
679.135	39865.05
679.484	39722.68
679.832	39901.66
680.181	39657.6
680.529	39737.37
680.877	39594.33
681.225	39546.64
681.573	39888.78
681.922	39312.07
682.27	39543.48
682.618	39282.02
682.966	39293.09
683.314	39432.97
683.661	39285.41
684.009	39132.64
684.357	38991.86
684.705	38988.24
685.053	39171.51
685.4	38959.09
685.748	38811.52
686.095	38764.52
686.443	38684.52
686.79	38560.91
687.138	38793.44
687.485	38780.79
687.832	38530.85
688.18	38511.19
688.527	38296.73
688.874	38281.14
689.221	38181.48
689.568	38078.66
689.915	38022.39
690.262	38034.82
690.609	37917.08
690.956	37859
691.303	37747.37
691.65	37616.07
691.997	37430.32
692.344	37370.88
692.69	37279.81
693.037	37336.08
693.383	37067.84
693.73	37268.29
694.077	36971.8
694.423	37134.96
694.769	36865.81
695.116	36831.01
695.462	36728.64
695.808	36684.35
696.155	36720.73
696.501	36380.17
696.847	36420.4
697.193	36137.47
697.539	36359.38
697.885	35985.61
698.231	35965.27
698.577	35917.81
698.923	35875.55
699.269	35759.85
699.614	35578.84
699.96	35474.21
700.306	35593.53
700.651	35329.81
700.997	35339.3
701.342	35318.05
701.688	35207.1
702.033	35134.56
702.379	35022.02
702.724	34919.87
703.069	35015.92
703.415	34504.97
703.76	34635.36
704.105	34602.82
704.45	34553.1
704.795	34343.62
705.14	34329.83
705.485	34205.54
705.83	34104.75
706.175	34144.07
706.52	34101.36
706.865	33948.6
707.209	33839
707.554	33909.05
707.899	33955.6
708.243	33701.6
708.588	33611.88
708.932	33469.52
709.277	33451.44
709.621	33396.52
709.966	33131.22
710.31	33368.73
710.654	32973.71
710.998	33087.38
711.342	33102.07
711.687	32934.16
712.031	32892.36
712.375	32653.27
712.719	32724
713.063	32720.83
713.407	32773.49
713.75	32630.44
714.094	32487.39
714.438	32339.6
714.782	32452.37
715.125	32252.37
715.469	32406.94
715.812	32059.61
716.156	32036.33
716.499	32092.38
716.843	31975.32
717.186	31839.28
717.53	32020.51
717.873	31928.54
718.216	31943.23
718.559	31717.02
718.902	31495.56
719.246	31626.4
719.589	31483.58
719.932	31471.15
720.275	31437.25
720.617	31461.43
720.96	31420.98
721.303	31307.54
721.646	31357.48
721.989	31070.26
722.331	31302.11
722.674	31039.97
723.016	30944.16
723.359	31020.54
723.701	30993.42
724.044	30820.32
724.386	30684.96
724.729	30808.12
725.071	30718.18
725.413	30712.53
725.755	30691.96
726.097	30542.13
726.439	30235.02
726.782	30500.33
727.124	30515.47
727.465	30423.95
727.807	30273.67
728.149	30283.38
728.491	30131.52
728.833	30144.63
729.175	30144.63
729.516	29992.77
729.858	29929.5
730.199	30025.99
730.541	29939.44
730.882	29903.28
731.224	29884.3
731.565	29756.84
731.906	29792.32
732.248	29899.67
732.589	29576.96
732.93	29573.35
733.271	29526.34
733.612	29578.54
733.953	29599.33
734.294	29462.16
734.635	29304.43
734.976	29449.06
735.317	29146.47
735.658	29237.76
735.999	29164.77
736.339	29172.23
736.68	29232.11
737.021	29058.11
737.361	29002.51
737.702	29166.35
738.042	28951.89
738.383	28947.83
738.723	28960.71
739.063	28868.73
739.404	28792.12
739.744	28916.19
740.084	28628.74
740.424	28741.5
740.764	28682.07
741.104	28732.01
741.444	28493.83
741.784	28489.53
742.124	28405.69
742.464	28435.52
742.804	28329.76
743.143	28348.75
743.483	28286.6
743.823	28219.71
744.162	28125.02
744.502	28286.15
744.841	28095.19
745.181	28108.75
745.52	28039.83
745.86	28066.49
746.199	27945.37
746.538	27954.86
746.877	28140.84
747.216	27956.44
747.556	27914.63
747.895	27827.86
748.234	27770.91
748.573	27739.04
748.911	27783.56
749.25	27661.53
749.589	27508.32
749.928	27704.02
750.267	27645.04
750.605	27540.86
750.944	27411.37
751.283	27353.52
751.621	27361.88
751.96	27299.06
752.298	27139.74
752.636	27254.76
752.975	27072.62
753.313	27029.46
753.651	27198.49
753.989	26951.49
754.327	26800.76
754.666	26773.19
755.004	26805.51
755.342	26789.01
755.679	26656.59
756.017	26545.4
756.355	26707.43
756.693	26579.98
