Data from hue_90_FLMS001491_50.txt Node
Date: Mon Feb 06 15:25:12 GMT 2017
User: dcchb
Spectrometer: FLMS00149
Trigger mode: 0
Integration Time (sec): 2.000000E-2
Scans to average: 10
Electric dark correction enabled: true
Nonlinearity correction enabled: false
Boxcar width: 0
XAxis mode: Wavelengths
Number of Pixels in Spectrum: 2048
>>>>>Begin Spectral Data<<<<<
341.393	-4.73
341.776	-4.73
342.16	-4.73
342.543	-49.48
342.927	-85.63
343.31	-75.69
343.693	-80.89
344.077	-51.51
344.46	-79.98
344.843	-54.9
345.226	-29.14
345.61	-28.69
345.993	-37.27
346.376	-2.7
346.759	0.69
347.142	26.68
347.525	36.85
347.908	61.93
348.291	88.83
348.674	107.58
349.057	118.2
349.44	128.6
349.823	141.93
350.206	153.91
350.588	194.59
350.971	200.91
351.354	225.09
351.737	214.92
352.119	249.5
352.502	248.14
352.884	272.1
353.267	281.59
353.65	277.07
354.032	287.01
354.414	296.73
354.797	292.89
355.179	315.26
355.562	312.32
355.944	299.22
356.326	344.41
356.709	332.21
357.091	333.56
357.473	330.4
357.855	327.01
358.238	328.37
358.62	327.01
359.002	324.3
359.384	329.05
359.766	332.21
360.148	316.16
360.53	329.95
360.912	330.63
361.294	328.14
361.676	328.82
362.057	340.57
362.439	325.66
362.821	317.75
363.203	311.19
363.584	321.81
363.966	316.39
364.348	318.88
364.729	321.36
365.111	310.74
365.493	310.29
365.874	323.85
366.256	292.89
366.637	287.46
367.019	305.54
367.4	321.14
367.781	295.6
368.163	304.64
368.544	274.58
368.925	282.27
369.306	308.25
369.688	315.49
370.069	297.86
370.45	319.33
370.831	319.1
371.212	316.84
371.593	289.5
371.974	300.12
372.355	291.76
372.736	311.19
373.117	310.74
373.498	305.99
373.879	321.14
374.26	296.05
374.641	319.1
375.021	320.46
375.402	324.07
375.783	307.35
376.163	324.75
376.544	315.26
376.925	304.86
377.305	316.39
377.686	325.2
378.066	315.94
378.447	315.03
378.827	310.97
379.208	323.85
379.588	327.92
379.968	318.42
380.349	326.11
380.729	330.4
381.109	321.14
381.489	326.79
381.87	325.43
382.25	341.02
382.63	341.25
383.01	350.06
383.39	307.35
383.77	346.45
384.15	313.45
384.53	343.06
384.91	339.89
385.29	343.06
385.67	347.58
386.049	350.06
386.429	338.08
386.809	364.07
387.189	362.49
387.568	346.22
387.948	354.36
388.328	361.59
388.707	361.81
389.087	345.32
389.466	355.49
389.846	353.45
390.225	361.36
390.605	371.3
390.984	379.89
391.363	355.26
391.743	374.24
392.122	373.34
392.501	363.62
392.881	389.83
393.26	368.37
393.639	385.99
394.018	387.12
394.397	372.43
394.776	361.36
395.155	380.57
395.534	389.61
395.913	381.7
396.292	381.47
396.671	406.11
397.05	385.54
397.429	385.31
397.808	379.21
398.186	375.15
398.565	381.47
398.944	389.38
399.323	385.99
399.701	400
400.08	395.03
400.458	392.32
400.837	385.09
401.215	396.84
401.594	414.69
401.972	392.32
402.351	416.05
402.729	434.13
403.107	413.56
403.486	422.15
403.864	397.97
404.242	395.71
404.62	418.31
404.999	402.26
405.377	423.05
405.755	404.98
406.133	423.96
406.511	431.87
406.889	417.18
407.267	446.1
407.645	448.59
408.023	430.51
408.401	458.76
408.779	445.88
409.156	447.69
409.534	449.95
409.912	439.78
410.29	467.12
410.667	476.84
411.045	447.23
411.422	456.27
411.8	474.58
412.178	477.97
412.555	451.53
412.933	465.54
413.31	472.32
413.687	470.96
414.065	494.46
414.442	485.2
414.819	491.3
415.197	499.66
415.574	505.54
415.951	511.87
416.328	503.5
416.705	510.96
417.082	508.7
417.46	506.89
417.837	524.75
418.214	502.6
418.591	508.25
418.967	510.28
419.344	517.06
419.721	501.02
420.098	534.01
420.475	530.85
420.852	538.31
421.228	523.62
421.605	521.13
421.982	538.53
422.358	540.79
422.735	562.26
423.111	534.92
423.488	545.99
423.864	555.71
424.241	555.48
424.617	570.85
424.994	570.62
425.37	555.25
425.746	562.71
426.123	587.12
426.499	573.56
426.875	579.66
427.251	594.12
427.627	594.12
428.003	598.19
428.379	606.55
428.756	616.95
429.132	592.54
429.507	610.85
429.883	623.27
430.259	634.12
430.635	632.99
431.011	642.03
431.387	633.9
431.763	642.71
432.138	630.96
432.514	684.29
432.89	671.86
433.265	684.97
433.641	681.58
434.016	688.58
434.392	696.04
434.767	703.27
435.143	689.71
435.518	699.66
435.894	710.5
436.269	708.02
436.644	725.87
437.02	754.34
437.395	741.69
437.77	738.98
438.145	723.84
438.52	746.89
438.895	788.02
439.271	732.2
439.646	793.67
440.021	771.97
440.395	759.32
440.77	776.49
441.145	773.33
441.52	803.16
441.895	788.02
442.27	772.65
442.645	810.39
443.019	836.83
443.394	810.39
443.769	846.77
444.143	806.55
444.518	815.81
444.892	853.55
445.267	825.08
445.641	818.52
446.016	835.47
446.39	864.62
446.764	866.88
447.139	854.68
447.513	863.72
447.887	852.42
448.262	838.86
448.636	879.31
449.01	866.21
449.384	890.61
449.758	885.19
450.132	906.66
450.506	893.55
450.88	924.06
451.254	934.45
451.628	933.32
452.002	933.32
452.376	934.9
452.75	970.16
453.123	961.57
453.497	978.29
453.871	951.63
454.244	997.28
454.618	1004.73
454.992	1032.08
455.365	1001.57
455.739	1024.39
456.112	1027.11
456.486	1049.25
456.859	1056.71
457.232	1091.06
457.606	1081.57
457.979	1069.14
458.352	1105.97
458.725	1097.84
459.099	1125.63
459.472	1124.96
459.845	1150.94
460.218	1157.05
460.591	1173.09
460.964	1168.34
461.337	1200.89
461.71	1207.44
462.083	1235.01
462.456	1248.57
462.829	1271.39
463.201	1268.46
463.574	1277.27
463.947	1289.02
464.32	1353.88
464.692	1343.26
465.065	1331.5
465.438	1383.03
465.81	1389.36
466.183	1414.67
466.555	1430.26
466.928	1453.76
467.3	1460.99
467.672	1502.12
468.045	1533.99
468.417	1561.1
468.789	1565.17
469.161	1587.77
469.534	1607.43
469.906	1664.38
470.278	1653.76
470.65	1714.32
471.022	1727.43
471.394	1784.6
471.766	1794.32
472.138	1809.91
472.51	1869.57
472.882	1913.41
473.253	1961.77
473.625	1966.52
473.997	2044.48
474.369	2020.98
474.74	2091.26
475.112	2181.2
475.484	2178.04
475.855	2218.49
476.227	2290.12
476.598	2334.42
476.97	2395.43
477.341	2498.71
477.713	2525.6
478.084	2572.6
478.455	2658.7
478.827	2670.23
479.198	2830.22
479.569	2875.87
479.94	2938.92
480.311	3013.27
480.682	3133.27
481.053	3139.37
481.424	3299.14
481.795	3349.98
482.166	3431.56
482.537	3537.32
482.908	3646.7
483.279	3743.64
483.65	3807.37
484.021	3937.09
484.391	4017.31
484.762	4161.94
485.133	4182.05
485.503	4351.99
485.874	4476.96
486.244	4546.56
486.615	4676.28
486.985	4813.67
487.356	4932.54
487.726	5038.07
488.097	5222.93
488.467	5234.9
488.837	5466.54
489.207	5532.07
489.578	5700.66
489.948	5842.57
490.318	5965.96
490.688	6052.06
491.058	6219.96
491.428	6350.58
491.798	6469.9
492.168	6678.26
492.538	6722.1
492.908	6897.01
493.278	7046.83
493.648	7144.69
494.017	7305.81
494.387	7435.3
494.757	7492.25
495.126	7662.86
495.496	7788.51
495.866	7925.68
496.235	8075.73
496.605	8176.3
496.974	8302.39
497.344	8403.63
497.713	8487.47
498.082	8613.8
498.452	8795.49
498.821	8857.18
499.19	8917.97
499.559	9015.6
499.928	9188.47
500.298	9192.77
500.667	9446.32
501.036	9425.53
501.405	9613.32
501.774	9681.34
502.143	9762.47
502.512	9844.28
502.88	9986.87
503.249	10026.19
503.618	10076.13
503.987	10203.36
504.356	10265.96
504.724	10315.45
505.093	10403.36
505.462	10464.37
505.83	10616.68
506.199	10691.03
506.567	10850.12
506.936	10827.98
507.304	11001.98
507.672	11002.89
508.041	11070.68
508.409	11209.89
508.777	11290.34
509.145	11321.75
509.514	11357.46
509.882	11430.9
510.25	11408.53
510.618	11598.13
510.986	11546.6
511.354	11660.72
511.722	11736.88
512.09	11850.32
512.458	11792.25
512.826	11966.25
513.193	12086.48
513.561	12017.1
513.929	12102.75
514.297	12268.17
514.664	12240.14
515.032	12190.43
515.4	12393.59
515.767	12309.52
516.135	12374.15
516.502	12290.09
516.869	12484.43
517.237	12544.77
517.604	12458.9
517.972	12557.65
518.339	12647.59
518.706	12656.4
519.073	12656.63
519.44	12726.69
519.808	12754.26
520.175	12690.98
520.542	12854.14
520.909	12913.12
521.276	12872.9
521.643	12983.18
522.009	12973.91
522.376	13056.62
522.743	13046.9
523.11	13147.01
523.477	13203.73
523.843	13209.61
524.21	13330.74
524.577	13316.95
524.943	13297.97
525.31	13343.84
525.676	13421.58
526.043	13514.46
526.409	13503.39
526.776	13589.04
527.142	13434.92
527.508	13560.11
527.874	13601.92
528.241	13683.5
528.607	13628.81
528.973	13689.15
529.339	13643.5
529.705	13705.87
530.071	13690.05
530.437	13684.17
530.803	13705.19
531.169	13829.93
531.535	13717.62
531.901	13681.24
532.267	13708.58
532.632	13801.69
532.998	13727.11
533.364	13725.53
533.73	13650.73
534.095	13799.2
534.461	13754
534.826	13705.87
535.192	13762.14
535.557	13741.57
535.923	13679.65
536.288	13690.73
536.653	13639.2
537.019	13601.24
537.384	13621.8
537.749	13606.44
538.114	13580.45
538.479	13506.78
538.845	13483.5
539.21	13492.54
539.575	13472.88
539.94	13448.47
540.305	13510.17
540.67	13417.29
541.034	13455.03
541.399	13388.59
541.764	13363.96
542.129	13361.02
542.494	13282.15
542.858	13275.82
543.223	13269.04
543.587	13250.74
543.952	13153.79
544.316	13127.58
544.681	13108.82
545.045	13081.25
545.41	13068.6
545.774	13035.15
546.138	13005.1
546.503	13018.88
546.867	13025.89
547.231	12962.39
547.595	12916.51
547.959	12884.65
548.324	12922.84
548.688	12860.01
549.052	12838.09
549.416	12784.54
549.779	12709.51
550.143	12727.14
550.507	12719.68
550.871	12727.14
551.235	12653.69
551.599	12727.36
551.962	12648.04
552.326	12620.47
552.689	12633.58
553.053	12514.94
553.417	12562.85
553.78	12637.2
554.143	12493.7
554.507	12512.91
554.87	12539.8
555.234	12487.82
555.597	12366.69
555.96	12434.49
556.323	12448.95
556.686	12429.74
557.05	12446.47
557.413	12365.56
557.776	12428.84
558.139	12456.64
558.502	12389.29
558.865	12387.26
559.228	12476.52
559.59	12366.02
559.953	12392.23
560.316	12437.2
560.679	12440.82
561.041	12452.12
561.404	12393.81
561.767	12437.43
562.129	12456.86
562.492	12501.83
562.854	12354.04
563.217	12328.05
563.579	12341.84
563.941	12441.95
564.304	12468.16
564.666	12575.05
565.028	12462.96
565.39	12536.63
565.753	12436.98
566.115	12568.27
566.477	12617.99
566.839	12616.41
567.201	12539.12
567.563	12530.76
567.925	12585.67
568.287	12596.07
568.648	12568.72
569.01	12655.05
569.372	12686.46
569.734	12636.52
570.095	12721.04
570.457	12675.16
570.819	12661.83
571.18	12636.29
571.542	12705.44
571.903	12738.21
572.265	12730.75
572.626	12691.43
572.987	12747.25
573.349	12770.75
573.71	12768.04
574.071	12835.16
574.432	12771.88
574.794	12926
575.155	12819.11
575.516	12766.46
575.877	12846
576.238	12853.69
576.599	12849.62
576.96	12796.06
577.32	12864.99
577.681	12873.12
578.042	12879.45
578.403	12852.78
578.763	12852.33
579.124	12814.59
579.485	12950.86
579.845	12891.2
580.206	12856.4
580.566	12823.86
580.927	12842.84
581.287	12861.6
581.648	12810.52
582.008	12936.17
582.368	12867.92
582.728	12841.71
583.089	12808.26
583.449	12806.68
583.809	12863.63
584.169	12826.8
584.529	12826.57
584.889	12848.49
585.249	12770.07
585.609	12675.16
585.969	12768.94
586.329	12762.84
586.688	12746.57
587.048	12732.79
587.408	12735.72
587.768	12710.87
588.127	12752.22
588.487	12756.06
588.846	12798.55
589.206	12609.4
589.565	12691.21
589.925	12754.03
590.284	12652.56
590.643	12647.59
591.003	12629.51
591.362	12705.67
591.721	12633.35
592.08	12683.3
592.44	12723.97
592.799	12723.75
593.158	12589.06
593.517	12682.84
593.876	12656.18
594.235	12622.73
594.593	12703.63
594.952	12662.05
595.311	12587.93
595.67	12621.38
596.029	12711.32
596.387	12600.59
596.746	12646.24
597.104	12617.31
597.463	12555.62
597.822	12595.84
598.18	12475.17
598.538	12515.39
598.897	12624.31
599.255	12442.62
599.613	12641.94
599.972	12587.48
600.33	12486.92
600.688	12475.84
601.046	12576.86
601.404	12637.65
601.762	12472.45
602.12	12556.97
602.478	12595.62
602.836	12596.97
603.194	12546.8
603.552	12485.34
603.91	12440.59
604.268	12549.06
604.625	12474.94
604.983	12581.6
605.341	12530.31
605.698	12624.77
606.056	12570.98
606.413	12523.3
606.771	12640.36
607.128	12613.69
607.485	12573.92
607.843	12626.57
608.2	12654.82
608.557	12684.43
608.914	12614.82
609.272	12698.89
609.629	12665.9
609.986	12667.48
610.343	12629.06
610.7	12703.86
611.057	12703.86
611.414	12681.49
611.771	12720.36
612.127	12687.82
612.484	12653.47
612.841	12728.49
613.198	12740.92
613.554	12692.11
613.911	12776.18
614.267	12739.57
614.624	12853.01
614.98	12724.2
615.337	12813.91
615.693	12779.34
616.05	12809.85
616.406	12877.42
616.762	12797.64
617.118	12819.11
617.475	12836.51
617.831	12828.6
618.187	12875.61
618.543	12891.65
618.899	12912.67
619.255	12935.04
619.611	12892.78
619.967	12961.48
620.323	12965.77
620.678	12950.86
621.034	12850.75
621.39	12890.97
621.746	12862.05
622.101	13044.42
622.457	12896.17
622.812	12897.53
623.168	12897.75
623.523	12911.09
623.879	12961.03
624.234	12850.3
624.589	12975.94
624.945	12933.46
625.3	12890.97
625.655	12889.62
626.01	12944.08
626.365	12923.74
626.72	12889.39
627.075	12900.47
627.43	12908.15
627.785	12820.69
628.14	12917.41
628.495	12840.81
628.85	12809.85
629.205	12796.51
629.559	12876.06
629.914	12804.65
630.269	12908.6
630.623	12792.9
630.978	12766.68
631.332	12834.25
631.687	12870.64
632.041	12723.97
632.396	12777.53
632.75	12833.35
633.104	12835.61
633.459	12722.17
633.813	12710.64
634.167	12709.74
634.521	12690.75
634.875	12703.41
635.229	12763.52
635.583	12603.75
635.937	12664.99
636.291	12667.93
636.645	12607.82
636.999	12548.38
637.352	12649.85
637.706	12575.95
638.06	12562.62
638.413	12553.58
638.767	12515.17
639.121	12571.89
639.474	12392.68
639.828	12536.18
640.181	12485.11
640.534	12481.49
640.888	12461.38
641.241	12359.46
641.594	12396.52
641.947	12351.33
642.301	12326.47
642.654	12412.57
643.007	12448.27
643.36	12298.45
643.713	12289.18
644.066	12383.87
644.419	12305
644.771	12212.35
645.124	12085.35
645.477	12113.59
645.83	12033.14
646.182	11992.69
646.535	11877.22
646.888	11984.78
647.24	11954.28
647.593	12031.79
647.945	12004.9
648.298	11949.53
648.65	11944.11
649.002	11864.79
649.355	11914.5
649.707	11909.31
650.059	11994.05
650.411	12124.44
650.763	12081.96
651.115	12279.69
651.467	12185.68
651.819	12191.33
652.171	12142.97
652.523	12130.54
652.875	12212.57
653.227	12147.49
653.578	12268.62
653.93	12139.13
654.282	12083.54
654.633	12159.92
654.985	12116.53
655.337	12121.5
655.688	12223.42
656.039	12279.92
656.391	12053.71
656.742	12165.8
657.094	12131.67
657.445	12213.25
657.796	12202.41
658.147	12164.21
658.498	12187.49
658.849	12208.28
659.2	12203.54
659.551	12182.97
659.902	12228.85
660.253	12174.84
660.604	12180.71
660.955	12215.51
661.306	12220.26
661.656	12171.45
662.007	12228.39
662.358	12220.26
662.708	12229.98
663.059	12165.8
663.409	12180.48
663.76	12227.49
664.11	12265.23
664.461	12210.31
664.811	12262.06
665.161	12222.74
665.511	12233.14
665.862	12260.26
666.212	12253.93
666.562	12315.4
666.912	12264.78
667.262	12229.52
667.612	12286.24
667.962	12223.42
668.312	12249.86
668.662	12345.9
669.011	12259.58
669.361	12224.33
669.711	12207.6
670.06	12283.76
670.41	12206.25
670.76	12204.89
671.109	12239.47
671.459	12252.35
671.808	12182.07
672.157	12225
672.507	12188.62
672.856	12171.67
673.205	12227.49
673.554	12166.7
673.904	12156.76
674.253	12249.86
674.602	12179.35
674.951	11959.7
675.3	11969.42
675.649	12149.75
675.998	12030.21
676.346	12037.89
676.695	12117.89
677.044	12021.84
677.393	12024.78
677.741	12032.24
678.09	12037.89
678.438	11904.11
678.787	11971
679.135	12012.13
679.484	11906.14
679.832	11961.51
680.181	11892.36
680.529	11896.88
680.877	11884.45
681.225	11851.45
681.573	11908.63
681.922	11795.41
682.27	11793.38
682.618	11767.61
682.966	11780.5
683.314	11720.84
683.661	11787.5
684.009	11665.24
684.357	11638.13
684.705	11681.06
685.053	11706.15
685.4	11672.02
685.748	11530.56
686.095	11598.13
686.443	11572.14
686.79	11511.8
687.138	11476.32
687.485	11431.8
687.832	11466.61
688.18	11509.32
688.527	11422.09
688.874	11331.24
689.221	11382.09
689.568	11340.51
689.915	11227.74
690.262	11260.96
690.609	11228.87
690.956	11167.63
691.303	11141.64
691.65	11132.15
691.997	11093.73
692.344	11007.63
692.69	10965.15
693.037	11011.48
693.383	10843.34
693.73	10898.48
694.077	10817.13
694.423	10765.83
694.769	10788.43
695.116	10751.82
695.462	10754.31
695.808	10644.93
696.155	10703.91
696.501	10591.83
696.847	10627.53
697.193	10495.11
697.539	10554.99
697.885	10413.53
698.231	10369.23
698.577	10408.55
698.923	10343.02
699.269	10288.78
699.614	10214.89
699.96	10266.86
700.306	10285.85
700.651	10211.5
700.997	10140.76
701.342	10057.6
701.688	10075
702.033	9973.54
702.379	10013.76
702.724	9931.05
703.069	9990.71
703.415	9872.75
703.76	9923.14
704.105	9919.3
704.45	9845.18
704.795	9765.41
705.14	9751.17
705.485	9686.09
705.83	9680.66
706.175	9687.22
706.52	9610.83
706.865	9579.65
707.209	9609.25
707.554	9583.94
707.899	9544.62
708.243	9499.88
708.588	9482.48
708.932	9357.28
709.277	9444.96
709.621	9423.72
709.966	9318.41
710.31	9360.67
710.654	9271.41
710.998	9251.97
711.342	9302.37
711.687	9186.44
712.031	9203.61
712.375	9209.94
712.719	9167.46
713.063	9196.83
713.407	9161.81
713.75	9135.59
714.094	9098.08
714.438	9064.18
714.782	9146.44
715.125	9056.95
715.469	9050.62
715.812	8982.6
716.156	9018.08
716.499	8950.74
716.843	9009.49
717.186	8910.74
717.53	8944.64
717.873	8981.92
718.216	8954.58
718.559	8923.4
718.902	8849.27
719.246	8849.72
719.589	8864.64
719.932	8768.6
720.275	8870.97
720.617	8794.59
720.96	8799.78
721.303	8820.12
721.646	8800.69
721.989	8737.19
722.331	8744.87
722.674	8717.75
723.016	8693.8
723.359	8771.31
723.701	8679.33
724.044	8640.01
724.386	8642.05
724.729	8660.58
725.071	8675.94
725.413	8657.19
725.755	8628.26
726.097	8597.53
726.439	8658.77
726.782	8544.2
727.124	8636.85
727.465	8546.23
727.807	8491.77
728.149	8624.19
728.491	8619.22
728.833	8573.35
729.175	8575.61
729.516	8474.37
729.858	8545.33
730.199	8603.18
730.541	8546.46
730.882	8519.11
731.224	8636.85
731.565	8567.25
731.906	8589.39
732.248	8581.94
732.589	8484.31
732.93	8497.42
733.271	8561.6
733.612	8555.72
733.953	8566.12
734.294	8568.15
734.635	8569.51
734.976	8580.35
735.317	8514.82
735.658	8512.11
735.999	8557.08
736.339	8495.16
736.68	8552.11
737.021	8471.66
737.361	8497.19
737.702	8572.67
738.042	8498.32
738.383	8538.77
738.723	8562.05
739.063	8546
739.404	8562.5
739.744	8581.94
740.084	8606.79
740.424	8659.67
740.764	8554.14
741.104	8649.96
741.444	8580.35
741.784	8604.53
742.124	8666.45
742.464	8614.93
742.804	8698.77
743.143	8690.18
743.483	8702.16
743.823	8707.13
744.162	8764.08
744.502	8785.55
744.841	8795.72
745.181	8873.91
745.52	8858.31
745.86	8851.98
746.199	8931.3
746.538	8944.86
746.877	9009.04
747.216	9058.08
747.556	9115.25
747.895	9181.47
748.234	9122.03
748.573	9216.49
748.911	9276.15
749.25	9294.68
749.589	9376.04
749.928	9422.59
750.267	9547.33
750.605	9544.62
750.944	9704.84
751.283	9718.18
751.621	9873.65
751.96	9879.53
752.298	9937.15
752.636	10096.7
752.975	10094.89
753.313	10275
753.651	10274.77
753.989	10477.48
754.327	10527.19
754.666	10712.5
755.004	10752.05
755.342	10736.91
755.679	11023
756.017	11111.81
756.355	11293.73
756.693	11305.25
757.031	11498.24
757.368	11627.96
757.706	11740.95
758.044	11821.4
758.381	11944.56
758.719	12161.73
759.056	12305.45
759.394	12460.7
