Data from hue_80_FLMS001491_80.txt Node
Date: Mon Feb 06 15:23:33 GMT 2017
User: dcchb
Spectrometer: FLMS00149
Trigger mode: 0
Integration Time (sec): 2.000000E-2
Scans to average: 10
Electric dark correction enabled: true
Nonlinearity correction enabled: false
Boxcar width: 0
XAxis mode: Wavelengths
Number of Pixels in Spectrum: 2048
>>>>>Begin Spectral Data<<<<<
341.393	-12.41
341.776	-12.41
342.16	-12.41
342.543	-84.5
342.927	-76.14
343.31	-68.91
343.693	-72.3
344.077	-48.8
344.46	-47.89
344.843	-52.19
345.226	-51.51
345.61	-21.23
345.993	-20.78
346.376	-22.81
346.759	17.19
347.142	22.16
347.525	54.02
347.908	64.65
348.291	68.49
348.674	77.75
349.057	102.16
349.44	126.79
349.823	140.12
350.206	168.6
350.588	163.4
350.971	189.39
351.354	219.9
351.737	239.56
352.119	243.85
352.502	275.26
352.884	273.45
353.267	262.61
353.65	274.13
354.032	276.39
354.414	298.31
354.797	312.77
355.179	311.19
355.562	314.36
355.944	307.58
356.326	328.37
356.709	338.08
357.091	315.49
357.473	355.94
357.855	331.98
358.238	333.79
358.62	331.98
359.002	349.16
359.384	317.07
359.766	343.06
360.148	318.2
360.53	332.21
360.912	352.1
361.294	321.14
361.676	328.14
362.057	341.25
362.439	322.72
362.821	319.33
363.203	315.49
363.584	325.2
363.966	305.54
364.348	310.06
364.729	327.92
365.111	310.06
365.493	332.21
365.874	311.64
366.256	300.12
366.637	324.07
367.019	299.89
367.4	290.4
367.781	312.1
368.163	301.93
368.544	300.57
368.925	291.08
369.306	325.66
369.688	298.76
370.069	313.9
370.45	297.63
370.831	306.9
371.212	307.8
371.593	328.82
371.974	315.94
372.355	296.96
372.736	322.94
373.117	284.98
373.498	323.85
373.879	308.03
374.26	297.63
374.641	287.24
375.021	306.22
375.402	310.74
375.783	314.13
376.163	296.96
376.544	319.55
376.925	326.79
377.305	305.54
377.686	305.54
378.066	317.52
378.447	316.84
378.827	335.6
379.208	342.38
379.588	305.99
379.968	308.93
380.349	314.81
380.729	322.94
381.109	322.04
381.489	334.92
381.87	328.59
382.25	358.65
382.63	322.04
383.01	336.05
383.39	336.5
383.77	350.51
384.15	325.88
384.53	337.63
384.91	324.53
385.29	347.8
385.67	333.79
386.049	347.8
386.429	331.3
386.809	322.49
387.189	342.6
387.568	350.97
387.948	359.1
388.328	357.29
388.707	346.45
389.087	362.49
389.466	368.59
389.846	348.93
390.225	367.91
390.605	367.24
390.984	365.2
391.363	349.38
391.743	362.72
392.122	345.99
392.501	347.12
392.881	356.16
393.26	343.51
393.639	371.08
394.018	362.04
394.397	361.59
394.776	363.85
395.155	375.37
395.534	363.85
395.913	378.31
396.292	353.23
396.671	362.49
397.05	374.47
397.429	359.33
397.808	368.59
398.186	403.17
398.565	378.54
398.944	352.32
399.323	397.07
399.701	393
400.08	390.74
400.458	379.67
400.837	396.61
401.215	394.58
401.594	371.53
401.972	387.57
402.351	393.9
402.729	386.22
403.107	413.79
403.486	403.62
403.864	397.97
404.242	410.17
404.62	412.43
404.999	400.68
405.377	397.74
405.755	403.17
406.133	406.78
406.511	410.85
406.889	433
407.267	399.33
407.645	429.83
408.023	437.29
408.401	428.25
408.779	402.72
409.156	430.51
409.534	422.15
409.912	435.48
410.29	450.4
410.667	427.57
411.045	427.12
411.422	440.91
411.8	430.29
412.178	429.61
412.555	463.96
412.933	448.36
413.31	453.11
413.687	452.43
414.065	457.86
414.442	484.07
414.819	474.8
415.197	468.02
415.574	491.3
415.951	456.73
416.328	491.75
416.705	490.17
417.082	484.75
417.46	490.17
417.837	465.99
418.214	507.12
418.591	491.07
418.967	479.78
419.344	488.14
419.721	475.71
420.098	495.59
420.475	527.46
420.852	506.44
421.228	520
421.605	500.57
421.982	516.16
422.358	517.29
422.735	537.4
423.111	516.61
423.488	512.54
423.864	526.33
424.241	546.21
424.617	524.29
424.994	554.12
425.37	546.67
425.746	588.47
426.123	544.63
426.499	563.16
426.875	570.17
427.251	564.52
427.627	578.76
428.003	579.66
428.379	566.1
428.756	571.52
429.132	589.15
429.507	587.8
429.883	573.11
430.259	617.85
430.635	581.47
431.011	621.92
431.387	616.27
431.763	622.37
432.138	628.25
432.514	613.33
432.89	627.57
433.265	635.48
433.641	657.85
434.016	644.29
434.392	640.68
434.767	652.65
435.143	667.12
435.518	678.19
435.894	690.62
436.269	684.97
436.644	698.75
437.02	698.98
437.395	681.35
437.77	692.2
438.145	704.63
438.52	720.45
438.895	700.33
439.271	718.41
439.646	727.23
440.021	733.1
440.395	742.82
440.77	727.23
441.145	728.13
441.52	761.35
441.895	734.46
442.27	748.7
442.645	767.45
443.019	763.84
443.394	754.34
443.769	763.61
444.143	765.87
444.518	786.43
444.892	771.52
445.267	785.08
445.641	776.26
446.016	816.26
446.39	818.52
446.764	799.54
447.139	789.37
447.513	804.06
447.887	828.69
448.262	804.06
448.636	813.78
449.01	837.73
449.384	828.69
449.758	849.03
450.132	843.61
450.506	839.31
450.88	832.53
451.254	869.37
451.628	878.64
452.002	906.2
452.376	882.7
452.75	888.8
453.123	903.04
453.497	928.35
453.871	936.94
454.244	929.93
454.618	959.31
454.992	951.85
455.365	943.27
455.739	963.38
456.112	969.03
456.486	968.12
456.859	992.53
457.232	996.37
457.606	1020.1
457.979	1012.64
458.352	1033.43
458.725	1046.77
459.099	1054
459.472	1057.84
459.845	1064.62
460.218	1074.11
460.591	1096.48
460.964	1089.7
461.337	1131.96
461.71	1159.08
462.083	1162.92
462.456	1185.97
462.829	1168.8
463.201	1206.08
463.574	1196.37
463.947	1226.87
464.32	1256.7
464.692	1264.39
465.065	1272.3
465.438	1270.04
465.81	1323.14
466.183	1326.53
466.555	1343.48
466.928	1349.81
467.3	1362.69
467.672	1413.08
468.045	1417.38
468.417	1449.92
468.789	1443.14
469.161	1482.46
469.534	1496.25
469.906	1524.04
470.278	1572.63
470.65	1560.2
471.022	1587.32
471.394	1662.34
471.766	1684.26
472.138	1691.72
472.51	1711.83
472.882	1762.23
473.253	1825.5
473.625	1870.25
473.997	1903.01
474.369	1904.82
474.74	1950.25
475.112	2020.07
475.484	2055.78
475.855	2087.42
476.227	2121.09
476.598	2216.68
476.97	2218.71
477.341	2304.36
477.713	2364.25
478.084	2379.84
478.455	2482.21
478.827	2527.41
479.198	2636.1
479.569	2663.45
479.94	2783.22
480.311	2813.73
480.682	2903.44
481.053	3020.95
481.424	3107.5
481.795	3194.51
482.166	3237.44
482.537	3330.1
482.908	3421.17
483.279	3485.8
483.65	3615.51
484.021	3756.75
484.391	3794.26
484.762	3914.26
485.133	3976.86
485.503	4082.62
485.874	4217.76
486.244	4308.6
486.615	4474.92
486.985	4583.62
487.356	4679.89
487.726	4797.85
488.097	4993.56
488.467	4985.42
488.837	5177.51
489.207	5357.84
489.578	5503.37
489.948	5591.05
490.318	5719.41
490.688	5777.94
491.058	6046.41
491.428	6144.94
491.798	6219.51
492.168	6437.81
492.538	6529.11
492.908	6662.66
493.278	6847.97
493.648	6903.56
494.017	7108.08
494.387	7230.78
494.757	7381.74
495.126	7526.14
495.496	7626.03
495.866	7757.55
496.235	7951.22
496.605	8057.88
496.974	8203.87
497.344	8303.75
497.713	8442.05
498.082	8588.94
498.452	8687.92
498.821	8811.08
499.19	8958.42
499.559	9105.31
499.928	9174.69
500.298	9361.35
500.667	9488.35
501.036	9521.12
501.405	9614.68
501.774	9791.4
502.143	9898.06
502.512	9970.6
502.88	10092.63
503.249	10220.99
503.618	10342.79
503.987	10359.06
504.356	10532.17
504.724	10661.43
505.093	10691.71
505.462	10795.89
505.83	10896.68
506.199	11020.52
506.567	11218.93
506.936	11265.71
507.304	11371.92
507.672	11560.39
508.041	11636.77
508.409	11625.47
508.777	11818.46
509.145	11884.9
509.514	11924.22
509.882	12100.94
510.25	12117.44
510.618	12260.48
510.986	12302.06
511.354	12441.72
511.722	12561.04
512.09	12677.65
512.458	12649.63
512.826	12780.92
513.193	12819.79
513.561	12833.57
513.929	13038.32
514.297	13112.89
514.664	13245.99
515.032	13210.97
515.4	13310.4
515.767	13385.88
516.135	13477.4
516.502	13473.78
516.869	13669.94
517.237	13700.67
517.604	13711.07
517.972	13895.47
518.339	13889.82
518.706	13935.24
519.073	13977.73
519.44	14029.02
519.808	14210.94
520.175	14161.68
520.542	14424.27
520.909	14371.16
521.276	14425.4
521.643	14540.87
522.009	14611.61
522.376	14669.01
522.743	14785.61
523.11	14892.96
523.477	14875.78
523.843	15011.6
524.21	15077.13
524.577	15094.31
524.943	15173.85
525.31	15265.38
525.676	15283
526.043	15411.81
526.409	15458.14
526.776	15510.34
527.142	15551.47
527.508	15626.04
527.874	15745.36
528.241	15815.87
528.607	15740.62
528.973	15790.79
529.339	15866.72
529.705	15922.53
530.071	16007.95
530.437	16039.14
530.803	16101.29
531.169	16144.22
531.535	16142.87
531.901	16194.62
532.267	16169.08
532.632	16222.86
532.998	16281.39
533.364	16260.38
533.73	16268.96
534.095	16391.45
534.461	16438.45
534.826	16397.55
535.192	16442.75
535.557	16416.31
535.923	16439.58
536.288	16519.58
536.653	16534.72
537.019	16450.2
537.384	16459.24
537.749	16480.03
538.114	16575.85
538.479	16519.35
538.845	16501.73
539.21	16470.09
539.575	16493.59
539.94	16525.68
540.305	16566.58
540.67	16521.39
541.034	16510.54
541.399	16540.37
541.764	16500.15
542.129	16551.9
542.494	16534.04
542.858	16563.65
543.223	16461.05
543.587	16490.65
543.952	16491.11
544.316	16553.48
544.681	16447.72
545.045	16550.54
545.41	16539.24
545.774	16543.53
546.138	16467.6
546.503	16452.24
546.867	16439.58
547.231	16511.44
547.595	16476.64
547.959	16417.89
548.324	16537.88
548.688	16458.34
549.052	16397.78
549.416	16415.18
549.779	16360.04
550.143	16453.37
550.507	16474.38
550.871	16534.27
551.235	16382.18
551.599	16443.2
551.962	16483.65
552.326	16533.36
552.689	16492.01
553.053	16412.24
553.417	16417.66
553.78	16578.79
554.143	16490.43
554.507	16545.12
554.87	16560.71
555.234	16629.86
555.597	16448.62
555.96	16444.55
556.323	16483.65
556.686	16524.78
557.05	16645.9
557.413	16561.39
557.776	16506.25
558.139	16629.41
558.502	16620.37
558.865	16572.23
559.228	16705.11
559.59	16697.65
559.953	16606.81
560.316	16827.14
560.679	16790.31
561.041	16823.3
561.404	16925.44
561.767	16906.46
562.129	16782.17
562.492	17027.14
562.854	16915.05
563.217	16812.68
563.579	16905.78
563.941	17000.47
564.304	17050.41
564.666	17095.61
565.028	17070.75
565.39	17085.89
565.753	17164.08
566.115	17214.02
566.477	17196.4
566.839	17297.86
567.201	17313.91
567.563	17303.29
567.925	17347.81
568.287	17334.93
568.648	17395.94
569.01	17472.32
569.372	17576.95
569.734	17519.33
570.095	17569.04
570.457	17537.41
570.819	17602.49
571.18	17565.2
571.542	17655.14
571.903	17658.98
572.265	17687.01
572.626	17649.49
572.987	17755.03
573.349	17847.68
573.71	17766.78
574.071	17806.33
574.432	17917.28
574.794	17951.86
575.155	17871.86
575.516	17847.23
575.877	17909.15
576.238	18062.82
576.599	17943.27
576.96	17981.01
577.32	17955.25
577.681	17981.69
578.042	17996.6
578.403	17987.79
578.763	18065.3
579.124	18065.08
579.485	18094.45
579.845	18175.13
580.206	18069.14
580.566	18116.15
580.927	18075.02
581.287	18185.75
581.648	18150.05
582.008	18133.77
582.368	18129.03
582.728	18148.69
583.089	18145.75
583.449	18137.16
583.809	18145.53
584.169	18064.62
584.529	18069.6
584.889	18104.17
585.249	18138.52
585.609	18113.66
585.969	18150.05
586.329	18082.02
586.688	18090.61
587.048	18024.85
587.408	18003.83
587.768	18089.71
588.127	18049.48
588.487	17993.44
588.846	18104.85
589.206	18010.16
589.565	17965.87
589.925	17969.03
590.284	17962.93
590.643	17941.46
591.003	18037.05
591.362	18066.66
591.721	17994.34
592.08	18047
592.44	17998.64
592.799	18087.67
593.158	17981.01
593.517	17922.71
593.876	17988.24
594.235	17923.84
594.593	17898.07
594.952	17986.21
595.311	17903.95
595.67	17987.56
596.029	18113.44
596.387	17987.56
596.746	18032.99
597.104	17952.76
597.463	17909.83
597.822	17991.86
598.18	17898.75
598.538	17954.57
598.897	18017.62
599.255	17775.37
599.613	18118.63
599.972	17966.32
600.33	18089.48
600.688	18018.52
601.046	17950.95
601.404	18079.76
601.762	18040.9
602.12	18151.4
602.478	18056.94
602.836	18035.7
603.194	17980.78
603.552	17950.95
603.91	17886.55
604.268	17941.46
604.625	17958.86
604.983	18114.79
605.341	17956.38
605.698	17991.18
606.056	17972.42
606.413	17995.25
606.771	18076.15
607.128	18085.64
607.485	18027.34
607.843	18034.79
608.2	18204.51
608.557	18146.88
608.914	18075.25
609.272	18211.51
609.629	18241.34
609.986	18300.55
610.343	18192.08
610.7	18362.92
611.057	18227.33
611.414	18180.78
611.771	18326.09
612.127	18302.13
612.484	18283.83
612.841	18306.2
613.198	18325.63
613.554	18313.66
613.911	18348.23
614.267	18350.04
614.624	18458.51
614.98	18471.39
615.337	18489.7
615.693	18404.95
616.05	18471.62
616.406	18571.73
616.762	18454.22
617.118	18476.82
617.475	18464.39
617.831	18564.05
618.187	18577.83
618.543	18540.32
618.899	18634.78
619.255	18620.77
619.611	18710.03
619.967	18736.7
620.323	18649.69
620.678	18720.2
621.034	18684.04
621.39	18720.65
621.746	18568.79
622.101	18926.75
622.457	18677.94
622.812	18793.19
623.168	18701.22
623.523	18750.71
623.879	18778.28
624.234	18698.73
624.589	18740.54
624.945	18762.91
625.3	18728.56
625.655	18645.63
626.01	18728.11
626.365	18738.73
626.72	18668.45
627.075	18698.96
627.43	18688.34
627.785	18653.99
628.14	18628.45
628.495	18635.91
628.85	18657.15
629.205	18617.15
629.559	18811.5
629.914	18651.05
630.269	18744.38
630.623	18650.37
630.978	18613.99
631.332	18651.05
631.687	18588.68
632.041	18657.6
632.396	18607.43
632.75	18552.97
633.104	18650.15
633.459	18531.28
633.813	18468.91
634.167	18563.59
634.521	18496.25
634.875	18541.45
635.229	18489.92
635.583	18293.09
635.937	18384.39
636.291	18380.77
636.645	18435.46
636.999	18383.94
637.352	18351.17
637.706	18274.34
638.06	18349.81
638.413	18351.62
638.767	18252.87
639.121	18341.68
639.474	18229.59
639.828	18270.72
640.181	18152.76
640.534	18230.27
640.888	18182.59
641.241	18129.25
641.594	18094.68
641.947	18179.42
642.301	18081.35
642.654	18123.83
643.007	18083.83
643.36	18086.77
643.713	18057.84
644.066	18139.2
644.419	17877.74
644.771	17950.5
645.124	17731.07
645.477	17750.06
645.83	17531.3
646.182	17577.18
646.535	17470.74
646.888	17548.71
647.24	17448.37
647.593	17553.45
647.945	17483.17
648.298	17416.96
648.65	17387.35
649.002	17341.25
649.355	17323.63
649.707	17326.34
650.059	17509.84
650.411	17700.34
650.763	17702.6
651.115	17828.47
651.467	17785.54
651.819	17820.11
652.171	17780.34
652.523	17765.87
652.875	17794.57
653.227	17711.19
653.578	17793.44
653.93	17737.4
654.282	17658.08
654.633	17799.32
654.985	17782.82
655.337	17774.24
655.688	17699.66
656.039	17894.23
656.391	17642.49
656.742	17723.16
657.094	17813.78
657.445	17750.73
657.796	17746.67
658.147	17748.25
658.498	17774.46
658.849	17797.74
659.2	17762.71
659.551	17812.2
659.902	17838.19
660.253	17718.87
660.604	17918.64
660.955	17747.57
661.306	17917.51
661.656	17823.27
662.007	17848.58
662.358	17685.65
662.708	17893.33
663.059	17833.44
663.409	17718.42
663.76	17817.85
664.11	17911.86
664.461	17965.87
664.811	17823.5
665.161	17946.66
665.511	17783.28
665.862	17854.23
666.212	17791.18
666.562	17870.5
666.912	17825.31
667.262	17905.98
667.612	17825.99
667.962	17796.83
668.312	17825.99
668.662	17884.29
669.011	17838.19
669.361	17716.84
669.711	17741.47
670.06	17799.09
670.41	17821.24
670.76	17757.29
671.109	17815.59
671.459	17746.21
671.808	17691.75
672.157	17735.59
672.507	17617.18
672.856	17646.33
673.205	17693.79
673.554	17793.22
673.904	17673
674.253	17696.05
674.602	17718.19
674.951	17415.38
675.3	17368.15
675.649	17604.75
675.998	17602.49
676.346	17644.97
676.695	17649.72
677.044	17478.42
677.393	17551.87
677.741	17587.8
678.09	17540.57
678.438	17470.52
678.787	17456.73
679.135	17456.5
679.484	17351.65
679.832	17392.78
680.181	17308.49
680.529	17474.36
680.877	17281.82
681.225	17266
681.573	17409.5
681.922	17286.11
682.27	17235.49
682.618	17285.66
682.966	17194.59
683.314	17261.71
683.661	17100.36
684.009	17123.63
684.357	16957.76
684.705	16964.09
685.053	17056.51
685.4	17019.91
685.748	16800.48
686.095	16881.6
686.443	16779.01
686.79	16703.53
687.138	16730.2
687.485	16787.37
687.832	16671.67
688.18	16683.87
688.527	16612.01
688.874	16644.77
689.221	16472.8
689.568	16532.46
689.915	16469.19
690.262	16455.85
690.609	16358
690.956	16336.99
691.303	16335.18
691.65	16201.85
691.997	16320.04
692.344	16068.29
692.69	16076.88
693.037	16030.78
693.383	15946.49
693.73	15969.54
694.077	15829.43
694.423	15790.33
694.769	15804.57
695.116	15717.11
695.462	15759.6
695.808	15648.87
696.155	15652.26
696.501	15482.09
696.847	15514.86
697.193	15456.56
697.539	15417.91
697.885	15273.28
698.231	15180.86
698.577	15214.08
698.923	15242.78
699.269	15111.48
699.614	15048.66
699.96	15018.83
700.306	14948.77
700.651	14910.13
700.997	14865.16
701.342	14892.73
701.688	14740.87
702.033	14704.26
702.379	14721.21
702.724	14631.04
703.069	14573.42
703.415	14448
703.76	14443.02
704.105	14463.59
704.45	14420.88
704.795	14295.91
705.14	14262.92
705.485	14250.03
705.83	14171.17
706.175	14183.82
706.52	14128.91
706.865	14098.17
707.209	14079.87
707.554	14031.28
707.899	14077.16
708.243	13964.84
708.588	13906.77
708.932	13862.47
709.277	13767.79
709.621	13838.52
709.966	13688.69
710.31	13868.8
710.654	13678.3
710.998	13660.67
711.342	13670.84
711.687	13603.5
712.031	13484.18
712.375	13500.68
712.719	13566.44
713.063	13462.94
713.407	13490.05
713.75	13413.67
714.094	13397.85
714.438	13331.64
714.782	13378.87
715.125	13296.16
715.469	13257.07
715.812	13205.09
716.156	13153.11
716.499	13311.08
716.843	13164.19
717.186	13068.82
717.53	13220.46
717.873	13086.22
718.216	13100.69
718.559	13024.98
718.902	12883.52
719.246	12977.3
719.589	12915.38
719.932	12937.53
720.275	12836.06
720.617	12868.15
720.96	12820.47
721.303	12874.48
721.646	12874.93
721.989	12757.19
722.331	12855.95
722.674	12784.08
723.016	12749.74
723.359	12772.56
723.701	12749.06
724.044	12722.84
724.386	12643.75
724.729	12751.77
725.071	12707.48
725.413	12686.69
725.755	12625.67
726.097	12586.35
726.439	12599
726.782	12600.13
727.124	12646.91
727.465	12566.46
727.807	12538.89
728.149	12550.19
728.491	12472.23
728.833	12544.54
729.175	12510.19
729.516	12528.27
729.858	12520.14
730.199	12494.37
730.541	12486.47
730.882	12579.57
731.224	12526.24
731.565	12504.09
731.906	12501.61
732.248	12427.03
732.589	12465
732.93	12427.03
733.271	12484.43
733.612	12506.13
733.953	12528.72
734.294	12418.22
734.635	12432.46
734.976	12496.63
735.317	12387.03
735.658	12423.87
735.999	12472.45
736.339	12425.45
736.68	12480.59
737.021	12408.05
737.361	12450.99
737.702	12500.7
738.042	12415.05
738.383	12465.68
738.723	12509.52
739.063	12458.67
739.404	12445.79
739.744	12482.4
740.084	12417.77
740.424	12433.81
740.764	12463.64
741.104	12489.86
741.444	12431.1
741.784	12455.73
742.124	12565.33
742.464	12529.18
742.804	12531.89
743.143	12573.92
743.483	12597.65
743.823	12508.84
744.162	12595.39
744.502	12651.88
744.841	12613.92
745.181	12802.84
745.52	12709.28
745.86	12774.82
746.199	12793.8
746.538	12854.37
746.877	12966.23
747.216	12878.55
747.556	12962.84
747.895	12980.92
748.234	12991.76
748.573	13069.5
748.911	13185.43
749.25	13266.11
749.589	13222.04
749.928	13247.35
750.267	13388.14
750.605	13460.23
750.944	13438.76
751.283	13520.79
751.621	13674.23
751.96	13732.76
752.298	13736.6
752.636	13897.28
752.975	13882.36
753.313	13924.39
753.651	14062.7
753.989	14149.92
754.327	14288
754.666	14355.34
755.004	14392.18
755.342	14596.69
755.679	14604.38
756.017	14765.95
756.355	14888.66
756.693	14923.24
