Data from hue_180_FLMS001491_00086.txt Node
Date: Tue Feb 07 16:47:36 GMT 2017
User: dcchb
Spectrometer: FLMS00149
Trigger mode: 0
Integration Time (sec): 2.000000E-2
Scans to average: 10
Electric dark correction enabled: true
Nonlinearity correction enabled: false
Boxcar width: 0
XAxis mode: Wavelengths
Number of Pixels in Spectrum: 2048
>>>>>Begin Spectral Data<<<<<
341.393	-31.85
341.776	-31.85
342.16	-31.85
342.543	-79.76
342.927	-48.35
343.31	-72.75
343.693	-60.55
344.077	-62.13
344.46	-60.32
344.843	-54
345.226	-45.18
345.61	-41.79
345.993	-17.61
346.376	-9.25
346.759	29.84
347.142	20.13
347.525	25.1
347.908	79.79
348.291	66
348.674	96.51
349.057	106.23
349.44	121.37
349.823	160.69
350.206	141.71
350.588	179.9
350.971	206.56
351.354	226.67
351.737	242.04
352.119	240.23
352.502	259.67
352.884	249.73
353.267	270.97
353.65	286.79
354.032	300.12
354.414	303.06
354.797	283.62
355.179	294.47
355.562	325.2
355.944	335.37
356.326	346.9
356.709	331.08
357.091	341.25
357.473	337.41
357.855	335.15
358.238	341.7
358.62	349.16
359.002	334.24
359.384	347.35
359.766	352.1
360.148	319.78
360.53	331.98
360.912	319.1
361.294	328.59
361.676	315.03
362.057	326.33
362.439	326.56
362.821	324.98
363.203	297.41
363.584	317.07
363.966	334.02
364.348	314.36
364.729	303.73
365.111	320.01
365.493	324.53
365.874	306.9
366.256	290.18
366.637	306.9
367.019	306.45
367.4	312.77
367.781	290.4
368.163	301.7
368.544	308.25
368.925	312.77
369.306	310.51
369.688	309.38
370.069	327.01
370.45	291.98
370.831	312.55
371.212	318.2
371.593	311.42
371.974	305.54
372.355	323.17
372.736	322.49
373.117	325.66
373.498	299.67
373.879	308.48
374.26	311.87
374.641	329.5
375.021	306.9
375.402	288.82
375.783	292.44
376.163	288.14
376.544	303.51
376.925	310.06
377.305	308.48
377.686	304.41
378.066	305.77
378.447	336.95
378.827	313.23
379.208	333.11
379.588	307.58
379.968	340.8
380.349	311.64
380.729	329.5
381.109	326.11
381.489	352.77
381.87	345.77
382.25	321.36
382.63	345.54
383.01	326.33
383.39	349.16
383.77	328.14
384.15	351.19
384.53	343.73
384.91	342.38
385.29	342.6
385.67	357.97
386.049	340.34
386.429	340.12
386.809	339.44
387.189	348.71
387.568	338.31
387.948	340.34
388.328	342.6
388.707	331.53
389.087	340.57
389.466	356.39
389.846	357.07
390.225	365.2
390.605	363.62
390.984	334.02
391.363	350.74
391.743	374.02
392.122	363.17
392.501	383.28
392.881	365.2
393.26	380.34
393.639	389.61
394.018	364.07
394.397	375.82
394.776	373.56
395.155	376.05
395.534	366.33
395.913	366.11
396.292	371.53
396.671	377.63
397.05	389.61
397.429	364.98
397.808	380.34
398.186	399.78
398.565	386.67
398.944	386.9
399.323	393.22
399.701	391.87
400.08	397.29
400.458	398.42
400.837	402.26
401.215	394.81
401.594	425.77
401.972	408.14
402.351	399.78
402.729	404.98
403.107	421.02
403.486	408.82
403.864	414.92
404.242	421.47
404.62	429.38
404.999	433
405.377	435.26
405.755	441.81
406.133	423.51
406.511	443.62
406.889	462.37
407.267	439.55
407.645	457.63
408.023	478.87
408.401	454.69
408.779	477.52
409.156	487.23
409.534	498.76
409.912	481.13
410.29	524.75
410.667	511.19
411.045	512.99
411.422	491.98
411.8	543.73
412.178	530.17
412.555	560.45
412.933	534.01
413.31	530.62
413.687	568.81
414.065	553.9
414.442	583.05
414.819	560.23
415.197	603.16
415.574	586.44
415.951	617.4
416.328	585.99
416.705	603.61
417.082	610.17
417.46	623.05
417.837	655.14
418.214	656.72
418.591	651.3
418.967	643.84
419.344	654.69
419.721	667.79
420.098	673.44
420.475	690.17
420.852	687.23
421.228	709.37
421.605	719.09
421.982	722.48
422.358	735.36
422.735	733.1
423.111	764.29
423.488	751.63
423.864	756.38
424.241	794.34
424.617	806.32
424.994	814.91
425.37	811.74
425.746	817.62
426.123	819.88
426.499	814
426.875	851.29
427.251	871.86
427.627	877.51
428.003	887
428.379	891.06
428.756	904.62
429.132	912.53
429.507	937.16
429.883	953.21
430.259	963.15
430.635	943.94
431.011	964.06
431.387	997.28
431.763	1002.02
432.138	1005.86
432.514	988.24
432.89	1026.88
433.265	1072.3
433.641	1058.74
434.016	1077.5
434.392	1077.95
434.767	1129.93
435.143	1122.02
435.518	1139.42
435.894	1182.13
436.269	1164.73
436.644	1200.66
437.02	1209.02
437.395	1223.26
437.77	1216.25
438.145	1233.65
438.52	1313.88
438.895	1324.73
439.271	1321.56
439.646	1346.65
440.021	1359.75
440.395	1387.32
440.77	1370.37
441.145	1377.61
441.52	1423.25
441.895	1428.23
442.27	1458.05
442.645	1479.07
443.019	1470.03
443.394	1529.24
443.769	1485.62
444.143	1498.05
444.518	1536.47
444.892	1522.46
445.267	1535.12
445.641	1595.23
446.016	1576.24
446.39	1614.66
446.764	1591.16
447.139	1560.65
447.513	1604.72
447.887	1613.31
448.262	1622.34
448.636	1638.16
449.01	1668.44
449.384	1683.36
449.758	1716.81
450.132	1733.3
450.506	1722.91
450.88	1759.74
451.254	1769.69
451.628	1771.94
452.002	1786.86
452.376	1829.57
452.75	1808.78
453.123	1855.56
453.497	1873.41
453.871	1887.42
454.244	1929
454.618	1946.18
454.992	1954.31
455.365	1963.13
455.739	1997.25
456.112	2023.46
456.486	2072.05
456.859	2074.99
457.232	2114.31
457.606	2096.68
457.979	2136
458.352	2221.2
458.725	2223.46
459.099	2225.94
459.472	2271.37
459.845	2280.86
460.218	2303.23
460.591	2331.03
460.964	2361.76
461.337	2401.31
461.71	2421.19
462.083	2468.2
462.456	2454.41
462.829	2499.84
463.201	2545.94
463.574	2566.05
463.947	2606.5
464.32	2679.72
464.692	2675.2
465.065	2681.53
465.438	2742.09
465.81	2772.14
466.183	2825.25
466.555	2900.05
466.928	2887.4
467.3	2899.37
467.672	2970.33
468.045	3043.55
468.417	3066.15
468.789	3099.14
469.161	3109.54
469.534	3169.65
469.906	3269.31
470.278	3292.36
470.65	3295.07
471.022	3340.94
471.394	3503.2
471.766	3453.03
472.138	3570.99
472.51	3615.74
472.882	3677.43
473.253	3692.57
473.625	3740.48
473.997	3876.75
474.369	3914.04
474.74	3950.87
475.112	4022.96
475.484	4102.51
475.855	4180.47
476.227	4237.42
476.598	4342.05
476.97	4370.97
477.341	4510.18
477.713	4601.93
478.084	4612.1
478.455	4777.06
478.827	4844.86
479.198	4964.63
479.569	5008.02
479.94	5102.93
480.311	5167.79
480.682	5297.05
481.053	5427.44
481.424	5501.79
481.795	5621.11
482.166	5744.95
482.537	5768
482.908	5923.25
483.279	5994.66
483.65	6177.48
484.021	6265.61
484.391	6324.14
484.762	6395.78
485.133	6477.36
485.503	6537.92
485.874	6704.02
486.244	6798.25
486.615	6929.32
486.985	7046.38
487.356	7238.24
487.726	7259.03
488.097	7337.22
488.467	7457.22
488.837	7693.6
489.207	7724.1
489.578	7829.86
489.948	7965.91
490.318	8027.6
490.688	8115.51
491.058	8303.3
491.428	8370.19
491.798	8382.62
492.168	8589.84
492.538	8636.17
492.908	8717.98
493.278	8870.97
493.648	8905.99
494.017	8976.05
494.387	9108.48
494.757	9167.68
495.126	9278.19
495.496	9324.29
495.866	9367.23
496.235	9430.95
496.605	9546.2
496.974	9585.07
497.344	9729.93
497.713	9719.31
498.082	9826.87
498.452	9911.84
498.821	10018.73
499.19	9971.5
499.559	10022.8
499.928	10076.13
500.298	10127.66
500.667	10201.55
501.036	10220.76
501.405	10316.58
501.774	10307.99
502.143	10524.94
502.512	10503.01
502.88	10518.16
503.249	10483.58
503.618	10610.58
503.987	10673.41
504.356	10647.87
504.724	10799.73
505.093	10754.53
505.462	10774.65
505.83	10812.39
506.199	10911.82
506.567	11037.24
506.936	11014.19
507.304	11070.01
507.672	11031.81
508.041	11138.7
508.409	11267.29
508.777	11222.09
509.145	11327.63
509.514	11250.34
509.882	11430.9
510.25	11378.25
510.618	11374.4
510.986	11302.77
511.354	11499.6
511.722	11471.8
512.09	11549.77
512.458	11550.67
512.826	11578.69
513.193	11613.04
513.561	11627.05
513.929	11615.53
514.297	11721.29
514.664	11734.39
515.032	11734.62
515.4	11823.43
515.767	11813.04
516.135	11846.26
516.502	11787.05
516.869	11903.88
517.237	12015.52
517.604	11818.69
517.972	11909.76
518.339	11941.4
518.706	11930.32
519.073	11927.61
519.44	11961.51
519.808	12009.42
520.175	11929.42
520.542	12138
520.909	12070.88
521.276	12078.79
521.643	12189.07
522.009	12116.08
522.376	12210.99
522.743	12129.64
523.11	12237.66
523.477	12272.69
523.843	12288.5
524.21	12282.63
524.577	12319.92
524.943	12309.75
525.31	12350.2
525.676	12392.46
526.043	12385.23
526.409	12417.31
526.776	12438.56
527.142	12471.78
527.508	12466.35
527.874	12415.51
528.241	12465.22
528.607	12393.13
528.973	12492.79
529.339	12376.41
529.705	12435.39
530.071	12531.66
530.437	12415.28
530.803	12505.22
531.169	12465.68
531.535	12367.82
531.901	12342.06
532.267	12306.81
532.632	12306.36
532.998	12358.56
533.364	12254.38
533.73	12281.5
534.095	12320.14
534.461	12215.51
534.826	12215.74
535.192	12243.08
535.557	12251.22
535.923	12111.33
536.288	12127.38
536.653	12159.24
537.019	12029.08
537.384	11971
537.749	11974.61
538.114	11913.37
538.479	11845.13
538.845	11872.92
539.21	11775.07
539.575	11742.98
539.94	11764.68
540.305	11756.77
540.67	11662.53
541.034	11611.69
541.399	11555.42
541.764	11519.71
542.129	11477.23
542.494	11499.37
542.858	11481.07
543.223	11399.26
543.587	11388.19
543.952	11314.97
544.316	11359.26
544.681	11265.03
545.045	11176.67
545.41	11187.97
545.774	11180.06
546.138	11034.75
546.503	11016
546.867	10964.25
547.231	11032.94
547.595	10986.39
547.959	10967.18
548.324	10829.33
548.688	10844.93
549.052	10787.75
549.416	10722.22
549.779	10642.9
550.143	10579.85
550.507	10639.73
550.871	10598.38
551.235	10530.58
551.599	10467.08
551.962	10457.37
552.326	10437.03
552.689	10412.17
553.053	10304.83
553.417	10279.07
553.78	10326.52
554.143	10215.79
554.507	10240.42
554.87	10194.77
555.234	10259.18
555.597	10131.05
555.96	10161.78
556.323	10105.74
556.686	10019.19
557.05	10100.99
557.413	9980.32
557.776	10051.28
558.139	10036.81
558.502	10004.5
558.865	9943.03
559.228	9965.85
559.59	9864.16
559.953	9894.44
560.316	9918.85
560.679	9904.61
561.041	9850.38
561.404	9905.52
561.767	9919.08
562.129	9773.77
562.492	9865.29
562.854	9808.34
563.217	9694.67
563.579	9808.57
563.941	9793.65
564.304	9814.67
564.666	9887.89
565.028	9812.41
565.39	9809.25
565.753	9782.81
566.115	9790.49
566.477	9825.52
566.839	9795.69
567.201	9892.18
567.563	9844.95
567.925	9807.44
568.287	9762.92
568.648	9741.45
569.01	9846.31
569.372	9868.46
569.734	9855.12
570.095	9858.06
570.457	9833.43
570.819	9727.67
571.18	9732.19
571.542	9879.3
571.903	9806.99
572.265	9816.03
572.626	9818.74
572.987	9856.7
573.349	9807.67
573.71	9851.28
574.071	9798.4
574.432	9792.3
574.794	9847.66
575.155	9846.08
575.516	9795.91
575.877	9864.61
576.238	9856.03
576.599	9883.14
576.96	9801.34
577.32	9836.37
577.681	9816.93
578.042	9847.89
578.403	9843.6
578.763	9844.73
579.124	9873.43
579.485	9804.73
579.845	9851.28
580.206	9800.66
580.566	9799.08
580.927	9815.35
581.287	9893.31
581.648	9762.47
582.008	9895.35
582.368	9837.04
582.728	9766.09
583.089	9736.93
583.449	9734.45
583.809	9712.08
584.169	9738.06
584.529	9654.9
584.889	9756.14
585.249	9690.83
585.609	9637.95
585.969	9696.48
586.329	9672.53
586.688	9714.79
587.048	9643.38
587.408	9645.41
587.768	9651.06
588.127	9571.29
588.487	9625.75
588.846	9606.77
589.206	9642.25
589.565	9581.23
589.925	9607.45
590.284	9582.36
590.643	9548.24
591.003	9662.36
591.362	9586.65
591.721	9564.73
592.08	9536.26
592.44	9580.33
592.799	9627.11
593.158	9538.97
593.517	9507.79
593.876	9481.8
594.235	9458.07
594.593	9492.65
594.952	9467.11
595.311	9357.06
595.67	9497.62
596.029	9557.95
596.387	9489.26
596.746	9527.45
597.104	9414.46
597.463	9397.06
597.822	9468.01
598.18	9408.35
598.538	9392.31
598.897	9466.66
599.255	9372.65
599.613	9468.92
599.972	9379.65
600.33	9466.43
600.688	9370.16
601.046	9490.39
601.404	9482.93
601.762	9413.33
602.12	9393.67
602.478	9444.96
602.836	9432.31
603.194	9355.02
603.552	9376.94
603.91	9314.12
604.268	9392.54
604.625	9306.89
604.983	9440.9
605.341	9347.11
605.698	9367.68
606.056	9345.98
606.413	9330.62
606.771	9402.7
607.128	9366.55
607.485	9289.49
607.843	9386.66
608.2	9375.81
608.557	9446.77
608.914	9386.89
609.272	9443.16
609.629	9472.08
609.986	9437.96
610.343	9395.47
610.7	9470.95
611.057	9397.06
611.414	9431.4
611.771	9449.94
612.127	9465.08
612.484	9459.65
612.841	9477.51
613.198	9463.95
613.554	9420.56
613.911	9521.57
614.267	9470.27
614.624	9477.05
614.98	9467.56
615.337	9527.45
615.693	9509.14
616.05	9491.52
616.406	9502.59
616.762	9458.07
617.118	9484.96
617.475	9506.2
617.831	9487.67
618.187	9515.47
618.543	9532.19
618.899	9582.81
619.255	9520.44
619.611	9542.14
619.967	9540.33
620.323	9561.57
620.678	9578.52
621.034	9567.45
621.39	9517.73
621.746	9553.44
622.101	9659.42
622.457	9558.18
622.812	9594.11
623.168	9564.73
623.523	9546.88
623.879	9573.1
624.234	9555.47
624.589	9581.68
624.945	9494.68
625.3	9587.56
625.655	9560.21
626.01	9516.37
626.365	9547.11
626.72	9478.86
627.075	9502.14
627.43	9531.51
627.785	9457.39
628.14	9575.81
628.495	9523.61
628.85	9531.06
629.205	9421.24
629.559	9565.64
629.914	9419.65
630.269	9396.6
630.623	9468.24
630.978	9360.45
631.332	9371.07
631.687	9468.01
632.041	9416.04
632.396	9417.17
632.75	9401.57
633.104	9454.23
633.459	9300.33
633.813	9300.11
634.167	9311.18
634.521	9324.97
634.875	9351.41
635.229	9342.82
635.583	9319.32
635.937	9346.66
636.291	9326.1
636.645	9262.14
636.999	9245.42
637.352	9289.71
637.706	9219.43
638.06	9253.33
638.413	9179.21
638.767	9169.04
639.121	9199.55
639.474	9121.81
639.828	9178.08
640.181	9200.68
640.534	9110.74
640.888	9209.94
641.241	9080.23
641.594	9127.68
641.947	9179.66
642.301	9095.59
642.654	9114.58
643.007	9169.49
643.36	9110.96
643.713	9078.42
644.066	9120.68
644.419	9085.2
644.771	9019.44
645.124	8910.74
645.477	8952.77
645.83	8904.86
646.182	8856.05
646.535	8826.22
646.888	8833.68
647.24	8755.04
647.593	8911.42
647.945	8824.87
648.298	8763.4
648.65	8719.56
649.002	8733.12
649.355	8779.67
649.707	8849.95
650.059	8793.46
650.411	8944.41
650.763	8956.39
651.115	9072.32
651.467	9020.79
651.819	9033
652.171	9050.17
652.523	8986.22
652.875	9038.19
653.227	8935.82
653.578	8983.51
653.93	8981.92
654.282	8966.56
654.633	8915.71
654.985	8974.47
655.337	9019.66
655.688	8996.16
656.039	9073.45
656.391	8994.35
656.742	8990.96
657.094	9014.47
657.445	8984.41
657.796	8970.4
658.147	9049.49
658.498	8974.02
658.849	9070.06
659.2	9066.44
659.551	9041.36
659.902	8995.48
660.253	9024.18
660.604	9073.45
660.955	9010.85
661.306	9080.91
661.656	9018.76
662.007	9032.09
662.358	9021.25
662.708	9055.37
663.059	9027.8
663.409	9010.85
663.76	9077.29
664.11	9161.36
664.461	9109.15
664.811	9107.35
665.161	9135.59
665.511	9089.27
665.862	9091.07
666.212	9142.37
666.562	9081.13
666.912	9070.74
667.262	9097.63
667.612	9105.31
667.962	9168.36
668.312	9016.27
668.662	9088.59
669.011	9123.16
669.361	9095.82
669.711	9040.68
670.06	9094.46
670.41	9014.92
670.76	9003.85
671.109	9099.89
671.459	9073.45
671.808	9091.98
672.157	9071.64
672.507	9044.52
672.856	8948.48
673.205	8992.32
673.554	9075.48
673.904	8994.58
674.253	9011.3
674.602	9001.81
674.951	8889.27
675.3	8800.46
675.649	8949.84
675.998	8936.28
676.346	8935.82
676.695	8955.26
677.044	8901.47
677.393	8939.44
677.741	8971.3
678.09	8878.88
678.438	8902.6
678.787	8938.08
679.135	8917.97
679.484	8870.74
679.832	8829.39
680.181	8811.99
680.529	8896.73
680.877	8718.2
681.225	8760.24
681.573	8817.41
681.922	8778.54
682.27	8732.44
682.618	8739.67
682.966	8662.16
683.314	8700.35
683.661	8750.52
684.009	8705.55
684.357	8587.81
684.705	8600.47
685.053	8609.51
685.4	8620.13
685.748	8533.12
686.095	8556.85
686.443	8543.74
686.79	8468.72
687.138	8453.35
687.485	8473.24
687.832	8471.88
688.18	8470.98
688.527	8411.09
688.874	8414.48
689.221	8360.7
689.568	8354.82
689.915	8324.99
690.262	8254.71
690.609	8271.21
690.956	8222.62
691.303	8199.12
691.65	8182.85
691.997	8165.68
692.344	8091.55
692.69	8109.86
693.037	8132
693.383	8042.29
693.73	8042.06
694.077	7990.31
694.423	7940.82
694.769	7958.22
695.116	7946.02
695.462	7853.82
695.808	7890.88
696.155	7871.22
696.501	7852.01
696.847	7756.65
697.193	7734.27
697.539	7768.4
697.885	7715.74
698.231	7642.75
698.577	7684.56
698.923	7615.63
699.269	7589.65
699.614	7527.05
699.96	7499.93
700.306	7522.75
700.651	7468.07
700.997	7496.31
701.342	7416.77
701.688	7446.37
702.033	7374.06
702.379	7313.95
702.724	7379.71
703.069	7310.33
703.415	7244.57
703.76	7242.08
704.105	7265.81
704.45	7240.05
704.795	7156.89
705.14	7125.7
705.485	7130.45
705.83	7116.89
706.175	7136.78
706.52	7094.29
706.865	6998.93
707.209	7013.84
707.554	6962.99
707.899	7053.39
708.243	6944.69
708.588	6924.13
708.932	6934.75
709.277	6881.19
709.621	6885.93
709.966	6845.26
710.31	6836.67
710.654	6751.93
710.998	6761.19
711.342	6773.4
711.687	6804.13
712.031	6731.14
712.375	6721.42
712.719	6704.02
713.063	6705.15
713.407	6724.58
713.75	6627.41
714.094	6665.6
714.438	6675.09
714.782	6628.99
715.125	6573.63
715.469	6683.45
715.812	6581.54
716.156	6576.11
716.499	6562.78
716.843	6544.25
717.186	6537.47
717.53	6571.59
717.873	6537.47
718.216	6535.21
718.559	6551.71
718.902	6428.32
719.246	6471.93
719.589	6457.92
719.932	6453.18
720.275	6504.93
720.617	6433.52
720.96	6492.5
721.303	6435.33
721.646	6470.58
721.989	6389.22
722.331	6415.89
722.674	6363.46
723.016	6422.67
723.359	6401.2
723.701	6409.56
724.044	6328.44
724.386	6316.91
724.729	6423.57
725.071	6411.82
725.413	6365.04
725.755	6403.46
726.097	6355.55
726.439	6299.74
726.782	6362.33
727.124	6335.44
727.465	6316.23
727.807	6300.87
728.149	6320.3
728.491	6275.56
728.833	6318.49
729.175	6262.45
729.516	6286.63
729.858	6290.02
730.199	6282.33
730.541	6313.97
730.882	6299.28
731.224	6383.12
731.565	6329.57
731.906	6328.21
732.248	6351.49
732.589	6327.76
732.93	6294.31
733.271	6304.26
733.612	6306.06
733.953	6260.87
734.294	6285.95
734.635	6298.38
734.976	6306.97
735.317	6280.53
735.658	6326.85
735.999	6344.71
736.339	6293.18
736.68	6351.49
737.021	6348.1
737.361	6317.14
737.702	6415.66
738.042	6322.33
738.383	6347.64
738.723	6377.7
739.063	6336.34
739.404	6354.2
739.744	6424.7
740.084	6426.51
740.424	6416.57
740.764	6435.78
741.104	6410.69
741.444	6419.28
741.784	6435.33
742.124	6494.31
742.464	6505.15
742.804	6492.05
743.143	6548.09
743.483	6527.07
743.823	6581.99
744.162	6587.19
744.502	6611.14
744.841	6635.32
745.181	6684.58
745.52	6677.8
745.86	6684.81
746.199	6786.28
746.538	6777.69
746.877	6873.28
747.216	6913.73
747.556	6932.49
747.895	6911.47
748.234	7042.77
748.573	7026.72
748.911	7143.33
749.25	7143.78
749.589	7243.21
749.928	7344
750.267	7353.72
750.605	7397.33
750.944	7486.14
751.283	7598.46
751.621	7667.38
751.96	7705.12
752.298	7778.34
752.636	7934.49
752.975	8011.78
753.313	8063.3
753.651	8223.98
753.989	8288.61
754.327	8391.21
754.666	8520.02
755.004	8633.69
755.342	8749.39
755.679	8858.31
756.017	8961.81
756.355	9159.1
756.693	9240.68
757.031	9353.44
757.368	9477.73
757.706	9623.04
758.044	9771.51
758.381	9988.23
758.719	10102.12
759.056	10245.39
759.394	10396.35
759.731	10517.25
760.068	10667.3
760.405	10839.73
760.743	11036.79
761.08	11161.08
761.417	11309.77
761.754	11538.02
762.091	11652.59
762.428	11780.72
762.765	11950.66
763.102	12110.66
763.438	12321.5
763.775	12451.89
764.112	12684.43
764.449	12926.45
764.785	12992.67
765.122	13111.53
765.458	13224.98
765.795	13369.83
