Data from hue_28_FLMS001491_00063.txt Node
Date: Tue Feb 07 17:17:36 GMT 2017
User: dcchb
Spectrometer: FLMS00149
Trigger mode: 0
Integration Time (sec): 2.000000E-2
Scans to average: 10
Electric dark correction enabled: true
Nonlinearity correction enabled: false
Boxcar width: 0
XAxis mode: Wavelengths
Number of Pixels in Spectrum: 2048
>>>>>Begin Spectral Data<<<<<
341.393	-36.74
341.776	-36.74
342.16	-36.74
342.543	-62.27
342.927	-64.76
343.31	-56.4
343.693	-75.61
344.077	-65.44
344.46	-46.45
344.843	-50.3
345.226	-60.69
345.61	-44.87
345.993	-29.05
346.376	-20.69
346.759	39.65
347.142	19.99
347.525	59.76
347.908	46.2
348.291	68.35
348.674	99.31
349.057	116.25
349.44	120.55
349.823	157.38
350.206	149.02
350.588	182.92
350.971	197.83
351.354	204.61
351.737	218.17
352.119	259.3
352.502	255.23
352.884	288.9
353.267	257.27
353.65	314.44
354.032	294.55
354.414	320.09
354.797	286.42
355.179	321.45
355.562	310.83
355.944	352.18
356.326	349.69
356.709	343.14
357.091	341.11
357.473	339.07
357.855	330.26
358.238	341.11
358.62	337.49
359.002	327.77
359.384	329.81
359.766	322.35
360.148	354.89
360.53	338.62
360.912	331.39
361.294	334.78
361.676	356.93
362.057	331.84
362.439	322.12
362.821	316.93
363.203	337.27
363.584	313.99
363.966	333.42
364.348	323.48
364.729	334.78
365.111	315.8
365.493	306.76
365.874	320.32
366.256	328
366.637	334.1
367.019	317.15
367.4	320.77
367.781	329.13
368.163	324.84
368.544	319.19
368.925	316.25
369.306	307.89
369.688	332.07
370.069	318.51
370.45	336.81
370.831	327.32
371.212	311.73
371.593	306.98
371.974	333.2
372.355	320.77
372.736	303.59
373.117	318.73
373.498	320.54
373.879	326.42
374.26	318.28
374.641	303.37
375.021	307.66
375.402	343.14
375.783	329.58
376.163	327.32
376.544	334.1
376.925	319.86
377.305	322.12
377.686	315.8
378.066	311.73
378.447	320.99
378.827	333.65
379.208	325.74
379.588	338.17
379.968	334.55
380.349	322.8
380.729	340.43
381.109	335.68
381.489	333.65
381.87	344.27
382.25	347.43
382.63	322.35
383.01	325.06
383.39	340.2
383.77	356.7
384.15	345.4
384.53	333.88
384.91	338.17
385.29	338.85
385.67	351.05
386.049	345.63
386.429	346.3
386.809	351.95
387.189	353.76
387.568	361.22
387.948	335.01
388.328	347.66
388.707	347.89
389.087	363.48
389.466	339.75
389.846	355.8
390.225	352.41
390.605	376.13
390.984	348.56
391.363	360.54
391.743	349.47
392.122	393.76
392.501	357.15
392.881	387.43
393.26	364.38
393.639	360.09
394.018	376.13
394.397	383.59
394.776	371.84
395.155	376.59
395.534	384.72
395.913	368.45
396.292	371.84
396.671	373.2
397.05	402.12
397.429	380.65
397.808	387.21
398.186	368.68
398.565	384.04
398.944	392.63
399.323	386.98
399.701	368
400.08	377.04
400.458	391.05
400.837	392.63
401.215	410.48
401.594	389.69
401.972	393.99
402.351	388.79
402.729	398.96
403.107	403.25
403.486	396.47
403.864	406.64
404.242	372.29
404.62	408.9
404.999	411.16
405.377	416.59
405.755	406.19
406.133	401.44
406.511	407.77
406.889	445.96
407.267	416.81
407.645	441.9
408.023	408
408.401	452.74
408.779	451.16
409.156	445.51
409.534	429.01
409.912	439.86
410.29	433.08
410.667	441.67
411.045	453.19
411.422	457.71
411.8	466.98
412.178	443.03
412.555	457.26
412.933	440.09
413.31	449.8
413.687	466.98
414.065	468.79
414.442	477.15
414.819	473.53
415.197	467.88
415.574	470.59
415.951	496.13
416.328	462.91
416.705	480.76
417.082	499.29
417.46	502.68
417.837	477.6
418.214	524.38
418.591	494.78
418.967	499.07
419.344	486.64
419.721	485.74
420.098	492.29
420.475	497.94
420.852	501.78
421.228	496.58
421.605	521.67
421.982	505.62
422.358	517.83
422.735	537.26
423.111	521.89
423.488	538.39
423.864	523.7
424.241	525.28
424.617	539.75
424.994	543.59
425.37	545.17
425.746	539.75
426.123	544.27
426.499	553.98
426.875	544.49
427.251	568.9
427.627	556.24
428.003	578.61
428.379	577.26
428.756	556.02
429.132	578.84
429.507	586.98
429.883	596.92
430.259	599.18
430.635	598.5
431.011	593.3
431.387	599.86
431.763	597.37
432.138	633.75
432.514	605.51
432.89	609.35
433.265	624.26
433.641	629.23
434.016	634.66
434.392	651.61
434.767	653.42
435.143	662.45
435.518	653.42
435.894	685.73
436.269	674.21
436.644	690.02
437.02	700.87
437.395	668.78
437.77	698.61
438.145	660.65
438.52	699.74
438.895	705.84
439.271	713.75
439.646	713.98
440.021	718.95
440.395	731.15
440.77	709.91
441.145	718.05
441.52	740.87
441.895	706.29
442.27	729.12
442.645	727.99
443.019	746.97
443.394	733.86
443.769	753.07
444.143	746.52
444.518	757.59
444.892	754.43
445.267	763.69
445.641	782.9
446.016	784.26
446.39	782.9
446.764	772.73
447.139	780.19
447.513	813.41
447.887	814.77
448.262	804.6
448.636	801.21
449.01	795.11
449.384	793.75
449.758	817.03
450.132	833.07
450.506	818.83
450.88	836.91
451.254	813.64
451.628	845.05
452.002	859.51
452.376	860.19
452.75	860.87
453.123	867.42
453.497	874.65
453.871	869.68
454.244	858.83
454.618	884.82
454.992	903.35
455.365	909.45
455.739	911.94
456.112	904.03
456.486	942.45
456.859	931.6
457.232	960.3
457.606	950.58
457.979	965.05
458.352	968.66
458.725	1004.14
459.099	1020.19
459.472	1004.82
459.845	1021.54
460.218	1017.93
460.591	1031.48
460.964	1048.21
461.337	1037.59
461.71	1095.66
462.083	1083.23
462.456	1089.34
462.829	1101.76
463.201	1111.26
463.574	1109.22
463.947	1141.76
464.32	1152.84
464.692	1167.98
465.065	1166.85
465.438	1148.77
465.81	1178.37
466.183	1208.65
466.555	1234.64
466.928	1240.07
467.3	1250.69
467.672	1250.69
468.045	1276.22
468.417	1291.36
468.789	1305.38
469.161	1326.17
469.534	1335.43
469.906	1375.43
470.278	1382.89
470.65	1369.78
471.022	1401.87
471.394	1466.28
471.766	1484.81
472.138	1464.24
472.51	1508.31
472.882	1524.58
473.253	1510.79
473.625	1547.63
473.997	1566.16
474.369	1608.87
474.74	1603.22
475.112	1648.64
475.484	1676.89
475.855	1724.12
476.227	1730.67
476.598	1776.32
476.97	1821.52
477.341	1845.25
477.713	1901.74
478.084	1897
478.455	1960.95
478.827	1916.88
479.198	2033.27
479.569	2073.49
479.94	2110.1
480.311	2165.01
480.682	2186.26
481.053	2253.15
481.424	2296.99
481.795	2324.11
482.166	2366.59
482.537	2428.51
482.908	2442.52
483.279	2495.63
483.65	2525.46
484.021	2617.66
484.391	2657.43
484.762	2688.39
485.133	2754.15
485.503	2758.67
485.874	2854.94
486.244	2878.22
486.615	2973.13
486.985	2966.57
487.356	3032.11
487.726	3102.39
488.097	3166.34
488.467	3192.56
488.837	3254.02
489.207	3334.47
489.578	3367.24
489.948	3454.92
490.318	3465.32
490.688	3482.95
491.058	3600
491.428	3631.87
491.798	3667.57
492.168	3785.08
492.538	3826.89
492.908	3842.94
493.278	3938.98
493.648	3950.73
494.017	4028.69
494.387	4033.67
494.757	4084.29
495.126	4172.64
495.496	4128.13
495.866	4231.85
496.235	4284.73
496.605	4326.31
496.974	4335.13
497.344	4383.71
497.713	4442.69
498.082	4482.92
498.452	4572.41
498.821	4529.25
499.19	4582.13
499.559	4639.75
499.928	4704.83
500.298	4745.51
500.667	4758.62
501.036	4708.68
501.405	4850.37
501.774	4801.78
502.143	4930.14
502.512	4898.73
502.88	4980.53
503.249	5019.85
503.618	4988.44
503.987	5012.62
504.356	5039.97
504.724	5103.92
505.093	5127.87
505.462	5162
505.83	5206.97
506.199	5256.01
506.567	5274.31
506.936	5295.1
507.304	5309.56
507.672	5398.83
508.041	5414.87
508.409	5423.46
508.777	5476.57
509.145	5502.55
509.514	5515.89
509.882	5585.26
510.25	5563.34
510.618	5516.34
510.986	5587.07
511.354	5643.11
511.722	5751.13
512.09	5753.17
512.458	5710.91
512.826	5771.47
513.193	5809.21
513.561	5830.91
513.929	5842.66
514.297	5898.93
514.664	5933.28
515.032	5972.82
515.4	5940.96
515.767	6047.17
516.135	6064.12
516.502	6015.76
516.869	6094.85
517.237	6116.1
517.604	6077.45
517.972	6169.2
518.339	6256.88
518.706	6231.8
519.073	6246.26
519.44	6241.97
519.808	6350.44
520.175	6270.44
520.542	6385.92
520.909	6364.23
521.276	6391.34
521.643	6431.34
522.009	6498.23
522.376	6488.29
522.743	6532.13
523.11	6560.83
523.477	6596.99
523.843	6643.09
524.21	6705.46
524.577	6722.86
524.943	6727.38
525.31	6763.76
525.676	6829.98
526.043	6862.97
526.409	6902.74
526.776	6955.17
527.142	6960.14
527.508	7023.64
527.874	7070.42
528.241	7083.98
528.607	7109.74
528.973	7216.41
529.339	7110.19
529.705	7197.88
530.071	7328.04
530.437	7266.12
530.803	7345.89
531.169	7392.67
531.535	7388.61
531.901	7324.88
532.267	7477.87
532.632	7537.75
532.998	7560.8
533.364	7662.27
533.73	7641.93
534.095	7612.55
534.461	7709.05
534.826	7748.6
535.192	7761.7
535.557	7789.5
535.923	7816.39
536.288	7879.21
536.653	7898.42
537.019	7813.23
537.384	7943.39
537.749	7954.24
538.114	7933
538.479	7918.99
538.845	7999.66
539.21	8040.57
539.575	8102.48
539.94	8093.22
540.305	8142.03
540.67	8170.28
541.034	8199.21
541.399	8289.15
541.764	8297.51
542.129	8283.5
542.494	8326.89
542.858	8412.08
543.223	8433.32
543.587	8472.19
543.952	8428.8
544.316	8507.9
544.681	8482.14
545.045	8557.16
545.41	8563.04
545.774	8627.89
546.138	8646.65
546.503	8690.49
546.867	8694.79
547.231	8722.13
547.595	8804.39
547.959	8802.58
548.324	8829.02
548.688	8807.55
549.052	8890.94
549.416	8950.6
549.779	8970.94
550.143	8937.94
550.507	9059.52
550.871	9039.18
551.235	9056.36
551.599	9099.75
551.962	9184.49
552.326	9203.92
552.689	9212.51
553.053	9208.9
553.417	9251.83
553.78	9333.86
554.143	9331.38
554.507	9374.77
554.87	9364.37
555.234	9432.17
555.597	9438.95
555.96	9461.77
556.323	9529.57
556.686	9497.25
557.05	9576.57
557.413	9589
557.776	9613.18
558.139	9677.58
558.502	9717.36
558.865	9720.97
559.228	9759.84
559.59	9813.17
559.953	9845.94
560.316	9927.75
560.679	9885.71
561.041	9939.27
561.404	10053.62
561.767	10015.88
562.129	9959.61
562.492	10068.53
562.854	10082.77
563.217	10087.07
563.579	10120.51
563.941	10140.17
564.304	10283.9
564.666	10336.55
565.028	10342.43
565.39	10383.78
565.753	10372.03
566.115	10436.66
566.477	10469.43
566.839	10482.31
567.201	10518.24
567.563	10535.42
567.925	10645.02
568.287	10639.59
568.648	10655.41
569.01	10720.95
569.372	10769.31
569.734	10827.38
570.095	10949.42
570.457	10916.87
570.819	10999.13
571.18	10953.48
571.542	11041.16
571.903	11044.78
572.265	11136.3
572.626	11162.74
572.987	11207.71
573.349	11311.44
573.71	11277.32
574.071	11369.52
574.432	11426.92
574.794	11628.27
575.155	11652
575.516	11598.89
575.877	11802.27
576.238	11763.18
576.599	11912.78
576.96	11998.43
577.32	11999.33
577.681	12167.24
578.042	12236.84
578.403	12293.79
578.763	12421.47
579.124	12552.09
579.485	12660.1
579.845	12815.58
580.206	12921.12
580.566	13002.69
580.927	13118.62
581.287	13322.91
581.648	13316.58
582.008	13604.71
582.368	13792.96
582.728	13887.87
583.089	14017.81
583.449	14179.39
583.809	14415.99
584.169	14436.33
584.529	14716.77
584.889	14899.59
585.249	15032.25
585.609	15164.45
585.969	15558.33
586.329	15686.69
586.688	15927.14
587.048	16169.84
587.408	16323.96
587.768	16647.8
588.127	16798.53
588.487	17097.05
588.846	17351.28
589.206	17574.78
589.565	17894.54
589.925	18243.01
590.284	18389.67
590.643	18675.31
591.003	18937
591.362	19340.16
591.721	19506.7
592.08	19775.4
592.44	20118.89
592.799	20353.01
593.158	20553.91
593.517	20860.79
593.876	21217.85
594.235	21482.02
594.593	21753.43
594.952	22070.03
595.311	22266.63
595.67	22610.35
596.029	23058.93
596.387	23357.45
596.746	23632.7
597.104	23882.18
597.463	24181.84
597.822	24520.13
598.18	24816.62
598.538	25053.68
598.897	25477.17
599.255	25537.05
599.613	26160.09
599.972	26399.4
600.33	26615.44
600.688	26831.71
601.046	27125.94
601.404	27460.85
601.762	27668.3
602.12	28088.63
602.478	28368.62
602.836	28641.83
603.194	28714.37
603.552	29009.05
603.91	29254.47
604.268	29628.92
604.625	29691.97
604.983	30095.8
605.341	30186.88
605.698	30645.39
606.056	30857.37
606.413	31021.2
606.771	31316.11
607.128	31625.48
607.485	31732.6
607.843	31894.18
608.2	32254.62
608.557	32578.23
608.914	32587.49
609.272	33079.68
609.629	33160.81
609.986	33606.9
610.343	33565.54
610.7	33892.09
611.057	34058.19
611.414	34323.26
611.771	34528.68
612.127	34717.15
612.484	34839.41
612.841	35167.31
613.198	35216.57
613.554	35348.1
613.911	35604.59
614.267	35874.41
614.624	35953.96
614.98	36111.92
615.337	36383.32
615.693	36561.85
616.05	36591.68
616.406	37057.2
616.762	36964.55
617.118	37155.96
617.475	37243.41
617.831	37439.79
618.187	37582.39
618.543	37714.81
618.899	37920.68
619.255	38068.48
619.611	38064.86
619.967	38384.17
620.323	38587.11
620.678	38511.63
621.034	38456.49
621.39	38555.7
621.746	38663.26
622.101	39181.22
622.457	38894.22
622.812	39115.23
623.168	39236.58
623.523	39423.24
623.879	39478.61
624.234	39345.51
624.589	39562.9
624.945	39627.31
625.3	39786.17
625.655	39837.47
626.01	39936.45
626.365	39928.09
626.72	40026.17
627.075	39942.78
627.43	40034.53
627.785	39968.09
628.14	40280.85
628.495	40298.47
628.85	40429.32
629.205	40204.92
629.559	40607.17
629.914	40325.14
630.269	40450.11
630.623	40573.04
630.978	40524.01
631.332	40752.7
631.687	40693.27
632.041	40575.3
632.396	40799.93
632.75	40582.53
633.104	40718.12
633.459	40619.82
633.813	40620.5
634.167	40680.16
634.521	40551.57
634.875	40680.61
635.229	40651.46
635.583	40588.18
635.937	40606.49
636.291	40656.66
636.645	40664.57
636.999	40530.11
637.352	40819.82
637.706	40699.37
638.06	40757.22
638.413	40640.61
638.767	40715.41
639.121	40738.69
639.474	40516.1
639.828	40590.44
640.181	40641.52
640.534	40509.32
640.888	40466.83
641.241	40344.12
641.594	40521.97
641.947	40635.87
642.301	40514.29
642.654	40565.81
643.007	40486.04
643.36	40544.12
643.713	40571.24
644.066	40642.87
644.419	40392.26
644.771	40175.77
645.124	39867.98
645.477	39834.98
645.83	39493.52
646.182	39400.87
646.535	39201.1
646.888	39341.89
647.24	39248.56
647.593	39477.25
647.945	39368.1
648.298	39227.99
648.65	39225.51
649.002	39206.75
649.355	39256.02
649.707	39220.31
650.059	39465.95
650.411	39834.53
650.763	39904.81
651.115	40197.01
651.467	40108.42
651.819	40101.19
652.171	40105.26
652.523	39946.62
652.875	40008.31
653.227	39781.65
653.578	40044.02
653.93	39844.7
654.282	39874.53
654.633	39880.86
654.985	39870.69
655.337	39930.35
655.688	40037.01
656.039	40076.56
656.391	39802.89
656.742	39822.78
657.094	39957.01
657.445	40006.05
657.796	40036.33
658.147	39924.47
658.498	39824.36
658.849	40029.1
659.2	39775.32
659.551	39739.84
659.902	39768.54
660.253	39878.37
660.604	39857.81
660.955	39709.34
661.306	39834.31
661.656	39732.84
662.007	39757.02
662.358	39786.62
662.708	39802.22
663.059	39771.03
663.409	39602.45
663.76	39867.3
664.11	39768.54
664.461	39863.91
664.811	39731.26
665.161	39822.1
665.511	39610.58
665.862	39811.48
666.212	39685.38
666.562	39773.52
666.912	39641.09
667.262	39477.03
667.612	39658.49
667.962	39630.24
668.312	39497.37
668.662	39773.97
669.011	39630.02
669.361	39596.12
669.711	39597.93
670.06	39713.63
670.41	39490.36
670.76	39355.45
671.109	39526.07
671.459	39529.45
671.808	39390.48
672.157	39654.88
672.507	39278.16
672.856	39305.51
673.205	39337.14
673.554	39537.36
673.904	39353.41
674.253	39559.51
674.602	39419.18
674.951	38928.34
675.3	38657.39
675.649	39444.94
675.998	39377.14
676.346	39300.53
676.695	39522.9
677.044	39223.7
677.393	39263.02
677.741	39429.12
678.09	39271.83
678.438	38924.95
678.787	39083.37
679.135	39191.61
679.484	38854.9
679.832	39048.56
680.181	38835.69
680.529	39002.46
680.877	38789.14
681.225	38849.92
681.573	39150.71
681.922	38771.51
682.27	38607.67
682.618	38632.08
682.966	38510.27
683.314	38664.39
683.661	38391.41
684.009	38329.49
684.357	38280.45
684.705	38239.77
685.053	38301.46
685.4	38228.47
685.748	38049.04
686.095	38084.97
686.443	38015.82
686.79	37939.21
687.138	37936.73
687.485	37894.7
687.832	37787.35
688.18	38042.26
688.527	37750.07
688.874	37799.56
689.221	37628.49
689.568	37549.39
689.915	37460.36
690.262	37511.65
690.609	37316.63
690.956	37061.05
691.303	37121.16
691.65	36917.55
691.997	36907.83
692.344	36674.16
692.69	36673.48
693.037	36662.64
693.383	36452.93
693.73	36496.77
694.077	36352.82
694.423	36382.42
694.769	36276.66
695.116	36159.15
695.462	36053.84
695.808	36128.64
696.155	36022.2
696.501	35874.86
696.847	35828.54
697.193	35572.95
697.539	35712.83
697.885	35534.76
698.231	35372.28
698.577	35280.75
698.923	35428.77
699.269	35278.72
699.614	35116.46
699.96	35003.47
700.306	34956.47
700.651	34870.82
700.997	34716.25
701.342	34770.71
701.688	34734.78
702.033	34453.88
702.379	34443.94
702.724	34386.77
703.069	34421.34
703.415	34062.71
703.76	34146.55
704.105	33895.7
704.45	34016.83
704.795	33859.1
705.14	33629.72
705.485	33657.52
705.83	33596.96
706.175	33551.31
706.52	33462.5
706.865	33338.43
707.209	33285.33
707.554	33082.17
707.899	33233.58
708.243	33120.36
708.588	32970.31
708.932	32879.69
709.277	32862.51
709.621	32948.61
709.966	32610.31
710.31	32798.78
710.654	32425.46
710.998	32586.13
711.342	32574.38
711.687	32479.7
712.031	32277.44
712.375	32132.14
712.719	32341.62
713.063	32190.44
713.407	32105.92
713.75	32144.56
714.094	32093.49
714.438	31873.61
714.782	31838.13
715.125	31752.71
715.469	31858.7
715.812	31579.38
716.156	31499.61
716.499	31546.39
716.843	31490.57
717.186	31369.67
717.53	31541.87
717.873	31373.29
718.216	31336
718.559	31071.15
718.902	31011.49
719.246	31037.02
719.589	31093.52
719.932	30950.92
720.275	30900.76
720.617	30930.59
720.96	30835.9
721.303	30777.59
721.646	30772.85
721.989	30642.01
722.331	30569.24
722.674	30514.1
723.016	30606.3
723.359	30599.29
723.701	30675
724.044	30238.85
724.386	30330.37
724.729	30408.11
725.071	30248.8
725.413	30221.45
725.755	30277.95
726.097	30089.03
726.439	29940.33
726.782	30089.48
727.124	30091.74
727.465	29946.88
727.807	29990.04
728.149	29798.86
728.491	29747.34
728.833	29804.29
729.175	29667.12
729.516	29640.45
729.858	29716.83
730.199	29691.3
730.541	29608.36
730.882	29561.58
731.224	29665.76
731.565	29197.98
731.906	29444.3
732.248	29458.99
732.589	29302.83
732.93	29136.51
733.271	29261.7
733.612	29178.31
733.953	29251.76
734.294	29061.48
734.635	29126.11
734.976	29060.8
735.317	28841.83
735.658	28889.73
735.999	28897.64
736.339	28747.37
736.68	28982.61
737.021	28758.44
737.361	28650.42
737.702	28775.16
738.042	28666.92
738.383	28589.4
738.723	28645.9
739.063	28587.37
739.404	28565
739.744	28461.05
740.084	28342.86
740.424	28403.87
740.764	28279.36
741.104	28490.42
741.444	28165.23
741.784	28247.94
742.124	28291.11
742.464	28231.45
742.804	28174.27
743.143	28045.46
743.483	28124.56
743.823	28000.27
744.162	28000.49
744.502	27974.05
744.841	28050.21
745.181	27969.53
745.52	27830.55
745.86	27941.51
746.199	27772.02
746.538	27777.9
746.877	27900.38
747.216	27813.6
747.556	27659.48
747.895	27714.4
748.234	27554.63
748.573	27562.09
748.911	27485.93
749.25	27471.24
749.589	27379.72
749.928	27459.04
750.267	27475.99
750.605	27436.89
750.944	27381.3
751.283	27249.1
751.621	27212.26
751.96	27132.04
752.298	27150.35
752.636	27106.96
752.975	26987.64
753.313	26968.66
753.651	26981.99
753.989	26840.75
754.327	26974.3
754.666	26676.01
755.004	26635.78
755.342	26777.93
755.679	26497.48
756.017	26490.02
756.355	26572.28
756.693	26445.28
757.031	26333.64
757.368	26316.92
757.706	26179.52
758.044	26166.42
758.381	26186.98
758.719	26068.11
759.056	26024.27
759.394	25970.72
759.731	25891.62
