Data from hue_130_FLMS001491_00081.txt Node
Date: Tue Feb 07 16:58:12 GMT 2017
User: dcchb
Spectrometer: FLMS00149
Trigger mode: 0
Integration Time (sec): 2.000000E-2
Scans to average: 10
Electric dark correction enabled: true
Nonlinearity correction enabled: false
Boxcar width: 0
XAxis mode: Wavelengths
Number of Pixels in Spectrum: 2048
>>>>>Begin Spectral Data<<<<<
341.393	-12.06
341.776	-12.06
342.16	-12.06
342.543	-43.93
342.927	-64.26
343.31	-63.59
343.693	-73.3
344.077	-66.98
344.46	-54.77
344.843	-50.93
345.226	-36.92
345.61	-37.37
345.993	-44.15
346.376	-1.89
346.759	7.82
347.142	38.56
347.525	22.06
347.908	78.78
348.291	82.85
348.674	93.25
349.057	106.58
349.44	110.42
349.823	141.83
350.206	173.7
350.588	187.25
350.971	208.72
351.354	221.6
351.737	251.21
352.119	242.39
352.502	259.12
352.884	277.87
353.267	289.17
353.65	294.14
354.032	306.35
354.414	295.27
354.797	307.7
355.179	340.92
355.562	317.42
355.944	303.86
356.326	333.69
356.709	340.92
357.091	343.86
357.473	360.13
357.855	333.69
358.238	337.53
358.62	349.28
359.002	345.89
359.384	350.41
359.766	352.22
360.148	349.28
360.53	325.33
360.912	324.65
361.294	338.21
361.676	326.23
362.057	331.66
362.439	337.76
362.821	315.84
363.203	331.88
363.584	325.78
363.966	346.8
364.348	323.07
364.729	336.4
365.111	302.51
365.493	332.56
365.874	344.76
366.256	320.13
366.637	307.48
367.019	308.83
367.4	326.01
367.781	310.87
368.163	313.58
368.544	305.9
368.925	315.84
369.306	323.75
369.688	324.88
370.069	345.44
370.45	346.57
370.831	321.94
371.212	315.61
371.593	310.87
371.974	301.83
372.355	314.03
372.736	313.58
373.117	330.3
373.498	329.62
373.879	316.52
374.26	308.61
374.641	321.04
375.021	319
375.402	323.97
375.783	322.84
376.163	326.69
376.544	332.11
376.925	331.21
377.305	326.01
377.686	326.23
378.066	332.34
378.447	344.31
378.827	344.31
379.208	313.58
379.588	330.08
379.968	314.71
380.349	322.62
380.729	325.78
381.109	344.09
381.489	344.09
381.87	336.63
382.25	329.85
382.63	357.19
383.01	323.75
383.39	342.51
383.77	356.74
384.15	344.99
384.53	323.75
384.91	352.67
385.29	352.45
385.67	372.79
386.049	357.19
386.429	354.26
386.809	353.8
387.189	359.91
387.568	349.74
387.948	352.9
388.328	365.1
388.707	363.07
389.087	390.41
389.466	372.56
389.846	352
390.225	379.79
390.605	377.31
390.984	381.15
391.363	369.62
391.743	364.43
392.122	366.23
392.501	349.51
392.881	376.4
393.26	384.31
393.639	382.28
394.018	375.95
394.397	409.17
394.776	374.82
395.155	401.49
395.534	391.09
395.913	388.38
396.292	385.22
396.671	399
397.05	394.03
397.429	397.42
397.808	396.29
398.186	390.87
398.565	399
398.944	398.55
399.323	402.16
399.701	400.81
400.08	421.15
400.458	414.14
400.837	408.49
401.215	397.19
401.594	404.65
401.972	398.1
402.351	421.37
402.729	420.47
403.107	415.27
403.486	426.57
403.864	434.48
404.242	422.28
404.62	440.81
404.999	407.59
405.377	435.16
405.755	423.18
406.133	422.28
406.511	435.84
406.889	444.2
407.267	443.97
407.645	467.47
408.023	442.62
408.401	454.82
408.779	449.62
409.156	447.59
409.534	453.01
409.912	467.02
410.29	461.6
410.667	450.98
411.045	492.33
411.422	475.61
411.8	474.48
412.178	467.02
412.555	487.13
412.933	478.09
413.31	501.6
413.687	489.85
414.065	489.17
414.442	493.91
414.819	486.68
415.197	507.02
415.574	496.4
415.951	504.53
416.328	503.4
416.705	525.33
417.082	525.55
417.46	514.48
417.837	540.69
418.214	527.36
418.591	529.84
418.967	530.52
419.344	517.19
419.721	542.05
420.098	541.14
420.475	546.57
420.852	535.04
421.228	532.56
421.605	546.79
421.982	577.75
422.358	544.53
422.735	597.64
423.111	562.84
423.488	555.83
423.864	571.2
424.241	563.52
424.617	595.83
424.994	598.54
425.37	589.28
425.746	589.73
426.123	589.05
426.499	596.74
426.875	589.96
427.251	597.41
427.627	587.02
428.003	641.48
428.379	632.67
428.756	616.62
429.132	631.31
429.507	654.14
429.883	631.76
430.259	637.64
430.635	634.02
431.011	661.59
431.387	654.14
431.763	678.54
432.138	659.33
432.514	695.49
432.89	695.49
433.265	697.75
433.641	696.62
434.016	711.76
434.392	688.48
434.767	720.35
435.143	738.88
435.518	730.74
435.894	753.34
436.269	759.44
436.644	741.36
437.02	746.11
437.395	767.35
437.77	762.38
438.145	764.64
438.52	779.78
438.895	799.44
439.271	808.26
439.646	790.4
440.021	823.85
440.395	810.06
440.77	807.58
441.145	853.23
441.52	824.07
441.895	813
442.27	817.75
442.645	802.15
443.019	853.23
443.394	829.5
443.769	864.07
444.143	836.73
444.518	876.28
444.892	883.96
445.267	867.92
445.641	891.64
446.016	898.42
446.39	884.64
446.764	888.48
447.139	884.19
447.513	892.55
447.887	897.52
448.262	924.86
448.636	910.4
449.01	932.55
449.384	928.03
449.758	943.39
450.132	938.42
450.506	968.48
450.88	968.93
451.254	959.21
451.628	965.54
452.002	991.75
452.376	1013.22
452.75	963.51
453.123	1010.28
453.497	1016.61
453.871	1006.67
454.244	1054.58
454.618	1031.07
454.992	1077.63
455.365	1052.09
455.739	1081.02
456.112	1096.61
456.486	1109.72
456.859	1115.37
457.232	1135.7
457.606	1148.13
457.979	1139.09
458.352	1170.28
458.725	1185.42
459.099	1194.91
459.472	1224.97
459.845	1193.1
460.218	1236.04
460.591	1264.06
460.964	1254.57
461.337	1297.28
461.71	1317.39
462.083	1339.99
462.456	1322.59
462.829	1341.57
463.201	1391.29
463.574	1377.51
463.947	1401.91
464.32	1445.07
464.692	1436.71
465.065	1436.94
465.438	1486.88
465.81	1459.99
466.183	1507.22
466.555	1508.58
466.928	1551.06
467.3	1566.88
467.672	1600.1
468.045	1606.88
468.417	1610.04
468.789	1657.27
469.161	1710.38
469.534	1724.16
469.906	1740.66
470.278	1753.32
470.65	1789.02
471.022	1824.5
471.394	1845.29
471.766	1916.25
472.138	1977.26
472.51	1971.16
472.882	2010.48
473.253	2064.95
473.625	2084.38
473.997	2178.84
474.369	2220.42
474.74	2214.77
475.112	2310.81
475.484	2350.81
475.855	2393.07
476.227	2412.06
476.598	2506.06
476.97	2582.9
477.341	2623.35
477.713	2710.35
478.084	2738.37
478.455	2811.37
478.827	2885.26
479.198	2996.9
479.569	3033.51
479.94	3149.66
480.311	3197.8
480.682	3300.17
481.053	3401.41
481.424	3555.3
481.795	3566.38
482.166	3663.55
482.537	3738.35
482.908	3883.65
483.279	3987.83
483.65	4085.23
484.021	4191.9
484.391	4273.02
484.762	4377.65
485.133	4492.68
485.503	4560.7
485.874	4753.01
486.244	4845.21
486.615	5003.85
486.985	5061.7
487.356	5260.57
487.726	5313.67
488.097	5573.78
488.467	5604.74
488.837	5772.19
489.207	5945.3
489.578	6128.79
489.948	6122.01
490.318	6307.32
490.688	6433.87
491.058	6563.13
491.428	6691.26
491.798	6809.23
492.168	7079.28
492.538	7088.32
492.908	7243.34
493.278	7440.62
493.648	7544.12
494.017	7693.72
494.387	7848.52
494.757	7967.62
495.126	8131.9
495.496	8234.5
495.866	8339.13
496.235	8491.22
496.605	8624.77
496.974	8718.33
497.344	8851.89
497.713	9032.45
498.082	9078.32
498.452	9273.57
498.821	9263.17
499.19	9418.65
499.559	9574.35
499.928	9664.75
500.298	9779.77
500.667	9884.85
501.036	9906.1
501.405	10035.81
501.774	10134.79
502.143	10246.43
502.512	10330.49
502.88	10504.27
503.249	10500.43
503.618	10567.55
503.987	10710.82
504.356	10789.01
504.724	10896.8
505.093	10873.08
505.462	10984.26
505.83	11073.75
506.199	11165.72
506.567	11289.79
506.936	11331.14
507.304	11471.93
507.672	11489.78
508.041	11631.7
508.409	11736.78
508.777	11786.05
509.145	11810.9
509.514	11882.99
509.882	11966.38
510.25	12007.96
510.618	12040.5
510.986	12049.32
511.354	12263.77
511.722	12263.1
512.09	12449.08
512.458	12386.93
512.826	12489.53
513.193	12521.85
513.561	12567.04
513.929	12628.74
514.297	12659.02
514.664	12779.01
515.032	12785.57
515.4	12883.19
515.767	12898.56
516.135	12982.85
516.502	12879.8
516.869	13072.57
517.237	13073.02
517.604	12995.28
517.972	13231.43
518.339	13131.55
518.706	13192.79
519.073	13186.46
519.44	13196.63
519.808	13294.48
520.175	13264.2
520.542	13388.49
520.909	13476.85
521.276	13386.46
521.643	13506.9
522.009	13556.85
522.376	13620.8
522.743	13621.93
523.11	13749.38
523.477	13888.59
523.843	13861.25
524.21	13938.98
524.577	13967.91
524.943	13956.84
525.31	14043.39
525.676	14004.52
526.043	14127
526.409	14050.62
526.776	14145.31
527.142	14117.06
527.508	14143.5
527.874	14271.86
528.241	14222.14
528.607	14239.09
528.973	14292.42
529.339	14224.63
529.705	14273.21
530.071	14349.59
530.437	14370.61
530.803	14319.09
531.169	14330.61
531.535	14329.03
531.901	14323.61
532.267	14332.19
532.632	14316.37
532.998	14268.01
533.364	14368.58
533.73	14358.18
534.095	14373.77
534.461	14319.31
534.826	14349.82
535.192	14278.64
535.557	14420.78
535.923	14300.33
536.288	14238.18
536.653	14315.47
537.019	14273.89
537.384	14223.27
537.749	14163.61
538.114	14231.41
538.479	14120.9
538.845	14130.62
539.21	14074.8
539.575	14025.99
539.94	14161.12
540.305	14146.44
540.67	14046.33
541.034	13993.45
541.399	14015.82
541.764	14028.47
542.129	13967.68
542.494	13928.81
542.858	13925.42
543.223	13827.8
543.587	13851.75
543.952	13813.34
544.316	13807.46
544.681	13749.84
545.045	13738.31
545.41	13827.12
545.774	13727.24
546.138	13690.18
546.503	13669.61
546.867	13669.84
547.231	13658.31
547.595	13624.64
547.959	13580.12
548.324	13503.29
548.688	13447.02
549.052	13441.14
549.416	13433.01
549.779	13411.09
550.143	13409.51
550.507	13304.88
550.871	13309.62
551.235	13328.38
551.599	13360.92
551.962	13249.96
552.326	13241.37
552.689	13228.49
553.053	13139.68
553.417	13170.19
553.78	13182.17
554.143	13134.49
554.507	13169.74
554.87	13073.7
555.234	13204.09
555.597	13143.52
555.96	13030.53
556.323	13065.11
556.686	12989.18
557.05	13117.76
557.413	13042.28
557.776	13049.52
558.139	13112.56
558.502	13063.53
558.865	13015.17
559.228	13016.97
559.59	13027.6
559.953	13021.27
560.316	13134.03
560.679	13080.93
561.041	13071.44
561.404	13114.6
561.767	13108.27
562.129	13108.27
562.492	13113.02
562.854	13122.51
563.217	13096.29
563.579	13066.46
563.941	13199.57
564.304	13212.22
564.666	13212.68
565.028	13142.39
565.39	13210.42
565.753	13207.7
566.115	13176.52
566.477	13244.99
566.839	13257.19
567.201	13304.42
567.563	13282.73
567.925	13312.11
568.287	13268.94
568.648	13384.2
569.01	13367.47
569.372	13425.78
569.734	13271.88
570.095	13428.26
570.457	13493.35
570.819	13462.61
571.18	13400.69
571.542	13492.22
571.903	13423.74
572.265	13543.06
572.626	13447.7
572.987	13494.25
573.349	13489.96
573.71	13579.45
574.071	13503.29
574.432	13589.61
574.794	13597.75
575.155	13564.08
575.516	13516.4
575.877	13568.37
576.238	13539.45
576.599	13603.63
576.96	13651.99
577.32	13548.26
577.681	13605.89
578.042	13647.47
578.403	13578.32
578.763	13675.71
579.124	13654.47
579.485	13746.9
579.845	13603.4
580.206	13622.38
580.566	13637.97
580.927	13634.13
581.287	13704.41
581.648	13617.18
582.008	13727.69
582.368	13698.99
582.728	13633
583.089	13639.33
583.449	13607.47
583.809	13579.45
584.169	13652.89
584.529	13549.16
584.889	13655.83
585.249	13569.73
585.609	13578.99
585.969	13633.68
586.329	13620.8
586.688	13563.4
587.048	13572.44
587.408	13528.83
587.768	13502.16
588.127	13419.9
588.487	13466.45
588.846	13512.55
589.206	13473.91
589.565	13510.29
589.925	13478.66
590.284	13446.12
590.643	13498.09
591.003	13504.19
591.362	13544.87
591.721	13459.45
592.08	13443.86
592.44	13470.97
592.799	13466.91
593.158	13453.35
593.517	13451.99
593.876	13420.35
594.235	13405.89
594.593	13411.99
594.952	13400.24
595.311	13350.07
595.67	13310.75
596.029	13416.96
596.387	13429.84
596.746	13456.51
597.104	13387.59
597.463	13339
597.822	13368.83
598.18	13360.02
598.538	13345.33
598.897	13345.1
599.255	13266.46
599.613	13521.82
599.972	13301.26
600.33	13444.53
600.688	13315.27
601.046	13336.29
601.404	13410.86
601.762	13336.74
602.12	13493.57
602.478	13420.13
602.836	13353.69
603.194	13314.37
603.552	13330.41
603.91	13329.51
604.268	13416.96
604.625	13361.82
604.983	13340.81
605.341	13253.13
605.698	13315.5
606.056	13413.12
606.413	13302.39
606.771	13383.07
607.128	13382.84
607.485	13317.08
607.843	13334.03
608.2	13495.38
608.557	13458.32
608.914	13374.93
609.272	13426.91
609.629	13438.66
609.986	13561.37
610.343	13383.07
610.7	13557.52
611.057	13497.41
611.414	13448.15
611.771	13488.37
612.127	13588.94
612.484	13560.24
612.841	13572.21
613.198	13571.54
613.554	13494.25
613.911	13561.37
614.267	13603.85
614.624	13540.8
614.98	13569.95
615.337	13588.71
615.693	13643.4
616.05	13581.25
616.406	13676.39
616.762	13604.08
617.118	13651.08
617.475	13624.87
617.831	13724.75
618.187	13686.11
618.543	13759.33
618.899	13835.03
619.255	13783.28
619.611	13729.5
619.967	13755.49
620.323	13770.17
620.678	13774.92
621.034	13786.67
621.39	13723.62
621.746	13695.6
622.101	13838.65
622.457	13785.99
622.812	13762.04
623.168	13878.42
623.523	13833
623.879	13858.76
624.234	13727.69
624.589	13829.83
624.945	13757.29
625.3	13791.87
625.655	13789.16
626.01	13842.26
626.365	13752.32
626.72	13768.82
627.075	13758.42
627.43	13809.04
627.785	13644.08
628.14	13742.15
628.495	13735.6
628.85	13768.82
629.205	13704.19
629.559	13775.82
629.914	13663.06
630.269	13738.54
630.623	13571.76
630.978	13707.35
631.332	13616.05
631.687	13660.8
632.041	13637.97
632.396	13667.13
632.75	13645.66
633.104	13710.97
633.459	13566.79
633.813	13576.73
634.167	13506
634.521	13532.44
634.875	13595.49
635.229	13533.57
635.583	13425.32
635.937	13540.58
636.291	13462.16
636.645	13530.63
636.999	13418.55
637.352	13374.25
637.706	13327.7
638.06	13409.96
638.413	13375.83
638.767	13304.65
639.121	13392.33
639.474	13254.93
639.828	13243.86
640.181	13261.26
640.534	13261.04
640.888	13217.19
641.241	13217.87
641.594	13224.88
641.947	13209.06
642.301	13218.32
642.654	13213.58
643.007	13202.05
643.36	13167.25
643.713	13223.97
644.066	13177.2
644.419	13125.22
644.771	13054.71
645.124	12982.62
645.477	12912.8
645.83	12895.17
646.182	12811.78
646.535	12828.73
646.888	12801.61
647.24	12669.86
647.593	12817.21
647.945	12755.06
648.298	12703.76
648.65	12704.44
649.002	12642.52
649.355	12685.01
649.707	12675.97
650.059	12834.61
650.411	12926.36
650.763	12991.66
651.115	13089.97
651.467	12960.7
651.819	13014.04
652.171	13024.88
652.523	13002.06
652.875	13025.56
653.227	12872.12
653.578	13019.01
653.93	12959.35
654.282	12970.65
654.633	12980.14
654.985	12951.21
655.337	12932
655.688	13010.87
656.039	13024.43
656.391	12920.25
656.742	12993.7
657.094	12968.61
657.445	12967.94
657.796	13003.19
658.147	12896.07
658.498	13051.32
658.849	13092.23
659.2	13038.44
659.551	12979.46
659.902	12971.1
660.253	12951.44
660.604	13002.06
660.955	12981.04
661.306	12981.72
661.656	13050.42
662.007	13054.26
662.358	12994.6
662.708	12994.15
663.059	13067.59
663.409	12901.95
663.76	13098.55
664.11	13012.23
664.461	13025.34
664.811	13046.8
665.161	12990.76
665.511	12984.21
665.862	13019.69
666.212	13038.67
666.562	13091.32
666.912	13057.88
667.262	13010.42
667.612	13086.8
667.962	13040.93
668.312	12996.41
668.662	13027.14
669.011	13020.82
669.361	12967.48
669.711	12944.89
670.06	13004.77
670.41	12990.31
670.76	13026.47
671.109	12994.15
671.459	12859.46
671.808	12964.09
672.157	12978.33
672.507	12842.52
672.856	12899.46
673.205	12909.18
673.554	12853.59
673.904	12911.44
674.253	13016.75
674.602	12939.24
674.951	12734.5
675.3	12613.59
675.649	12884.55
675.998	12880.71
676.346	12917.32
676.695	12793.7
677.044	12797.09
677.393	12773.14
677.741	12888.62
678.09	12788.28
678.438	12776.98
678.787	12790.99
679.135	12757.09
679.484	12769.52
679.832	12685.91
680.181	12655.4
680.529	12651.56
680.877	12649.3
681.225	12657.66
681.573	12671.67
681.922	12565.69
682.27	12512.13
682.618	12519.81
682.966	12581.96
683.314	12561.17
683.661	12514.39
684.009	12465.35
684.357	12332.02
684.705	12415.18
685.053	12372.7
685.4	12346.03
685.748	12283.43
686.095	12280.27
686.443	12311.68
686.79	12174.74
687.138	12211.12
687.485	12232.81
687.832	12125.47
688.18	12110.11
688.527	12106.04
688.874	12119.14
689.221	11989.2
689.568	12057.68
689.915	11961.41
690.262	11942.88
690.609	11976.78
690.956	11906.04
691.303	11843.9
691.65	11811.81
691.997	11782.43
692.344	11739.72
692.69	11743.11
693.037	11645.94
693.383	11550.35
693.73	11563
694.077	11483.68
694.423	11474.87
694.769	11447.52
695.116	11436.45
695.462	11377.47
695.808	11376.79
696.155	11337.92
696.501	11296.57
696.847	11287.75
697.193	11214.76
697.539	11160.98
697.885	11114.65
698.231	11123.46
698.577	11023.35
698.923	11067.87
699.269	11047.99
699.614	10877.82
699.96	10869.23
700.306	10918.72
700.651	10785.39
700.997	10816.13
701.342	10663.14
701.688	10757.82
702.033	10676.92
702.379	10686.19
702.724	10703.36
703.069	10609.35
703.415	10495.46
703.76	10594.66
704.105	10443.26
704.45	10503.82
704.795	10398.29
705.14	10392.18
705.485	10299.53
705.83	10291.85
706.175	10322.81
706.52	10194.9
706.865	10241.23
707.209	10182.02
707.554	10133.89
707.899	10199.2
708.243	10101.8
708.588	10190.38
708.932	10070.16
709.277	9990.39
709.621	9997.62
709.966	10002.59
710.31	9998.3
710.654	9878.53
710.998	9897.73
711.342	9915.13
711.687	9815.25
712.031	9739.77
712.375	9808.92
712.719	9733.67
713.063	9783.39
713.407	9773.22
713.75	9765.53
714.094	9708.13
714.438	9650.06
714.782	9649.83
715.125	9675.82
715.469	9682.6
715.812	9626.33
716.156	9499.55
716.499	9557.63
716.843	9582.94
717.186	9518.76
717.53	9478.99
717.873	9504.3
718.216	9459.1
718.559	9475.6
718.902	9369.39
719.246	9485.54
719.589	9373.23
719.932	9397.41
720.275	9390.85
720.617	9328.48
720.96	9391.08
721.303	9314.47
721.646	9416.62
721.989	9358.77
722.331	9367.13
722.674	9302.72
723.016	9342.27
723.359	9310.18
723.701	9381.59
724.044	9303.17
724.386	9232.89
724.729	9285.55
725.071	9207.13
725.413	9205.32
725.755	9213.91
726.097	9129.62
726.439	9190.63
726.782	9196.96
727.124	9241.71
727.465	9141.6
727.807	9130.07
728.149	9137.98
728.491	9115.83
728.833	9128.94
729.175	9146.12
729.516	9117.87
729.858	9165.78
730.199	9157.41
730.541	9077.19
730.882	9082.84
731.224	9135.04
731.565	9081.71
731.906	9113.57
732.248	9089.39
732.589	9124.65
732.93	9081.03
733.271	9131.88
733.612	9122.84
733.953	9101.6
734.294	9141.37
734.635	9070.19
734.976	9108.83
735.317	9087.81
735.658	9046.91
735.999	9025.44
736.339	9105.21
736.68	9170.52
737.021	9092.56
737.361	9031.99
737.702	9142.95
738.042	9114.93
738.383	9098.89
738.723	9098.43
739.063	9032.22
739.404	9200.8
739.744	9191.76
740.084	9114.03
740.424	9133.91
740.764	9166.45
741.104	9199
741.444	9225.44
741.784	9163.74
742.124	9194.25
742.464	9151.99
742.804	9251.65
743.143	9316.28
743.483	9328.94
743.823	9302.72
744.162	9304.98
744.502	9351.53
744.841	9357.18
745.181	9419.55
745.52	9435.15
745.86	9479.67
746.199	9422.49
746.538	9535.26
746.877	9574.35
747.216	9682.37
747.556	9651.86
747.895	9632.43
748.234	9768.47
748.573	9772.54
748.911	9845.98
749.25	9873.33
749.589	9945.87
749.928	10027.67
750.267	10184.96
750.605	10182.47
750.944	10205.75
751.283	10287.33
751.621	10356.03
751.96	10495.68
752.298	10528
752.636	10754.43
752.975	10735.68
753.313	10790.82
753.651	10994.88
753.989	10964.15
754.327	11152.62
754.666	11257.25
755.004	11357.13
755.342	11532.72
755.679	11613.62
756.017	11706.95
756.355	11921.41
756.693	11954.63
757.031	12129.31
757.368	12251.57
757.706	12390.1
758.044	12567.27
758.381	12698.11
758.719	12754.38
