Data from hue_80_FLMS001491_100.txt Node
Date: Mon Feb 06 15:24:06 GMT 2017
User: dcchb
Spectrometer: FLMS00149
Trigger mode: 0
Integration Time (sec): 2.000000E-2
Scans to average: 10
Electric dark correction enabled: true
Nonlinearity correction enabled: false
Boxcar width: 0
XAxis mode: Wavelengths
Number of Pixels in Spectrum: 2048
>>>>>Begin Spectral Data<<<<<
341.393	-14.45
341.776	-14.45
342.16	-14.45
342.543	-49.48
342.927	-69.59
343.31	-53.09
343.693	-71.4
344.077	-71.17
344.46	-72.3
344.843	-43.37
345.226	-33.43
345.61	-39.98
345.993	-16.03
346.376	-5.41
346.759	-0.66
347.142	13.57
347.525	38.21
347.908	71.42
348.291	76.17
348.674	99.45
349.057	108.03
349.44	131.99
349.823	143.06
350.206	164.98
350.588	199.33
350.971	207.69
351.354	230.06
351.737	235.49
352.119	248.37
352.502	277.75
352.884	266.45
353.267	292.89
353.65	292.21
354.032	301.25
354.414	299.89
354.797	320.01
355.179	296.05
355.562	322.49
355.944	317.97
356.326	327.01
356.709	332.43
357.091	347.35
357.473	362.04
357.855	347.35
358.238	348.71
358.62	341.25
359.002	331.76
359.384	359.33
359.766	333.11
360.148	339.89
360.53	347.58
360.912	348.25
361.294	348.25
361.676	329.27
362.057	338.54
362.439	326.79
362.821	333.79
363.203	318.42
363.584	326.56
363.966	297.41
364.348	318.88
364.729	308.48
365.111	320.01
365.493	327.69
365.874	316.62
366.256	313.68
366.637	319.1
367.019	318.65
367.4	315.71
367.781	329.72
368.163	309.61
368.544	314.58
368.925	305.54
369.306	308.48
369.688	310.29
370.069	325.66
370.45	299.44
370.831	328.82
371.212	323.62
371.593	314.36
371.974	327.92
372.355	314.36
372.736	303.28
373.117	324.53
373.498	329.05
373.879	304.86
374.26	323.62
374.641	323.62
375.021	306.45
375.402	313.45
375.783	315.71
376.163	315.26
376.544	339.44
376.925	334.69
377.305	341.02
377.686	349.16
378.066	314.36
378.447	326.56
378.827	334.92
379.208	303.73
379.588	332.43
379.968	346.22
380.349	327.24
380.729	338.31
381.109	321.59
381.489	326.56
381.87	330.17
382.25	350.51
382.63	327.69
383.01	349.38
383.39	350.06
383.77	350.97
384.15	335.15
384.53	334.24
384.91	333.79
385.29	359.78
385.67	366.56
386.049	359.1
386.429	368.82
386.809	358.87
387.189	353.68
387.568	353.23
387.948	344.86
388.328	362.94
388.707	339.44
389.087	353.9
389.466	353.68
389.846	356.39
390.225	372.89
390.605	363.39
390.984	361.81
391.363	386.22
391.743	367.91
392.122	369.5
392.501	371.3
392.881	375.6
393.26	375.15
393.639	377.63
394.018	389.83
394.397	366.11
394.776	395.48
395.155	364.75
395.534	380.12
395.913	381.25
396.292	399.1
396.671	407.91
397.05	409.72
397.429	428.48
397.808	369.5
398.186	380.34
398.565	409.95
398.944	413.79
399.323	408.59
399.701	408.36
400.08	415.37
400.458	430.29
400.837	393.22
401.215	406.33
401.594	416.05
401.972	409.95
402.351	426.44
402.729	412.66
403.107	399.78
403.486	421.92
403.864	416.73
404.242	444.52
404.62	420.79
404.999	417.86
405.377	423.51
405.755	425.31
406.133	424.86
406.511	420.79
406.889	441.58
407.267	442.04
407.645	452.66
408.023	458.08
408.401	451.75
408.779	466.89
409.156	472.54
409.534	442.04
409.912	435.03
410.29	453.79
410.667	465.31
411.045	458.08
411.422	471.19
411.8	486.33
412.178	473.67
412.555	477.74
412.933	501.02
413.31	495.14
413.687	488.36
414.065	495.82
414.442	474.8
414.819	498.98
415.197	500.34
415.574	516.16
415.951	502.37
416.328	530.85
416.705	523.16
417.082	515.48
417.46	522.49
417.837	525.88
418.214	532.2
418.591	513.22
418.967	516.38
419.344	519.77
419.721	518.19
420.098	539.89
420.475	548.93
420.852	542.15
421.228	544.41
421.605	549.38
421.982	563.39
422.358	558.87
422.735	535.59
423.111	572.43
423.488	562.71
423.864	575.59
424.241	567.91
424.617	588.25
424.994	583.28
425.37	603.84
425.746	588.7
426.123	600.22
426.499	599.77
426.875	600
427.251	602.03
427.627	608.13
428.003	624.18
428.379	624.18
428.756	628.47
429.132	639.55
429.507	654.46
429.883	656.72
430.259	653.56
430.635	665.31
431.011	673.22
431.387	698.75
431.763	668.25
432.138	698.98
432.514	697.85
432.89	680.9
433.265	708.7
433.641	707.11
434.016	738.98
434.392	702.14
434.767	717.28
435.143	725.87
435.518	737.17
435.894	752.76
436.269	754.57
436.644	758.86
437.02	768.81
437.395	759.32
437.77	757.51
438.145	785.76
438.52	793.21
438.895	785.53
439.271	811.07
439.646	796.83
440.021	789.82
440.395	817.17
440.77	808.13
441.145	825.76
441.52	820.56
441.895	797.06
442.27	835.02
442.645	808.81
443.019	865.75
443.394	830.27
443.769	873.44
444.143	876.6
444.518	882.48
444.892	862.36
445.267	869.37
445.641	878.86
446.016	880.89
446.39	916.37
446.764	901.69
447.139	903.95
447.513	910.27
447.887	907.56
448.262	907.79
448.636	922.25
449.01	924.28
449.384	912.31
449.758	945.3
450.132	947.11
450.506	949.82
450.88	995.24
451.254	967.67
451.628	960.67
452.002	990.27
452.376	1009.25
452.75	1007.22
453.123	1011.74
453.497	1011.06
453.871	1025.07
454.244	1035.02
454.618	1051.74
454.992	1068.69
455.365	1056.26
455.739	1093.54
456.112	1073.88
456.486	1122.47
456.859	1111.17
457.232	1148.01
457.606	1118.63
457.979	1143.94
458.352	1144.16
458.725	1183.71
459.099	1192.53
459.472	1211.51
459.845	1213.99
460.218	1229.36
460.591	1239.76
460.964	1250.6
461.337	1263.48
461.71	1306.65
462.083	1298.29
462.456	1305.06
462.829	1318.4
463.201	1332.63
463.574	1345.97
463.947	1383.25
464.32	1427.55
464.692	1428
465.065	1442.69
465.438	1468.9
465.81	1461.44
466.183	1494.89
466.555	1537.37
466.928	1566.07
467.3	1538.73
467.672	1557.04
468.045	1587.32
468.417	1648.11
468.789	1640.87
469.161	1666.86
469.534	1705.05
469.906	1761.32
470.278	1740.31
470.65	1769.91
471.022	1840.87
471.394	1857.59
471.766	1867.76
472.138	1907.99
472.51	1973.3
472.882	2005.16
473.253	2006.06
473.625	2060.3
473.997	2141.43
474.369	2142.56
474.74	2209.45
475.112	2236.57
475.484	2310.01
475.855	2340.97
476.227	2405.83
476.598	2485.82
476.97	2510
477.341	2559.95
477.713	2637.23
478.084	2692.15
478.455	2760.85
478.827	2838.13
479.198	2923.78
479.569	2966.94
479.94	3043.32
480.311	3139.14
480.682	3234.73
481.053	3350.89
481.424	3392.47
481.795	3516.53
482.166	3574.84
482.537	3720.59
482.908	3795.62
483.279	3863.19
483.65	3977.99
484.021	4075.39
484.391	4179.11
484.762	4273.35
485.133	4347.02
485.503	4466.34
485.874	4631.3
486.244	4718.99
486.615	4843.95
486.985	4951.97
487.356	5120.56
487.726	5223.38
488.097	5345.41
488.467	5436.03
488.837	5664.27
489.207	5776.36
489.578	5933.64
489.948	5974.32
490.318	6172.28
490.688	6253.86
491.058	6452.95
491.428	6609.11
491.798	6682.55
492.168	6918.25
492.538	7001.86
492.908	7200.5
493.278	7300.16
493.648	7382.19
494.017	7570.44
494.387	7710.09
494.757	7828.73
495.126	7987.37
495.496	8105.79
495.866	8197.09
496.235	8367.48
496.605	8492.45
496.974	8618.77
497.344	8808.14
497.713	8854.02
498.082	9095.37
498.452	9221.47
498.821	9301.24
499.19	9424.4
499.559	9612.19
499.928	9667.33
500.298	9811.96
500.667	9938.74
501.036	9972.63
501.405	10159.75
501.774	10230.48
502.143	10435.22
502.512	10526.74
502.88	10611.26
503.249	10714.53
503.618	10849.22
503.987	10947.07
504.356	11071.81
504.724	11215.31
505.093	11196.1
505.462	11336.67
505.83	11437.91
506.199	11587.73
506.567	11789.76
506.936	11755.86
507.304	11937.33
507.672	12042.86
508.041	12109.98
508.409	12210.09
508.777	12348.84
509.145	12463.64
509.514	12436.07
509.882	12601.94
510.25	12641.72
510.618	12791.09
510.986	12821.15
511.354	13014.81
511.722	13106.79
512.09	13161.7
512.458	13251.87
512.826	13362.37
513.193	13368.7
513.561	13454.58
513.929	13618.87
514.297	13704.74
514.664	13813.66
515.032	13860.67
515.4	13905.86
515.767	14038.52
516.135	14050.04
516.502	14002.58
516.869	14244.16
517.237	14312.18
517.604	14308.79
517.972	14422.69
518.339	14470.59
518.706	14518.73
519.073	14622.45
519.44	14665.17
519.808	14795.33
520.175	14773.64
520.542	14977.93
520.909	15073.29
521.276	15070.35
521.643	15207.07
522.009	15262.21
522.376	15279.84
522.743	15429.89
523.11	15549.89
523.477	15676.89
523.843	15737.23
524.21	15841.41
524.577	15815.64
524.943	15901.06
525.31	15944
525.676	16129.08
526.043	16162.3
526.409	16206.82
526.776	16393.48
527.142	16212.47
527.508	16390.32
527.874	16529.3
528.241	16560.26
528.607	16624.21
528.973	16673.02
529.339	16628.96
529.705	16782.85
530.071	16878.67
530.437	16886.12
530.803	16933.81
531.169	16953.01
531.535	17016.29
531.901	17024.2
532.267	17035.05
532.632	17088.38
532.998	17051.54
533.364	17165.66
533.73	17229.17
534.095	17318.43
534.461	17233.69
534.826	17380.35
535.192	17333.8
535.557	17515.49
535.923	17402.72
536.288	17378.31
536.653	17394.59
537.019	17355.49
537.384	17393.46
537.749	17440.01
538.114	17515.49
538.479	17417.41
538.845	17416.96
539.21	17435.26
539.575	17423.74
539.94	17499.22
540.305	17485.88
540.67	17461.02
541.034	17419.44
541.399	17572.89
541.764	17458.76
542.129	17538.31
542.494	17555.48
542.858	17538.31
543.223	17558.42
543.587	17522.04
543.952	17498.99
544.316	17464.19
544.681	17433
545.045	17539.21
545.41	17485.43
545.774	17594.35
546.138	17499.67
546.503	17534.92
546.867	17522.27
547.231	17564.07
547.595	17611.75
547.959	17469.84
548.324	17543.96
548.688	17504.41
549.052	17575.82
549.416	17492.21
549.779	17498.76
550.143	17445.43
550.507	17480.01
550.871	17528.14
551.235	17414.02
551.599	17531.3
551.962	17573.34
552.326	17558.65
552.689	17670.06
553.053	17512.77
553.417	17573.79
553.78	17753.67
554.143	17492.66
554.507	17606.56
554.87	17629.61
555.234	17801.81
555.597	17588.7
555.96	17659.21
556.323	17763.39
556.686	17693.33
557.05	17737.17
557.413	17674.8
557.776	17757.51
558.139	17829.38
558.502	17791.18
558.865	17706.22
559.228	17860.11
559.59	17811.75
559.953	17804.74
560.316	18030.27
560.679	17953.89
561.041	18096.26
561.404	18099.2
561.767	18087.67
562.129	18133.1
562.492	18261
562.854	18120.89
563.217	18166.32
563.579	18230.27
563.941	18296.71
564.304	18205.19
564.666	18369.93
565.028	18367.67
565.39	18402.69
565.753	18420.32
566.115	18414.45
566.477	18503.71
566.839	18580.99
567.201	18580.77
567.563	18626.19
567.925	18697.83
568.287	18756.81
568.648	18719.75
569.01	18739.86
569.372	18855.79
569.734	18822.57
570.095	18927.2
570.457	18920.19
570.819	18983.24
571.18	18906.86
571.542	18897.6
571.903	19046.74
572.265	19020.98
572.626	19078.83
572.987	19154.31
573.349	19189.11
573.71	19186.63
574.071	19200.19
574.432	19329.45
574.794	19301.88
575.155	19303.91
575.516	19217.14
575.877	19328.55
576.238	19401.76
576.599	19435.44
576.96	19412.84
577.32	19405.61
577.681	19538.71
578.042	19508.43
578.403	19453.74
578.763	19541.42
579.124	19377.58
579.485	19519.95
579.845	19555.88
580.206	19442.89
580.566	19533.06
580.927	19497.81
581.287	19566.05
581.648	19594.3
582.008	19578.48
582.368	19476.79
582.728	19496
583.089	19479.5
583.449	19470.91
583.809	19455.32
584.169	19547.3
584.529	19401.54
584.889	19590.69
585.249	19496.68
585.609	19359.73
585.969	19559.5
586.329	19424.81
586.688	19440.86
587.048	19448.77
587.408	19453.29
587.768	19398.83
588.127	19492.61
588.487	19383.91
588.846	19637.69
589.206	19399.05
589.565	19443.34
589.925	19427.98
590.284	19363.8
590.643	19497.58
591.003	19419.16
591.362	19451.25
591.721	19491.03
592.08	19444.93
592.44	19411.26
592.799	19466.85
593.158	19484.25
593.517	19435.21
593.876	19390.69
594.235	19316.12
594.593	19350.69
594.952	19461.65
595.311	19401.54
595.67	19350.01
596.029	19462.55
596.387	19416.23
596.746	19423.46
597.104	19362.22
597.463	19377.36
597.822	19439.05
598.18	19350.01
598.538	19304.37
598.897	19413.97
599.255	19323.57
599.613	19542.78
599.972	19422.33
600.33	19469.56
600.688	19356.57
601.046	19415.1
601.404	19579.16
601.762	19413.51
602.12	19507.75
602.478	19492.38
602.836	19532.16
603.194	19446.28
603.552	19524.7
603.91	19325.16
604.268	19444.25
604.625	19379.62
604.983	19416
605.341	19427.75
605.698	19431.14
606.056	19539.84
606.413	19521.99
606.771	19571.7
607.128	19527.41
607.485	19477.69
607.843	19523.79
608.2	19621.19
608.557	19682.66
608.914	19531.7
609.272	19813.96
609.629	19685.37
609.986	19731.47
610.343	19670.01
610.7	19880.85
611.057	19787.97
611.414	19825.26
611.771	19802.88
612.127	19909.32
612.484	19856.22
612.841	19918.59
613.198	19863.67
613.554	19848.98
613.911	20001.75
614.267	19915.2
614.624	19910
614.98	19867.29
615.337	19989.09
615.693	20000.39
616.05	19849.66
616.406	20065.7
616.762	19945.93
617.118	19989.32
617.475	19927.17
617.831	20099.82
618.187	20109.99
618.543	20122.2
618.899	20251.69
619.255	20173.27
619.611	20156.09
619.967	20277.22
620.323	20251.46
620.678	20198.35
621.034	20130.11
621.39	20229.99
621.746	20108.86
622.101	20375.07
622.457	20213.72
622.812	20255.98
623.168	20324.68
623.523	20296.43
623.879	20323.1
624.234	20141.18
624.589	20245.58
624.945	20156.32
625.3	20263.21
625.655	20153.83
626.01	20219.6
626.365	20298.01
626.72	20262.53
627.075	20234.06
627.43	20192.48
627.785	20197.68
628.14	20198.35
628.495	20327.84
628.85	20167.85
629.205	20205.36
629.559	20134.63
629.914	20164.46
630.269	20098.92
630.623	20199.03
630.978	19998.36
631.332	20216.88
631.687	20221.63
632.041	20099.37
632.396	20160.61
632.75	19998.13
633.104	20129.65
633.459	20017.57
633.813	20052.82
634.167	19983.67
634.521	20022.76
634.875	19975.99
635.229	19953.61
635.583	19920.17
635.937	19817.35
636.291	19840.62
636.645	19900.96
636.999	19792.71
637.352	19885.37
637.706	19721.76
638.06	19827.97
638.413	19794.52
638.767	19762.88
639.121	19733.28
639.474	19564.25
639.828	19648.99
640.181	19619.61
640.534	19686.5
640.888	19637.01
641.241	19477.24
641.594	19574.64
641.947	19610.35
642.301	19627.75
642.654	19592.27
643.007	19608.31
643.36	19547.97
643.713	19538.94
644.066	19569.22
644.419	19472.27
644.771	19324.48
645.124	19167.87
645.477	19192.96
645.83	18978.05
646.182	19004.26
646.535	18950.93
646.888	18989.57
647.24	18799.75
647.593	18895.34
647.945	18888.78
648.298	18908.22
648.65	18813.76
649.002	18705.51
649.355	18813.3
649.707	18748.9
650.059	18847.43
650.411	19051.72
650.763	19076.35
651.115	19317.25
651.467	19236.57
651.819	19215.1
652.171	19323.57
652.523	19158.15
652.875	19270.92
653.227	19225.72
653.578	19257.59
653.93	19241.99
654.282	19115.67
654.633	19183.01
654.985	19237.7
655.337	19155.22
655.688	19253.75
656.039	19222.11
656.391	19136.46
656.742	19145.95
657.094	19199.06
657.445	19201.09
657.796	19180.98
658.147	19177.59
658.498	19139.62
658.849	19183.46
659.2	19224.82
659.551	19108.66
659.902	19264.59
660.253	19183.01
660.604	19256.68
660.955	19081.32
661.306	19258.72
661.656	19169.68
662.007	19231.82
662.358	19224.82
662.708	19245.38
663.059	19241.77
663.409	19159.06
663.76	19247.64
664.11	19246.74
664.461	19312.27
664.811	19156.57
665.161	19266.4
665.511	19184.82
665.862	19328.09
666.212	19352.73
666.562	19344.82
666.912	19216.91
667.262	19279.28
667.612	19232.73
667.962	19138.27
668.312	19097.59
668.662	19224.14
669.011	19170.81
669.361	19172.17
669.711	19154.31
670.06	19199.06
670.41	19123.81
670.76	19038.61
671.109	19265.27
671.459	19214.88
671.808	19106.86
672.157	19130.81
672.507	19132.84
672.856	19010.36
673.205	19086.52
673.554	19095.33
673.904	19078.38
674.253	19004.26
674.602	19143.01
674.951	18797.94
675.3	18640.43
675.649	19035.45
675.998	18941.44
676.346	18950.48
676.695	19053.07
677.044	18923.36
677.393	18941.66
677.741	18926.3
678.09	18860.54
678.438	18792.74
678.787	18814.21
679.135	18849.91
679.484	18704.61
679.832	18693.08
680.181	18601.78
680.529	18660.09
680.877	18593.42
681.225	18633.65
681.573	18725.62
681.922	18521.11
682.27	18528.57
682.618	18553.88
682.966	18394.56
683.314	18530.6
683.661	18432.75
684.009	18341.23
684.357	18360.21
684.705	18296.03
685.053	18239.76
685.4	18314.79
685.748	18155.92
686.095	18211.74
686.443	18115.7
686.79	18139.42
687.138	18127.9
687.485	18025.3
687.832	17985.98
688.18	17956.83
688.527	17877.74
688.874	17800.45
689.221	17793.44
689.568	17828.7
689.915	17785.99
690.262	17730.62
690.609	17656.05
690.956	17623.28
691.303	17576.95
691.65	17489.72
691.997	17505.54
692.344	17351.2
692.69	17257.19
693.037	17302.84
693.383	17157.98
693.73	17158.88
694.077	16995.05
694.423	17075.05
694.769	17041.6
695.116	17039.11
695.462	16919.57
695.808	16816.07
696.155	16884.32
696.501	16668.28
696.847	16708.95
697.193	16536.3
697.539	16666.24
697.885	16505.34
698.231	16422.63
698.577	16387.83
698.923	16459.24
699.269	16326.82
699.614	16208.63
699.96	16093.38
700.306	16179.7
700.651	16079.82
700.997	15968.18
701.342	16022.87
701.688	15913.72
702.033	15941.06
702.379	15922.08
702.724	15803.21
703.069	15781.75
703.415	15644.8
703.76	15651.81
704.105	15624.01
704.45	15566.16
704.795	15406.61
705.14	15490.45
705.485	15431.7
705.83	15359.84
706.175	15325.71
706.52	15294.98
706.865	15218.6
707.209	15236.9
707.554	15102.22
707.899	15170.91
708.243	15031.94
708.588	14989
708.932	14961.88
709.277	14886.63
709.621	14841.21
709.966	14833.07
710.31	14807.53
710.654	14712.17
710.998	14710.36
711.342	14792.39
711.687	14712.85
712.031	14585.85
712.375	14512.85
712.719	14563.92
713.063	14483.93
713.407	14570.7
713.75	14435.11
714.094	14528.67
714.438	14404.83
714.782	14430.14
715.125	14351.05
715.469	14254.78
715.812	14328.45
716.156	14139.08
716.499	14251.62
716.843	14234.44
717.186	14196.25
717.53	14223.37
717.873	14175.91
718.216	14158.96
718.559	14068.57
718.902	13987.67
719.246	14027.44
719.589	13980.44
719.932	13922.59
720.275	13972.75
720.617	13949.25
720.96	13903.83
721.303	13837.84
721.646	13988.8
721.989	13849.59
722.331	13897.95
722.674	13816.15
723.016	13841.46
723.359	13899.31
723.701	13838.75
724.044	13828.35
724.386	13688.24
724.729	13669.49
725.071	13706.09
725.413	13642.82
725.755	13711.07
726.097	13633.78
726.439	13570.05
726.782	13592.88
727.124	13660.22
727.465	13582.48
727.807	13633.55
728.149	13576.15
728.491	13489.15
728.833	13557.85
729.175	13541.58
729.516	13466.33
729.858	13549.04
730.199	13527.79
730.541	13461.81
730.882	13477.17
731.224	13515.14
731.565	13427.46
731.906	13418.87
732.248	13449.83
732.589	13435.37
732.93	13354.47
733.271	13403.96
733.612	13425.65
733.953	13419.77
734.294	13469.72
734.635	13434.92
734.976	13422.26
735.317	13382.71
735.658	13395.37
735.999	13435.37
736.339	13411.41
736.68	13427.23
737.021	13443.95
737.361	13339.55
737.702	13440.34
738.042	13338.87
738.383	13382.71
738.723	13379.1
739.063	13367.35
739.404	13351.53
739.744	13381.13
740.084	13334.58
740.424	13447.12
740.764	13341.81
741.104	13462.03
741.444	13373
741.784	13473.78
742.124	13488.25
742.464	13457.51
742.804	13561.92
743.143	13518.98
743.483	13502.48
743.823	13486.89
744.162	13556.04
744.502	13561.24
744.841	13603.27
745.181	13710.39
745.52	13650.05
745.86	13687.11
746.199	13714.23
746.538	13758.75
746.877	13897.5
747.216	13898.18
747.556	13838.07
747.895	13929.82
748.234	13944.05
748.573	13943.6
748.911	13976.14
749.25	14080.1
749.589	14048.46
749.928	14158.29
750.267	14186.76
750.605	14220.66
750.944	14400.77
751.283	14410.03
751.621	14532.97
751.96	14443.93
752.298	14625.39
752.636	14681.89
752.975	14883.01
753.313	14845.95
753.651	14973.86
753.989	15027.19
754.327	15140.18
754.666	15190.58
755.004	15315.54
755.342	15453.85
755.679	15583.56
756.017	15652.71
