Data from hue_120_FLMS001491_00064.txt Node
Date: Tue Feb 07 16:59:49 GMT 2017
User: dcchb
Spectrometer: FLMS00149
Trigger mode: 0
Integration Time (sec): 2.000000E-2
Scans to average: 10
Electric dark correction enabled: true
Nonlinearity correction enabled: false
Boxcar width: 0
XAxis mode: Wavelengths
Number of Pixels in Spectrum: 2048
>>>>>Begin Spectral Data<<<<<
341.393	-6.2
341.776	-6.2
342.16	-6.2
342.543	-77.38
342.927	-58.4
343.31	-59.76
343.693	-74
344.077	-88.46
344.46	-64.73
344.843	-36.71
345.226	-23.15
345.61	-26.99
345.993	-38.74
346.376	-7.1
346.759	-10.04
347.142	23.63
347.525	59.56
347.908	78.32
348.291	67.24
348.674	95.49
349.057	105.44
349.44	135.49
349.823	153.12
350.206	173.46
350.588	196.05
350.971	221.59
351.354	228.37
351.737	254.13
352.119	239.67
352.502	274.47
352.884	286
353.267	288.48
353.65	304.3
354.032	315.6
354.414	316.5
354.797	330.06
355.179	306.56
355.562	315.83
355.944	340.01
356.326	334.13
356.709	320.57
357.091	342.72
357.473	343.85
357.855	336.16
358.238	348.14
358.62	354.47
359.002	348.82
359.384	350.85
359.766	338.2
360.148	354.02
360.53	352.89
360.912	349.27
361.294	330.06
361.676	344.3
362.057	338.42
362.439	337.75
362.821	339.33
363.203	334.36
363.584	334.36
363.966	344.52
364.348	322.15
364.729	329.38
365.111	335.94
365.493	334.36
365.874	346.33
366.256	313.34
366.637	332.1
367.019	329.61
367.4	323.06
367.781	334.36
368.163	328.93
368.544	304.3
368.925	320.12
369.306	353.11
369.688	341.59
370.069	323.51
370.45	309.95
370.831	312.66
371.212	335.71
371.593	303.62
371.974	325.09
372.355	339.1
372.736	316.73
373.117	315.37
373.498	326.67
373.879	330.74
374.26	316.95
374.641	309.95
375.021	327.58
375.402	361.02
375.783	331.87
376.163	354.69
376.544	356.73
376.925	347.24
377.305	323.28
377.686	326.45
378.066	318.76
378.447	356.28
378.827	335.03
379.208	333.45
379.588	345.2
379.968	337.52
380.349	339.1
380.729	329.16
381.109	356.95
381.489	353.56
381.87	365.77
382.25	347.01
382.63	352.21
383.01	358.76
383.39	355.6
383.77	350.4
384.15	354.47
384.53	381.36
384.91	375.71
385.29	360.12
385.67	354.47
386.049	361.93
386.429	350.63
386.809	365.99
387.189	374.58
387.568	370.29
387.948	358.54
388.328	358.99
388.707	384.3
389.087	374.35
389.466	375.03
389.846	365.09
390.225	370.06
390.605	393.56
390.984	382.26
391.363	383.39
391.743	373.68
392.122	372.77
392.501	386.56
392.881	397.18
393.26	406.67
393.639	403.73
394.018	413.68
394.397	395.6
394.776	404.41
395.155	393.34
395.534	398.99
395.913	411.42
396.292	424.52
396.671	414.13
397.05	425.2
397.429	419.78
397.808	401.47
398.186	431.75
398.565	402.38
398.944	416.61
399.323	420.68
399.701	430.85
400.08	410.29
400.458	407.57
400.837	440.57
401.215	448.25
401.594	420.23
401.972	412.55
402.351	432.21
402.729	444.41
403.107	431.3
403.486	427.46
403.864	435.82
404.242	460.68
404.62	439.66
404.999	438.53
405.377	442.15
405.755	455.26
406.133	443.73
406.511	451.19
406.889	457.52
407.267	475.59
407.645	471.98
408.023	462.26
408.401	494.8
408.779	471.3
409.156	481.47
409.534	483.96
409.912	506.1
410.29	499.32
410.667	491.87
411.045	481.47
411.422	521.24
411.8	527.57
412.178	530.96
412.555	517.4
412.933	538.19
413.31	526.89
413.687	503.39
414.065	518.98
414.442	552.43
414.819	519.21
415.197	536.84
415.574	547.01
415.951	557.63
416.328	545.2
416.705	532.09
417.082	549.72
417.46	551.53
417.837	570.73
418.214	575.25
418.591	593.11
418.967	579.55
419.344	572.77
419.721	589.94
420.098	575.25
420.475	604.41
420.852	587.23
421.228	599.43
421.605	611.41
421.982	603.28
422.358	601.24
422.735	620.22
423.111	635.82
423.488	624.74
423.864	625.87
424.241	649.83
424.617	622.03
424.994	651.64
425.37	648.25
425.746	656.61
426.123	664.97
426.499	663.16
426.875	673.78
427.251	666.32
427.627	660.9
428.003	691.86
428.379	695.25
428.756	685.53
429.132	703.61
429.507	700.67
429.883	735.48
430.259	706.55
430.635	708.58
431.011	707.91
431.387	734.35
431.763	742.93
432.138	749.03
432.514	727.57
432.89	752.88
433.265	770.95
433.641	752.65
434.016	774.8
434.392	803.72
434.767	802.59
435.143	819.77
435.518	809.82
435.894	833.33
436.269	816.6
436.644	821.57
437.02	814.57
437.395	853.66
437.77	865.42
438.145	871.52
438.52	886.88
438.895	884.17
439.271	849.14
439.646	908.58
440.021	904.74
440.395	889.37
440.77	888.92
441.145	925.07
441.52	924.4
441.895	909.03
442.27	933.44
442.645	924.85
443.019	951.97
443.394	927.11
443.769	945.64
444.143	951.74
444.518	939.09
444.892	949.48
445.267	971.85
445.641	955.36
446.016	980.67
446.39	979.31
446.764	989.48
447.139	1015.24
447.513	1014.34
447.887	1011.4
448.262	1019.76
448.636	1034.45
449.01	1036.48
449.384	1039.87
449.758	1043.72
450.132	1085.75
450.506	1080.78
450.88	1089.59
451.254	1060.66
451.628	1064.28
452.002	1097.27
452.376	1137.72
452.75	1116.03
453.123	1135.92
453.497	1158.97
453.871	1175.92
454.244	1197.61
454.618	1175.69
454.992	1168.46
455.365	1176.59
455.739	1239.87
456.112	1241.68
456.486	1259.98
456.859	1249.36
457.232	1281.45
457.606	1299.08
457.979	1298.17
458.352	1321.45
458.725	1318.51
459.099	1378.17
459.472	1386.76
459.845	1409.36
460.218	1409.58
460.591	1426.98
460.964	1416.14
461.337	1472.63
461.71	1490.94
462.083	1480.31
462.456	1483.03
462.829	1502.69
463.201	1543.59
463.574	1544.49
463.947	1590.82
464.32	1614.77
464.692	1615.45
465.065	1649.58
465.438	1678.05
465.81	1700.87
466.183	1692.51
466.555	1752.85
466.928	1762.57
467.3	1798.72
467.672	1818.38
468.045	1843.47
468.417	1862.23
468.789	1890.02
469.161	1924.37
469.534	1950.36
469.906	2018.61
470.278	1978.61
470.65	2033.75
471.022	2088.43
471.394	2114.65
471.766	2202.33
472.138	2194.19
472.51	2266.28
472.882	2286.85
473.253	2323.46
473.625	2410.23
473.997	2465.82
474.369	2487.07
474.74	2528.87
475.112	2576.78
475.484	2634.41
475.855	2739.26
476.227	2771.35
476.598	2864.23
476.97	2916.66
477.341	2986.94
477.713	3058.35
478.084	3128.18
478.455	3243.66
478.827	3261.51
479.198	3364.11
479.569	3444.33
479.94	3585.8
480.311	3645.45
480.682	3779.91
481.053	3877.77
481.424	3964.54
481.795	4042.51
482.166	4157.53
482.537	4264.65
482.908	4386.9
483.279	4479.11
483.65	4629.84
484.021	4743.96
484.391	4870.51
484.762	4964.52
485.133	5058.07
485.503	5226.88
485.874	5342.36
486.244	5479.98
486.615	5614.22
486.985	5739.64
487.356	5909.8
487.726	6037.26
488.097	6187.99
488.467	6333.52
488.837	6505.72
489.207	6615.32
489.578	6823.68
489.948	6886.5
490.318	7042.88
490.688	7168.98
491.058	7404
491.428	7572.81
491.798	7697.78
492.168	7912.91
492.538	8049.41
492.908	8153.59
493.278	8338.66
493.648	8456.4
494.017	8668.15
494.387	8786.79
494.757	8909.5
495.126	9094.35
495.496	9179.32
495.866	9328.02
496.235	9490.73
496.605	9605.75
496.974	9699.76
497.344	9898.17
497.713	10034.67
498.082	10093.87
498.452	10312.85
498.821	10414.09
499.19	10479.63
499.559	10622.22
499.928	10746.74
500.298	10918.03
500.667	10975.66
501.036	11014.53
501.405	11252.49
501.774	11212.94
502.143	11422.2
502.512	11498.13
502.88	11697.9
503.249	11709.42
503.618	11825.8
503.987	11899.25
504.356	12089.07
504.724	12162.97
505.093	12148.51
505.462	12320.71
505.83	12349.86
506.199	12568.16
506.567	12731.54
506.936	12633.47
507.304	12836.4
507.672	12915.49
508.041	12999.33
508.409	13073.91
508.777	13178.31
509.145	13253.11
509.514	13211.31
509.882	13340.12
510.25	13375.82
510.618	13536.04
510.986	13518.19
511.354	13663.04
511.722	13764.96
512.09	13898.52
512.458	13859.42
512.826	13901.91
513.193	14056.71
513.561	14140.32
513.929	14144.39
514.297	14238.4
514.664	14362.46
515.032	14407.43
515.4	14489.69
515.767	14476.36
516.135	14526.75
516.502	14483.36
516.869	14683.58
517.237	14604.49
517.604	14674.77
517.972	14764.26
518.339	14768.55
518.706	14846.74
519.073	14894.88
519.44	15000.41
519.808	15068.66
520.175	15024.36
520.542	15198.37
520.909	15224.36
521.276	15233.85
521.643	15311.36
522.009	15402.66
522.376	15368.54
522.743	15382.77
523.11	15529.44
523.477	15630.68
523.843	15712.48
524.21	15749.09
524.577	15874.29
524.943	15898.01
525.31	15904.57
525.676	15983.89
526.043	15950.89
526.409	16041.06
526.776	16044
527.142	16106.14
527.508	16189.76
527.874	16164.9
528.241	16192.24
528.607	16134.17
528.973	16251.45
529.339	16259.13
529.705	16295.07
530.071	16401.05
530.437	16377.32
530.803	16513.82
531.169	16420.94
531.535	16264.33
531.901	16297.55
532.267	16368.74
532.632	16398.11
532.998	16414.16
533.364	16380.94
533.73	16466.59
534.095	16471.33
534.461	16365.57
534.826	16446.93
535.192	16454.38
535.557	16493.48
535.923	16441.28
536.288	16458.45
536.653	16356.08
537.019	16323.31
537.384	16354.73
537.749	16342.97
538.114	16380.94
538.479	16363.54
538.845	16319.47
539.21	16250.32
539.575	16287.83
539.94	16147.5
540.305	16344.1
540.67	16181.17
541.034	16217.78
541.399	16157.67
541.764	16092.36
542.129	16110.89
542.494	16045.58
542.858	16063.89
543.223	15979.37
543.587	16136.88
543.952	15954.96
544.316	15954.74
544.681	15883.78
545.045	15956.54
545.41	15919.26
545.774	15858.47
546.138	15815.3
546.503	15781.41
546.867	15786.6
547.231	15831.8
547.595	15665.25
547.959	15764.68
548.324	15657.57
548.688	15600.39
549.052	15719.04
549.416	15552.71
549.779	15613.73
550.143	15441.53
550.507	15526.27
550.871	15632.03
551.235	15476.1
551.599	15500.96
551.962	15380.74
552.326	15466.84
552.689	15503.67
553.053	15354.3
553.417	15338.93
553.78	15484.69
554.143	15366.95
554.507	15301.19
554.87	15352.27
555.234	15412.15
555.597	15334.64
555.96	15327.18
556.323	15344.81
556.686	15272.04
557.05	15364.02
557.413	15349.1
557.776	15329.89
558.139	15344.13
558.502	15244.02
558.865	15186.62
559.228	15260.74
559.59	15279.95
559.953	15267.75
560.316	15302.78
560.679	15347.75
561.041	15393.17
561.404	15378.93
561.767	15362.66
562.129	15282.21
562.492	15416.67
562.854	15350.01
563.217	15346.84
563.579	15435.43
563.941	15415.77
564.304	15452.6
564.666	15402.66
565.028	15473.62
565.39	15515.65
565.753	15502.32
566.115	15514.52
566.477	15608.76
566.839	15520.4
567.201	15701.41
567.563	15620.06
567.925	15656.21
568.287	15651.02
568.648	15709.32
569.01	15691.92
569.372	15755.65
569.734	15766.72
570.095	15757
570.457	15809.43
570.819	15752.71
571.18	15807.85
571.542	15795.42
571.903	15849.2
572.265	15830.45
572.626	15854.63
572.987	15867.96
573.349	15899.82
573.71	15972.59
574.071	15902.08
574.432	15953.38
574.794	16044.23
575.155	15999.71
575.516	16033.38
575.877	16047.16
576.238	16014.17
576.599	16072.47
576.96	16030.21
577.32	15998.35
577.681	16037.45
578.042	16116.54
578.403	16017.11
578.763	16114.73
579.124	16115.41
579.485	16129.65
579.845	16077.9
580.206	16127.84
580.566	16105.69
580.927	16124
581.287	16124
581.648	16057.78
582.008	16142.98
582.368	16016.43
582.728	16010.55
583.089	16099.36
583.449	16089.42
583.809	16038.58
584.169	16021.63
584.529	16074.28
584.889	16155.63
585.249	16064.56
585.609	15970.78
585.969	16120.61
586.329	15968.97
586.688	16130.1
587.048	15893.04
587.408	15946.6
587.768	15939.6
588.127	15987.5
588.487	15903.66
588.846	15960.16
589.206	15881.74
589.565	15930.78
589.925	16031.57
590.284	15881.07
590.643	15961.74
591.003	15972.14
591.362	15978.46
591.721	15975.53
592.08	15945.24
592.44	15924.68
592.799	15989.54
593.158	15929.88
593.517	15829.99
593.876	15856.89
594.235	15837
594.593	15893.95
594.952	15827.96
595.311	15775.98
595.67	15775.98
596.029	15932.14
596.387	15891.91
596.746	15846.04
597.104	15764.46
597.463	15801.97
597.822	15886.04
598.18	15867.73
598.538	15874.06
598.897	15780.96
599.255	15716.78
599.613	15934.17
599.972	15797.23
600.33	15789.32
600.688	15825.02
601.046	15886.94
601.404	15959.93
601.762	15853.27
602.12	15994.73
602.478	15947.73
602.836	15919.48
603.194	15805.59
603.552	15873.38
603.91	15843.78
604.268	15903.44
604.625	15745.93
604.983	15939.37
605.341	15746.83
605.698	15855.53
606.056	15888.52
606.413	15835.64
606.771	15868.18
607.128	15937.56
607.485	15850.33
607.843	15739.6
608.2	15895.75
608.557	15903.89
608.914	15907.51
609.272	15955.87
609.629	16059.82
609.986	16030.44
610.343	16072.7
610.7	16129.42
611.057	16124.45
611.414	16054.85
611.771	16046.26
612.127	16064.34
612.484	16095.3
612.841	16063.43
613.198	16159.25
613.554	16062.08
613.911	16178.68
614.267	16072.47
614.624	16127.84
614.98	16066.6
615.337	16148.4
615.693	16151.11
616.05	16138.01
616.406	16235.63
616.762	16165.58
617.118	16196.99
617.475	16224.56
617.831	16240.38
618.187	16255.52
618.543	16292.35
618.899	16326.7
619.255	16304.33
619.611	16283.31
619.967	16479.92
620.323	16380.71
620.678	16338.91
621.034	16265.24
621.39	16263.65
621.746	16192.92
622.101	16413.03
622.457	16325.12
622.812	16320.83
623.168	16315.86
623.523	16420.03
623.879	16437.44
624.234	16313.14
624.589	16353.82
624.945	16345.46
625.3	16312.92
625.655	16303.88
626.01	16360.37
626.365	16405.8
626.72	16335.29
627.075	16380.04
627.43	16283.31
627.785	16285.57
628.14	16314.95
628.495	16291.45
628.85	16234.95
629.205	16260.72
629.559	16320.38
629.914	16272.47
630.269	16281.51
630.623	16233.6
630.978	16227.72
631.332	16281.05
631.687	16291.9
632.041	16196.54
632.396	16273.15
632.75	16159.25
633.104	16131.68
633.459	16155.18
633.813	16136.88
634.167	16065.24
634.521	16113.15
634.875	16077.9
635.229	16015.3
635.583	16021.17
635.937	15925.81
636.291	16009.88
636.645	15896.43
636.999	15861.63
637.352	15931.69
637.706	15843.55
638.06	15941.63
638.413	15879.26
638.767	15859.82
639.121	15842.65
639.474	15773.5
639.828	15790.22
640.181	15796.77
640.534	15810.78
640.888	15741.18
641.241	15614.41
641.594	15710.45
641.947	15695.31
642.301	15700.73
642.654	15775.98
643.007	15744.35
643.36	15668.42
643.713	15657.12
644.066	15646.04
644.419	15570.11
644.771	15454.41
645.124	15427.29
645.477	15403.79
645.83	15240.63
646.182	15133.51
646.535	15184.59
646.888	15211.7
647.24	15134.87
647.593	15071.6
647.945	15118.37
648.298	15042.9
648.65	15025.72
649.002	14982.33
649.355	15099.17
649.707	15129.22
650.059	15237.47
650.411	15338.71
650.763	15360.63
651.115	15442.43
651.467	15379.84
651.819	15493.51
652.171	15471.36
652.523	15353.85
652.875	15422.32
653.227	15378.93
653.578	15456.67
653.93	15478.82
654.282	15324.7
654.633	15324.24
654.985	15386.62
655.337	15372.6
655.688	15400.4
656.039	15433.85
656.391	15327.63
656.742	15414.19
657.094	15392.72
657.445	15410.57
657.796	15484.01
658.147	15421.42
658.498	15516.78
658.849	15455.54
659.2	15460.74
659.551	15358.59
659.902	15437.24
660.253	15439.27
660.604	15388.2
660.955	15387.75
661.306	15501.19
661.656	15521.75
662.007	15376.22
662.358	15436.78
662.708	15486.05
663.059	15448.08
663.409	15407.63
663.76	15358.37
664.11	15427.07
664.461	15421.64
664.811	15520.4
665.161	15465.03
665.511	15382.77
665.862	15461.42
666.212	15505.93
666.562	15526.27
666.912	15449.89
667.262	15354.07
667.612	15481.3
667.962	15458.7
668.312	15444.24
668.662	15504.8
669.011	15521.75
669.361	15446.5
669.711	15464.13
670.06	15371.93
670.41	15368.99
670.76	15353.62
671.109	15470.91
671.459	15427.07
671.808	15380.97
672.157	15368.08
672.507	15230.91
672.856	15303.45
673.205	15304.36
673.554	15339.84
673.904	15314.07
674.253	15384.58
674.602	15319.95
674.951	15117.24
675.3	15041.99
675.649	15319.05
675.998	15294.64
676.346	15236.56
676.695	15262.1
677.044	15186.85
677.393	15227.98
677.741	15135.55
678.09	15165.83
678.438	15107.98
678.787	15034.53
679.135	15076.34
679.484	15010.81
679.832	15004.48
680.181	14872.28
680.529	14976
680.877	14990.24
681.225	14940.98
681.573	15003.57
681.922	14856.23
682.27	14829.34
682.618	14820.53
682.966	14814.43
683.314	14873.18
683.661	14822.34
684.009	14681.32
684.357	14696.46
684.705	14691.27
685.053	14720.87
685.4	14611.95
685.748	14519.07
686.095	14528.11
686.443	14526.75
686.79	14494.44
687.138	14514.32
687.485	14478.84
687.832	14306.64
688.18	14385.06
688.527	14246.08
688.874	14324.04
689.221	14187.55
689.568	14166.53
689.915	14155.01
690.262	14131.51
690.609	14072.98
690.956	14091.28
691.303	14007.22
691.65	13892.64
691.997	13901.91
692.344	13845.86
692.69	13849.71
693.037	13849.03
693.383	13718.41
693.73	13834.34
694.077	13620.56
694.423	13644.06
694.769	13678.41
695.116	13555.25
695.462	13503.95
695.808	13466.21
696.155	13470.28
696.501	13365.2
696.847	13393.45
697.193	13246.56
697.539	13363.17
697.885	13239.33
698.231	13115.04
698.577	13215.37
698.923	13117.75
699.269	13037.75
699.614	12978.54
699.96	12985.32
700.306	12896.74
700.651	12840.24
700.997	12846.12
701.342	12773.35
701.688	12770.41
702.033	12732.9
702.379	12693.35
702.724	12606.8
703.069	12618.78
703.415	12457.65
703.76	12449.29
704.105	12444.32
704.45	12406.81
704.795	12353.02
705.14	12299.92
705.485	12146.02
705.83	12272.57
706.175	12202.97
706.52	12210.65
706.865	12146.47
707.209	12069.64
707.554	12118.9
707.899	12097.21
708.243	12052.47
708.588	11965.69
708.932	11802.08
709.277	11841.62
709.621	11894.96
709.966	11821.06
710.31	11774.96
710.654	11729.08
710.998	11702.87
711.342	11741.29
711.687	11664.23
712.031	11581.74
712.375	11640.27
712.719	11563.66
713.063	11538.13
713.407	11599.6
713.75	11562.31
714.094	11600.95
714.438	11481.63
714.782	11544.91
715.125	11396.21
715.469	11429.21
715.812	11375.87
716.156	11373.61
716.499	11332.48
716.843	11337.23
717.186	11273.5
717.53	11371.35
717.873	11250
718.216	11284.58
718.559	11217.91
718.902	11152.38
719.246	11172.71
719.589	11171.13
719.932	11167.74
720.275	11152.38
720.617	11076.9
720.96	11101.53
721.303	11120.06
721.646	11077.12
721.989	11023.34
722.331	11130.23
722.674	11068.99
723.016	11073.06
723.359	11003.91
723.701	10970.01
724.044	10912.61
724.386	10968.88
724.729	11018.59
725.071	10948.31
725.413	10979.5
725.755	10971.14
726.097	10862.67
726.439	10854.3
726.782	10821.09
727.124	10916.45
727.465	10918.94
727.807	10793.29
728.149	10894.76
728.491	10845.94
728.833	10819.73
729.175	10809.79
729.516	10826.74
729.858	10840.07
730.199	10842.1
730.541	10826.74
730.882	10736.57
731.224	10787.87
731.565	10778.37
731.906	10752.84
732.248	10759.17
732.589	10697.47
732.93	10646.63
733.271	10804.59
733.612	10757.81
733.953	10772.5
734.294	10690.69
734.635	10683.46
734.976	10718.72
735.317	10636.68
735.658	10677.59
735.999	10680.52
736.339	10683.69
736.68	10798.26
737.021	10742.44
737.361	10682.11
737.702	10724.82
738.042	10763.91
738.383	10747.19
738.723	10731.82
739.063	10651.37
739.404	10811.37
739.744	10760.52
740.084	10751.71
740.424	10741.31
740.764	10791.26
741.104	10828.77
741.444	10738.83
741.784	10778.83
742.124	10815.66
742.464	10814.53
742.804	10909.22
743.143	10861.99
743.483	10859.05
743.823	10915.77
744.162	10965.94
744.502	10943.34
744.841	10968.88
745.181	11013.17
745.52	11007.75
745.86	11104.24
746.199	11118.03
746.538	11249.77
746.877	11217.69
747.216	11280.28
747.556	11351.47
747.895	11344.69
748.234	11344.24
748.573	11430.34
748.911	11478.24
749.25	11555.53
749.589	11605.92
749.928	11716.88
750.267	11770.21
750.605	11766.6
750.944	11931.11
751.283	11989.87
751.621	12101.73
751.96	12182.41
752.298	12248.39
752.636	12356.41
752.975	12355.96
753.313	12449.52
753.651	12649.06
753.989	12790.3
754.327	12850.18
754.666	12932.44
755.004	13074.81
755.342	13227.58
755.679	13293.34
