Data from hue_22_FLMS001491_00056.txt Node
Date: Tue Feb 07 17:10:20 GMT 2017
User: dcchb
Spectrometer: FLMS00149
Trigger mode: 0
Integration Time (sec): 2.000000E-2
Scans to average: 10
Electric dark correction enabled: true
Nonlinearity correction enabled: false
Boxcar width: 0
XAxis mode: Wavelengths
Number of Pixels in Spectrum: 2048
>>>>>Begin Spectral Data<<<<<
341.393	-21.5
341.776	-21.5
342.16	-21.5
342.543	-80.93
342.927	-74.38
343.31	-59.69
343.693	-78.67
344.077	-54.04
344.46	-43.87
344.843	-55.39
345.226	-40.48
345.61	-43.87
345.993	-30.99
346.376	-16.07
346.759	20.54
347.142	38.16
347.525	48.78
347.908	45.17
348.291	75.9
348.674	91.49
349.057	103.02
349.44	117.26
349.823	146.86
350.206	169.46
350.588	206.07
350.971	213.75
351.354	231.83
351.737	234.54
352.119	256.46
352.502	255.56
352.884	279.06
353.267	281.55
353.65	298.49
354.032	301.66
354.414	298.95
354.797	322.9
355.179	301.43
355.562	315.67
355.944	332.17
356.326	339.4
356.709	330.81
357.091	320.87
357.473	347.76
357.855	344.82
358.238	340.75
358.62	348.21
359.002	338.04
359.384	316.12
359.766	348.21
360.148	323.81
360.53	346.63
360.912	338.95
361.294	338.95
361.676	333.52
362.057	323.81
362.439	319.29
362.821	334.43
363.203	315.22
363.584	322.68
363.966	316.57
364.348	329
364.729	314.77
365.111	328.55
365.493	329.68
365.874	317.7
366.256	315.22
366.637	303.47
367.019	318.38
367.4	313.86
367.781	330.81
368.163	321.09
368.544	330.36
368.925	323.58
369.306	319.51
369.688	322.22
370.069	317.48
370.45	298.72
370.831	307.31
371.212	312.05
371.593	295.78
371.974	332.62
372.355	317.25
372.736	321.77
373.117	318.16
373.498	325.84
373.879	310.47
374.26	318.16
374.641	316.8
375.021	311.15
375.402	320.42
375.783	329.68
376.163	320.87
376.544	331.04
376.925	337.59
377.305	345.5
377.686	335.33
378.066	337.82
378.447	342.56
378.827	327.42
379.208	310.25
379.588	330.58
379.968	338.49
380.349	360.41
380.729	345.27
381.109	327.65
381.489	354.09
381.87	345.5
382.25	344.14
382.63	359.51
383.01	347.31
383.39	334.88
383.77	350.02
384.15	357.48
384.53	341.21
384.91	353.86
385.29	343.92
385.67	320.87
386.049	363.35
386.429	348.89
386.809	346.63
387.189	333.52
387.568	360.41
387.948	360.19
388.328	353.41
388.707	357.25
389.087	351.15
389.466	371.26
389.846	373.07
390.225	354.76
390.605	394.54
390.984	367.65
391.363	371.71
391.743	392.28
392.122	363.13
392.501	377.36
392.881	373.07
393.26	359.28
393.639	374.43
394.018	366.74
394.397	373.52
394.776	375.33
395.155	385.27
395.534	379.85
395.913	380.98
396.292	375.78
396.671	369.91
397.05	401.09
397.429	398.83
397.808	366.06
398.186	390.7
398.565	388.44
398.944	383.69
399.323	403.8
399.701	405.84
400.08	395.67
400.458	382.11
400.837	406.29
401.215	389.57
401.594	403.12
401.972	405.84
402.351	393.86
402.729	405.84
403.107	421.43
403.486	412.84
403.864	415.55
404.242	415.33
404.62	431.37
404.999	428.21
405.377	442.9
405.755	433.63
406.133	424.37
406.511	453.97
406.889	424.59
407.267	437.7
407.645	444.48
408.023	437.02
408.401	454.65
408.779	441.32
409.156	449.9
409.534	429.79
409.912	440.64
410.29	453.07
410.667	427.53
411.045	448.1
411.422	460.07
411.8	467.98
412.178	454.65
412.555	461.43
412.933	472.5
413.31	467.53
413.687	497.36
414.065	497.81
414.442	470.92
414.819	492.61
415.197	514.99
415.574	492.61
415.951	503.69
416.328	493.07
416.705	493.07
417.082	514.08
417.46	505.27
417.837	506.4
418.214	493.07
418.591	525.38
418.967	506.85
419.344	505.72
419.721	566.74
420.098	542.33
420.475	518.38
420.852	534.42
421.228	514.99
421.605	542.78
421.982	542.33
422.358	527.64
422.735	537.81
423.111	568.54
423.488	518.6
423.864	551.6
424.241	558.6
424.617	545.04
424.994	531.71
425.37	562.89
425.746	559.28
426.123	569.45
426.499	578.49
426.875	580.75
427.251	581.88
427.627	594.08
428.003	601.54
428.379	590.24
428.756	617.13
429.132	597.92
429.507	606.51
429.883	606.74
430.259	611.93
430.635	615.77
431.011	631.14
431.387	633.85
431.763	666.85
432.138	631.37
432.514	626.62
432.89	632.72
433.265	669.56
433.641	665.26
434.016	667.98
434.392	692.83
434.767	676.56
435.143	688.32
435.518	688.32
435.894	688.32
436.269	708.43
436.644	700.07
437.02	715.66
437.395	719.73
437.77	742.78
438.145	745.49
438.52	734.64
438.895	744.81
439.271	745.04
439.646	760.18
440.021	747.3
440.395	770.57
440.77	741.42
441.145	758.82
441.52	738.03
441.895	761.99
442.27	792.04
442.645	812.61
443.019	779.39
443.394	778.93
443.769	775.77
444.143	788.43
444.518	785.94
444.892	808.31
445.267	800.85
445.641	797.92
446.016	816.67
446.39	825.94
446.764	826.84
447.139	827.07
447.513	830.46
447.887	850.57
448.262	859.16
448.636	833.4
449.01	870.46
449.384	851.47
449.758	851.7
450.132	857.8
450.506	880.4
450.88	871.59
451.254	858.71
451.628	900.97
452.002	884.47
452.376	903.22
452.75	924.69
453.123	914.52
453.497	931.47
453.871	931.02
454.244	967.18
454.618	955.88
454.992	943.45
455.365	952.04
455.739	1004.01
456.112	1007.4
456.486	1009.44
456.859	981.64
457.232	1030.23
457.606	989.1
457.979	1017.35
458.352	1040.62
458.725	1056.89
459.099	1060.06
459.472	1073.62
459.845	1067.97
460.218	1127.63
460.591	1109.1
460.964	1086.95
461.337	1113.61
461.71	1136.67
462.083	1183.44
462.456	1154.74
462.829	1163.56
463.201	1205.36
463.574	1211.24
463.947	1213.5
464.32	1233.39
464.692	1234.97
465.065	1258.7
465.438	1272.25
465.81	1273.38
466.183	1299.15
466.555	1314.06
466.928	1305.47
467.3	1326.49
467.672	1365.59
468.045	1375.75
468.417	1369.88
468.789	1363.55
469.161	1406.71
469.534	1435.64
469.906	1427.05
470.278	1442.19
470.65	1469.54
471.022	1496.88
471.394	1542.53
471.766	1553.6
472.138	1580.5
472.51	1586.14
472.882	1634.28
473.253	1688.74
473.625	1645.35
473.997	1692.36
474.369	1711.11
474.74	1727.38
475.112	1756.08
475.484	1790.21
475.855	1844.22
476.227	1827.27
476.598	1886.7
476.97	1933.48
477.341	1942.52
477.713	1993.14
478.084	1998.56
478.455	2058.22
478.827	2076.98
479.198	2124.66
479.569	2156.98
479.94	2217.99
480.311	2231.1
480.682	2251.66
481.053	2347.48
481.424	2382.73
481.795	2423.64
482.166	2436.97
482.537	2485.78
482.908	2538.21
483.279	2596.29
483.65	2607.13
484.021	2687.81
484.391	2731.2
484.762	2730.75
485.133	2782.72
485.503	2823.63
485.874	2882.61
486.244	2891.42
486.615	2975.49
486.985	3052.55
487.356	3069.5
487.726	3151.98
488.097	3197.85
488.467	3211.19
488.837	3307.46
489.207	3308.36
489.578	3384.74
489.948	3415.93
490.318	3498.41
490.688	3473.55
491.058	3548.8
491.428	3627
491.798	3662.7
492.168	3757.39
492.538	3697.5
492.908	3810.94
493.278	3825.18
493.648	3832.64
494.017	3931.39
494.387	3993.54
494.757	4062.92
495.126	4060.66
495.496	4084.61
495.866	4070.37
496.235	4166.64
496.605	4198.28
496.974	4220.65
497.344	4280.09
497.713	4324.15
498.082	4324.15
498.452	4346.07
498.821	4438.27
499.19	4423.58
499.559	4425.62
499.928	4500.64
500.298	4553.07
500.667	4552.85
501.036	4589.46
501.405	4632.39
501.774	4623.35
502.143	4707.64
502.512	4727.98
502.88	4739.73
503.249	4752.16
503.618	4813.86
503.987	4787.19
504.356	4839.17
504.724	4845.95
505.093	4907.87
505.462	4918.94
505.83	4944.93
506.199	4959.62
506.567	5031.03
506.936	5052.95
507.304	5074.87
507.672	5115.09
508.041	5119.61
508.409	5153.28
508.777	5197.58
509.145	5219.72
509.514	5188.99
509.882	5220.4
510.25	5263.11
510.618	5292.49
510.986	5283
511.354	5340.85
511.722	5363.22
512.09	5455.87
512.458	5442.09
512.826	5462.2
513.193	5559.37
513.561	5493.16
513.929	5556.21
514.297	5594.85
514.664	5596.89
515.032	5654.29
515.4	5657
515.767	5698.58
516.135	5710.1
516.502	5673.49
516.869	5745.36
517.237	5847.95
517.604	5758.24
517.972	5838.46
518.339	5827.39
518.706	5816.09
519.073	5876.88
519.44	5928.63
519.808	5947.84
520.175	5974.5
520.542	5963.43
520.909	6096.76
521.276	6043.88
521.643	6141.51
522.009	6098.57
522.376	6172.92
522.743	6209.98
523.11	6240.03
523.477	6277.32
523.843	6290.65
524.21	6307.15
524.577	6332.91
524.943	6378.11
525.31	6456.53
525.676	6476.64
526.043	6462.4
526.409	6505.11
526.776	6581.72
527.142	6560.93
527.508	6648.16
527.874	6663.3
528.241	6639.12
528.607	6734.48
528.973	6759.12
529.339	6783.97
529.705	6847.48
530.071	6900.81
530.437	6898.77
530.803	6955.72
531.169	6992.1
531.535	6996.62
531.901	7003.63
532.267	7045.66
532.632	7125.89
532.998	7156.39
533.364	7141.93
533.73	7219.44
534.095	7229.61
534.461	7254.47
534.826	7310.51
535.192	7277.29
535.557	7374.69
535.923	7371.53
536.288	7448.14
536.653	7483.39
537.019	7406.56
537.384	7444.3
537.749	7549.83
538.114	7514.8
538.479	7557.06
538.845	7600.68
539.21	7653.78
539.575	7615.14
539.94	7664.63
540.305	7744.85
540.67	7765.87
541.034	7809.71
541.399	7802.93
541.764	7851.29
542.129	7857.62
542.494	7846.77
542.858	7936.49
543.223	7979.87
543.587	8008.12
543.952	7991.85
544.316	8020.78
544.681	7999.76
545.045	8110.49
545.41	8160.21
545.774	8170.38
546.138	8214.9
546.503	8255.57
546.867	8251.05
547.231	8351.39
547.595	8331.96
547.959	8344.61
548.324	8395.23
548.688	8346.42
549.052	8507.09
549.416	8420.54
549.779	8517.04
550.143	8482.69
550.507	8644.49
550.871	8621.67
551.235	8570.59
551.599	8724.04
551.962	8672.74
552.326	8683.13
552.689	8725.17
553.053	8759.52
553.417	8722
553.78	8893.75
554.143	8866.41
554.507	8871.83
554.87	8895.11
555.234	8986.63
555.597	8920.64
555.96	9012.39
556.323	9038.15
556.686	9061.2
557.05	9115.66
557.413	9188.2
557.776	9128.77
558.139	9151.6
558.502	9213.74
558.865	9280.63
559.228	9288.77
559.59	9303.91
559.953	9326.96
560.316	9409.22
560.679	9395.43
561.041	9423.68
561.404	9497.8
561.767	9544.35
562.129	9558.59
562.492	9646.27
562.854	9591.36
563.217	9610.79
563.579	9648.31
563.941	9718.13
564.304	9733.73
564.666	9828.64
565.028	9901.18
565.39	9825.93
565.753	9879.94
566.115	9954.06
566.477	9985.7
566.839	10032.02
567.201	10053.49
567.563	10078.8
567.925	10114.06
568.287	10128.07
568.648	10141.17
569.01	10261.62
569.372	10333.03
569.734	10323.77
570.095	10384.78
570.457	10355.86
570.819	10473.59
571.18	10429.98
571.542	10487.38
571.903	10556.98
572.265	10551.33
572.626	10599.69
572.987	10698.22
573.349	10723.08
573.71	10890.98
574.071	10871.78
574.432	10912.23
574.794	10979.57
575.155	11029.96
575.516	11046.69
575.877	11143.18
576.238	11189.51
576.599	11345.89
576.96	11295.49
577.32	11398.54
577.681	11548.82
578.042	11627.69
578.403	11692.32
578.763	11746.56
579.124	11865.65
579.485	12069.48
579.845	12131.18
580.206	12173.21
580.566	12353.55
580.927	12408.23
581.287	12553.99
581.648	12594.44
582.008	12914.66
582.368	12970.93
582.728	13074.2
583.089	13305.61
583.449	13430.58
583.809	13529.79
584.169	13809.55
584.529	13902.66
584.889	14196.43
585.249	14286.6
585.609	14469.87
585.969	14706.7
586.329	14914.16
586.688	15151.21
587.048	15406.12
587.408	15564.76
587.768	15736.73
588.127	16086.33
588.487	16277.96
588.846	16560.67
589.206	16781.45
589.565	16996.36
589.925	17317.93
590.284	17589.11
590.643	17821.88
591.003	18067.07
591.362	18528.52
591.721	18695.3
592.08	19051
592.44	19432.23
592.799	19386.35
593.158	19879.22
593.517	20128.93
593.876	20592.2
594.235	20752.42
594.593	21113.54
594.952	21428.11
595.311	21642.34
595.67	22003.46
596.029	22467.86
596.387	22761.63
596.746	23039.14
597.104	23342.41
597.463	23673.47
597.822	24064.42
598.18	24269.39
598.538	24415.15
598.897	24957.96
599.255	25098.07
599.613	25690.6
599.972	25874.32
600.33	26244.71
600.688	26452.84
601.046	26884.69
601.404	27228.18
601.762	27515.41
602.12	27866.13
602.478	28179.12
602.836	28484.19
603.194	28638.54
603.552	28977.06
603.91	29277.39
604.268	29583.37
604.625	29684.16
604.983	30153.53
605.341	30268.1
605.698	30642.33
606.056	31033.51
606.413	31207.51
606.771	31739.93
607.128	31838.23
607.485	31967.72
607.843	32261.72
608.2	32739.22
608.557	32882.72
608.914	33076.16
609.272	33495.81
609.629	33653.1
609.986	34005.41
610.343	34093.76
610.7	34526.52
611.057	34539.4
611.414	34605.62
611.771	35028.88
612.127	35319.72
612.484	35559.26
612.841	35616.21
613.198	35794.96
613.554	36051.68
613.911	36467.94
614.267	36469.07
614.624	36638.1
614.98	36888.95
615.337	37179.79
615.693	37309.73
616.05	37567.35
616.406	37654.12
616.762	37834.23
617.118	38043.49
617.475	38207.33
617.831	38399.19
618.187	38481.45
618.543	38676.02
618.899	38983.81
619.255	38988.33
619.611	39184.48
619.967	39506.28
620.323	39694.97
620.678	39555.99
621.034	39570.91
621.39	39776.55
621.746	39826.72
622.101	40376.76
622.457	39968.64
622.812	40392.13
623.168	40467.16
623.523	40623.31
623.879	40829.41
624.234	40566.14
624.589	40871.67
624.945	40971.1
625.3	41080.7
625.655	41007.48
626.01	41329.73
626.365	41468.94
626.72	41447.92
627.075	41390.52
627.43	41491.54
627.785	41451.31
628.14	41591.19
628.495	41585.54
628.85	41622.61
629.205	41571.31
629.559	41915.48
629.914	41717.97
630.269	41962.48
630.623	41868.02
630.978	41868.93
631.332	42123.16
631.687	42229.37
632.041	42049.26
632.396	42150.28
632.75	42165.64
633.104	42262.82
633.459	42079.77
633.813	42129.94
634.167	42157.28
634.521	42261.46
634.875	42278.18
635.229	42205.19
635.583	41996.61
635.937	42161.8
636.291	42065.53
636.645	42215.13
636.999	42176.26
637.352	42297.84
637.706	42239.54
638.06	42409.7
638.413	42271.63
638.767	42101.24
639.121	42154.34
639.474	41959.55
639.828	42213.33
640.181	42063.72
640.534	42094.01
640.888	42099.2
641.241	41972.43
641.594	41951.64
641.947	42268.24
642.301	42123.84
642.654	42050.62
643.007	42145.53
643.36	42103.05
643.713	42015.14
644.066	42183.95
644.419	41844.75
644.771	41717.07
645.124	41364.08
645.477	41374.48
645.83	41094.94
646.182	41030.98
646.535	40946.47
646.888	41037.76
647.24	40760.03
647.593	41008.84
647.945	40917.77
648.298	40693.59
648.65	40720.71
649.002	40641.84
649.355	40826.69
649.707	40746.7
650.059	40960.02
650.411	41531.76
650.763	41434.36
651.115	41883.84
651.467	41679.78
651.819	41678.2
652.171	41629.16
652.523	41611.08
652.875	41640.23
653.227	41522.95
653.578	41794.58
653.93	41620.8
654.282	41438.66
654.633	41362.05
654.985	41363.4
655.337	41472.55
655.688	41550.52
656.039	41651.08
656.391	41355.72
656.742	41488.6
657.094	41487.24
657.445	41503.51
657.796	41515.04
658.147	41426
658.498	41378.32
658.849	41437.3
659.2	41384.65
659.551	41327.7
659.902	41395.95
660.253	41281.82
660.604	41448.15
660.955	41219.45
661.306	41442.27
661.656	41204.09
662.007	41259.9
662.358	41260.58
662.708	41394.14
663.059	41394.36
663.409	41214.03
663.76	41397.75
664.11	41412.22
664.461	41424.19
664.811	41357.08
665.161	41269.17
665.511	41244.54
665.862	41395.95
666.212	41438.2
666.562	41344.2
666.912	41263.52
667.262	41204.09
667.612	41231.88
667.962	41335.83
668.312	41169.96
668.662	41477.3
669.011	41240.24
669.361	41140.81
669.711	41180.36
670.06	41165.22
670.41	41152.34
670.76	41074.15
671.109	41143.07
671.459	41099.23
671.808	40974.26
672.157	41136.74
672.507	40899.46
672.856	40890.2
673.205	41093.13
673.554	40992.57
673.904	40919.8
674.253	41233.24
674.602	41057.2
674.951	40466.03
675.3	40225.81
675.649	40790.99
675.998	40943.08
676.346	40882.29
676.695	40923.19
677.044	40711.22
677.393	40758.9
677.741	40942.4
678.09	40734.72
678.438	40624.21
678.787	40728.17
679.135	40727.94
679.484	40492.69
679.832	40611.56
680.181	40427.16
680.529	40534.73
680.877	40335.63
681.225	40383.77
681.573	40636.19
681.922	40395.97
682.27	40111.69
682.618	40136.54
682.966	40140.16
683.314	40178.58
683.661	40102.42
684.009	39805.03
684.357	39743.11
684.705	39805.25
685.053	39934.51
685.4	39762.54
685.748	39463.57
686.095	39583.79
686.443	39512.38
686.79	39444.58
687.138	39556.22
687.485	39527.29
687.832	39292.95
688.18	39380.86
688.527	39115.33
688.874	39218.6
689.221	39039.85
689.568	38996.46
689.915	38890.47
690.262	38888.44
690.609	38788.33
690.956	38691.61
691.303	38789.46
691.65	38477.6
691.997	38348.79
692.344	38314.9
692.69	38192.87
693.037	38236.48
693.383	37940.44
693.73	37965.3
694.077	37977.28
694.423	37801.24
694.769	37690.96
695.116	37641.24
695.462	37580
695.808	37552.2
696.155	37608.02
696.501	37311.99
696.847	37314.24
697.193	37074.93
697.539	37090.3
697.885	36927.14
698.231	36851.88
698.577	36885.56
698.923	36824.09
699.269	36680.59
699.614	36438.34
699.96	36401.5
700.306	36460.26
700.651	36286.48
700.997	36063.2
701.342	36098.91
701.688	36027.5
702.033	35908.41
702.379	35860.05
702.724	35761.29
703.069	35805.58
703.415	35466.84
703.76	35505.48
704.105	35497.12
704.45	35337.8
704.795	35201.76
705.14	35157.01
705.485	35217.12
705.83	34986.62
706.175	35019.84
706.52	34884.7
706.865	34846.74
707.209	34657.14
707.554	34672.28
707.899	34639.51
708.243	34402.91
708.588	34536.92
708.932	34289.69
709.277	34213.08
709.621	34208.79
709.966	34050.15
710.31	34149.81
710.654	33767.22
710.998	33955.01
711.342	33908.91
711.687	33796.15
712.031	33594.57
712.375	33481.35
712.719	33640.22
713.063	33512.54
713.407	33672.08
713.75	33457.17
714.094	33402.48
714.438	33301.24
714.782	33323.84
715.125	33063.28
715.469	33169.72
715.812	33006.56
716.156	32930.63
716.499	32979.67
716.843	32918.2
717.186	32642.5
717.53	32963.85
717.873	32802.5
718.216	32650.19
718.559	32511.21
718.902	32299.46
719.246	32287.26
719.589	32273.93
719.932	32153.93
720.275	32200.48
720.617	32242.29
720.96	32016.98
721.303	32096.98
721.646	32211.1
721.989	31868.06
722.331	31936.99
722.674	31743.77
723.016	31969.53
723.359	31729.53
723.701	31880.72
724.044	31652.47
724.386	31571.57
724.729	31672.81
725.071	31542.87
725.413	31480.05
725.755	31358.47
726.097	31399.82
726.439	31189.89
726.782	31275.76
727.124	31451.57
727.465	31243.67
727.807	31095.88
728.149	31085.93
728.491	31025.37
728.833	31010
729.175	30988.76
729.516	30820.86
729.858	30736.11
730.199	30838.26
730.541	30819.95
730.882	30739.28
731.224	30805.72
731.565	30584.03
731.906	30586.29
732.248	30639.39
732.589	30484.14
732.93	30417.7
733.271	30451.15
733.612	30410.47
733.953	30433.75
734.294	30356.01
734.635	30217.03
734.976	30365.95
735.317	30113.3
735.658	30109.69
735.999	30215.45
736.339	30047.32
736.68	30163.47
737.021	30049.8
737.361	29960.99
737.702	30097.94
738.042	29844.84
738.383	29786.53
738.723	29861.11
739.063	29788.79
739.404	29756.03
739.744	29713.77
740.084	29667.21
740.424	29586.76
740.764	29554.9
741.104	29712.86
741.444	29492.08
741.784	29413.44
742.124	29439.88
742.464	29461.57
742.804	29359.43
743.143	29320.33
743.483	29260.45
743.823	29189.94
744.162	29163.72
744.502	29247.11
744.841	29131.18
745.181	29154.23
745.52	29193.78
745.86	29175.93
746.199	28935.93
746.538	29014.12
746.877	29069.94
747.216	28991.98
747.556	29020
747.895	28841.7
748.234	28687.58
748.573	28764.19
748.911	28706.56
749.25	28685.09
749.589	28557.19
749.928	28574.14
750.267	28567.36
750.605	28626.56
750.944	28475.83
751.283	28324.88
751.621	28277.65
751.96	28293.47
752.298	28309.96
752.636	28295.05
752.975	28087.14
753.313	28044.21
753.651	28079.01
753.989	28021.38
754.327	27946.36
754.666	27777.09
755.004	27851.22
755.342	27792.91
755.679	27795.4
756.017	27736.87
756.355	27818.68
756.693	27620.94
757.031	27685.8
757.368	27446.71
757.706	27335.75
758.044	27334.85
758.381	27424.34
758.719	27207.84
759.056	27242.42
759.394	27173.04
759.731	27057.11
760.068	27060.5
