Data from hue_30_FLMS001491_3.txt Node
Date: Mon Feb 06 15:04:33 GMT 2017
User: dcchb
Spectrometer: FLMS00149
Trigger mode: 0
Integration Time (sec): 2.000000E-2
Scans to average: 10
Electric dark correction enabled: true
Nonlinearity correction enabled: false
Boxcar width: 0
XAxis mode: Wavelengths
Number of Pixels in Spectrum: 2048
>>>>>Begin Spectral Data<<<<<
341.393	-0.82
341.776	-0.82
342.16	-0.82
342.543	-67.94
342.927	-63.64
343.31	-69.07
343.693	-78.11
344.077	-71.1
344.46	-67.71
344.843	-60.7
345.226	-55.28
345.61	-20.03
345.993	-7.37
346.376	0.76
346.759	10.93
347.142	32.63
347.525	34.43
347.908	68.78
348.291	67.88
348.674	83.25
349.057	130.7
349.44	139.74
349.823	161.66
350.206	212.06
350.588	198.5
350.971	221.77
351.354	221.55
351.737	242.34
352.119	267.42
352.502	265.16
352.884	264.48
353.267	290.02
353.65	294.31
354.032	307.65
354.414	303.81
354.797	314.2
355.179	319.4
355.562	318.95
355.944	322.56
356.326	346.29
356.709	339.96
357.091	313.3
357.473	339.96
357.855	351.71
358.238	345.61
358.62	336.35
359.002	344.48
359.384	350.81
359.766	353.07
360.148	332.28
360.53	330.47
360.912	337.93
361.294	327.76
361.676	339.51
362.057	348.32
362.439	327.53
362.821	308.55
363.203	324.14
363.584	333.18
363.966	325.73
364.348	325.27
364.729	328.44
365.111	326.18
365.493	308.1
365.874	321.88
366.256	320.08
366.637	308.1
367.019	330.47
367.4	298.38
367.781	312.62
368.163	301.55
368.544	306.97
368.925	325.5
369.306	299.96
369.688	315.56
370.069	310.13
370.45	300.19
370.831	311.26
371.212	310.36
371.593	296.35
371.974	320.3
372.355	311.49
372.736	319.85
373.117	310.36
373.498	317.36
373.879	311.49
374.26	320.75
374.641	329.79
375.021	305.16
375.402	315.1
375.783	330.02
376.163	316.46
376.544	332.28
376.925	333.18
377.305	325.73
377.686	323.92
378.066	314.2
378.447	322.34
378.827	355.56
379.208	318.95
379.588	346.52
379.968	323.01
380.349	327.31
380.729	340.19
381.109	344.93
381.489	341.32
381.87	319.62
382.25	340.64
382.63	346.29
383.01	351.94
383.39	331.38
383.77	351.94
384.15	332.96
384.53	331.83
384.91	332.73
385.29	360.3
385.67	351.49
386.049	336.57
386.429	366.63
386.809	346.97
387.189	349
387.568	354.2
387.948	358.72
388.328	327.31
388.707	361.43
389.087	351.26
389.466	332.51
389.846	354.43
390.225	366.85
390.605	363.24
390.984	363.47
391.363	366.4
391.743	362.79
392.122	356.46
392.501	368.44
392.881	374.31
393.26	362.34
393.639	358.27
394.018	355.56
394.397	363.24
394.776	359.4
395.155	377.48
395.534	352.39
395.913	360.08
396.292	382.9
396.671	382
397.05	372.05
397.429	373.63
397.808	407.53
398.186	371.83
398.565	390.81
398.944	381.09
399.323	389.68
399.701	388.78
400.08	381.54
400.458	387.19
400.837	388.1
401.215	381.32
401.594	389.23
401.972	378.61
402.351	392.16
402.729	387.42
403.107	397.59
403.486	394.42
403.864	409.11
404.242	373.18
404.62	404.14
404.999	412.05
405.377	419.28
405.755	419.73
406.133	397.14
406.511	403.92
406.889	390.13
407.267	432.39
407.645	433.29
408.023	408.89
408.401	411.83
408.779	418.83
409.156	429.23
409.534	428.32
409.912	427.87
410.29	430.81
410.667	424.03
411.045	427.19
411.422	434.42
411.8	413.18
412.178	476.91
412.555	427.19
412.933	452.73
413.31	442.33
413.687	451.15
414.065	458.15
414.442	472.39
414.819	450.24
415.197	454.08
415.574	470.13
415.951	446.63
416.328	445.04
416.705	452.28
417.082	460.64
417.46	482.33
417.837	506.96
418.214	471.48
418.591	468.55
418.967	502.44
419.344	480.3
419.721	475.55
420.098	502.22
420.475	483.24
420.852	469.68
421.228	496.57
421.605	494.31
421.982	499.51
422.358	497.7
422.735	503.8
423.111	520.75
423.488	507.19
423.864	499.96
424.241	535.21
424.617	520.75
424.994	522.33
425.37	532.05
425.746	524.59
426.123	520.3
426.499	508.09
426.875	551.71
427.251	531.6
427.627	551.71
428.003	534.99
428.379	550.35
428.756	549.45
429.132	557.36
429.507	547.19
429.883	555.78
430.259	580.86
430.635	575.66
431.011	570.92
431.387	580.86
431.763	595.32
432.138	573.4
432.514	593.97
432.89	580.86
433.265	608.66
433.641	589
434.016	615.89
434.392	636.68
434.767	614.76
435.143	600.29
435.518	633.74
435.894	627.19
436.269	611.14
436.644	624.48
437.02	645.04
437.395	651.59
437.77	653.17
438.145	644.59
438.52	644.14
438.895	668.09
439.271	677.36
439.646	680.74
440.021	654.3
440.395	703.12
440.77	674.87
441.145	685.72
441.52	694.76
441.895	686.62
442.27	723.91
442.645	727.3
443.019	702.89
443.394	721.65
443.769	694.08
444.143	706.73
444.518	724.13
444.892	702.67
445.267	737.47
445.641	721.2
446.016	726.62
446.39	728.65
446.764	749.22
447.139	755.77
447.513	740.63
447.887	738.14
448.262	749.67
448.636	777.92
449.01	765.71
449.384	774.08
449.758	762.32
450.132	761.19
450.506	767.75
450.88	786.96
451.254	787.86
451.628	774.75
452.002	803.45
452.376	822.44
452.75	792.61
453.123	812.27
453.497	829.89
453.871	816.11
454.244	835.77
454.618	845.94
454.992	834.41
455.365	832.38
455.739	870.34
456.112	880.29
456.486	858.59
456.859	894.75
457.232	894.98
457.606	881.87
457.979	892.94
458.352	889.1
458.725	907.18
459.099	920.06
459.472	941.53
459.845	945.82
460.218	943.11
460.591	959.83
460.964	984.24
461.337	995.09
461.71	1006.84
462.083	1026.95
462.456	1022.43
462.829	1026.72
463.201	1038.93
463.574	1019.49
463.947	1051.36
464.32	1089.1
464.692	1070.79
465.065	1077.12
465.438	1100.39
465.81	1118.47
466.183	1108.76
466.555	1168.87
466.928	1132.71
467.3	1163.9
467.672	1178.36
468.045	1195.76
468.417	1193.27
468.789	1191.24
469.161	1239.83
469.534	1215.42
469.906	1254.29
470.278	1265.36
470.65	1304.68
471.022	1306.27
471.394	1322.31
471.766	1338.58
472.138	1380.16
472.51	1401.18
472.882	1389.65
473.253	1421.52
473.625	1458.58
473.997	1496.32
474.369	1525.02
474.74	1516.2
475.112	1530.21
475.484	1573.38
475.855	1616.31
476.227	1623.32
476.598	1675.07
476.97	1692.02
477.341	1743.99
477.713	1774.05
478.084	1795.07
478.455	1781.51
478.827	1828.96
479.198	1923.2
479.569	1918.23
479.94	1965.23
480.311	1979.92
480.682	2064.89
481.053	2100.82
481.424	2129.97
481.795	2181.27
482.166	2215.17
482.537	2260.82
482.908	2332.45
483.279	2367.48
483.65	2398.67
484.021	2429.17
484.391	2502.17
484.762	2529.74
485.133	2573.8
485.503	2616.06
485.874	2726.34
486.244	2720.01
486.615	2814.47
486.985	2826.9
487.356	2907.35
487.726	2909.16
488.097	3004.98
488.467	3006.79
488.837	3134.24
489.207	3157.06
489.578	3242.03
489.948	3262.6
490.318	3317.06
490.688	3371.07
491.058	3437.51
491.428	3478.41
491.798	3553.89
492.168	3574.68
492.538	3686.32
492.908	3698.97
493.278	3714.34
493.648	3804.28
494.017	3840.44
494.387	3889.47
494.757	3939.87
495.126	4036.81
495.496	4028.23
495.866	4064.84
496.235	4162.69
496.605	4174.44
496.974	4206.08
497.344	4279.07
497.713	4290.37
498.082	4350.25
498.452	4397.71
498.821	4459.85
499.19	4491.72
499.559	4547.76
499.928	4543.92
500.298	4609.91
500.667	4691.49
501.036	4663.01
501.405	4730.36
501.774	4778.26
502.143	4815.33
502.512	4838.6
502.88	4862.78
503.249	4867.98
503.618	4927.86
503.987	4953.4
504.356	5037.47
504.724	5020.74
505.093	5050.57
505.462	5125.6
505.83	5161.76
506.199	5195.43
506.567	5244.01
506.936	5262.32
507.304	5326.5
507.672	5303
508.041	5325.59
508.409	5368.31
508.777	5514.97
509.145	5448.3
509.514	5459.6
509.882	5557.45
510.25	5503.22
510.618	5586.15
510.986	5586.83
511.354	5654.4
511.722	5687.84
512.09	5758.35
512.458	5711.57
512.826	5768.75
513.193	5824.56
513.561	5865.24
513.929	5867.05
514.297	5890.33
514.664	5937.1
515.032	5964.45
515.4	6046.03
515.767	6014.62
516.135	6013.94
516.502	6036.76
516.869	6146.82
517.237	6148.85
517.604	6135.06
517.972	6171.22
518.339	6189.07
518.706	6182.97
519.073	6248.51
519.44	6308.85
519.808	6354.27
520.175	6330.09
520.542	6400.14
520.909	6441.05
521.276	6417.32
521.643	6436.53
522.009	6522.63
522.376	6587.26
522.743	6603.3
523.11	6632.45
523.477	6667.25
523.843	6702.96
524.21	6810.53
524.577	6821.37
524.943	6868.38
525.31	6856.63
525.676	6914.03
526.043	6932.78
526.409	6935.95
526.776	7086.45
527.142	7059.79
527.508	7055.72
527.874	7116.28
528.241	7179.78
528.607	7160.57
528.973	7247.8
529.339	7232.44
529.705	7316.28
530.071	7394.92
530.437	7354.02
530.803	7463.84
531.169	7489.61
531.535	7480.57
531.901	7537.74
532.267	7622.03
532.632	7559.66
532.998	7648.25
533.364	7734.12
533.73	7707.9
534.095	7729.83
534.461	7742.03
534.826	7827.45
535.192	7857.05
535.557	7882.82
535.923	7890.95
536.288	7938.63
536.653	7977.73
537.019	7986.77
537.384	8041.68
537.749	8038.07
538.114	8100.89
538.479	8036.48
538.845	8055.69
539.21	8184.95
539.575	8165.29
539.94	8202.13
540.305	8265.63
540.67	8259.3
541.034	8306.53
541.399	8315.8
541.764	8319.87
542.129	8447.55
542.494	8494.1
542.858	8477.83
543.223	8471.5
543.587	8565.51
543.952	8565.06
544.316	8635.11
544.681	8568.45
545.045	8657.03
545.41	8681.44
545.774	8796.01
546.138	8744.49
546.503	8826.75
546.867	8825.16
547.231	8870.36
547.595	8915.56
547.959	8945.84
548.324	8968.66
548.688	9010.92
549.052	8986.97
549.416	8989.23
549.779	9068.77
550.143	9101.77
550.507	9141.77
550.871	9191.93
551.235	9211.14
551.599	9221.09
551.962	9227.41
552.326	9320.52
552.689	9376.34
553.053	9341.08
553.417	9341.08
553.78	9498.37
554.143	9388.99
554.507	9439.16
554.87	9507.41
555.234	9617.23
555.597	9553.05
555.96	9626.95
556.323	9618.14
556.686	9654.97
557.05	9763.9
557.413	9734.29
557.776	9788.75
558.139	9747.17
558.502	9831.92
558.865	9825.59
559.228	9889.09
559.59	9906.04
559.953	9951.24
560.316	10060.84
560.679	9989.65
561.041	10128.41
561.404	10125.69
561.767	10206.82
562.129	10076.2
562.492	10216.77
562.854	10203.21
563.217	10299.93
563.579	10235.75
563.941	10308.74
564.304	10346.03
564.666	10357.1
565.028	10426.48
565.39	10493.82
565.753	10549.86
566.115	10568.39
566.477	10546.7
566.839	10628.73
567.201	10648.84
567.563	10692.68
567.925	10774.04
568.287	10782.17
568.648	10768.16
569.01	10860.36
569.372	10966.8
569.734	10865.56
570.095	11002.96
570.457	11082.05
570.819	11084.54
571.18	11126.12
571.542	11173.12
571.903	11214.93
572.265	11263.07
572.626	11333.8
572.987	11375.83
573.349	11398.2
573.71	11425.1
574.071	11616.05
574.432	11587.58
574.794	11672.77
575.155	11776.5
575.516	11683.85
575.877	11853.11
576.238	11960.9
576.599	12023.72
576.96	12092.87
577.32	12188.46
577.681	12259.88
578.042	12358.86
578.403	12416.48
578.763	12555.91
579.124	12545.52
579.485	12877.26
579.845	12907.99
580.206	13041.55
580.566	13102.79
580.927	13070.93
581.287	13380.98
581.648	13396.79
582.008	13702.55
582.368	13741.19
582.728	14003.33
583.089	14045.82
583.449	14216.66
583.809	14425.02
584.169	14668.17
584.529	14755.85
584.889	15041.72
585.249	15166.01
585.609	15281.72
585.969	15556.06
586.329	15692.1
586.688	15988.36
587.048	16104.52
587.408	16255.7
587.768	16502.25
588.127	16691.4
588.487	16907.21
588.846	17265.39
589.206	17311.27
589.565	17626.97
589.925	17935.21
590.284	18112.6
590.643	18358.02
591.003	18649.31
591.362	18940.6
591.721	19074.39
592.08	19373.13
592.44	19606.35
592.799	19822.16
593.158	20073.46
593.517	20330.17
593.876	20618.75
594.235	20935.58
594.593	21196.14
594.952	21472.74
595.311	21611.27
595.67	21943.01
596.029	22324.7
596.387	22580.51
596.746	22841.74
597.104	23011.68
597.463	23240.38
597.822	23505
598.18	23655.96
598.538	23891.66
598.897	24257.98
599.255	24359.22
599.613	25017.73
599.972	24903.61
600.33	25269.93
600.688	25381.79
601.046	25839.18
601.404	26039.4
601.762	26174.54
602.12	26489.11
602.478	26765.03
602.836	26974.52
603.194	27012.71
603.552	27360.5
603.91	27456.09
604.268	27742.86
604.625	27866.7
604.983	28282.28
605.341	28315.72
605.698	28635.04
606.056	28882.72
606.413	28948.93
606.771	29230.5
607.128	29521.12
607.485	29491.96
607.843	29649.25
608.2	30039.07
608.557	30285.16
608.914	30432.28
609.272	30561.32
609.629	30777.13
609.986	31068.65
610.343	31110
610.7	31439.26
611.057	31516.77
611.414	31697.56
611.771	31857.55
612.127	32115.17
612.484	32157.43
612.841	32383.87
613.198	32405.79
613.554	32420.02
613.911	32998.31
614.267	32826.79
614.624	33094.13
614.98	33209.38
615.337	33476.94
615.693	33508.13
616.05	33487.11
616.406	33951.73
616.762	33811.4
617.118	33923.03
617.475	34075.35
617.831	34238.28
618.187	34189.02
618.543	34335.91
618.899	34673.75
619.255	34784.71
619.611	34773.63
619.967	35013.85
620.323	35213.4
620.678	35015.44
621.034	35110.12
621.39	35253.4
621.746	35268.99
622.101	35573.16
622.457	35424.46
622.812	35566.16
623.168	35777
623.523	35895.64
623.879	35932.02
624.234	35755.75
624.589	36007.27
624.945	36049.53
625.3	36247.49
625.655	36231.67
626.01	36350.09
626.365	36338.34
626.72	36351.9
627.075	36427.15
627.43	36348.73
627.785	36384.44
628.14	36456.75
628.495	36651.78
628.85	36529.75
629.205	36484.78
629.559	36830.75
629.914	36628.5
630.269	36772.68
630.623	36581.04
630.978	36542.85
631.332	36749.63
631.687	36757.76
632.041	36747.14
632.396	36811.77
632.75	36737.2
633.104	36815.84
633.459	36628.95
633.813	36723.64
634.167	36815.39
634.521	36685.67
634.875	36874.82
635.229	36767.03
635.583	36747.14
635.937	36754.6
636.291	36783.07
636.645	36665.11
636.999	36667.6
637.352	36752.11
637.706	36674.6
638.06	36703.75
638.413	36612.23
638.767	36626.69
639.121	36695.62
639.474	36564.55
639.828	36480.03
640.181	36527.26
640.534	36612.23
640.888	36478.22
641.241	36396.19
641.594	36510.31
641.947	36715.96
642.301	36453.59
642.654	36560.25
643.007	36487.71
643.36	36460.59
643.713	36467.37
644.066	36598.67
644.419	36328.4
644.771	36143.54
645.124	35864.68
645.477	35807.05
645.83	35624.91
646.182	35537.91
646.535	35487.06
646.888	35343.34
647.24	35275.32
647.593	35461.98
647.945	35477.34
648.298	35273.96
648.65	35180.18
649.002	35129.56
649.355	35323.22
649.707	35213.17
650.059	35451.81
650.411	35632.82
650.763	35857.67
651.115	36218.57
651.467	36097.44
651.819	35984
652.171	36026.93
652.523	36081.62
652.875	36071
653.227	35775.19
653.578	36187.83
653.93	35938.12
654.282	35827.84
654.633	35864.45
654.985	35880.27
655.337	35838.92
655.688	35901.74
656.039	35989.19
656.391	35605.7
656.742	35742.2
657.094	35726.6
657.445	35798.01
657.796	35707.17
658.147	35765.92
658.498	35624.01
658.849	35759.82
659.2	35716.21
659.551	35598.47
659.902	35738.81
660.253	35582.88
660.604	35700.16
660.955	35407.52
661.306	35688.64
661.656	35543.56
662.007	35604.8
662.358	35555.08
662.708	35705.81
663.059	35489.1
663.409	35351.25
663.76	35525.48
664.11	35549.88
664.461	35707.17
664.811	35589.66
665.161	35593.5
665.511	35471.02
665.862	35548.98
666.212	35541.75
666.562	35734.06
666.912	35567.51
667.262	35514.86
667.612	35475.99
667.962	35650.67
668.312	35474.86
668.662	35620.84
669.011	35399.83
669.361	35504.01
669.711	35512.6
670.06	35482.32
670.41	35382.66
670.76	35352.83
671.109	35398.93
671.459	35331.59
671.808	35388.31
672.157	35330.91
672.507	35076.68
672.856	35309.21
673.205	35242.32
673.554	35249.78
673.904	35239.61
674.253	35422.43
674.602	35190.12
674.951	34878.49
675.3	34629.68
675.649	35099.27
675.998	35063.8
676.346	35193.96
676.695	35226.73
677.044	35002.33
677.393	35047.98
677.741	35125.26
678.09	35114.87
678.438	34850.47
678.787	35021.31
679.135	34928.43
679.484	34747.42
679.832	34968.88
680.181	34790.13
680.529	34815.44
680.877	34609.8
681.225	34660.42
681.573	34827.64
681.922	34541.32
682.27	34462.46
682.618	34516.69
682.966	34413.19
683.314	34425.85
683.661	34382.46
684.009	34242.12
684.357	34148.34
684.705	34193.54
685.053	34170.49
685.4	34229.47
685.748	34033.54
686.095	34030.83
686.443	33898.85
686.79	33764.85
687.138	33766.43
687.485	33939.53
687.832	33711.29
688.18	33744.06
688.527	33570.95
688.874	33647.56
689.221	33577.96
689.568	33422.26
689.915	33345.2
690.262	33357.4
690.609	33354.01
690.956	33198.76
691.303	33021.59
691.65	32983.4
691.997	32927.58
692.344	32790.63
692.69	32662.05
693.037	32824.31
693.383	32434.49
693.73	32656.85
694.077	32470.42
694.423	32535.05
694.769	32350.87
695.116	32194.49
695.462	32175.74
695.808	32005.34
696.155	32035.17
696.501	31842.41
696.847	31910.43
697.193	31717.67
697.539	31799.02
697.885	31579.82
698.231	31489.88
698.577	31578.46
698.923	31391.35
699.269	31241.3
699.614	31104.35
699.96	31243.11
700.306	31088.08
700.651	31031.81
700.997	30764.47
701.342	30878.14
701.688	30833.17
702.033	30672.5
702.379	30686.74
702.724	30554.54
703.069	30517.7
703.415	30204.26
703.76	30304.6
704.105	30310.93
704.45	30220.31
704.795	30007.21
705.14	29885.4
705.485	29931.73
705.83	29853.76
706.175	29832.52
706.52	29684.73
706.865	29574.9
707.209	29526.54
707.554	29534.68
707.899	29492.19
708.243	29338.3
708.588	29395.92
708.932	29153.89
709.277	29073.9
709.621	29124.52
709.966	28883.62
710.31	29039.1
710.654	28816.73
710.998	28919.78
711.342	28856.73
711.687	28711.87
712.031	28677.07
712.375	28648.82
712.719	28559.11
713.063	28610.63
713.407	28620.58
713.75	28388.94
714.094	28492.22
714.438	28250.19
714.782	28325.67
715.125	28132.68
715.469	28103.3
715.812	28048.84
716.156	27960.03
716.499	28027.14
716.843	27974.04
717.186	27835.96
717.53	27908.96
717.873	27962.29
718.216	27726.81
718.559	27682.52
718.902	27580.6
719.246	27547.83
719.589	27536.54
719.932	27429.42
720.275	27354.85
720.617	27431.68
720.96	27212.7
721.303	27348.29
721.646	27331.8
721.989	27092.03
722.331	27281.63
722.674	27086.15
723.016	27122.54
723.359	27095.19
723.701	27068.75
724.044	26877.8
724.386	26827.18
724.729	26856.1
725.071	26850.68
725.413	26843.22
725.755	26687.97
726.097	26628.99
726.439	26558.71
726.782	26514.19
727.124	26586.96
727.465	26533.4
727.807	26448.65
728.149	26345.15
728.491	26388.32
728.833	26459.28
729.175	26201.88
729.516	26208.66
729.858	26191.71
730.199	26151.94
730.541	26154.2
730.882	26029.91
731.224	26241.88
731.565	26044.37
731.906	26061.32
732.248	26053.86
732.589	25880.99
732.93	25765.06
733.271	25776.58
733.612	25862.23
733.953	25758.28
734.294	25751.5
734.635	25661.78
734.976	25784.27
735.317	25535.23
735.658	25506.31
735.999	25516.7
736.339	25485.74
736.68	25559.19
737.021	25488.91
737.361	25416.37
737.702	25596.93
738.042	25411.62
738.383	25350.83
738.723	25455.23
739.063	25347.21
739.404	25323.03
739.744	25222.47
740.084	25111.06
740.424	25198.74
740.764	25126.88
741.104	25132.76
741.444	25000.11
741.784	25026.09
742.124	25035.58
742.464	24972.76
742.804	24904.51
743.143	24820.68
743.483	24791.3
743.823	24766.67
744.162	24711.75
744.502	24746.33
744.841	24665.88
745.181	24748.59
745.52	24701.81
745.86	24670.17
746.199	24549.72
746.538	24523.96
746.877	24693.9
747.216	24558.08
747.556	24408.26
747.895	24449.61
748.234	24463.85
748.573	24331.65
748.911	24256.4
749.25	24330.29
749.589	24093.91
749.928	24209.39
750.267	24260.69
750.605	24113.12
750.944	23965.33
751.283	23990.41
751.621	24070.41
751.96	23963.07
752.298	23878.33
752.636	23931.88
752.975	23743.87
753.313	23738.9
753.651	23864.77
753.989	23771.44
754.327	23678.33
754.666	23542.29
755.004	23766.69
755.342	23689.18
755.679	23517.43
756.017	23549.97
756.355	23636.3
756.693	23405.8
757.031	23411.45
757.368	23250.09
757.706	23297.1
758.044	23334.84
758.381	23278.57
758.719	23107.27
759.056	23164.45
759.394	23118.12
759.731	22846.49
760.068	22926.71
