Data from hue_240_FLMS001491_00059.txt Node
Date: Tue Feb 07 16:35:41 GMT 2017
User: dcchb
Spectrometer: FLMS00149
Trigger mode: 0
Integration Time (sec): 2.000000E-2
Scans to average: 10
Electric dark correction enabled: true
Nonlinearity correction enabled: false
Boxcar width: 0
XAxis mode: Wavelengths
Number of Pixels in Spectrum: 2048
>>>>>Begin Spectral Data<<<<<
341.393	-22.89
341.776	-22.89
342.16	-22.89
342.543	-62.44
342.927	-55.21
343.31	-64.93
343.693	-61.54
344.077	-52.95
344.46	-49.33
344.843	-66.51
345.226	-37.13
345.61	-42.33
345.993	-14.76
346.376	-8.21
346.759	-1.2
347.142	36.09
347.525	29.99
347.908	62.98
348.291	73.15
348.674	93.71
349.057	102.98
349.44	114.05
349.823	149.98
350.206	162.64
350.588	188.17
350.971	196.31
351.354	212.13
351.737	215.97
352.119	247.61
352.502	244.89
352.884	283.09
353.267	272.92
353.65	286.93
354.032	310.2
354.414	305.23
354.797	323.54
355.179	318.11
355.562	300.26
355.944	321.5
356.326	311.33
356.709	333.93
357.091	315.85
357.473	325.57
357.855	334.16
358.238	344.55
358.62	356.53
359.002	343.42
359.384	326.02
359.766	354.04
360.148	330.54
360.53	327.83
360.912	312.01
361.294	326.47
361.676	327.6
362.057	313.59
362.439	335.74
362.821	317.89
363.203	330.32
363.584	327.38
363.966	347.04
364.348	325.57
364.729	322.18
365.111	309.75
365.493	322.41
365.874	330.54
366.256	309.3
366.637	308.4
367.019	303.88
367.4	318.34
367.781	310.43
368.163	320.6
368.544	315.63
368.925	309.07
369.306	304.1
369.688	322.18
370.069	307.94
370.45	307.04
370.831	293.93
371.212	326.93
371.593	312.69
371.974	331.45
372.355	312.01
372.736	302.97
373.117	312.46
373.498	310.66
373.879	303.65
374.26	315.63
374.641	301.39
375.021	282.86
375.402	319.02
375.783	298.68
376.163	338.68
376.544	344.78
376.925	314.5
377.305	301.39
377.686	319.24
378.066	317.89
378.447	326.02
378.827	313.37
379.208	315.18
379.588	321.28
379.968	328.28
380.349	338.9
380.729	326.25
381.109	351.33
381.489	332.58
381.87	327.15
382.25	327.83
382.63	312.69
383.01	357.66
383.39	339.36
383.77	341.39
384.15	337.55
384.53	347.72
384.91	342.97
385.29	341.16
385.67	328.73
386.049	349.52
386.429	360.37
386.809	337.77
387.189	355.63
387.568	366.93
387.948	359.92
388.328	343.42
388.707	375.74
389.087	375.06
389.466	360.6
389.846	377.32
390.225	379.13
390.605	342.07
390.984	342.07
391.363	347.26
391.743	350.88
392.122	356.76
392.501	364.89
392.881	378
393.26	370.32
393.639	385.91
394.018	369.19
394.397	387.49
394.776	383.42
395.155	388.62
395.534	369.86
395.913	376.64
396.292	391.33
396.671	386.81
397.05	357.66
397.429	386.59
397.808	394.04
398.186	370.77
398.565	401.27
398.944	394.04
399.323	397.66
399.701	406.02
400.08	401.5
400.458	399.24
400.837	410.77
401.215	408.51
401.594	407.6
401.972	392.01
402.351	411.9
402.729	393.59
403.107	434.04
403.486	404.44
403.864	415.29
404.242	422.07
404.62	420.26
404.999	414.61
405.377	444.66
405.755	421.84
406.133	438.79
406.511	456.41
406.889	455.74
407.267	443.31
407.645	457.54
408.023	446.25
408.401	455.74
408.779	460.71
409.156	492.8
409.534	453.02
409.912	487.37
410.29	473.36
410.667	504.1
411.045	498
411.422	502.06
411.8	499.13
412.178	499.35
412.555	513.59
412.933	518.33
413.31	535.73
413.687	532.34
414.065	537.99
414.442	561.5
414.819	552.68
415.197	555.4
415.574	576.64
415.951	577.77
416.328	563.98
416.705	586.35
417.082	583.87
417.46	555.85
417.837	577.09
418.214	587.03
418.591	577.99
418.967	610.99
419.344	615.73
419.721	632.91
420.098	628.61
420.475	651.66
420.852	638.78
421.228	672.23
421.605	658.22
421.982	657.31
422.358	685.34
422.735	667.03
423.111	681.49
423.488	676.75
423.864	725.11
424.241	735.05
424.617	716.29
424.994	731.89
425.37	730.98
425.746	734.37
426.123	737.31
426.499	781.83
426.875	771.43
427.251	785.45
427.627	793.35
428.003	798.33
428.379	788.16
428.756	810.53
429.132	818.89
429.507	850.3
429.883	830.87
430.259	864.54
430.635	863.64
431.011	862.96
431.387	886.01
431.763	878.1
432.138	904.54
432.514	913.13
432.89	933.92
433.265	933.69
433.641	944.09
434.016	940.47
434.392	980.24
434.767	992.22
435.143	988.38
435.518	993.12
435.894	1022.95
436.269	1037.87
436.644	1061.6
437.02	1081.93
437.395	1079.9
437.77	1092.56
438.145	1129.84
438.52	1107.24
438.895	1114.25
439.271	1134.81
439.646	1174.81
440.021	1197.19
440.395	1198.99
440.77	1196.28
441.145	1227.24
441.52	1243.06
441.895	1234.02
442.27	1245.77
442.645	1229.73
443.019	1271.99
443.394	1261.82
443.769	1290.06
444.143	1263.17
444.518	1300.01
444.892	1276.96
445.267	1295.94
445.641	1341.82
446.016	1323.51
446.39	1351.76
446.764	1343.4
447.139	1370.29
447.513	1364.41
447.887	1365.54
448.262	1401.25
448.636	1415.94
449.01	1429.72
449.384	1424.3
449.758	1450.96
450.132	1462.26
450.506	1446.67
450.88	1462.26
451.254	1452.55
451.628	1459.55
452.002	1479.89
452.376	1502.94
452.75	1548.59
453.123	1527.57
453.497	1561.7
453.871	1557.18
454.244	1577.29
454.618	1584.29
454.992	1648.93
455.365	1601.47
455.739	1690.28
456.112	1685.76
456.486	1688.7
456.859	1700.22
457.232	1724.18
457.606	1711.52
457.979	1737.51
458.352	1791.52
458.725	1776.83
459.099	1827.23
459.472	1823.38
459.845	1848.69
460.218	1871.97
460.591	1883.04
460.964	1892.31
461.337	1924.62
461.71	1940.22
462.083	1953.32
462.456	1978.18
462.829	1967.34
463.201	2026.99
463.574	2005.98
463.947	2047.11
464.32	2038.52
464.692	2089.82
465.065	2143.6
465.438	2143.15
465.81	2193.54
466.183	2196.71
466.555	2218.18
466.928	2211.62
467.3	2191.74
467.672	2295.69
468.045	2323.48
468.417	2333.43
468.789	2356.48
469.161	2371.17
469.534	2428.57
469.906	2450.71
470.278	2478.96
470.65	2456.59
471.022	2511.5
471.394	2574.78
471.766	2594.44
472.138	2634.66
472.51	2617.49
472.882	2641.44
473.253	2702.01
473.625	2738.61
473.997	2824.04
474.369	2758.05
474.74	2831.95
475.112	2889.34
475.484	2935.45
475.855	2941.09
476.227	2959.17
476.598	3031.94
476.97	3040.98
477.341	3121.88
477.713	3141.32
478.084	3199.62
478.455	3253.86
478.827	3293.85
479.198	3346.51
479.569	3344.02
479.94	3447.07
480.311	3484.36
480.682	3506.05
481.053	3570.91
481.424	3590.8
481.795	3641.87
482.166	3759.38
482.537	3743.11
482.908	3810.22
483.279	3826.5
483.65	3920.5
484.021	3955.31
484.391	3951.24
484.762	4004.12
485.133	4049.09
485.503	4122.31
485.874	4192.36
486.244	4212.7
486.615	4297.67
486.985	4295.64
487.356	4422.41
487.726	4434.39
488.097	4487.04
488.467	4526.36
488.837	4556.87
489.207	4646.13
489.578	4658.56
489.948	4703.76
490.318	4783.53
490.688	4820.59
491.058	4869.63
491.428	4926.13
491.798	4942.85
492.168	5033.47
492.538	5041.15
492.908	5074.15
493.278	5144.43
493.648	5159.79
494.017	5172.45
494.387	5255.84
494.757	5287.93
495.126	5367.7
495.496	5309.62
495.866	5348.72
496.235	5408.83
496.605	5430.3
496.974	5511.2
497.344	5487.24
497.713	5537.18
498.082	5559.11
498.452	5598.43
498.821	5604.53
499.19	5618.31
499.559	5673.23
499.928	5684.07
500.298	5719.33
500.667	5794.81
501.036	5722.94
501.405	5806.1
501.774	5828.7
502.143	5875.71
502.512	5812.88
502.88	5894.69
503.249	5936.04
503.618	5926.55
503.987	5937.63
504.356	5983.05
504.724	5983.05
505.093	6012.65
505.462	6041.58
505.83	6083.16
506.199	6103.72
506.567	6149.37
506.936	6088.36
507.304	6186.43
507.672	6154.12
508.041	6205.42
508.409	6226.88
508.777	6253.32
509.145	6343.27
509.514	6241.12
509.882	6331.51
510.25	6297.62
510.618	6389.37
510.986	6362.25
511.354	6452.42
511.722	6419.42
512.09	6467.56
512.458	6510.94
512.826	6513.66
513.193	6455.8
513.561	6497.16
513.929	6523.83
514.297	6637.27
514.664	6634.11
515.032	6616.03
515.4	6688.12
515.767	6649.47
516.135	6628.46
516.502	6593.88
516.869	6720.43
517.237	6661.9
517.604	6668
517.972	6794.33
518.339	6736.93
518.706	6786.19
519.073	6753.2
519.44	6716.81
519.808	6827.55
520.175	6797.49
520.542	6850.14
520.909	6893.99
521.276	6882.91
521.643	6903.02
522.009	6937.37
522.376	6972.18
522.743	6950.26
523.11	6985.06
523.477	7018.73
523.843	6975.57
524.21	7044.49
524.577	7063.92
524.943	7002.68
525.31	7097.6
525.676	7123.81
526.043	7118.16
526.409	7173.98
526.776	7211.72
527.142	7162.23
527.508	7189.57
527.874	7258.27
528.241	7174.43
528.607	7229.57
528.973	7291.04
529.339	7258.95
529.705	7318.16
530.071	7324.48
530.437	7327.87
530.803	7398.38
531.169	7362.67
531.535	7296.46
531.901	7254.88
532.267	7371.71
532.632	7374.65
532.998	7331.26
533.364	7379.4
533.73	7410.13
534.095	7402.45
534.461	7361.54
534.826	7356.35
535.192	7407.42
535.557	7415.55
535.923	7435.21
536.288	7330.36
536.653	7417.36
537.019	7379.4
537.384	7362
537.749	7338.95
538.114	7347.53
538.479	7409.23
538.845	7322.9
539.21	7302.56
539.575	7329.23
539.94	7387.98
540.305	7315.9
540.67	7344.82
541.034	7385.05
541.399	7337.59
541.764	7390.24
542.129	7406.97
542.494	7362.22
542.858	7355.67
543.223	7300.98
543.587	7436.34
543.952	7317.03
544.316	7388.44
544.681	7324.93
545.045	7270.47
545.41	7336.23
545.774	7391.6
546.138	7317.03
546.503	7294.88
546.867	7300.75
547.231	7351.83
547.595	7324.93
547.959	7358.38
548.324	7267.76
548.688	7302.56
549.052	7296.69
549.416	7268.89
549.779	7334.2
550.143	7265.05
550.507	7282.22
550.871	7299.4
551.235	7270.02
551.599	7306.4
551.962	7312.51
552.326	7252.39
552.689	7312.05
553.053	7279.29
553.417	7267.76
553.78	7380.75
554.143	7276.12
554.507	7336.01
554.87	7284.71
555.234	7385.95
555.597	7282.68
555.96	7266.4
556.323	7341.21
556.686	7307.99
557.05	7403.8
557.413	7378.49
557.776	7355.22
558.139	7427.08
558.502	7348.21
558.865	7358.38
559.228	7394.99
559.59	7412.84
559.953	7430.24
560.316	7441.54
560.679	7500.98
561.041	7497.81
561.404	7513.86
561.767	7553.63
562.129	7448.32
562.492	7573.52
562.854	7512.27
563.217	7520.18
563.579	7621.88
563.941	7557.02
564.304	7608.77
564.666	7639.5
565.028	7623.23
565.39	7680.86
565.753	7693.96
566.115	7726.96
566.477	7733.06
566.839	7745.71
567.201	7779.61
567.563	7748.43
567.925	7822.1
568.287	7787.75
568.648	7860.97
569.01	7820.06
569.372	7903.9
569.734	7869.33
570.095	7981.87
570.457	7991.58
570.819	7895.54
571.18	7953.62
571.542	8049.44
571.903	8079.26
572.265	8051.24
572.626	8053.5
572.987	8053.28
573.349	8106.16
573.71	8027.97
574.071	8101.19
574.432	8152.71
574.794	8211.92
575.155	8125.14
575.516	8115.87
575.877	8157
576.238	8235.19
576.599	8203.56
576.96	8245.36
577.32	8302.54
577.681	8291.46
578.042	8302.54
578.403	8348.64
578.763	8303.44
579.124	8375.53
579.485	8393.83
579.845	8432.48
580.206	8470.22
580.566	8401.97
580.927	8416.66
581.287	8443.32
581.648	8431.57
582.008	8481.51
582.368	8491.91
582.728	8586.37
583.089	8519.03
583.449	8479.48
583.809	8463.21
584.169	8534.62
584.529	8518.12
584.889	8553.15
585.249	8570.55
585.609	8552.7
585.969	8569.87
586.329	8636.09
586.688	8604.67
587.048	8530.55
587.408	8560.16
587.768	8618.69
588.127	8595.64
588.487	8641.96
588.846	8702.98
589.206	8648.52
589.565	8604.67
589.925	8766.48
590.284	8639.93
590.643	8705.46
591.003	8701.17
591.362	8733.03
591.721	8723.99
592.08	8745.24
592.44	8760.6
592.799	8732.81
593.158	8749.76
593.517	8763.77
593.876	8729.19
594.235	8746.37
594.593	8773.48
594.952	8760.83
595.311	8798.79
595.67	8779.36
596.029	8830.88
596.387	8845.8
596.746	8828.85
597.104	8779.36
597.463	8787.27
597.822	8857.32
598.18	8751.79
598.538	8856.19
598.897	8922.41
599.255	8788.4
599.613	8971.9
599.972	8888.96
600.33	8930.77
600.688	8827.49
601.046	8922.63
601.404	8949.3
601.762	8917.21
602.12	8983.42
602.478	8970.77
602.836	8981.39
603.194	8902.75
603.552	8904.1
603.91	8975.96
604.268	8975.96
604.625	8958.11
604.983	8965.12
605.341	8968.96
605.698	9017.09
606.056	9077.2
606.413	8942.75
606.771	8999.92
607.128	9058.67
607.485	9037.88
607.843	9005.34
608.2	9046.02
608.557	8992.01
608.914	9041.27
609.272	9089.41
609.629	9060.26
609.986	9090.54
610.343	9100.03
610.7	9151.78
611.057	9110.42
611.414	9131.67
611.771	9156.3
612.127	9168.95
612.484	9179.58
612.841	9078.56
613.198	9152.91
613.554	9115.85
613.911	9199.24
614.267	9169.41
614.624	9252.57
614.98	9174.38
615.337	9204.43
615.693	9266.58
616.05	9222.74
616.406	9210.31
616.762	9260.93
617.118	9223.19
617.475	9200.14
617.831	9331.21
618.187	9300.7
618.543	9271.32
618.899	9320.36
619.255	9245.34
619.611	9261.61
619.967	9339.12
620.323	9358.78
620.678	9294.6
621.034	9273.13
621.39	9321.72
621.746	9270.65
622.101	9325.11
622.457	9273.13
622.812	9301.38
623.168	9325.11
623.523	9323.98
623.879	9387.71
624.234	9358.33
624.589	9301.61
624.945	9298.67
625.3	9318.78
625.655	9339.57
626.01	9387.93
626.365	9361.27
626.72	9372.34
627.075	9304.32
627.43	9222.51
627.785	9318.78
628.14	9282.85
628.495	9318.55
628.85	9271.55
629.205	9182.96
629.559	9280.59
629.914	9223.64
630.269	9250.08
630.623	9254.38
630.978	9247.6
631.332	9216.64
631.687	9290.98
632.041	9246.01
632.396	9173.25
632.75	9188.39
633.104	9176.86
633.459	9146.36
633.813	9139.35
634.167	9160.82
634.521	9140.25
634.875	9174.83
635.229	9158.11
635.583	9057.09
635.937	9046.25
636.291	9130.31
636.645	9114.49
636.999	9052.8
637.352	9092.12
637.706	9012.12
638.06	9086.92
638.413	9048.73
638.767	9046.02
639.121	9040.6
639.474	8961.05
639.828	8957.66
640.181	9046.02
640.534	8990.43
640.888	9008.51
641.241	8986.59
641.594	9001.95
641.947	8963.08
642.301	8974.83
642.654	8901.62
643.007	8974.16
643.36	8919.92
643.713	8846.02
644.066	8937.32
644.419	8781.62
644.771	8755.63
645.124	8733.03
645.477	8739.36
645.83	8635.41
646.182	8615.75
646.535	8580.95
646.888	8643.09
647.24	8511.34
647.593	8627.27
647.945	8578.23
648.298	8566.03
648.65	8488.07
649.002	8517.9
649.355	8620.95
649.707	8565.35
650.059	8602.64
650.411	8707.5
650.763	8699.59
651.115	8780.04
651.467	8736.87
651.819	8775.07
652.171	8697.1
652.523	8727.38
652.875	8662.75
653.227	8654.84
653.578	8779.36
653.93	8686.48
654.282	8714.95
654.633	8647.39
654.985	8622.08
655.337	8685.58
655.688	8710.89
656.039	8737.78
656.391	8600.83
656.742	8672.02
657.094	8698.23
657.445	8727.84
657.796	8694.16
658.147	8691.9
658.498	8658.68
658.849	8648.52
659.2	8687.61
659.551	8662.75
659.902	8693.71
660.253	8707.5
660.604	8647.61
660.955	8633.15
661.306	8683.99
661.656	8673.83
662.007	8734.61
662.358	8698.01
662.708	8657.55
663.059	8636.09
663.409	8601.96
663.76	8665.01
664.11	8706.37
664.461	8699.81
664.811	8680.15
665.161	8707.5
665.511	8681.28
665.862	8722.41
666.212	8684.9
666.562	8698.01
666.912	8659.36
667.262	8659.14
667.612	8612.13
667.962	8662.75
668.312	8653.04
668.662	8680.83
669.011	8707.05
669.361	8660.04
669.711	8652.58
670.06	8674.05
670.41	8651
670.76	8607.61
671.109	8682.41
671.459	8566.26
671.808	8644
672.157	8600.61
672.507	8540.95
672.856	8568.52
673.205	8571
673.554	8558.12
673.904	8589.08
674.253	8630.66
674.602	8523.32
674.951	8467.5
675.3	8374.85
675.649	8485.36
675.998	8563.55
676.346	8449.42
676.695	8560.61
677.044	8521.97
677.393	8533.72
677.741	8538.46
678.09	8463.44
678.438	8521.97
678.787	8509.31
679.135	8450.1
679.484	8430.22
679.832	8431.35
680.181	8404.23
680.529	8449.88
680.877	8390.9
681.225	8381.63
681.573	8448.29
681.922	8309.32
682.27	8340.95
682.618	8346.38
682.966	8300.73
683.314	8333.72
683.661	8306.38
684.009	8270.45
684.357	8262.99
684.705	8237
685.053	8225.48
685.4	8275.42
685.748	8176.66
686.095	8212.59
686.443	8170.34
686.79	8142.77
687.138	8122.65
687.485	8192.03
687.832	8073.16
688.18	8127.4
688.527	8026.61
688.874	8006.5
689.221	7961.98
689.568	7980.96
689.915	7965.37
690.262	8011.7
690.609	7907.97
690.956	7923.79
691.303	7881.98
691.65	7788.65
691.997	7879.27
692.344	7843.56
692.69	7753.62
693.037	7784.36
693.383	7723.34
693.73	7790.68
694.077	7693.96
694.423	7708.2
694.769	7668.43
695.116	7653.06
695.462	7598.83
695.808	7591.82
696.155	7610.12
696.501	7496.46
696.847	7545.49
697.193	7474.99
697.539	7518.83
697.885	7443.8
698.231	7394.31
698.577	7392.73
698.923	7412.16
699.269	7379.62
699.614	7368.1
699.96	7332.17
700.306	7298.95
700.651	7277.03
700.997	7269.34
701.342	7231.83
701.688	7211.04
702.033	7187.76
702.379	7139.4
702.724	7172.85
703.069	7143.24
703.415	7029.12
703.76	7009.01
704.105	7084.26
704.45	7045.39
704.795	7065.05
705.14	6983.47
705.485	6988.67
705.83	6960.88
706.175	6963.36
706.52	6980.99
706.865	6914.32
707.209	6881.33
707.554	6872.07
707.899	6887.21
708.243	6883.14
708.588	6852.63
708.932	6795.46
709.277	6756.36
709.621	6813.99
709.966	6726.76
710.31	6745.74
710.654	6653.99
710.998	6693.99
711.342	6713.65
711.687	6657.16
712.031	6615.8
712.375	6656.48
712.719	6688.12
713.063	6613.77
713.407	6663.93
713.75	6615.57
714.094	6624.39
714.438	6591.85
714.782	6585.74
715.125	6556.59
715.469	6558.4
715.812	6561.56
716.156	6477.95
716.499	6482.47
716.843	6501.68
717.186	6450.16
717.53	6439.99
717.873	6488.57
718.216	6495.58
718.559	6438.4
718.902	6385.75
719.246	6411.06
719.589	6418.29
719.932	6370.61
720.275	6337.16
720.617	6383.72
720.96	6383.26
721.303	6351.63
721.646	6428.01
721.989	6332.19
722.331	6336.49
722.674	6315.24
723.016	6334.23
723.359	6301.01
723.701	6312.98
724.044	6256.49
724.386	6227.79
724.729	6285.19
725.071	6226.21
725.413	6285.87
725.755	6260.78
726.097	6226.88
726.439	6229.6
726.782	6202.25
727.124	6272.53
727.465	6169.48
727.807	6188.47
728.149	6251.29
728.491	6176.04
728.833	6201.8
729.175	6213.55
729.516	6163.84
729.858	6214.23
730.199	6166.32
730.541	6119.32
730.882	6138.75
731.224	6224.85
731.565	6152.54
731.906	6160.22
732.248	6159.09
732.589	6166.09
732.93	6161.8
733.271	6184.17
733.612	6150.5
733.953	6109.37
734.294	6113.44
734.635	6129.94
734.976	6176.49
735.317	6132.88
735.658	6171.07
735.999	6114.34
736.339	6153.67
736.68	6178.98
737.021	6169.71
737.361	6172.65
737.702	6181.69
738.042	6125.19
738.383	6118.64
738.723	6136.94
739.063	6130.62
739.404	6176.26
739.744	6183.04
740.084	6100.11
740.424	6194.34
740.764	6133.78
741.104	6181.24
741.444	6198.18
741.784	6155.93
742.124	6205.19
742.464	6197.05
742.804	6215.36
743.143	6230.73
743.483	6210.61
743.823	6222.59
744.162	6205.19
744.502	6245.87
744.841	6211.29
745.181	6271.4
745.52	6294.23
745.86	6320.89
746.199	6381.23
746.538	6343.72
746.877	6380.55
747.216	6389.37
747.556	6456.48
747.895	6459.42
748.234	6470.72
748.573	6509.36
748.911	6552.3
749.25	6528.57
749.589	6552.07
749.928	6591.62
750.267	6647.21
750.605	6631.85
750.944	6679.53
751.283	6728.79
751.621	6830.71
751.96	6854.44
752.298	6828.22
752.636	6917.94
752.975	6921.78
753.313	6997.03
753.651	7095.34
753.989	7128.56
754.327	7174.43
754.666	7230.47
755.004	7322
755.342	7435.89
755.679	7427.98
756.017	7456
756.355	7595.89
756.693	7652.61
757.031	7654.19
757.368	7812.15
757.706	7865.26
758.044	7952.04
758.381	8077.23
758.719	8155.42
759.056	8270.45
759.394	8273.61
759.731	8386.6
760.068	8469.31
760.405	8542.08
760.743	8631.34
761.08	8716.31
761.417	8776.42
761.754	8916.08
762.091	9040.6
762.428	9071.33
762.765	9166.47
763.102	9271.55
763.438	9347.71
763.775	9384.54
764.112	9548.15
764.449	9693.01
764.785	9604.87
765.122	9769.84
765.458	9853.23
765.795	9976.84
766.131	9991.08
766.467	9991.76
766.804	10111.98
767.14	10214.58
767.476	10297.96
767.812	10328.25
768.148	10424.29
768.485	10475.36
768.821	10513.33
769.157	10584.06
769.492	10685.52
