Data from hue_250_FLMS001491_00066.txt Node
Date: Tue Feb 07 16:01:18 GMT 2017
User: dcchb
Spectrometer: FLMS00149
Trigger mode: 0
Integration Time (sec): 2.000000E-2
Scans to average: 10
Electric dark correction enabled: true
Nonlinearity correction enabled: false
Boxcar width: 0
XAxis mode: Wavelengths
Number of Pixels in Spectrum: 2048
>>>>>Begin Spectral Data<<<<<
341.393	-13.69
341.776	-13.69
342.16	-13.69
342.543	-56.4
342.927	-62.27
343.31	-83.74
343.693	-68.15
344.077	-53.01
344.46	-58.43
344.843	-51.65
345.226	-33.35
345.61	-36.51
345.993	-8.49
346.376	9.36
346.759	6.2
347.142	33.77
347.525	42.58
347.908	45.97
348.291	74.45
348.674	63.6
349.057	117.38
349.44	120.32
349.823	156.7
350.206	142.92
350.588	158.29
350.971	210.94
351.354	234.22
351.737	224.73
352.119	242.8
352.502	240.77
352.884	251.84
353.267	284.16
353.65	283.26
354.032	298.17
354.414	299.53
354.797	311.28
355.179	322.12
355.562	299.07
355.944	315.8
356.326	329.13
356.709	338.17
357.091	337.04
357.473	339.98
357.855	324.38
358.238	325.51
358.62	337.04
359.002	335.46
359.384	347.66
359.766	322.35
360.148	328.68
360.53	339.3
360.912	332.97
361.294	310.15
361.676	337.94
362.057	325.97
362.439	327.1
362.821	350.37
363.203	332.29
363.584	317.38
363.966	301.56
364.348	326.42
364.729	322.58
365.111	302.24
365.493	317.38
365.874	316.47
366.256	317.6
366.637	345.17
367.019	321.22
367.4	309.92
367.781	315.57
368.163	307.21
368.544	320.09
368.925	312.18
369.306	309.47
369.688	318.73
370.069	302.01
370.45	323.93
370.831	330.26
371.212	298.62
371.593	310.15
371.974	295.91
372.355	306.53
372.736	307.89
373.117	305.85
373.498	297.27
373.879	321.9
374.26	309.92
374.641	321.9
375.021	311.28
375.402	315.34
375.783	315.57
376.163	315.34
376.544	328.23
376.925	318.51
377.305	322.58
377.686	336.81
378.066	307.89
378.447	328.9
378.827	321.9
379.208	341.56
379.588	327.55
379.968	317.15
380.349	323.71
380.729	339.3
381.109	339.52
381.489	330.03
381.87	345.63
382.25	333.2
382.63	336.36
383.01	358.73
383.39	345.17
383.77	333.2
384.15	342.69
384.53	330.03
384.91	332.52
385.29	316.25
385.67	357.6
386.049	351.28
386.429	369.13
386.809	371.61
387.189	354.44
387.568	357.83
387.948	353.54
388.328	351.05
388.707	373.65
389.087	354.89
389.466	375.91
389.846	375.23
390.225	355.34
390.605	369.35
390.984	367.09
391.363	393.31
391.743	381.33
392.122	372.52
392.501	365.06
392.881	379.52
393.26	399.41
393.639	402.57
394.018	388.34
394.397	384.5
394.776	374.78
395.155	401.44
395.534	386.08
395.913	392.86
396.292	398.28
396.671	396.7
397.05	391.05
397.429	425.4
397.808	405.96
398.186	408
398.565	401.44
398.944	403.03
399.323	428.56
399.701	434.44
400.08	449.58
400.458	429.92
400.837	436.02
401.215	419.97
401.594	416.13
401.972	425.85
402.351	432.4
402.729	428.11
403.107	446.41
403.486	453.87
403.864	445.06
404.242	444.38
404.62	438.96
404.999	456.81
405.377	464.27
405.755	478.73
406.133	479.86
406.511	469.92
406.889	478.73
407.267	490.26
407.645	467.66
408.023	481.89
408.401	490.03
408.779	494.55
409.156	505.17
409.534	533.64
409.912	538.16
410.29	515.57
410.667	549.46
411.045	539.07
411.422	557.15
411.8	539.97
412.178	541.78
412.555	549.46
412.933	560.54
413.31	570.93
413.687	583.13
414.065	594.43
414.442	599.86
414.819	617.71
415.197	622.46
415.574	622.46
415.951	631.49
416.328	641.89
416.705	640.31
417.082	635.34
417.46	645.28
417.837	673.3
418.214	666.07
418.591	658.16
418.967	666.75
419.344	690.7
419.721	699.29
420.098	675.79
420.475	717.37
420.852	740.87
421.228	730.25
421.605	732.06
421.982	743.36
422.358	769.34
422.735	738.61
423.111	758.72
423.488	778.38
423.864	786.07
424.241	833.3
424.617	800.98
424.994	817.48
425.37	831.04
425.746	869.45
426.123	853.86
426.499	877.82
426.875	854.99
427.251	884.82
427.627	888.44
428.003	900.41
428.379	927.53
428.756	924.37
429.132	942.45
429.507	913.75
429.883	978.83
430.259	986.97
430.635	989.23
431.011	975.21
431.387	992.62
431.763	1027.42
432.138	1037.36
432.514	1036
432.89	1050.47
433.265	1093.63
433.641	1097.47
434.016	1102.67
434.392	1137.02
434.767	1136.57
435.143	1115.55
435.518	1162.33
435.894	1178.15
436.269	1194.42
436.644	1215.21
437.02	1231.93
437.395	1221.76
437.77	1255.43
438.145	1284.81
438.52	1289.78
438.895	1294.98
439.271	1321.19
439.646	1348.99
440.021	1341.31
440.395	1384.7
440.77	1368.2
441.145	1392.15
441.52	1391.47
441.895	1435.09
442.27	1443.9
442.645	1443.22
443.019	1452.04
443.394	1481.42
443.769	1468.99
444.143	1474.41
444.518	1515.31
444.892	1522.32
445.267	1511.47
445.641	1523.9
446.016	1530.91
446.39	1595.99
446.764	1573.62
447.139	1572.26
447.513	1597.57
447.887	1587.85
448.262	1602.99
448.636	1626.95
449.01	1634.63
449.384	1668.08
449.758	1644.35
450.132	1680.96
450.506	1659.94
450.88	1680.73
451.254	1705.59
451.628	1710.34
452.002	1736.55
452.376	1740.84
452.75	1782.65
453.123	1790.33
453.497	1822.42
453.871	1845.02
454.244	1835.08
454.618	1834.63
454.992	1850.9
455.365	1874.17
455.739	1926.15
456.112	1966.83
456.486	1933.61
456.859	1963.89
457.232	1991.68
457.606	2000.05
457.979	2047.73
458.352	2082.53
458.725	2075.98
459.099	2090.67
459.472	2118.69
459.845	2197.33
460.218	2175.63
460.591	2175.41
460.964	2190.78
461.337	2222.41
461.71	2284.56
462.083	2308.29
462.456	2291.11
462.829	2321.39
463.201	2372.47
463.574	2360.04
463.947	2411.11
464.32	2425.12
464.692	2462.63
465.065	2477.55
465.438	2488.17
465.81	2531.11
466.183	2567.49
466.555	2604.78
466.928	2610.2
467.3	2650.42
467.672	2710.08
468.045	2697.2
468.417	2726.35
468.789	2753.25
469.161	2771.78
469.534	2849.52
469.906	2881.61
470.278	2921.15
470.65	2913.02
471.022	2972
471.394	3036.86
471.766	3041.15
472.138	3073.24
472.51	3176.74
472.882	3170.19
473.253	3211.31
473.625	3240.47
473.997	3279.33
474.369	3317.53
474.74	3299
475.112	3407.92
475.484	3472.78
475.855	3515.03
476.227	3525.66
476.598	3585.99
476.97	3636.39
477.341	3717.97
477.713	3774.69
478.084	3723.84
478.455	3878.64
478.827	3913.89
479.198	4019.88
479.569	3995.93
479.94	4055.36
480.311	4128.8
480.682	4193.66
481.053	4280.44
481.424	4395.69
481.795	4339.42
482.166	4456.25
482.537	4501.22
482.908	4594.1
483.279	4572.86
483.65	4707.09
484.021	4740.77
484.391	4788
484.762	4839.07
485.133	4835.45
485.503	4956.13
485.874	5040.64
486.244	5079.06
486.615	5136.91
486.985	5193.18
487.356	5297.59
487.726	5313.18
488.097	5400.18
488.467	5421.88
488.837	5466.4
489.207	5557.92
489.578	5670.23
489.948	5644.92
490.318	5772.15
490.688	5768.76
491.058	5874.97
491.428	5898.7
491.798	5978.47
492.168	6040.84
492.538	6092.14
492.908	6142.31
493.278	6192.7
493.648	6223.66
494.017	6239.03
494.387	6331.68
494.757	6379.59
495.126	6488.29
495.496	6472.02
495.866	6452.81
496.235	6549.98
496.605	6592.47
496.974	6628.63
497.344	6711.79
497.713	6691.22
498.082	6746.59
498.452	6818.45
498.821	6870.43
499.19	6791.33
499.559	6933.7
499.928	6973.47
500.298	6945
500.667	6988.39
501.036	7013.47
501.405	7081.04
501.774	7108.61
502.143	7104.09
502.512	7162.62
502.88	7186.8
503.249	7220.93
503.618	7279.23
503.987	7339.11
504.356	7307.25
504.724	7337.53
505.093	7396.51
505.462	7365.33
505.83	7432.9
506.199	7529.84
506.567	7565.1
506.936	7599.67
507.304	7602.16
507.672	7582.72
508.041	7606.23
508.409	7719.67
508.777	7714.7
509.145	7806.67
509.514	7717.41
509.882	7857.52
510.25	7915.6
510.618	7894.81
510.986	7851.64
511.354	7961.7
511.722	8012.09
512.09	8010.28
512.458	8037.4
512.826	8101.13
513.193	8034.69
513.561	8081.92
513.929	8109.72
514.297	8241.69
514.664	8239.88
515.032	8281.46
515.4	8233.55
515.767	8306.77
516.135	8332.76
516.502	8271.97
516.869	8412.08
517.237	8415.02
517.604	8347
517.972	8443.27
518.339	8506.99
518.706	8468.8
519.073	8460.44
519.44	8541.8
519.808	8562.36
520.175	8586.54
520.542	8654.56
520.909	8684.62
521.276	8620.89
521.643	8702.92
522.009	8762.81
522.376	8787.21
522.743	8795.12
523.11	8898.85
523.477	8930.49
523.843	8939.07
524.21	8955.12
524.577	9013.2
524.943	9024.95
525.31	9068.34
525.676	9127.09
526.043	9140.65
526.409	9173.42
526.776	9242.57
527.142	9193.53
527.508	9204.38
527.874	9328.67
528.241	9273.53
528.607	9294.54
528.973	9403.02
529.339	9375.22
529.705	9481.43
530.071	9529.79
530.437	9473.75
530.803	9495.89
531.169	9576.8
531.535	9490.47
531.901	9578.83
532.267	9539.06
532.632	9632.84
532.998	9626.96
533.364	9589.68
533.73	9608.43
534.095	9654.99
534.461	9727.53
534.826	9699.96
535.192	9727.75
535.557	9666.51
535.923	9788.54
536.288	9749.45
536.653	9781.31
537.019	9675.55
537.384	9810.46
537.749	9814.76
538.114	9754.64
538.479	9743.57
538.845	9789.22
539.21	9788.77
539.575	9773.4
539.94	9781.76
540.305	9832.38
540.67	9820.41
541.034	9851.82
541.399	9832.61
541.764	9831.7
542.129	9900.4
542.494	9852.04
542.858	9937.24
543.223	9875.55
543.587	9945.15
543.952	9892.72
544.316	9908.54
544.681	9859.27
545.045	9984.02
545.41	9940.18
545.774	9926.62
546.138	9948.31
546.503	9959.16
546.867	9848.65
547.231	9956.67
547.595	9964.13
547.959	9934.98
548.324	10003.23
548.688	9936.56
549.052	9974.98
549.416	10026.28
549.779	9983.57
550.143	9988.31
550.507	10067.63
550.871	9950.35
551.235	9954.64
551.599	10032.38
551.962	9970.68
552.326	10104.69
552.689	10081.64
553.053	9962.77
553.417	10024.69
553.78	10137.23
554.143	10063.11
554.507	10121.41
554.87	10098.59
555.234	10226.95
555.597	10049.1
555.96	10152.6
556.323	10144.46
556.686	10204.58
557.05	10163.67
557.413	10208.64
557.776	10156.67
558.139	10289.77
558.502	10295.65
558.865	10313.27
559.228	10374.29
559.59	10362.31
559.953	10352.82
560.316	10503.78
560.679	10405.7
561.041	10478.24
561.404	10534.06
561.767	10573.38
562.129	10479.82
562.492	10598.24
562.854	10529.31
563.217	10546.04
563.579	10625.81
563.941	10696.54
564.304	10694.28
564.666	10679.59
565.028	10706.03
565.39	10789.87
565.753	10780.38
566.115	10781.74
566.477	10860.6
566.839	10980.38
567.201	10912.81
567.563	10946.48
567.925	10961.84
568.287	10972.24
568.648	11048.85
569.01	11089.3
569.372	11137.43
569.734	11072.8
570.095	11242.52
570.457	11236.87
570.819	11216.75
571.18	11195.96
571.542	11221.95
571.903	11282.06
572.265	11292.91
572.626	11321.38
572.987	11386.92
573.349	11409.74
573.71	11482.73
574.071	11451.32
574.432	11441.38
574.794	11593.69
575.155	11489.97
575.516	11554.6
575.877	11604.77
576.238	11664.2
576.599	11699.45
576.96	11670.75
577.32	11710.3
577.681	11857.41
578.042	11751.2
578.403	11757.53
578.763	11746
579.124	11809.51
579.485	11880.92
579.845	11836.85
580.206	11877.07
580.566	11899.45
580.927	11909.84
581.287	11981.03
581.648	11919.33
582.008	11972.44
582.368	12032.32
582.728	12000.91
583.089	12049.73
583.449	12041.14
583.809	12049.73
584.169	12092.66
584.529	12082.27
584.889	12179.67
585.249	12201.81
585.609	12085.88
585.969	12140.8
586.329	12176.28
586.688	12193
587.048	12213.11
587.408	12233
587.768	12165.65
588.127	12204.3
588.487	12209.5
588.846	12357.97
589.206	12273.22
589.565	12284.07
589.925	12347.57
590.284	12355.25
590.643	12375.59
591.003	12373.11
591.362	12408.59
591.721	12329.72
592.08	12443.16
592.44	12464.4
592.799	12444.29
593.158	12397.29
593.517	12407.46
593.876	12537.62
594.235	12411.3
594.593	12432.77
594.952	12430.05
595.311	12387.34
595.67	12471.41
596.029	12553.67
596.387	12517.28
596.746	12525.19
597.104	12469.15
597.463	12512.31
597.822	12599.99
598.18	12538.75
598.538	12474.12
598.897	12546.44
599.255	12509.6
599.613	12716.83
599.972	12531.29
600.33	12555.93
600.688	12535.59
601.046	12580.79
601.404	12767.67
601.762	12631.41
602.12	12764.06
602.478	12662.36
602.836	12784.85
603.194	12655.13
603.552	12646.77
603.91	12621.91
604.268	12685.64
604.625	12638.41
604.983	12740.1
605.341	12717.5
605.698	12726.32
606.056	12785.3
606.413	12804.96
606.771	12825.3
607.128	12762.93
607.485	12764.96
607.843	12747.11
608.2	12839.76
608.557	12806.54
608.914	12832.98
609.272	12928.8
609.629	12931.28
609.986	13002.47
610.343	12917.27
610.7	12938.29
611.057	12891.96
611.414	12939.19
611.771	12898.52
612.127	13000.21
612.484	12990.27
612.841	13004.73
613.198	12964.5
613.554	13015.58
613.911	13059.19
614.267	13050.83
614.624	13024.84
614.98	13041.79
615.337	13034.56
615.693	13065.52
616.05	13039.3
616.406	13168.57
616.762	13042.47
617.118	13035.69
617.475	13120.21
617.831	13175.8
618.187	13159.75
618.543	13073.43
618.899	13194.1
619.255	13167.89
619.611	13142.35
619.967	13181
620.323	13300.09
620.678	13235.91
621.034	13184.38
621.39	13182.13
621.746	13165.18
622.101	13376.02
622.457	13125.4
622.812	13274.1
623.168	13250.82
623.523	13190.71
623.879	13265.06
624.234	13185.06
624.589	13218.73
624.945	13188.45
625.3	13258.96
625.655	13200.2
626.01	13131.73
626.365	13248.34
626.72	13162.01
627.075	13255.8
627.43	13112.3
627.785	13122.01
628.14	13211.73
628.495	13183.03
628.85	13115.46
629.205	13089.02
629.559	13195.91
629.914	13230.94
630.269	13124.5
630.623	13078.63
630.978	13075.01
631.332	13127.21
631.687	13136.02
632.041	13153.43
632.396	13098.06
632.75	13053.09
633.104	13083.37
633.459	12925.86
633.813	12985.75
634.167	12929.25
634.521	12904.84
634.875	13007.44
635.229	12999.98
635.583	12772.87
635.937	12859.2
636.291	12840.21
636.645	12911.62
636.999	12825.75
637.352	12897.16
637.706	12826.65
638.06	12828.91
638.413	12823.94
638.767	12788.46
639.121	12809.71
639.474	12705.3
639.828	12682.03
640.181	12715.02
640.534	12708.24
640.888	12695.81
641.241	12608.13
641.594	12631.63
641.947	12744.62
642.301	12668.92
642.654	12696.71
643.007	12585.3
643.36	12661.01
643.713	12533.1
644.066	12668.47
644.419	12546.21
644.771	12522.26
645.124	12423.28
645.477	12397.96
645.83	12248.36
646.182	12241.13
646.535	12093.57
646.888	12174.47
647.24	12108.03
647.593	12157.29
647.945	12055.6
648.298	12105.77
648.65	12076.39
649.002	12069.61
649.355	12135.15
649.707	12084.3
650.059	12158.65
650.411	12333.33
650.763	12277.52
651.115	12449.26
651.467	12388.93
651.819	12385.31
652.171	12327.91
652.523	12349.15
652.875	12314.58
653.227	12291.3
653.578	12410.17
653.93	12259.21
654.282	12269.38
654.633	12181.25
654.985	12304.18
655.337	12311.64
655.688	12267.35
656.039	12339.21
656.391	12255.14
656.742	12237.97
657.094	12266.44
657.445	12276.61
657.796	12240.23
658.147	12220.12
658.498	12244.97
658.849	12245.2
659.2	12270.06
659.551	12230.96
659.902	12290.17
660.253	12194.58
660.604	12207.91
660.955	12232.55
661.306	12192.77
661.656	12209.27
662.007	12187.58
662.358	12274.8
662.708	12216.5
663.059	12250.85
663.409	12192.09
663.76	12214.69
664.11	12252.88
664.461	12293.56
664.811	12281.81
665.161	12242.71
665.511	12284.97
665.862	12213.34
666.212	12223.05
666.562	12259.66
666.912	12267.57
667.262	12185.54
667.612	12173.56
667.962	12248.82
668.312	12251.53
668.662	12277.97
669.011	12226.67
669.361	12251.53
669.711	12170.4
670.06	12225.54
670.41	12142.6
670.76	12109.16
671.109	12229.83
671.459	12183.73
671.808	12196.61
672.157	12151.87
672.507	12072.32
672.856	12088.59
673.205	12069.84
673.554	12118.42
673.904	12000.91
674.253	12130.4
674.602	12136.73
674.951	11856.51
675.3	11879.79
675.649	12081.36
675.998	12083.4
676.346	12081.14
676.695	12038.65
677.044	11998.43
677.393	11951.42
677.741	11941.25
678.09	11949.16
678.438	11909.62
678.787	11940.8
679.135	11963.17
679.484	11860.8
679.832	11931.76
680.181	11832.78
680.529	11883.63
680.877	11896.06
681.225	11784.2
681.573	11907.58
681.922	11771.99
682.27	11708.49
682.618	11750.52
682.966	11741.03
683.314	11734.25
683.661	11702.39
684.009	11651.54
684.357	11573.81
684.705	11573.13
685.053	11522.06
685.4	11535.84
685.748	11544.2
686.095	11499.23
686.443	11499.46
686.79	11412.23
687.138	11526.58
687.485	11445.22
687.832	11355.51
688.18	11390.76
688.527	11281.61
688.874	11220.82
689.221	11283.87
689.568	11238.9
689.915	11238
690.262	11205.91
690.609	11079.81
690.956	11103.54
691.303	11104.67
691.65	11031.22
691.997	11094.95
692.344	10985.57
692.69	10935.63
693.037	10987.38
693.383	10867.61
693.73	10876.88
694.077	10858.34
694.423	10825.58
694.769	10789.65
695.116	10741.51
695.462	10719.14
695.808	10729.53
696.155	10707.61
696.501	10602.31
696.847	10592.14
697.193	10525.25
697.539	10579.71
697.885	10490.44
698.231	10438.24
698.577	10445.25
698.923	10376.78
699.269	10303.78
699.614	10286.83
699.96	10336.32
700.306	10233.73
700.651	10131.36
700.997	10207.29
701.342	10175.2
701.688	10133.84
702.033	10114.18
702.379	10105.14
702.724	10057.46
703.069	10022.66
703.415	9968.65
703.76	9976.79
704.105	9944.92
704.45	9921.65
704.795	9891.59
705.14	9812.72
705.485	9786.06
705.83	9786.73
706.175	9763.68
706.52	9710.8
706.865	9682.33
707.209	9645.27
707.554	9584.25
707.899	9690.24
708.243	9522.11
708.588	9520.98
708.932	9456.8
709.277	9521.43
709.621	9470.58
709.966	9401.43
710.31	9447.53
710.654	9402.11
710.998	9386.07
711.342	9314.43
711.687	9382
712.031	9290.7
712.375	9288.22
712.719	9299.52
713.063	9306.97
713.407	9311.49
713.75	9272.4
714.094	9215
714.438	9208.44
714.782	9205.28
715.125	9149.24
715.469	9236.69
715.812	9170.71
716.156	9081.89
716.499	9083.93
716.843	9065.4
717.186	9076.7
717.53	9091.16
717.873	9130.93
718.216	9059.07
718.559	9055.68
718.902	8970.94
719.246	9030.6
719.589	8938.62
719.932	8943.59
720.275	8948.79
720.617	8919.19
720.96	8855.23
721.303	8924.61
721.646	8904.5
721.989	8851.39
722.331	8901.79
722.674	8869.24
723.016	8822.24
723.359	8767.1
723.701	8822.92
724.044	8784.05
724.386	8713.99
724.729	8789.7
725.071	8751.06
725.413	8736.14
725.755	8690.04
726.097	8698.85
726.439	8622.7
726.782	8737.04
727.124	8733.43
727.465	8693.43
727.807	8676.03
728.149	8574.34
728.491	8650.04
728.833	8706.99
729.175	8629.7
729.516	8632.41
729.858	8664.05
730.199	8544.96
730.541	8639.65
730.882	8616.37
731.224	8594.9
731.565	8491.85
731.906	8551.51
732.248	8632.41
732.589	8544.51
732.93	8563.04
733.271	8541.57
733.612	8515.36
733.953	8515.13
734.294	8541.34
734.635	8575.92
734.976	8566.88
735.317	8535.92
735.658	8523.26
735.999	8504.73
736.339	8509.48
736.68	8534.79
737.021	8517.84
737.361	8468.58
737.702	8542.47
738.042	8524.62
738.383	8523.49
738.723	8520.33
739.063	8531.85
739.404	8494.56
739.744	8496.15
740.084	8470.61
740.424	8537.5
740.764	8498.41
741.104	8509.93
741.444	8468.12
741.784	8520.33
742.124	8532.3
742.464	8523.94
742.804	8507.45
743.143	8513.1
743.483	8524.39
743.823	8469.71
744.162	8512.64
744.502	8585.18
744.841	8567.78
745.181	8626.31
745.52	8607.78
745.86	8634.22
746.199	8635.8
746.538	8698.18
746.877	8710.38
747.216	8725.07
747.556	8711.06
747.895	8684.62
748.234	8730.72
748.573	8789.92
748.911	8778.4
749.25	8918.96
749.589	8936.59
749.928	8942.01
750.267	8970.03
750.605	9039.64
750.944	9086.41
751.283	9105.62
751.621	9173.19
751.96	9176.58
752.298	9285.28
752.636	9337.03
752.975	9347.65
753.313	9383.81
753.651	9511.26
753.989	9524.82
754.327	9657.02
754.666	9601.43
755.004	9736.57
755.342	9885.04
755.679	9873.06
756.017	9975.2
756.355	10054.3
756.693	10176.78
757.031	10213.84
757.368	10340.62
757.706	10405.7
758.044	10484.34
758.381	10559.14
758.719	10613.61
759.056	10739.48
759.394	10876.88
759.731	10828.97
760.068	11048.62
760.405	11101.5
760.743	11187.15
761.08	11388.05
761.417	11400.48
