Data from hue_120_FLMS001491_00046.txt Node
Date: Tue Feb 07 16:59:26 GMT 2017
User: dcchb
Spectrometer: FLMS00149
Trigger mode: 0
Integration Time (sec): 2.000000E-2
Scans to average: 10
Electric dark correction enabled: true
Nonlinearity correction enabled: false
Boxcar width: 0
XAxis mode: Wavelengths
Number of Pixels in Spectrum: 2048
>>>>>Begin Spectral Data<<<<<
341.393	-4.65
341.776	-4.65
342.16	-4.65
342.543	-45.1
342.927	-72.67
343.31	-73.12
343.693	-78.32
344.077	-53.91
344.46	-50.3
344.843	-51.65
345.226	-44.65
345.61	-29.28
345.993	-32.22
346.376	7.78
346.759	9.14
347.142	22.25
347.525	38.52
347.908	57.72
348.291	71.51
348.674	100.21
349.057	106.31
349.44	133.65
349.823	155.12
350.206	171.17
350.588	206.65
350.971	202.35
351.354	230.83
351.737	241.22
352.119	250.26
352.502	260.66
352.884	271.05
353.267	276.25
353.65	312.63
354.032	301.33
354.414	304.27
354.797	327.77
355.179	323.25
355.562	343.82
355.944	316.47
356.326	342.01
356.709	340.88
357.091	330.26
357.473	370.94
357.855	352.86
358.238	342.46
358.62	342.91
359.002	326.19
359.384	353.31
359.766	349.02
360.148	342.46
360.53	362.12
360.912	361.67
361.294	348.11
361.676	339.3
362.057	348.11
362.439	334.1
362.821	340.43
363.203	346.08
363.584	319.41
363.966	314.89
364.348	322.8
364.729	333.88
365.111	317.6
365.493	309.47
365.874	317.83
366.256	329.36
366.637	325.51
367.019	340.88
367.4	330.94
367.781	319.64
368.163	322.58
368.544	320.99
368.925	328.9
369.306	317.83
369.688	328
370.069	298.17
370.45	342.69
370.831	333.65
371.212	323.48
371.593	328.45
371.974	312.18
372.355	323.03
372.736	318.96
373.117	330.49
373.498	353.08
373.879	330.71
374.26	316.7
374.641	326.42
375.021	334.78
375.402	331.84
375.783	320.77
376.163	323.25
376.544	319.41
376.925	343.14
377.305	339.3
377.686	354.21
378.066	351.5
378.447	340.88
378.827	350.37
379.208	324.84
379.588	339.52
379.968	339.75
380.349	332.52
380.729	344.5
381.109	356.7
381.489	351.05
381.87	342.01
382.25	365.29
382.63	359.64
383.01	359.41
383.39	362.12
383.77	378.62
384.15	354.21
384.53	361.45
384.91	363.71
385.29	360.54
385.67	363.71
386.049	372.52
386.429	382.69
386.809	367.77
387.189	354.67
387.568	377.04
387.948	364.38
388.328	361.9
388.707	363.93
389.087	366.64
389.466	370.94
389.846	363.03
390.225	379.52
390.605	389.24
390.984	373.42
391.363	388.56
391.743	384.72
392.122	398.73
392.501	412.52
392.881	393.99
393.26	402.35
393.639	427.66
394.018	382.01
394.397	416.13
394.776	402.35
395.155	423.59
395.534	398.96
395.913	397.15
396.292	424.27
396.671	424.04
397.05	425.85
397.429	404.61
397.808	425.4
398.186	409.58
398.565	435.12
398.944	429.69
399.323	411.84
399.701	425.4
400.08	408.22
400.458	438.05
400.837	432.63
401.215	456.81
401.594	436.7
401.972	432.86
402.351	446.41
402.729	457.71
403.107	443.03
403.486	457.49
403.864	447.09
404.242	473.08
404.62	466.75
404.999	475.79
405.377	461.33
405.755	443.25
406.133	468.34
406.511	492.74
406.889	466.75
407.267	482.12
407.645	469.69
408.023	489.35
408.401	490.71
408.779	497.71
409.156	491.84
409.534	489.35
409.912	487.77
410.29	509.69
410.667	499.07
411.045	504.72
411.422	513.76
411.8	511.95
412.178	517.83
412.555	530.48
412.933	538.16
413.31	557.6
413.687	551.5
414.065	540.2
414.442	538.16
414.819	549.91
415.197	538.84
415.574	570.71
415.951	581.33
416.328	579.07
416.705	537.94
417.082	571.84
417.46	574.77
417.837	590.37
418.214	568.22
418.591	586.07
418.967	601.89
419.344	585.17
419.721	604.38
420.098	591.04
420.475	590.82
420.852	610.25
421.228	628.33
421.605	609.8
421.982	636.24
422.358	632.17
422.735	647.77
423.111	647.99
423.488	631.49
423.864	642.79
424.241	666.97
424.617	666.75
424.994	658.84
425.37	653.19
425.746	658.84
426.123	681.66
426.499	684.37
426.875	654.54
427.251	686.41
427.627	691.83
428.003	724.83
428.379	696.58
428.756	701.78
429.132	713.3
429.507	726.18
429.883	723.24
430.259	728.44
430.635	754.2
431.011	728.22
431.387	758.95
431.763	736.58
432.138	764.37
432.514	780.64
432.89	786.97
433.265	790.36
433.641	801.21
434.016	774.09
434.392	829.23
434.767	826.29
435.143	834.65
435.518	822.45
435.894	847.31
436.269	862.22
436.644	854.99
437.02	861.55
437.395	862.22
437.77	880.3
438.145	894.31
438.52	878.04
438.895	882.79
439.271	891.83
439.646	915.56
440.021	948.32
440.395	917.59
440.77	946.06
441.145	945.38
441.52	958.49
441.895	962.56
442.27	959.4
442.645	951.94
443.019	977.47
443.394	976.34
443.769	1004.37
444.143	1002.78
444.518	995.33
444.892	1019.73
445.267	1023.12
445.641	1006.17
446.016	1023.35
446.39	1035.33
446.764	1047.3
447.139	1035.78
447.513	1055.66
447.887	1051.82
448.262	1093.86
448.636	1036.46
449.01	1085.95
449.384	1100.41
449.758	1099.5
450.132	1113.97
450.506	1107.87
450.88	1109.9
451.254	1136.34
451.628	1144.25
452.002	1185.15
452.376	1167.07
452.75	1171.59
453.123	1200.52
453.497	1183.34
453.871	1223.12
454.244	1232.16
454.618	1234.42
454.992	1243.46
455.365	1262.66
455.739	1265.6
456.112	1313.51
456.486	1275.77
456.859	1319.16
457.232	1348.09
457.606	1338.14
457.979	1341.76
458.352	1388.99
458.725	1396.45
459.099	1435.54
459.472	1465.6
459.845	1439.84
460.218	1466.5
460.591	1470.34
460.964	1497.69
461.337	1508.31
461.71	1556.67
462.083	1597.8
462.456	1570.68
462.829	1580.17
463.201	1656.55
463.574	1650.45
463.947	1635.76
464.32	1716.21
464.692	1715.31
465.065	1688.87
465.438	1738.58
465.81	1767.28
466.183	1834.17
466.555	1846.15
466.928	1814.29
467.3	1841.63
467.672	1945.13
468.045	1950.78
468.417	1979.93
468.789	1950.56
469.161	2000.95
469.534	2051.8
469.906	2082.76
470.278	2138.57
470.65	2151.91
471.022	2209.76
471.394	2275.75
471.766	2270.1
472.138	2302.86
472.51	2389.64
472.882	2421.05
473.253	2449.07
473.625	2513.25
473.997	2572.23
474.369	2628.05
474.74	2652.23
475.112	2697.43
475.484	2812.45
475.855	2868.72
476.227	2890.42
476.598	2994.82
476.97	3061.26
477.341	3152.11
477.713	3247.92
478.084	3269.84
478.455	3356.17
478.827	3479.56
479.198	3584.64
479.569	3571.3
479.94	3737.63
480.311	3787.12
480.682	3910.5
481.053	4046.55
481.424	4134.91
481.795	4222.13
482.166	4305.3
482.537	4432.98
482.908	4541.67
483.279	4728.11
483.65	4769.69
484.021	4968.1
484.391	5030.48
484.762	5146.4
485.133	5260.98
485.503	5346.85
485.874	5564.7
486.244	5672.94
486.615	5818.93
486.985	5966.72
487.356	6082.88
487.726	6244.91
488.097	6363.32
488.467	6496.65
488.837	6730.54
489.207	6830.43
489.578	7017.99
489.948	7214.6
490.318	7328.04
490.688	7436.51
491.058	7623.4
491.428	7742.04
491.798	7919.44
492.168	8100.9
492.538	8213.22
492.908	8428.58
493.278	8558.52
493.648	8622.7
494.017	8822.69
494.387	8970.03
494.757	9138.62
495.126	9285.96
495.496	9358.5
495.866	9493.86
496.235	9640.3
496.605	9835.09
496.974	9953.96
497.344	10053.39
497.713	10156.44
498.082	10367.74
498.452	10485.25
498.821	10617.67
499.19	10649.08
499.559	10859.02
499.928	10886.37
500.298	11009.3
500.667	11221.72
501.036	11256.53
501.405	11386.69
501.774	11451.55
502.143	11649.51
502.512	11711.2
502.88	11823.74
503.249	11859.67
503.618	12012.66
503.987	12074.36
504.356	12208.59
504.724	12249.04
505.093	12345.54
505.462	12428.7
505.83	12525.42
506.199	12639.09
506.567	12806.77
506.936	12868.69
507.304	13044.95
507.672	12938.06
508.041	13011.96
508.409	13209.7
508.777	13397.03
509.145	13404.94
509.514	13424.38
509.882	13517.71
510.25	13597.71
510.618	13622.79
510.986	13675.45
511.354	13875.89
511.722	13922.9
512.09	14033.85
512.458	14009.22
512.826	14069.33
513.193	14155.21
513.561	14209.44
513.929	14306.84
514.297	14385.94
514.664	14485.37
515.032	14539.15
515.4	14568.3
515.767	14563.11
516.135	14631.13
516.502	14581.18
516.869	14832.93
517.237	14841.52
517.604	14818.24
517.972	14926.26
518.339	14889.42
518.706	14872.48
519.073	15084.45
519.44	15064.34
519.808	15192.47
520.175	15156.31
520.542	15295.97
520.909	15324.89
521.276	15378
521.643	15445.12
522.009	15456.19
522.376	15500.03
522.743	15552.91
523.11	15656.18
523.477	15746.8
523.843	15814.37
524.21	15848.95
524.577	15975.95
524.943	15925.1
525.31	15925.78
525.676	15969.62
526.043	16079
526.409	16118.09
526.776	16251.42
527.142	16164.19
527.508	16193.12
527.874	16322.38
528.241	16323.74
528.607	16387.24
528.973	16429.95
529.339	16357.41
529.705	16413.68
530.071	16482.15
530.437	16514.01
530.803	16493.45
531.169	16588.82
531.535	16521.25
531.901	16341.14
532.267	16462.72
532.632	16598.08
532.998	16543.84
533.364	16560.57
533.73	16510.4
534.095	16612.32
534.461	16530.51
534.826	16638.98
535.192	16560.79
535.557	16662.26
535.923	16607.12
536.288	16650.06
536.653	16585.2
537.019	16491.42
537.384	16512.89
537.749	16498.87
538.114	16497.52
538.479	16426.56
538.845	16386.79
539.21	16362.15
539.575	16397.41
539.94	16404.19
540.305	16443.06
540.67	16293.46
541.034	16370.97
541.399	16254.81
541.764	16308.82
542.129	16312.66
542.494	16267.92
542.858	16259.78
543.223	16175.94
543.587	16287.35
543.952	16101.6
544.316	16192.44
544.681	16115.61
545.045	16156.06
545.41	16137.3
545.774	16086.46
546.138	15997.19
546.503	16094.59
546.867	15956.74
547.231	16064.99
547.595	15946.12
547.959	16004.42
548.324	15899.34
548.688	15871.77
549.052	15876.52
549.416	15928.49
549.779	15864.99
550.143	15835.16
550.507	15869.06
550.871	15834.94
551.235	15758.55
551.599	15851.43
551.962	15792.23
552.326	15703.87
552.689	15704.09
553.053	15667.26
553.417	15673.36
553.78	15775.28
554.143	15655.51
554.507	15674.49
554.87	15678.33
555.234	15725.34
555.597	15609.86
555.96	15593.14
556.323	15596.75
556.686	15553.36
557.05	15620.03
557.413	15586.36
557.776	15654.38
558.139	15728.27
558.502	15610.31
558.865	15569.63
559.228	15609.41
559.59	15637.65
559.953	15645.56
560.316	15733.92
560.679	15742.51
561.041	15807.37
561.404	15800.14
561.767	15820.02
562.129	15632.68
562.492	15923.97
562.854	15833.58
563.217	15770.76
563.579	15780.47
563.941	15892.79
564.304	15909.51
564.666	15936.4
565.028	15952.45
565.39	15926.01
565.753	16008.49
566.115	15999.45
566.477	16051.65
566.839	16037.87
567.201	16063.41
567.563	16065.44
567.925	16186.34
568.287	16088.94
568.648	16065.67
569.01	16189.96
569.372	16341.14
569.734	16177.53
570.095	16301.82
570.457	16334.58
570.819	16256.39
571.18	16249.39
571.542	16316.28
571.903	16338.2
572.265	16396.96
572.626	16393.79
572.987	16389.27
573.349	16389.5
573.71	16466.78
574.071	16444.86
574.432	16474.24
574.794	16604.41
575.155	16448.25
575.516	16527.35
575.877	16516.95
576.238	16569.38
576.599	16516.05
576.96	16528.03
577.32	16593.11
577.681	16615.03
578.042	16667.01
578.403	16581.13
578.763	16623.16
579.124	16649.15
579.485	16710.85
579.845	16852.09
580.206	16684.63
580.566	16610.96
580.927	16708.36
581.287	16695.48
581.648	16704.52
582.008	16694.8
582.368	16596.5
582.728	16644.41
583.089	16690.06
583.449	16748.36
583.809	16754.69
584.169	16716.04
584.529	16576.84
584.889	16623.16
585.249	16589.27
585.609	16568.7
585.969	16716.72
586.329	16611.87
586.688	16594.01
587.048	16626.33
587.408	16592.2
587.768	16564.86
588.127	16584.75
588.487	16496.84
588.846	16621.58
589.206	16513.56
589.565	16484.19
589.925	16533.9
590.284	16420.91
590.643	16534.81
591.003	16513.79
591.362	16582.71
591.721	16457.97
592.08	16417.97
592.44	16462.72
592.799	16472.89
593.158	16531.42
593.517	16559.66
593.876	16506.33
594.235	16375.26
594.593	16446.22
594.952	16459.33
595.311	16484.41
595.67	16497.07
596.029	16471.08
596.387	16561.47
596.746	16483.51
597.104	16464.07
597.463	16499.55
597.822	16480.57
598.18	16417.29
598.538	16378.88
598.897	16461.81
599.255	16388.82
599.613	16534.81
599.972	16341.82
600.33	16473.56
600.688	16480.12
601.046	16498.65
601.404	16480.34
601.762	16461.59
602.12	16597.4
602.478	16500
602.836	16516.27
603.194	16425.66
603.552	16429.72
603.91	16313.34
604.268	16385.88
604.625	16316.96
604.983	16393.11
605.341	16334.13
605.698	16375.49
606.056	16616.84
606.413	16385.66
606.771	16513.79
607.128	16537.97
607.485	16458.88
607.843	16456.39
608.2	16522.38
608.557	16567.35
608.914	16508.14
609.272	16663.62
609.629	16611.19
609.986	16657.97
610.343	16563.96
610.7	16765.76
611.057	16732.77
611.414	16723.5
611.771	16643.28
612.127	16707.91
612.484	16755.59
612.841	16762.82
613.198	16713.56
613.554	16720.79
613.911	16829.03
614.267	16687.57
614.624	16709.26
614.98	16785.42
615.337	16870.16
615.693	16806.44
616.05	16786.78
616.406	16805.53
616.762	16794.46
617.118	16851.41
617.475	16842.14
617.831	16934.57
618.187	16953.55
618.543	16841.69
618.899	17033.55
619.255	16901.8
619.611	16975.47
619.967	17027.45
620.323	17074.9
620.678	16964.85
621.034	17016.83
621.39	16929.37
621.746	16948.58
622.101	17107.22
622.457	17047.11
622.812	16975.25
623.168	16966.43
623.523	17065.41
623.879	17058.63
624.234	17029.26
624.589	17067.45
624.945	17083.94
625.3	17002.14
625.655	17003.95
626.01	16968.24
626.365	16969.6
626.72	17029.71
627.075	16986.09
627.43	16937.96
627.785	16890.28
628.14	17069.93
628.495	17005.53
628.85	16982.93
629.205	16842.59
629.559	17049.14
629.914	16913.1
630.269	16925.53
630.623	16905.42
630.978	16811.63
631.332	16894.34
631.687	17000.1
632.041	16814.57
632.396	16883.5
632.75	16801.92
633.104	16792.88
633.459	16773.22
633.813	16784.74
634.167	16751.3
634.521	16740.9
634.875	16697.29
635.229	16686.67
635.583	16618.64
635.937	16667.46
636.291	16521.92
636.645	16584.52
636.999	16529.38
637.352	16641.7
637.706	16490.74
638.06	16594.24
638.413	16533
638.767	16531.87
639.121	16533
639.474	16495.26
639.828	16467.69
640.181	16497.74
640.534	16336.62
640.888	16265.89
641.241	16335.04
641.594	16341.36
641.947	16368.93
642.301	16280.12
642.654	16323.96
643.007	16363.96
643.36	16320.35
643.713	16228.82
644.066	16282.38
644.419	16164.87
644.771	16154.48
645.124	16056.17
645.477	15960.13
645.83	15866.57
646.182	15855.73
646.535	15714.49
646.888	15782.51
647.24	15700.25
647.593	15733.02
647.945	15750.65
648.298	15603.3
648.65	15692.12
649.002	15613.7
649.355	15700.7
649.707	15697.77
650.059	15783.41
650.411	15979.57
650.763	16020.02
651.115	16100.47
651.467	16024.31
651.819	16060.47
652.171	16076.96
652.523	15988.61
652.875	15993.12
653.227	15984.76
653.578	16048.94
653.93	16136.85
654.282	15957.87
654.633	15888.49
654.985	16056.17
655.337	15978.89
655.688	15967.36
656.039	16087.13
656.391	15921.26
656.742	15936.85
657.094	16014.82
657.445	16062.73
657.796	15915.84
658.147	15956.74
658.498	15912.45
658.849	16012.56
659.2	16061.6
659.551	16020.24
659.902	16068.38
660.253	15914.71
660.604	16041.26
660.955	15943.18
661.306	16074.03
661.656	15989.28
662.007	16088.49
662.358	16028.15
662.708	16044.2
663.059	16009.4
663.409	15992.22
663.76	16143.18
664.11	16032.9
664.461	16093.01
664.811	16076.06
665.161	15987.02
665.511	15991.77
665.862	16038.77
666.212	16064.99
666.562	16057.98
666.912	16042.16
667.262	15910.87
667.612	16010.3
667.962	16023.18
668.312	16067.7
668.662	16000.13
669.011	16043.74
669.361	15952.67
669.711	15970.07
670.06	15939.34
670.41	15924.88
670.76	15878.1
671.109	15911.32
671.459	15957.65
671.808	15925.56
672.157	15956.29
672.507	15842.17
672.856	15923.52
673.205	15808.95
673.554	15936.63
673.904	15935.27
674.253	15956.06
674.602	15846.69
674.951	15697.31
675.3	15538.45
675.649	15825.67
675.998	15804.88
676.346	15773.92
676.695	15878.33
677.044	15624.77
677.393	15757.65
677.741	15759.23
678.09	15707.48
678.438	15665
678.787	15665.22
679.135	15646.02
679.484	15605.56
679.832	15640.14
680.181	15539.35
680.529	15589.52
680.877	15428.85
681.225	15458.68
681.573	15537.77
681.922	15460.26
682.27	15355.63
682.618	15421.84
682.966	15348.4
683.314	15336.42
683.661	15301.84
684.009	15251.68
684.357	15160.6
684.705	15233.37
685.053	15234.5
685.4	15196.31
685.748	15050.55
686.095	15102.98
686.443	15083.54
686.79	15012.13
687.138	15090.1
687.485	15054.84
687.832	14939.82
688.18	14976.65
688.527	14827.96
688.874	14868.63
689.221	14811.23
689.568	14729.88
689.915	14656.44
690.262	14700.96
690.609	14599.71
690.956	14606.49
691.303	14597.91
691.65	14451.7
691.997	14432.26
692.344	14434.3
692.69	14377.12
693.037	14377.57
693.383	14215.09
693.73	14155.21
694.077	14184.36
694.423	14185.04
694.769	14107.98
695.116	13994.08
695.462	13990.24
695.808	14002.89
696.155	14061.2
696.501	13929.45
696.847	13818.94
697.193	13783.69
697.539	13761.32
697.885	13727.65
698.231	13668.44
698.577	13708.44
698.923	13666.63
699.269	13542.57
699.614	13470.71
699.96	13470.48
700.306	13436.13
700.651	13363.82
700.997	13211.05
701.342	13212.41
701.688	13180.54
702.033	13217.15
702.379	13172.86
702.724	13098.96
703.069	13132.41
703.415	12925.18
703.76	13011.96
704.105	12988.91
704.45	12978.74
704.795	12785.75
705.14	12782.59
705.485	12841.8
705.83	12749.59
706.175	12685.42
706.52	12728.8
706.865	12696.49
707.209	12604.51
707.554	12493.33
707.899	12575.36
708.243	12461.01
708.588	12486.1
708.932	12376.27
709.277	12353.45
709.621	12386.44
709.966	12242.71
710.31	12329.49
710.654	12180.34
710.998	12180.57
711.342	12217.86
711.687	12155.03
712.031	12080.01
712.375	12037.07
712.719	12115.71
713.063	12025.55
713.407	12079.78
713.75	12122.72
714.094	11991.65
714.438	11922.27
714.782	11943.29
715.125	11890.86
715.469	11892.67
715.812	11805.21
716.156	11751.65
716.499	11797.08
716.843	11840.24
717.186	11695.84
717.53	11794.37
717.873	11790.52
718.216	11770.64
718.559	11632.11
718.902	11673.46
719.246	11643.18
719.589	11558.44
719.932	11649.96
720.275	11603.86
720.617	11570.19
720.96	11534.94
721.303	11563.41
721.646	11553.24
721.989	11440.93
722.331	11472.34
722.674	11373.36
723.016	11438.22
723.359	11435.5
723.701	11389.18
724.044	11425.56
724.386	11322.06
724.729	11388.5
725.071	11367.48
725.413	11277.54
725.755	11347.37
726.097	11306.47
726.439	11257.2
726.782	11309.63
727.124	11340.82
727.465	11259.92
727.807	11248.16
728.149	11273.02
728.491	11223.08
728.833	11252.01
729.175	11213.59
729.516	11188.96
729.858	11142.18
730.199	11267.6
730.541	11278.45
730.882	11159.81
731.224	11196.19
731.565	11115.29
731.906	11153.7
732.248	11147.15
732.589	11145.34
732.93	11106.93
733.271	11175.4
733.612	11166.81
733.953	11202.06
734.294	11089.75
734.635	11084.55
734.976	11123.87
735.317	11050.66
735.658	11118.45
735.999	11082.07
736.339	11141.27
736.68	11109.64
737.021	11148.51
737.361	11113.03
737.702	11118.68
738.042	11076.87
738.383	11121.16
738.723	11189.41
739.063	11099.47
739.404	11177.88
739.744	11134.95
740.084	11118.22
740.424	11144.89
740.764	11171.56
741.104	11255.17
741.444	11146.25
741.784	11176.98
742.124	11176.3
742.464	11216.98
742.804	11199.13
743.143	11278.9
743.483	11197.32
743.823	11183.76
744.162	11337.88
744.502	11404.09
744.841	11364.55
745.181	11429.85
745.52	11388.05
745.86	11454.26
746.199	11442.28
746.538	11520.7
746.877	11546.24
747.216	11644.76
747.556	11661.49
747.895	11724.08
748.234	11656.29
748.573	11754.82
748.911	11840.24
749.25	11913.01
749.589	11844.99
749.928	11966.56
750.267	12161.14
750.605	12073
750.944	12157.29
751.283	12280.45
751.621	12324.07
751.96	12507.57
752.298	12550.73
752.636	12642.25
752.975	12682.93
753.313	12734.91
753.651	13008.8
753.989	13052.19
754.327	13112.3
754.666	13165.4
755.004	13321.1
755.342	13439.97
755.679	13637.03
