Data from hue_00_FLMS001491_75.txt Node
Date: Mon Feb 06 15:30:12 GMT 2017
User: dcchb
Spectrometer: FLMS00149
Trigger mode: 0
Integration Time (sec): 2.000000E-2
Scans to average: 10
Electric dark correction enabled: true
Nonlinearity correction enabled: false
Boxcar width: 0
XAxis mode: Wavelengths
Number of Pixels in Spectrum: 2048
>>>>>Begin Spectral Data<<<<<
341.393	-33.64
341.776	-33.64
342.16	-33.64
342.543	-67.77
342.927	-74.32
343.31	-74.09
343.693	-64.38
344.077	-58.5
344.46	-58.05
344.843	-61.21
345.226	-32.06
345.61	-38.61
345.993	-36.35
346.376	-4.72
346.759	1.16
347.142	38.45
347.525	51.1
347.908	53.81
348.291	81.16
348.674	97.88
349.057	104.43
349.44	136.07
349.823	157.31
350.206	161.15
350.588	174.49
350.971	207.93
351.354	209.97
351.737	207.71
352.119	223.3
352.502	244.32
352.884	268.95
353.267	270.08
353.65	291.09
354.032	280.92
354.414	309.85
354.797	318.21
355.179	310.75
355.562	333.58
355.944	329.51
356.326	309.62
356.709	339
357.091	326.8
357.473	336.97
357.855	342.17
358.238	326.8
358.62	342.62
359.002	336.52
359.384	342.84
359.766	328.38
360.148	344.88
360.53	334.71
360.912	325.22
361.294	318.21
361.676	298.78
362.057	320.47
362.439	339.45
362.821	310.75
363.203	318.89
363.584	311.66
363.966	319.12
364.348	313.47
364.729	308.27
365.111	299
365.493	307.14
365.874	321.38
366.256	281.38
366.637	315.73
367.019	302.85
367.4	301.94
367.781	288.38
368.163	321.38
368.544	293.35
368.925	304.43
369.306	303.07
369.688	292.68
370.069	311.43
370.45	320.47
370.831	295.84
371.212	293.81
371.593	313.24
371.974	308.72
372.355	295.16
372.736	317.53
373.117	287.48
373.498	322.73
373.879	320.25
374.26	321.15
374.641	289.06
375.021	318.89
375.402	297.65
375.783	324.99
376.163	318.21
376.544	318.44
376.925	319.79
377.305	336.29
377.686	320.47
378.066	321.38
378.447	297.42
378.827	312.79
379.208	319.34
379.588	323.86
379.968	327.48
380.349	319.12
380.729	323.41
381.109	324.99
381.489	302.62
381.87	315.27
382.25	307.14
382.63	301.94
383.01	315.5
383.39	304.88
383.77	320.7
384.15	339.91
384.53	318.21
384.91	338.78
385.29	329.96
385.67	340.58
386.049	339.91
386.429	340.36
386.809	348.27
387.189	320.25
387.568	327.7
387.948	334.48
388.328	332.22
388.707	348.95
389.087	346.46
389.466	349.85
389.846	349.85
390.225	367.25
390.605	346.69
390.984	342.62
391.363	336.29
391.743	336.52
392.122	352.56
392.501	326.12
392.881	329.51
393.26	352.79
393.639	342.84
394.018	343.52
394.397	344.43
394.776	350.08
395.155	360.92
395.534	364.76
395.913	363.63
396.292	351.66
396.671	354.82
397.05	361.83
397.429	324.09
397.808	358.66
398.186	377.65
398.565	361.83
398.944	365.44
399.323	376.74
399.701	353.47
400.08	365.22
400.458	348.27
400.837	388.72
401.215	364.76
401.594	348.49
401.972	378.55
402.351	377.19
402.729	368.38
403.107	374.48
403.486	367.02
403.864	377.19
404.242	375.39
404.62	391.88
404.999	375.39
405.377	388.49
405.755	388.04
406.133	393.24
406.511	405.22
406.889	400.02
407.267	405.22
407.645	404.31
408.023	379.23
408.401	396.85
408.779	400.7
409.156	384.88
409.534	397.08
409.912	402.28
410.29	414.03
410.667	415.84
411.045	428.27
411.422	431.88
411.8	407.7
412.178	416.29
412.555	426.91
412.933	438.66
413.31	438.21
413.687	431.88
414.065	447.47
414.442	450.64
414.819	444.08
415.197	441.6
415.574	444.76
415.951	476.17
416.328	432.79
416.705	444.31
417.082	482.95
417.46	470.07
417.837	440.69
418.214	476.4
418.591	438.43
418.967	464.2
419.344	483.18
419.721	466
420.098	475.72
420.475	477.3
420.852	483.86
421.228	475.95
421.605	483.18
421.982	491.99
422.358	459.23
422.735	493.12
423.111	515.95
423.488	499.68
423.864	516.85
424.241	529.96
424.617	541.93
424.994	533.57
425.37	525.89
425.746	488.15
426.123	507.36
426.499	498.55
426.875	543.52
427.251	549.39
427.627	534.48
428.003	544.42
428.379	530.64
428.756	539.45
429.132	530.64
429.507	547.36
429.883	571.54
430.259	571.09
430.635	537.64
431.011	550.3
431.387	600.01
431.763	566.34
432.138	591.2
432.514	572.44
432.89	599.79
433.265	578.77
433.641	589.62
434.016	620.35
434.392	619.9
434.767	616.06
435.143	611.99
435.518	639.79
435.894	635.04
436.269	617.19
436.644	640.01
437.02	634.36
437.395	623.74
437.77	653.8
438.145	674.13
438.52	618.32
438.895	639.56
439.271	659.67
439.646	654.7
440.021	677.98
440.395	655.83
440.77	685.89
441.145	665.1
441.52	679.33
441.895	688.15
442.27	704.19
442.645	700.8
443.019	683.85
443.394	708.71
443.769	700.8
444.143	689.95
444.518	703.29
444.892	702.83
445.267	755.71
445.641	718.65
446.016	718.2
446.39	714.36
446.764	734.25
447.139	725.88
447.513	734.7
447.887	726.79
448.262	736.96
448.636	735.38
449.01	736.05
449.384	747.13
449.758	748.26
450.132	741.93
450.506	746.68
450.88	778.76
451.254	747.58
451.628	764.53
452.002	782.61
452.376	776.51
452.75	777.63
453.123	770.63
453.497	790.06
453.871	793
454.244	816.05
454.618	802.27
454.992	851.08
455.365	816.5
455.739	823.28
456.112	844.75
456.486	842.49
456.859	852.89
457.232	851.53
457.606	861.93
457.979	842.04
458.352	863.51
458.725	873
459.099	903.06
459.472	895.82
459.845	927.91
460.218	910.74
460.591	900.57
460.964	914.13
461.337	952.32
461.71	948.03
462.083	944.86
462.456	915.71
462.829	956.16
463.201	984.41
463.574	977.86
463.947	993.45
464.32	992.77
464.692	997.97
465.065	1018.31
465.438	1006.33
465.81	1033
466.183	1054.69
466.555	1065.31
466.928	1063.05
467.3	1089.94
467.672	1080.23
468.045	1118.64
468.417	1086.33
468.789	1096.95
469.161	1123.61
469.534	1132.88
469.906	1184.86
470.278	1164.07
470.65	1171.75
471.022	1208.81
471.394	1216.72
471.766	1242.93
472.138	1244.29
472.51	1228.92
472.882	1274.57
473.253	1320.45
473.625	1338.98
473.997	1339.65
474.369	1342.82
474.74	1385.3
475.112	1376.72
475.484	1418.52
475.855	1448.8
476.227	1443.38
476.598	1489.03
476.97	1498.52
477.341	1506.2
477.713	1575.35
478.084	1589.14
478.455	1620.78
478.827	1643.6
479.198	1671.62
479.569	1674.56
479.94	1712.53
480.311	1730.6
480.682	1774.22
481.053	1802.69
481.424	1859.41
481.795	1899.64
482.166	1890.37
482.537	1911.39
482.908	1938.96
483.279	1991.61
483.65	2000.43
484.021	2046.53
484.391	2086.75
484.762	2115
485.133	2135.79
485.503	2184.6
485.874	2213.53
486.244	2229.57
486.615	2305.96
486.985	2329.23
487.356	2365.16
487.726	2407.42
488.097	2442
488.467	2423.92
488.837	2462.79
489.207	2512.96
489.578	2593.63
489.948	2606.97
490.318	2645.16
490.688	2645.16
491.058	2681.31
491.428	2744.14
491.798	2753.18
492.168	2820.97
492.538	2827.98
492.908	2867.3
493.278	2927.41
493.648	2873.63
494.017	2953.85
494.387	2968.54
494.757	3067.97
495.126	3033.85
495.496	3047.41
495.866	3090.57
496.235	3113.62
496.605	3145.93
496.974	3141.19
497.344	3211.47
497.713	3223.9
498.082	3246.72
498.452	3239.27
498.821	3328.98
499.19	3278.13
499.559	3367.4
499.928	3339.38
500.298	3383.22
500.667	3430.9
501.036	3411.46
501.405	3475.64
501.774	3414.4
502.143	3493.27
502.512	3502.99
502.88	3558.58
503.249	3512.93
503.618	3580.5
503.987	3578.92
504.356	3595.87
504.724	3621.85
505.093	3644
505.462	3641.97
505.83	3665.02
506.199	3746.82
506.567	3711.57
506.936	3698.46
507.304	3771.23
507.672	3780.72
508.041	3762.87
508.409	3782.98
508.777	3795.63
509.145	3868.85
509.514	3831.34
509.882	3839.02
510.25	3853.26
510.618	3898.23
510.986	3932.35
511.354	3909.53
511.722	3975.97
512.09	3958.57
512.458	3961.96
512.826	4015.29
513.193	4008.28
513.561	3994.73
513.929	4022.07
514.297	4062.29
514.664	4081.5
515.032	4081.5
515.4	4129.41
515.767	4079.69
516.135	4164.44
516.502	4092.8
516.869	4182.29
517.237	4116.08
517.604	4168.28
517.972	4168.73
518.339	4237.66
518.706	4246.47
519.073	4211.89
519.44	4249.41
519.808	4234.27
520.175	4270.42
520.542	4287.15
520.909	4382.51
521.276	4316.98
521.643	4299.58
522.009	4367.15
522.376	4380.93
522.743	4415.96
523.11	4381.83
523.477	4455.5
523.843	4432.23
524.21	4505.67
524.577	4560.59
524.943	4541.6
525.31	4537.54
525.676	4581.83
526.043	4603.07
526.409	4619.79
526.776	4668.61
527.142	4655.73
527.508	4664.99
527.874	4673.58
528.241	4740.69
528.607	4706.8
528.973	4759.9
529.339	4729.62
529.705	4824.76
530.071	4828.15
530.437	4879.45
530.803	4874.02
531.169	4874.02
531.535	4895.94
531.901	4928.49
532.267	4932.1
532.632	4937.3
532.998	5003.51
533.364	5027.69
533.73	5018.88
534.095	5073.12
534.461	5042.83
534.826	5080.8
535.192	5110.85
535.557	5140.46
535.923	5191.98
536.288	5170.29
536.653	5163.28
537.019	5176.16
537.384	5191.76
537.749	5214.58
538.114	5301.36
538.479	5270.85
538.845	5318.98
539.21	5321.02
539.575	5304.3
539.94	5331.41
540.305	5415.93
540.67	5348.14
541.034	5369.15
541.399	5449.38
541.764	5445.76
542.129	5446.44
542.494	5464.74
542.858	5494.35
543.223	5553.33
543.587	5605.53
543.952	5525.53
544.316	5573.67
544.681	5614.34
545.045	5623.16
545.41	5688.47
545.774	5723.27
546.138	5768.24
546.503	5750.16
546.867	5745.64
547.231	5827.67
547.595	5794.45
547.959	5861.57
548.324	5875.35
548.688	5810.72
549.052	5848.46
549.416	5877.61
549.779	5940.89
550.143	5987.89
550.507	5981.11
550.871	6008.91
551.235	5972.3
551.599	6016.59
551.962	6049.81
552.326	6047.1
552.689	6065.86
553.053	6051.62
553.417	6097.27
553.78	6140.66
554.143	6105.86
554.507	6163.93
554.87	6175.69
555.234	6277.83
555.597	6222.46
555.96	6245.29
556.323	6271.95
556.686	6250.49
557.05	6330.03
557.413	6260.43
557.776	6321.44
558.139	6395.34
558.502	6377.94
558.865	6420.65
559.228	6455
559.59	6411.61
559.953	6434.66
560.316	6538.61
560.679	6552.85
561.041	6532.06
561.404	6587.65
561.767	6582.91
562.129	6539.29
562.492	6621.78
562.854	6590.59
563.217	6629.01
563.579	6624.49
563.941	6710.13
564.304	6706.52
564.666	6793.3
565.028	6801.66
565.39	6835.1
565.753	6777.93
566.115	6793.07
566.477	6841.2
566.839	6906.51
567.201	6925.27
567.563	6903.8
567.925	6936.12
568.287	6953.74
568.648	6960.75
569.01	7006.85
569.372	7052.95
569.734	7118.03
570.095	7113.74
570.457	7133.4
570.819	7156.22
571.18	7184.47
571.542	7280.51
571.903	7304.69
572.265	7274.87
572.626	7349.89
572.987	7359.38
573.349	7395.99
573.71	7443.22
574.071	7474.86
574.432	7601.64
574.794	7636.89
575.155	7671.69
575.516	7664.91
575.877	7767.96
576.238	7854.51
576.599	7924.11
576.96	7957.33
577.32	7992.13
577.681	8154.62
578.042	8213.15
578.403	8222.86
578.763	8297.21
579.124	8397.55
579.485	8460.82
579.845	8638.45
580.206	8659.46
580.566	8755.05
580.927	8850.19
581.287	9045.44
581.648	9137.42
582.008	9231.42
582.368	9418.76
582.728	9590.28
583.089	9656.72
583.449	9819.21
583.809	9924.06
584.169	10097.39
584.529	10202.25
584.889	10439.3
585.249	10530.82
585.609	10747.09
585.969	10983.02
586.329	11103.47
586.688	11298.26
587.048	11507.3
587.408	11691.02
587.768	11925.36
588.127	12147.05
588.487	12403.54
588.846	12674.05
589.206	12822.97
589.565	13034.49
589.925	13315.84
590.284	13578.2
590.643	13877.4
591.003	14180.22
591.362	14408.46
591.721	14539.31
592.08	14822.46
592.44	15184.71
592.799	15410.92
593.158	15766.62
593.517	15884.36
593.876	16324.34
594.235	16420.16
594.593	16814.5
594.952	17079.13
595.311	17301.95
595.67	17643.41
596.029	17992.78
596.387	18301.92
596.746	18676.15
597.104	18797.73
597.463	19095.35
597.822	19509.35
598.18	19625.95
598.538	19934.65
598.897	20305.94
599.255	20401.53
599.613	20997.44
599.972	21154.05
600.33	21496.86
600.688	21616.18
601.046	22086.91
601.404	22388.82
601.762	22581.81
602.12	22880.56
602.478	23084.84
602.836	23390.37
603.194	23564.83
603.552	23816.58
603.91	23959.62
604.268	24330.69
604.625	24694.75
604.983	24881.41
605.341	25021.74
605.698	25331.79
606.056	25574.95
606.413	25794.38
606.771	26124.54
607.128	26403.63
607.485	26502.83
607.843	26710.29
608.2	27106.66
608.557	27357.28
608.914	27367.22
609.272	27825.29
609.629	28047.2
609.986	28374.2
610.343	28258.49
610.7	28701.42
611.057	28762.89
611.414	28944.58
611.771	29155.87
612.127	29511.57
612.484	29525.35
612.841	29831.11
613.198	29834.95
613.554	30068.84
613.911	30438.1
614.267	30380.7
614.624	30681.93
614.98	30829.95
615.337	31158.53
615.693	31080.57
616.05	31291.41
616.406	31535.92
616.762	31516.94
617.118	31764.39
617.475	31857.72
617.831	32040.99
618.187	32223.36
618.543	32325.96
618.899	32637.59
619.255	32693.18
619.611	32846.62
619.967	32921.65
620.323	33101.76
620.678	33202.55
621.034	33083
621.39	33259.72
621.746	33259.49
622.101	33741.97
622.457	33515.98
622.812	33707.84
623.168	33904.9
623.523	33891.34
623.879	34150.32
624.234	33997.1
624.589	34216.98
624.945	34324.1
625.3	34387.6
625.655	34513.02
626.01	34460.14
626.365	34734.26
626.72	34594.15
627.075	34574.03
627.43	34658.33
627.785	34657.65
628.14	34877.98
628.495	34897.64
628.85	34915.49
629.205	34923.4
629.559	35173.57
629.914	34995.49
630.269	35188.93
630.623	34981.48
630.978	35065.77
631.332	35206.79
631.687	35408.59
632.041	35174.02
632.396	35353.67
632.75	35272.32
633.104	35387.8
633.459	35175.37
633.813	35272.55
634.167	35302.38
634.521	35399.78
634.875	35377.4
635.229	35263.51
635.583	35127.24
635.937	35265.54
636.291	35304.41
636.645	35303.51
636.999	35203.17
637.352	35243.85
637.706	35307.35
638.06	35330.62
638.413	35305.09
638.767	35241.14
639.121	35305.31
639.474	35091.76
639.828	35171.53
640.181	35182.61
640.534	35261.93
640.888	35164.08
641.241	35124.98
641.594	35136.28
641.947	35309.16
642.301	35225.77
642.654	35208.37
643.007	35277.97
643.36	35240.91
643.713	35161.59
644.066	35209.05
644.419	35183.96
644.771	34783.52
645.124	34500.59
645.477	34545.56
645.83	34407.49
646.182	34081.39
646.535	34141.96
646.888	34201.84
647.24	33932.02
647.593	34255.62
647.945	34119.81
648.298	33907.39
648.65	33907.84
649.002	34018.57
649.355	33852.02
649.707	33948.29
650.059	34032.81
650.411	34528.84
650.763	34556.63
651.115	34932.44
651.467	34638.21
651.819	34735.39
652.171	34803.41
652.523	34692.9
652.875	34660.81
653.227	34470.08
653.578	34790.75
653.93	34603.86
654.282	34521.38
654.633	34508.27
654.985	34431.21
655.337	34583.98
655.688	34551.44
656.039	34620.13
656.391	34388.73
656.742	34565.67
657.094	34376.53
657.445	34525.22
657.796	34449.74
658.147	34426.24
658.498	34402.06
658.849	34479.12
659.2	34534.04
659.551	34367.94
659.902	34414.04
660.253	34495.17
660.604	34526.8
660.955	34288.84
661.306	34518.89
661.656	34385.79
662.007	34503.98
662.358	34278.22
662.708	34367.26
663.059	34289.75
663.409	34205.68
663.76	34360.93
664.11	34283.19
664.461	34409.07
664.811	34346.92
665.161	34394.83
665.511	34276.64
665.862	34326.13
666.212	34413.59
666.562	34375.85
666.912	34312.35
667.262	34188.06
667.612	34277.32
667.962	34384.43
668.312	34268.51
668.662	34432.34
669.011	34193.93
669.361	34105.12
669.711	34190.99
670.06	34275.29
670.41	34104.22
670.76	34042.3
671.109	34231.9
671.459	34102.86
671.808	34096.76
672.157	34067.16
672.507	33778.35
672.856	33886.82
673.205	34085.23
673.554	34059.47
673.904	33890.21
674.253	34180.37
674.602	34058.34
674.951	33524.34
675.3	33417.23
675.649	33876.2
675.998	33897.22
676.346	33938.8
676.695	33882.08
677.044	33806.6
677.393	33900.38
677.741	33847.5
678.09	33802.3
678.438	33701.97
678.787	33836.2
679.135	33786.03
679.484	33440.96
679.832	33776.32
680.181	33465.59
680.529	33601.4
680.877	33449.77
681.225	33460.62
681.573	33677.79
681.922	33508.75
682.27	33370
682.618	33440.05
682.966	33279.15
683.314	33315.99
683.661	33350.34
684.009	33032.61
684.357	32995.54
684.705	32983.12
685.053	33046.16
685.4	33014.3
685.748	32841.2
686.095	32801.65
686.443	32739.28
686.79	32720.3
687.138	32677.14
687.485	32675.78
687.832	32629.9
688.18	32662.45
688.527	32404.15
688.874	32383.13
689.221	32257.94
689.568	32242.8
689.915	32296.13
690.262	32187.88
690.609	32091.61
690.956	31979.75
691.303	31859.08
691.65	31843.71
691.997	31857.04
692.344	31536.37
692.69	31629.25
693.037	31694.56
693.383	31462.93
693.73	31617.5
694.077	31240.34
694.423	31281.92
694.769	31135.93
695.116	31111.53
695.462	31108.59
695.808	30950.17
696.155	30883.96
696.501	30780.01
696.847	30663.85
697.193	30581.15
697.539	30620.24
697.885	30315.84
698.231	30358.55
698.577	30308.16
698.923	30219.8
699.269	30110.87
699.614	30114.94
699.96	29966.47
700.306	29982.52
700.651	29947.72
700.997	29703.65
701.342	29763.54
701.688	29689.42
702.033	29704.11
702.379	29628.63
702.724	29467.95
703.069	29521.06
703.415	29213.05
703.76	29328.52
704.105	29192.26
704.45	29193.38
704.795	28970.79
705.14	29075.42
705.485	29036.78
705.83	28828.2
706.175	28875.65
706.52	28733.74
706.865	28583.01
707.209	28614.42
707.554	28522.22
707.899	28598.37
708.243	28356.57
708.588	28491.03
708.932	28078.84
709.277	28209.91
709.621	28237.25
709.966	27915.68
710.31	27985.51
710.654	27752.74
710.998	27983.47
711.342	27826.64
711.687	27850.14
712.031	27716.36
712.375	27524.28
712.719	27687.44
713.063	27630.94
713.407	27588
713.75	27397.05
714.094	27542.35
714.438	27399.08
714.782	27355.02
715.125	27224.85
715.469	27278.63
715.812	27111.63
716.156	27054.01
716.499	26968.36
716.843	27108.92
717.186	26890.17
717.53	26886.78
717.873	27072.76
718.216	26801.36
718.559	26851.53
718.902	26587.35
719.246	26666.45
719.589	26535.6
719.932	26466.9
720.275	26484.98
720.617	26347.58
720.96	26323.18
721.303	26492.44
721.646	26481.82
721.989	26155.5
722.331	26181.26
722.674	26196.85
723.016	26308.49
723.359	26118.66
723.701	26310.52
724.044	25978.1
724.386	25886.58
724.729	25982.62
725.071	25881.83
725.413	25911.44
725.755	25823.08
726.097	25876.64
726.439	25628.51
726.782	25534.27
727.124	25795.28
727.465	25653.14
727.807	25635.06
728.149	25510.54
728.491	25403.43
728.833	25548.74
729.175	25451.34
729.516	25337.89
729.858	25322.3
730.199	25273.49
730.541	25286.14
730.882	25201.17
731.224	25363.43
731.565	25091.57
731.906	25101.74
732.248	25084.11
732.589	25003.44
732.93	24931.58
733.271	24955.53
733.612	24960.73
733.953	25036.88
734.294	24785.14
734.635	24855.19
734.976	24873.95
735.317	24650
735.658	24748.98
735.999	24720.28
736.339	24647.74
736.68	24754.41
737.021	24563.22
737.361	24452.04
737.702	24772.71
738.042	24521.42
738.383	24525.26
738.723	24563.68
739.063	24313.51
739.404	24461.98
739.744	24406.39
740.084	24207.08
740.424	24288.2
740.764	24197.36
741.104	24272.84
741.444	24137.02
741.784	24086.85
742.124	24178.38
742.464	24064.03
742.804	23950.36
743.143	24012.28
743.483	23925.05
743.823	23874.43
744.162	23826.97
744.502	23983.58
744.841	23889.34
745.181	23856.12
745.52	23740.87
745.86	23778.61
746.199	23712.4
746.538	23749.69
746.877	23703.13
747.216	23659.75
747.556	23636.47
747.895	23593.98
748.234	23502.69
748.573	23455.23
748.911	23399.19
749.25	23409.13
749.589	23358.74
749.928	23311.96
750.267	23327.55
750.605	23288
750.944	23179.98
751.283	23151.28
751.621	23230.38
751.96	23016.82
752.298	23045.52
752.636	22981.12
752.975	22964.62
753.313	22851.18
753.651	23046.88
753.989	22824.29
754.327	22811.86
754.666	22730.28
755.004	22718.07
755.342	22773.21
755.679	22613.22
756.017	22575.93
756.355	22687.12
756.693	22542.94
757.031	22407.12
757.368	22421.81
757.706	22383.62
758.044	22314.02
758.381	22305.66
758.719	22291.65
759.056	22349.27
759.394	22171.87
759.731	22090.97
760.068	22083.06
760.405	21989.96
760.743	21887.14
761.08	21878.78
761.417	21703.86
