Data from hue_40_FLMS001491_82.txt Node
Date: Mon Feb 06 15:08:40 GMT 2017
User: dcchb
Spectrometer: FLMS00149
Trigger mode: 0
Integration Time (sec): 2.000000E-2
Scans to average: 10
Electric dark correction enabled: true
Nonlinearity correction enabled: false
Boxcar width: 0
XAxis mode: Wavelengths
Number of Pixels in Spectrum: 2048
>>>>>Begin Spectral Data<<<<<
341.393	-25.31
341.776	-25.31
342.16	-25.31
342.543	-74.35
342.927	-61.24
343.31	-81.13
343.693	-73.44
344.077	-66.44
344.46	-51.07
344.843	-63.95
345.226	-21.24
345.61	-23.95
345.993	-19.43
346.376	-4.97
346.759	21.02
347.142	12.88
347.525	36.38
347.908	68.25
348.291	68.02
348.674	88.81
349.057	110.28
349.44	110.96
349.823	152.09
350.206	158.87
350.588	201.58
350.971	211.75
351.354	225.98
351.737	223.72
352.119	254.91
352.502	266.43
352.884	273.67
353.267	286.55
353.65	295.59
354.032	277.96
354.414	307.56
354.797	318.18
355.179	336.04
355.562	319.31
355.944	322.93
356.326	340.1
356.709	338.07
357.091	362.02
357.473	323.61
357.855	324.06
358.238	337.62
358.62	349.14
359.002	360.89
359.384	338.52
359.766	330.16
360.148	352.99
360.53	357.28
360.912	334.68
361.294	341.01
361.676	332.19
362.057	331.52
362.439	322.03
362.821	341.91
363.203	321.8
363.584	317.05
363.966	334.45
364.348	315.25
364.729	307.34
365.111	332.87
365.493	326.55
365.874	336.04
366.256	315.92
366.637	300.56
367.019	308.92
367.4	315.25
367.781	296.94
368.163	319.09
368.544	308.92
368.925	330.16
369.306	329.03
369.688	331.06
370.069	325.19
370.45	313.21
370.831	339.88
371.212	308.47
371.593	296.26
371.974	325.87
372.355	319.77
372.736	319.31
373.117	313.89
373.498	321.12
373.879	331.74
374.26	314.34
374.641	312.53
375.021	327.9
375.402	319.54
375.783	322.93
376.163	316.38
376.544	333.78
376.925	325.87
377.305	333.32
377.686	349.82
378.066	336.26
378.447	333.55
378.827	340.78
379.208	317.96
379.588	344.85
379.968	330.61
380.349	334.91
380.729	325.42
381.109	352.53
381.489	330.16
381.87	345.75
382.25	355.47
382.63	349.82
383.01	370.61
383.39	341.46
383.77	359.09
384.15	338.97
384.53	348.24
384.91	350.05
385.29	370.84
385.67	359.09
386.049	358.63
386.429	340.78
386.809	380.33
387.189	345.75
387.568	339.2
387.948	361.12
388.328	382.14
388.707	350.05
389.087	367.9
389.466	360.89
389.846	369.48
390.225	369.26
390.605	370.84
390.984	375.81
391.363	344.4
391.743	383.27
392.122	375.36
392.501	372.87
392.881	391.85
393.26	393.21
393.639	388.01
394.018	373.78
394.397	379.2
394.776	380.33
395.155	376.04
395.534	385.75
395.913	383.49
396.292	382.59
396.671	394.34
397.05	387.33
397.429	388.69
397.808	381.91
398.186	385.98
398.565	400.44
398.944	378.75
399.323	380.55
399.701	401.35
400.08	402.02
400.458	384.62
400.837	415.36
401.215	430.72
401.594	406.09
401.972	412.87
402.351	414
402.729	423.94
403.107	399.99
403.486	409.93
403.864	413.77
404.242	418.07
404.62	416.94
404.999	415.36
405.377	414.68
405.755	413.32
406.133	427.79
406.511	431.63
406.889	433.43
407.267	442.47
407.645	447.9
408.023	457.39
408.401	446.77
408.779	434.79
409.156	442.02
409.534	446.32
409.912	451.29
410.29	452.19
410.667	437.05
411.045	471.17
411.422	469.37
411.8	467.33
412.178	476.6
412.555	474.11
412.933	485.64
413.31	487.9
413.687	473.89
414.065	474.11
414.442	496.48
414.819	488.35
415.197	489.25
415.574	491.51
415.951	533.77
416.328	520.21
416.705	502.81
417.082	508.91
417.46	518.86
417.837	513.43
418.214	501
418.591	533.09
418.967	548.01
419.344	551.85
419.721	519.76
420.098	517.05
420.475	553.21
420.852	536.71
421.228	538.97
421.605	531.51
421.982	538.97
422.358	557.95
422.735	560.89
423.111	562.25
423.488	558.86
423.864	557.27
424.241	570.61
424.617	597.27
424.994	561.34
425.37	601.11
425.746	589.36
426.123	595.92
426.499	590.04
426.875	590.49
427.251	616.71
427.627	604.5
428.003	599.08
428.379	613.54
428.756	587.56
429.132	592.3
429.507	630.27
429.883	642.24
430.259	635.92
430.635	634.56
431.011	643.15
431.387	647.44
431.763	644.05
432.138	663.03
432.514	674.11
432.89	674.78
433.265	696.93
433.641	700.32
434.016	686.31
434.392	679.98
434.767	696.25
435.143	690.83
435.518	725.86
435.894	685.63
436.269	718.63
436.644	735.8
437.02	705.74
437.395	749.36
437.77	749.36
438.145	741.22
438.52	772.18
438.895	759.08
439.271	758.4
439.646	795.23
440.021	757.49
440.395	787.32
440.77	766.08
441.145	773.76
441.52	807.21
441.895	800.88
442.27	801.56
442.645	807.89
443.019	815.35
443.394	819.41
443.769	814.67
444.143	818.74
444.518	832.75
444.892	823.93
445.267	816.93
445.641	870.94
446.016	831.16
446.39	835.91
446.764	868
447.139	862.58
447.513	875.91
447.887	866.42
448.262	883.82
448.636	893.08
449.01	895.57
449.384	890.37
449.758	899.86
450.132	921.56
450.506	903.71
450.88	904.16
451.254	917.04
451.628	906.87
452.002	926.98
452.376	932.63
452.75	932.18
453.123	952.52
453.497	981.22
453.871	962.91
454.244	994.78
454.618	1013.31
454.992	998.62
455.365	1001.33
455.739	1025.28
456.112	1029.8
456.486	1031.39
456.859	1038.16
457.232	1076.81
457.606	1062.34
457.979	1054.44
458.352	1079.52
458.725	1094.43
459.099	1121.55
459.472	1122.23
459.845	1162.91
460.218	1159.07
460.591	1159.52
460.964	1138.05
461.337	1169.91
461.71	1208.33
462.083	1213.08
462.456	1220.98
462.829	1218.05
463.201	1242.91
463.574	1261.66
463.947	1255.79
464.32	1271.38
464.692	1312.28
465.065	1312.73
465.438	1338.27
465.81	1367.42
466.183	1382.56
466.555	1402.45
466.928	1377.14
467.3	1423.47
467.672	1429.34
468.045	1469.11
468.417	1463.92
468.789	1489.9
469.161	1520.41
469.534	1529.9
469.906	1566.96
470.278	1583.69
470.65	1624.36
471.022	1661.65
471.394	1682.67
471.766	1700.75
472.138	1735.32
472.51	1766.28
472.882	1820.07
473.253	1824.13
473.625	1891.93
473.997	1910.01
474.369	1926.05
474.74	1954.3
475.112	1984.81
475.484	2022.32
475.855	2080.17
476.227	2120.85
476.598	2202.65
476.97	2235.42
477.341	2253.73
477.713	2296.44
478.084	2360.84
478.455	2446.49
478.827	2422.99
479.198	2538.92
479.569	2567.62
479.94	2675.64
480.311	2716.31
480.682	2789.53
481.053	2825.69
481.424	2938.45
481.795	2963.09
482.166	3062.07
482.537	3106.58
482.908	3249.18
483.279	3297.77
483.65	3400.59
484.021	3467.25
484.391	3534.82
484.762	3568.72
485.133	3638.1
485.503	3746.79
485.874	3843.74
486.244	3935.94
486.615	4066.56
486.985	4132.32
487.356	4265.2
487.726	4344.74
488.097	4446.89
488.467	4547.45
488.837	4619.09
489.207	4741.12
489.578	4878.29
489.948	4953.54
490.318	5054.33
490.688	5111.73
491.058	5225.63
491.428	5302.23
491.798	5448.22
492.168	5596.91
492.538	5668.78
492.908	5773.86
493.278	5864.7
493.648	5963.68
494.017	6063.8
494.387	6219.05
494.757	6291.59
495.126	6397.8
495.496	6421.3
495.866	6534.74
496.235	6659.26
496.605	6733.61
496.974	6872.14
497.344	6913.26
497.713	7057.89
498.082	7175.86
498.452	7217.44
498.821	7322.52
499.19	7441.61
499.559	7491.1
499.928	7601.83
500.298	7665.56
500.667	7804.54
501.036	7800.25
501.405	7893.35
501.774	7985.1
502.143	8080.92
502.512	8169.73
502.88	8246.34
503.249	8361.81
503.618	8424.86
503.987	8510.51
504.356	8629.6
504.724	8621.24
505.093	8778.3
505.462	8811.52
505.83	8893.55
506.199	8996.37
506.567	9113.43
506.936	9178.74
507.304	9290.15
507.672	9294.44
508.041	9432.07
508.409	9469.36
508.777	9553.42
509.145	9663.93
509.514	9688.78
509.882	9792.96
510.25	9866.41
510.618	9905.95
510.986	9978.49
511.354	10066.85
511.722	10152.73
512.09	10271.59
512.458	10265.72
512.826	10408.09
513.193	10403.12
513.561	10508.88
513.929	10594.75
514.297	10715.42
514.664	10778.47
515.032	10721.07
515.4	10939.83
515.767	10967.62
516.135	11073.38
516.502	10953.16
516.869	11163.55
517.237	11264.34
517.604	11219.37
517.972	11397.67
518.339	11426.59
518.706	11458.46
519.073	11548.85
519.44	11637.43
519.808	11695.06
520.175	11777.54
520.542	11874.49
520.909	11916.52
521.276	11934.15
521.643	12059.34
522.009	12140.25
522.376	12250.53
522.743	12308.6
523.11	12449.62
523.477	12579.78
523.843	12655.71
524.21	12704.98
524.577	12767.8
524.943	12925.08
525.31	12907.01
525.676	13109.26
526.043	13076.27
526.409	13165.76
526.776	13308.58
527.142	13390.16
527.508	13422.25
527.874	13550.6
528.241	13535.92
528.607	13594.9
528.973	13757.38
529.339	13755.8
529.705	13912.85
530.071	14044.83
530.437	14143.81
530.803	14164.37
531.169	14237.59
531.535	14210.47
531.901	14318.72
532.267	14319.62
532.632	14520.3
532.998	14483.69
533.364	14649.11
533.73	14713.06
534.095	14817.01
534.461	14840.06
534.826	14885.03
535.192	14892.49
535.557	15015.88
535.923	15055.65
536.288	15052.49
536.653	15118.7
537.019	15228.75
537.384	15371.57
537.749	15356.66
538.114	15397.56
538.479	15503.55
538.845	15640.04
539.21	15557.78
539.575	15545.13
539.94	15620.15
540.305	15742.64
540.67	15819.02
541.034	15852.24
541.399	15897.44
541.764	15935.17
542.129	16119.12
542.494	16045.45
542.858	16148.05
543.223	16116.64
543.587	16343.98
543.952	16284.09
544.316	16421.26
544.681	16428.27
545.045	16496.74
545.41	16541.49
545.774	16508.72
546.138	16621.71
546.503	16720.92
546.867	16734.93
547.231	16940.35
547.595	16928.37
547.959	16978.99
548.324	17016.95
548.688	17029.16
549.052	17127.01
549.416	17206.1
549.779	17217.17
550.143	17222.37
550.507	17358.41
550.871	17467.11
551.235	17405.87
551.599	17580.33
551.962	17698.97
552.326	17652.87
552.689	17850.15
553.053	17606.09
553.417	17750.95
553.78	18057.38
554.143	17811.28
554.507	17976.48
554.87	18024.61
555.234	18149.13
555.597	18097.6
555.96	18247.2
556.323	18340.08
556.686	18343.47
557.05	18453.98
557.413	18516.8
557.776	18583.47
558.139	18766.51
558.502	18717.7
558.865	18733.97
559.228	18859.62
559.59	18983
559.953	18960.86
560.316	19196.56
560.679	19051.7
561.041	19264.8
561.404	19326.05
561.767	19476.32
562.129	19442.65
562.492	19561.07
562.854	19580.73
563.217	19535.08
563.579	19640.16
563.941	19744.34
564.304	19867.27
564.666	19972.81
565.028	19946.37
565.39	20095.29
565.753	20217.32
566.115	20267.72
566.477	20232.01
566.839	20381.84
567.201	20509.29
567.563	20506.13
567.925	20710.87
568.287	20829.51
568.648	20795.84
569.01	20881.48
569.372	21003.52
569.734	20933.01
570.095	21083.97
570.457	21205.77
570.819	21250.97
571.18	21293.23
571.542	21300.68
571.903	21557.4
572.265	21540.68
572.626	21664.06
572.987	21793.33
573.349	21820.67
573.71	21816.83
574.071	21955.58
574.432	22088.68
574.794	22302.69
575.155	22182.24
575.516	22315.57
575.877	22521.89
576.238	22572.29
576.599	22766.86
576.96	22801.89
577.32	22917.36
577.681	23011.15
578.042	23056.57
578.403	23192.84
578.763	23236.23
579.124	23396.45
579.485	23573.62
579.845	23854.74
580.206	23780.39
580.566	24008.41
580.927	24049.54
581.287	24309.64
581.648	24278.68
582.008	24578.79
582.368	24641.61
582.728	24949.4
583.089	25046.35
583.449	25160.92
583.809	25230.07
584.169	25591.64
584.529	25402.04
584.889	25839.55
585.249	25870.28
585.609	26058.75
585.969	26375.13
586.329	26436.59
586.688	26588.68
587.048	26747.77
587.408	26903.47
587.768	27047.2
588.127	27230.24
588.487	27418.04
588.846	27722.21
589.206	27702.77
589.565	27867.74
589.925	28255.98
590.284	28405.81
590.643	28384.79
591.003	28794.95
591.362	29069.97
591.721	29023.42
592.08	29294.37
592.44	29505.89
592.799	29631.09
593.158	29850.29
593.517	29923.73
593.876	30186.78
594.235	30293.44
594.593	30529.14
594.952	30786.76
595.311	30784.73
595.67	31046.64
596.029	31255.9
596.387	31507.19
596.746	31557.36
597.104	31643.69
597.463	31812.5
597.822	32119.83
598.18	32106.05
598.538	32284.8
598.897	32680.5
599.255	32407.06
599.613	33036.87
599.972	32996.65
600.33	33198
600.688	33203.87
601.046	33428.27
601.404	33687.48
601.762	33742.62
602.12	33944.19
602.478	34083.85
602.836	34259.66
603.194	34117.52
603.552	34375.14
603.91	34341.24
604.268	34564.74
604.625	34610.16
604.983	35101
605.341	34981.91
605.698	35194.78
606.056	35384.83
606.413	35452.18
606.771	35714.09
607.128	35750.92
607.485	35604.94
607.843	35747.99
608.2	36023.91
608.557	36305.26
608.914	36342.1
609.272	36452.83
609.629	36501.64
609.986	36699.37
610.343	36713.16
610.7	37000.16
611.057	37091.68
611.414	37128.29
611.771	37250.77
612.127	37350.2
612.484	37411.45
612.841	37675.39
613.198	37523.08
613.554	37748.84
613.911	37973.69
614.267	37917.42
614.624	37954.26
614.98	38062.28
615.337	38441.02
615.693	38280.58
616.05	38254.36
616.406	38594.47
616.762	38527.12
617.118	38501.13
617.475	38612.54
617.831	38745.42
618.187	38890.28
618.543	38898.41
618.899	39154.68
619.255	39090.72
619.611	39084.4
619.967	39258.63
620.323	39436.03
620.678	39395.35
621.034	39292.3
621.39	39223.15
621.746	39385.18
622.101	39866.3
622.457	39447.78
622.812	39621.11
623.168	39855
623.523	39740.88
623.879	40014.77
624.234	39751.5
624.589	39826.07
624.945	39905.84
625.3	39792.85
625.655	39937.48
626.01	40073.52
626.365	40066.07
626.72	40067.87
627.075	40096.8
627.43	40104.48
627.785	40003.02
628.14	40108.78
628.495	40055.9
628.85	40155.1
629.205	39992.17
629.559	40386.51
629.914	40113.3
630.269	40166.18
630.623	39989.46
630.978	40069
631.332	40172.28
631.687	40508.77
632.041	40140.87
632.396	40187.64
632.75	40116.46
633.104	40243.69
633.459	39887.54
633.813	40147.64
634.167	39980.64
634.521	40037.59
634.875	40087.76
635.229	40051.38
635.583	39935.45
635.937	40004.15
636.291	39893.41
636.645	39838.73
636.999	39843.47
637.352	39935.45
637.706	39588.34
638.06	39788.78
638.413	39737.03
638.767	39692.97
639.121	39779.97
639.474	39535.23
639.828	39770.25
640.181	39717.83
640.534	39813.19
640.888	39564.38
641.241	39481.9
641.594	39585.85
641.947	39753.53
642.301	39621.11
642.654	39517.38
643.007	39553.99
643.36	39618.39
643.713	39428.12
644.066	39582.91
644.419	39320.55
644.771	39110.16
645.124	38895.25
645.477	38629.04
645.83	38596.05
646.182	38493.45
646.535	38321.48
646.888	38323.29
647.24	38143.4
647.593	38261.59
647.945	38200.8
648.298	38072.67
648.65	37997.87
649.002	37939.34
649.355	38109.73
649.707	38019.11
650.059	38113.35
650.411	38607.57
650.763	38716.95
651.115	39101.8
651.467	38837.17
651.819	38869.94
652.171	38671.07
652.523	38650.06
652.875	38864.29
653.227	38416.62
653.578	38832.65
653.93	38690.06
654.282	38473.79
654.633	38357.18
654.985	38519.44
655.337	38381.14
655.688	38447.8
656.039	38676.27
656.391	38330.07
656.742	38354.02
657.094	38375.49
657.445	38718.98
657.796	38432.89
658.147	38360.35
658.498	38342.04
658.849	38460.91
659.2	38359.67
659.551	38255.04
659.902	38332.55
660.253	38352.44
660.604	38479.21
660.955	38147.25
661.306	38486.22
661.656	38231.99
662.007	38334.13
662.358	38338.43
662.708	38338.2
663.059	38257.53
663.409	38131.2
663.76	38361.48
664.11	38309.05
664.461	38258.66
664.811	38310.63
665.161	38186.79
665.511	38185.44
665.862	38154.7
666.212	38389.05
666.562	38298.2
666.912	38100.47
667.262	38189.05
667.612	38106.12
667.962	38048.27
668.312	37967.36
668.662	38309.5
669.011	38097.98
669.361	38044.65
669.711	38078.77
670.06	37854.37
670.41	37928.49
670.76	37903.41
671.109	38107.7
671.459	38001.03
671.808	37957.42
672.157	37917.65
672.507	37858.21
672.856	37758.33
673.205	37857.99
673.554	37974.59
673.904	37851.89
674.253	37954.93
674.602	37800.59
674.951	37398.56
675.3	37174.16
675.649	37733.92
675.998	37633.13
676.346	37672.23
676.695	37763.98
677.044	37589.52
677.393	37691.89
677.741	37667.71
678.09	37525.34
678.438	37476.98
678.787	37544.1
679.135	37527.37
679.484	37312.24
679.832	37551.78
680.181	37140.72
680.529	37325.8
680.877	37322.41
681.225	37249.42
681.573	37373.48
681.922	37060.04
682.27	36870.44
682.618	37000.61
682.966	36828.64
683.314	36886.04
683.661	36794.51
684.009	36637.23
684.357	36628.42
684.705	36629.32
685.053	36681.3
685.4	36501.19
685.748	36312.27
686.095	36391.59
686.443	36316.56
686.79	36244.7
687.138	36413.28
687.485	36236.34
687.832	36098.71
688.18	36290.57
688.527	36049.9
688.874	35961.31
689.221	35836.57
689.568	35844.71
689.915	35770.13
690.262	35887.87
690.609	35711.6
690.956	35482.23
691.303	35439.52
691.65	35399.97
691.997	35306.64
692.344	35208.79
692.69	35067.78
693.037	35124.27
693.383	34926.31
693.73	35120.88
694.077	34670.5
694.423	34742.82
694.769	34731.74
695.116	34520.45
695.462	34545.98
695.808	34486.1
696.155	34457.17
696.501	34285.65
696.847	34261.47
697.193	33960.69
697.539	34039.33
697.885	33760.69
698.231	33630.53
698.577	33712.56
698.923	33769.51
699.269	33547.82
699.614	33339.46
699.96	33290.65
700.306	33344.66
700.651	33253.59
700.997	33103.31
701.342	33018.57
701.688	32980.83
702.033	32921.62
702.379	32796.43
702.724	32648.63
703.069	32804.34
703.415	32326.61
703.76	32398.24
704.105	32551.91
704.45	32383.33
704.795	32285.48
705.14	32181.75
705.485	32127.97
705.83	31941.53
706.175	32085.03
706.52	31948.31
706.865	31806.62
707.209	31824.93
707.554	31683.01
707.899	31709.22
708.243	31583.8
708.588	31565.05
708.932	31326.86
709.277	31231.95
709.621	31327.99
709.966	31139.29
710.31	31135.45
710.654	30937.27
710.998	30939.98
711.342	31002.12
711.687	30817.04
712.031	30713.54
712.375	30520.55
712.719	30666.76
713.063	30485.53
713.407	30685.75
713.75	30444.4
714.094	30382.7
714.438	30300.45
714.782	30380.9
715.125	30324.17
715.469	30213.22
715.812	30031.53
716.156	30021.36
716.499	29936.84
716.843	29936.61
717.186	29715.6
717.53	29782.27
717.873	29929.38
718.216	29697.98
718.559	29633.12
718.902	29528.72
719.246	29576.17
719.589	29433.8
719.932	29299.79
720.275	29432.22
720.617	29351.32
720.96	29127.14
721.303	29315.84
721.646	29285.78
721.989	28992.01
722.331	29140.7
722.674	29013.25
723.016	29041.5
723.359	28980.03
723.701	28958.33
724.044	28866.81
724.386	28591.34
724.729	28799.47
725.071	28630.66
725.413	28601.28
725.755	28658.23
726.097	28503.66
726.439	28550.44
726.782	28550.89
727.124	28484.67
727.465	28253.95
727.807	28329.88
728.149	28269.77
728.491	28078.36
728.833	28264.79
729.175	28091.92
729.516	28046.27
729.858	27989.09
730.199	28097.79
730.541	28105.7
730.882	27936.67
731.224	27973.28
731.565	27741.87
731.906	27858.25
732.248	28005.82
732.589	27790.68
732.93	27619.61
733.271	27781.64
733.612	27673.85
733.953	27656
734.294	27485.15
734.635	27484.93
734.976	27507.07
735.317	27484.93
735.658	27330.13
735.999	27357.25
736.339	27303.24
736.68	27410.58
737.021	27277.02
737.361	27139.63
737.702	27301.88
738.042	27198.15
738.383	27054.2
738.723	27182.79
739.063	26885.17
739.404	26916.13
739.744	26896.02
740.084	26786.19
740.424	26886.52
740.764	26727.43
741.104	26906.19
741.444	26593.43
741.784	26675
742.124	26637.49
742.464	26660.77
742.804	26556.36
743.143	26499.87
743.483	26569.92
743.823	26384.39
744.162	26318.4
744.502	26348.01
744.841	26230.27
745.181	26408.12
745.52	26305.07
745.86	26400.21
746.199	26101.69
746.538	26159.99
746.877	26240.44
747.216	26174.45
747.556	26122.25
747.895	26183.94
748.234	25974.46
748.573	25862.14
748.911	25966.1
749.25	25849.26
749.589	25664.64
749.928	25761.13
750.267	25881.13
750.605	25762.71
750.944	25601.59
751.283	25585.09
751.621	25556.16
751.96	25442.95
752.298	25496.28
752.636	25453.12
752.975	25173.12
753.313	25235.95
753.651	25404.08
753.989	25161.82
754.327	25140.36
754.666	24949.85
755.004	25007.03
755.342	25045.22
755.679	25000.7
756.017	24838.44
756.355	24929.97
756.693	24762.74
