Data from hue_22_FLMS001491_00076.txt Node
Date: Tue Feb 07 17:10:38 GMT 2017
User: dcchb
Spectrometer: FLMS00149
Trigger mode: 0
Integration Time (sec): 2.000000E-2
Scans to average: 10
Electric dark correction enabled: true
Nonlinearity correction enabled: false
Boxcar width: 0
XAxis mode: Wavelengths
Number of Pixels in Spectrum: 2048
>>>>>Begin Spectral Data<<<<<
341.393	-5.68
341.776	-5.68
342.16	-5.68
342.543	-72.57
342.927	-76.64
343.31	-81.83
343.693	-52
344.077	-60.14
344.46	-67.82
344.843	-57.65
345.226	-31.89
345.61	-14.27
345.993	-24.66
346.376	-25.11
346.759	5.85
347.142	34.1
347.525	56.92
347.908	44.94
348.291	81.33
348.674	76.35
349.057	115.9
349.44	121.55
349.823	162
350.206	140.76
350.588	191.61
350.971	212.62
351.354	232.96
351.737	233.86
352.119	257.14
352.502	264.37
352.884	277.25
353.267	282.9
353.65	276.12
354.032	278.38
354.414	291.26
354.797	317.93
355.179	313.18
355.562	333.75
355.944	320.87
356.326	327.19
356.709	334.43
357.091	342.79
357.473	342.34
357.855	293.07
358.238	355.22
358.62	326.97
359.002	343.24
359.384	339.62
359.766	326.97
360.148	348.89
360.53	329.91
360.912	338.95
361.294	317.93
361.676	342.79
362.057	337.36
362.439	324.03
362.821	316.8
363.203	333.07
363.584	343.69
363.966	322.9
364.348	328.55
364.729	328.78
365.111	331.26
365.493	351.15
365.874	283.35
366.256	294.2
366.637	302.79
367.019	318.38
367.4	321.09
367.781	327.19
368.163	338.27
368.544	327.19
368.925	320.42
369.306	336.23
369.688	310.02
370.069	318.61
370.45	289.23
370.831	307.76
371.212	325.84
371.593	314.09
371.974	344.37
372.355	321.77
372.736	306.18
373.117	308.89
373.498	318.16
373.879	323.81
374.26	315.44
374.641	322.9
375.021	331.94
375.402	333.07
375.783	307.31
376.163	324.26
376.544	319.74
376.925	344.82
377.305	319.74
377.686	327.65
378.066	324.71
378.447	336.91
378.827	334.2
379.208	341.43
379.588	322.45
379.968	320.64
380.349	317.48
380.729	347.31
381.109	320.42
381.489	326.74
381.87	338.72
382.25	335.56
382.63	328.55
383.01	344.37
383.39	329.68
383.77	343.24
384.15	349.34
384.53	351.37
384.91	343.47
385.29	358.15
385.67	336.91
386.049	363.8
386.429	348.89
386.809	343.69
387.189	354.31
387.568	339.62
387.948	350.02
388.328	335.1
388.707	370.36
389.087	333.3
389.466	357.02
389.846	341.21
390.225	355.44
390.605	363.8
390.984	350.47
391.363	358.38
391.743	359.51
392.122	355.22
392.501	351.37
392.881	375.78
393.26	390.47
393.639	381.88
394.018	372.17
394.397	365.84
394.776	372.84
395.155	367.19
395.534	372.17
395.913	377.81
396.292	387.53
396.671	393.63
397.05	368.55
397.429	374.88
397.808	384.59
398.186	388.21
398.565	372.62
398.944	392.96
399.323	380.53
399.701	406.74
400.08	372.39
400.458	380.07
400.837	394.54
401.215	406.97
401.594	402.45
401.972	391.37
402.351	393.41
402.729	395.89
403.107	389.79
403.486	394.76
403.864	407.87
404.242	393.86
404.62	411.03
404.999	385.05
405.377	407.64
405.755	410.58
406.133	410.13
406.511	406.29
406.889	439.51
407.267	417.59
407.645	424.59
408.023	418.94
408.401	432.05
408.779	424.59
409.156	441.32
409.534	438.38
409.912	421.66
410.29	440.86
410.667	449.9
411.045	451.94
411.422	458.26
411.8	473.86
412.178	458.26
412.555	446.74
412.933	453.52
413.31	456.46
413.687	472.28
414.065	462.11
414.442	465.04
414.819	483.8
415.197	468.89
415.574	481.77
415.951	458.26
416.328	446.97
416.705	461.2
417.082	472.05
417.46	494.87
417.837	489.68
418.214	497.13
418.591	487.87
418.967	491.71
419.344	512.73
419.721	488.55
420.098	519.05
420.475	505.04
420.852	499.39
421.228	503.69
421.605	540.75
421.982	523.35
422.358	520.41
422.735	522.67
423.111	546.85
423.488	524.48
423.864	529.45
424.241	531.03
424.617	554.53
424.994	532.39
425.37	553.18
425.746	554.31
426.123	557.92
426.499	546.85
426.875	569.9
427.251	544.14
427.627	557.25
428.003	577.13
428.379	583.01
428.756	572.84
429.132	598.15
429.507	627.07
429.883	581.88
430.259	593.63
430.635	600.41
431.011	596.34
431.387	585.49
431.763	601.76
432.138	638.83
432.514	637.92
432.89	623.23
433.265	647.64
433.641	663.23
434.016	649.45
434.392	635.44
434.767	651.48
435.143	650.35
435.518	678.82
435.894	678.6
436.269	688.54
436.644	688.99
437.02	672.95
437.395	689.67
437.77	688.32
438.145	710.69
438.52	703.91
438.895	702.1
439.271	715.21
439.646	739.61
440.021	711.59
440.395	720.63
440.77	723.79
441.145	731.25
441.52	737.13
441.895	748.65
442.27	750.46
442.645	728.77
443.019	776.22
443.394	759.05
443.769	759.05
444.143	762.66
444.518	789.1
444.892	796.79
445.267	790.01
445.641	792.27
446.016	778.26
446.39	773.74
446.764	804.92
447.139	800.85
447.513	809.22
447.887	809.67
448.262	818.71
448.636	797.01
449.01	818.71
449.384	837.92
449.758	847.86
450.132	847.18
450.506	842.44
450.88	841.53
451.254	836.33
451.628	856.22
452.002	840.4
452.376	862.1
452.75	860.97
453.123	890.8
453.497	892.15
453.871	898.71
454.244	909.55
454.618	920.85
454.992	905.03
455.365	944.35
455.739	954.52
456.112	945.48
456.486	953.62
456.859	984.13
457.232	968.76
457.606	992.04
457.979	986.16
458.352	999.95
458.725	1023.9
459.099	1021.64
459.472	1043.79
459.845	1065.71
460.218	1064.35
460.591	1071.81
460.964	1055.31
461.337	1107.74
461.71	1089.21
462.083	1095.08
462.456	1124.46
462.829	1099.6
463.201	1126.95
463.574	1140.05
463.947	1165.59
464.32	1161.52
464.692	1172.82
465.065	1167.4
465.438	1224.8
465.81	1214.18
466.183	1251.46
466.555	1275.64
466.928	1274.51
467.3	1260.96
467.672	1295.98
468.045	1317.9
468.417	1323.33
468.789	1331.69
469.161	1347.51
469.534	1366.04
469.906	1384.34
470.278	1414.4
470.65	1404
471.022	1445.13
471.394	1453.49
471.766	1477.45
472.138	1521.51
472.51	1516.77
472.882	1567.39
473.253	1574.85
473.625	1600.16
473.997	1639.25
474.369	1658.46
474.74	1644.22
475.112	1679.93
475.484	1724.45
475.855	1762.41
476.227	1769.19
476.598	1799.92
476.97	1822.07
477.341	1909.53
477.713	1868.85
478.084	1905.46
478.455	2004.21
478.827	1983.42
479.198	2039.69
479.569	2041.05
479.94	2099.8
480.311	2129.41
480.682	2159.24
481.053	2227.48
481.424	2274.94
481.795	2290.08
482.166	2354.49
482.537	2312.45
482.908	2422.96
483.279	2466.12
483.65	2517.65
484.021	2522.39
484.391	2576.63
484.762	2645.55
485.133	2643.74
485.503	2694.14
485.874	2735.72
486.244	2784.08
486.615	2822.04
486.985	2862.72
487.356	2933.45
487.726	2920.12
488.097	3029.04
488.467	3028.59
488.837	3130.74
489.207	3178.65
489.578	3180.23
489.948	3233.33
490.318	3314.91
490.688	3288.25
491.058	3351.97
491.428	3415.25
491.798	3480.33
492.168	3529.14
492.538	3530.73
492.908	3598.3
493.278	3634.23
493.648	3652.08
494.017	3689.37
494.387	3738.18
494.757	3766.88
495.126	3815.69
495.496	3818.63
495.866	3911.96
496.235	3910.15
496.605	3957.38
496.974	3989.7
497.344	4010.49
497.713	4023.37
498.082	4129.35
498.452	4105.17
498.821	4165.06
499.19	4174.78
499.559	4185.85
499.928	4262.23
500.298	4261.33
500.667	4268.33
501.036	4315.56
501.405	4333.42
501.774	4386.75
502.143	4412.51
502.512	4424.04
502.88	4481.44
503.249	4451.38
503.618	4485.96
503.987	4509.46
504.356	4546.52
504.724	4558.72
505.093	4607.08
505.462	4599.85
505.83	4636.01
506.199	4686.63
506.567	4694.99
506.936	4718.94
507.304	4760.52
507.672	4772.28
508.041	4833.07
508.409	4832.39
508.777	4845.95
509.145	4876.91
509.514	4880.75
509.882	4921.2
510.25	4940.86
510.618	5003.23
510.986	4988.77
511.354	5023.79
511.722	5067.64
512.09	5048.65
512.458	5053.85
512.826	5114.19
513.193	5127.29
513.561	5148.08
513.929	5213.17
514.297	5215.43
514.664	5232.38
515.032	5265.82
515.4	5304.69
515.767	5275.99
516.135	5330.45
516.502	5285.03
516.869	5344.69
517.237	5366.38
517.604	5423.78
517.972	5383.78
518.339	5470.56
518.706	5412.03
519.073	5535.19
519.44	5582.2
519.808	5537
520.175	5565.48
520.542	5641.41
520.909	5605.47
521.276	5638.02
521.643	5667.62
522.009	5666.94
522.376	5752.81
522.743	5778.8
523.11	5802.31
523.477	5860.16
523.843	5849.76
524.21	5879.82
524.577	5965.01
524.943	5982.41
525.31	6007.05
525.676	6085.91
526.043	6028.74
526.409	6119.13
526.776	6141.96
527.142	6139.25
527.508	6189.41
527.874	6252.01
528.241	6273.48
528.607	6286.13
528.973	6297.66
529.339	6299.92
529.705	6386.02
530.071	6489.52
530.437	6444.32
530.803	6490.87
531.169	6515.51
531.535	6521.83
531.901	6551.89
532.267	6612.23
532.632	6624.66
532.998	6583.3
533.364	6667.37
533.73	6723.41
534.095	6779
534.461	6794.6
534.826	6793.24
535.192	6799.79
535.557	6830.98
535.923	6891.54
536.288	6888.6
536.653	6914.37
537.019	6909.39
537.384	6924.99
537.749	7024.65
538.114	6993.23
538.479	7048.83
538.845	7026
539.21	7083.63
539.575	7106.68
539.94	7153.91
540.305	7176.05
540.67	7199.78
541.034	7254.02
541.399	7287.24
541.764	7259.44
542.129	7303.96
542.494	7299.21
542.858	7318.65
543.223	7374.92
543.587	7410.4
543.952	7463.28
544.316	7449.72
544.681	7512.54
545.045	7528.81
545.41	7523.39
545.774	7620.79
546.138	7571.75
546.503	7660.56
546.867	7649.26
547.231	7723.38
547.595	7662.37
547.959	7761.8
548.324	7757.06
548.688	7838.64
549.052	7813.55
549.416	7845.42
549.779	7809.26
550.143	7882.25
550.507	7920.67
550.871	7882.93
551.235	7916.83
551.599	8027.56
551.962	8046.54
552.326	8049.48
552.689	8131.51
553.053	8114.79
553.417	8142.36
553.78	8190.94
554.143	8157.72
554.507	8266.42
554.87	8271.62
555.234	8360.43
555.597	8247.66
555.96	8308.68
556.323	8326.08
556.686	8350.71
557.05	8428.22
557.413	8475.23
557.776	8447.43
558.139	8520.65
558.502	8546.64
558.865	8462.35
559.228	8576.92
559.59	8649.24
559.953	8662.57
560.316	8718.84
560.679	8682.46
561.041	8781.89
561.404	8701.21
561.767	8830.47
562.129	8825.28
562.492	8891.94
562.854	8830.93
563.217	8936.69
563.579	8860.76
563.941	8949.11
564.304	8999.28
564.666	9055.33
565.028	9051.94
565.39	9079.28
565.753	9125.83
566.115	9162.67
566.477	9167.41
566.839	9272.72
567.201	9290.57
567.563	9320.18
567.925	9406.5
568.287	9379.39
568.648	9388.65
569.01	9411.93
569.372	9488.76
569.734	9440.18
570.095	9594.07
570.457	9575.54
570.819	9632.94
571.18	9652.6
571.542	9703.45
571.903	9755.65
572.265	9780.51
572.626	9795.87
572.987	9808.98
573.349	9951.57
573.71	9955.64
574.071	9989.99
574.432	10032.02
574.794	10182.53
575.155	10200.16
575.516	10166.71
575.877	10221.4
576.238	10303.43
576.599	10439.02
576.96	10512.92
577.32	10555.4
577.681	10554.04
578.042	10676.53
578.403	10741.61
578.763	10907.26
579.124	10938.89
579.485	11014.6
579.845	11243.52
580.206	11236.51
580.566	11323.52
580.927	11512.21
581.287	11624.52
581.648	11702.71
582.008	11843.73
582.368	11946.1
582.728	12053.67
583.089	12260.67
583.449	12365.07
583.809	12596.48
584.169	12731.84
584.529	12891.84
584.889	13125.73
585.249	13187.42
585.609	13355.55
585.969	13570.46
586.329	13780.17
586.688	14003.22
587.048	14202.54
587.408	14386.71
587.768	14572.47
588.127	14857.89
588.487	14995.28
588.846	15374.48
589.206	15499.23
589.565	15813.12
589.925	16001.81
590.284	16266.66
590.643	16507.11
591.003	16887.21
591.362	17129.69
591.721	17359.29
592.08	17658.72
592.44	18002.66
592.799	18292.6
593.158	18531.24
593.517	18814.62
593.876	19176.64
594.235	19334.6
594.593	19748.83
594.952	20168.93
595.311	20240.57
595.67	20628.13
596.029	21033.32
596.387	21329.13
596.746	21729.12
597.104	21811.6
597.463	22159.39
597.822	22565.93
598.18	22773.38
598.538	23196.65
598.897	23460.82
599.255	23716.86
599.613	24276.85
599.972	24418.99
600.33	24854.91
600.688	24989.82
601.046	25327.67
601.404	25748.9
601.762	26058.72
602.12	26479.28
602.478	26759.27
602.836	27191.12
603.194	27183.44
603.552	27479.93
603.91	27647.15
604.268	28179.12
604.625	28316.74
604.983	28643.96
605.341	28767.8
605.698	29363.72
606.056	29647.78
606.413	29801
606.771	30172.96
607.128	30497.25
607.485	30558.94
607.843	30808.88
608.2	31221.07
608.557	31449.99
608.914	31533.61
609.272	31983.09
609.629	32266.02
609.986	32656.51
610.343	32715.5
610.7	33157.52
611.057	33221.47
611.414	33469.83
611.771	33625.53
612.127	34035.01
612.484	34107.55
612.841	34460.08
613.198	34532.4
613.554	34663.47
613.911	35092.61
614.267	35213.74
614.624	35350.45
614.98	35619.37
615.337	35811.69
615.693	35931
616.05	36175.74
616.406	36460.48
616.762	36350.65
617.118	36631.55
617.475	36840.13
617.831	37147.47
618.187	37284.87
618.543	37413.23
618.899	37758.3
619.255	37746.55
619.611	37879.2
619.967	38132.98
620.323	38255.46
620.678	38433.31
621.034	38284.61
621.39	38515.8
621.746	38735.68
622.101	38933.19
622.457	38952.39
622.812	39038.95
623.168	39201.88
623.523	39318.26
623.879	39504.7
624.234	39364.36
624.589	39701.98
624.945	39805.48
625.3	39817
625.655	39859.04
626.01	39966.38
626.365	40043.89
626.72	39960.05
627.075	40159.82
627.43	40244.11
627.785	40127.96
628.14	40398.23
628.495	40445.24
628.85	40507.83
629.205	40305.58
629.559	40638.68
629.914	40428.06
630.269	40760.71
630.623	40927.94
630.978	40660.15
631.332	40886.13
631.687	40994.6
632.041	40845.9
632.396	40935.62
632.75	40794.83
633.104	40821.5
633.459	40719.35
633.813	40778.33
634.167	41009.29
634.521	40899.24
634.875	41017.42
635.229	41145.78
635.583	40878.44
635.937	41060.59
636.291	40829.86
636.645	41086.8
636.999	40871.89
637.352	41218.1
637.706	40903.3
638.06	41178.78
638.413	41086.58
638.767	40981.95
639.121	41033.47
639.474	40746.47
639.828	40874.6
640.181	40987.82
640.534	40932.91
640.888	40905.79
641.241	40757.32
641.594	40960.7
641.947	41054.26
642.301	40932
642.654	40866.47
643.007	40937.88
643.36	40913.02
643.713	40774.94
644.066	41062.62
644.419	40732.69
644.771	40618.11
645.124	40163.66
645.477	40224.68
645.83	39934.97
646.182	39885.25
646.535	39778.59
646.888	39903.56
647.24	39717.8
647.593	39881.41
647.945	39678.25
648.298	39594.41
648.65	39634.86
649.002	39479.84
649.355	39581.3
649.707	39680.74
650.059	39817.68
650.411	40416.54
650.763	40214.06
651.115	40713.7
651.467	40485.69
651.819	40492.24
652.171	40474.61
652.523	40483.65
652.875	40423.09
653.227	40258.12
653.578	40504.22
653.93	40517.55
654.282	40259.93
654.633	40267.84
654.985	40220.38
655.337	40341.96
655.688	40314.84
656.039	40551.9
656.391	40239.82
656.742	40278.91
657.094	40233.72
657.445	40462.64
657.796	40311.23
658.147	40268.52
658.498	40329.98
658.849	40316.2
659.2	40390.1
659.551	40238.01
659.902	40338.57
660.253	40216.77
660.604	40285.24
660.955	40135.19
661.306	40271.91
661.656	40142.42
662.007	40235.07
662.358	40199.37
662.708	40101.52
663.059	40197.78
663.409	39960.73
663.76	40301.28
664.11	40065.58
664.461	40248.4
664.811	40152.81
665.161	40116.21
665.511	40051.8
665.862	39958.92
666.212	40054.06
666.562	40129.31
666.912	40202.98
667.262	39979.94
667.612	40033.72
667.962	40012.93
668.312	40181.97
668.662	40184.45
669.011	39911.01
669.361	39955.76
669.711	39967.96
670.06	39922.09
670.41	39965.47
670.76	39948.75
671.109	40021.29
671.459	39919.6
671.808	39882.76
672.157	39883.22
672.507	39698.81
672.856	39720.28
673.205	39830.56
673.554	39951.24
673.904	39872.82
674.253	40008.86
674.602	39784.91
674.951	39327.53
675.3	39159.17
675.649	39787.4
675.998	39604.13
676.346	39801.41
676.695	39702.88
677.044	39328.66
677.393	39595.99
677.741	39659.95
678.09	39593.51
678.438	39508.99
678.787	39565.49
679.135	39645.93
679.484	39255.66
679.832	39433.06
680.181	39344.02
680.529	39446.17
680.877	39316
681.225	39145.61
681.573	39362.55
681.922	39095.89
682.27	38959.63
682.618	39058.38
682.966	38911.72
683.314	39113.52
683.661	38935.67
684.009	38730.03
684.357	38652.29
684.705	38641.22
685.053	38785.39
685.4	38658.62
685.748	38515.34
686.095	38469.02
686.443	38398.28
686.79	38259.08
687.138	38308.57
687.485	38357.16
687.832	38243.71
688.18	38221.34
688.527	38013.21
688.874	37949.03
689.221	37839.2
689.568	37741.58
689.915	37657.29
690.262	37770.96
690.609	37652.32
690.956	37445.31
691.303	37406.9
691.65	37379.55
691.997	37289.84
692.344	37137.53
692.69	37059.79
693.037	36994.03
693.383	36760.14
693.73	36896.85
694.077	36666.8
694.423	36807.37
694.769	36594.94
695.116	36575.06
695.462	36595.39
695.808	36419.13
696.155	36505
696.501	36098.23
696.847	36099.81
697.193	35967.61
697.539	36121.51
697.885	35869.54
698.231	35697.11
698.577	35782.76
698.923	35720.16
699.269	35514.07
699.614	35386.84
699.96	35348.87
700.306	35229.78
700.651	35061.2
700.997	35034.3
701.342	34937.36
701.688	34919.96
702.033	34844.25
702.379	34853.97
702.724	34688.55
703.069	34752.28
703.415	34376.69
703.76	34539.4
704.105	34421.44
704.45	34385.96
704.795	34102.35
705.14	34228.68
705.485	34080.43
705.83	33934.9
706.175	33904.62
706.52	33837.27
706.865	33723.6
707.209	33668.47
707.554	33609.03
707.899	33647.67
708.243	33477.06
708.588	33306.89
708.932	33160.46
709.277	33087.46
709.621	33242.94
709.966	32912.55
710.31	33023.51
710.654	32647.7
710.998	32831.88
711.342	32821.93
711.687	32653.35
712.031	32412.23
712.375	32451.32
712.719	32521.6
713.063	32480.25
713.407	32534.26
713.75	32379.91
714.094	32431.89
714.438	32148.73
714.782	32183.08
715.125	32080.71
715.469	32175.17
715.812	32031.67
716.156	31767.72
716.499	31868.74
716.843	31728.63
717.186	31660.61
717.53	31728.85
717.873	31863.09
718.216	31598.46
718.559	31513.27
718.902	31275.31
719.246	31468.52
719.589	31223.11
719.932	31193.5
720.275	31228.53
720.617	31200.51
720.96	31252.94
721.303	31043.22
721.646	31022.66
721.989	30891.59
722.331	30966.39
722.674	30875.32
723.016	30887.75
723.359	30823.34
723.701	30783.8
724.044	30635.32
724.386	30429.45
724.729	30587.87
725.071	30547.87
725.413	30423.13
725.755	30465.61
726.097	30215
726.439	30125.28
726.782	30192.62
727.124	30250.25
727.465	30062.68
727.807	30110.59
728.149	30130.93
728.491	30035.79
728.833	30111.5
729.175	29873.54
729.516	29923.25
729.858	29903.59
730.199	29874.67
730.541	29963.03
730.882	29774.56
731.224	29899.3
731.565	29635.35
731.906	29664.73
732.248	29637.16
732.589	29477.61
732.93	29459.76
733.271	29452.3
733.612	29546.77
733.953	29372.98
734.294	29310.61
734.635	29254.12
734.976	29276.94
735.317	29157.17
735.658	29113.1
735.999	29200.56
736.339	29171.41
736.68	29105.65
737.021	29025.42
737.361	28960.79
737.702	29020.68
738.042	28941.81
738.383	28940.68
738.723	28985.42
739.063	28818.88
739.404	29035.82
739.744	28833.34
740.084	28639.9
740.424	28681.25
740.764	28635.83
741.104	28632.67
741.444	28478.54
741.784	28390.64
742.124	28587.24
742.464	28463.4
742.804	28420.92
743.143	28337.98
743.483	28373.24
743.823	28219.34
744.162	28228.83
744.502	28212.56
744.841	28107.03
745.181	28123.75
745.52	28100.7
745.86	28208.04
746.199	28027.03
746.538	28038.78
746.877	28028.16
747.216	28086.92
747.556	27885.11
747.895	27950.88
748.234	27725.12
748.573	27649.64
748.911	27849.18
749.25	27648.51
749.589	27595.63
749.928	27694.16
750.267	27674.95
750.605	27503.43
750.944	27540.04
751.283	27343.66
751.621	27466.37
751.96	27325.35
752.298	27306.37
752.636	27413.49
752.975	27179.37
753.313	27108.86
753.651	27284.45
753.989	27062.09
754.327	27032.71
754.666	26904.58
755.004	26980.28
755.342	26870
755.679	26891.02
756.017	26736.67
756.355	26794.97
756.693	26736.44
757.031	26736.9
757.368	26449.67
757.706	26562.44
758.044	26470.91
758.381	26459.16
758.719	26239.51
759.056	26424.36
759.394	26348.88
759.731	26227.53
760.068	26093.52
760.405	26024.82
