Data from hue_00_FLMS001491_45.txt Node
Date: Mon Feb 06 15:29:46 GMT 2017
User: dcchb
Spectrometer: FLMS00149
Trigger mode: 0
Integration Time (sec): 2.000000E-2
Scans to average: 10
Electric dark correction enabled: true
Nonlinearity correction enabled: false
Boxcar width: 0
XAxis mode: Wavelengths
Number of Pixels in Spectrum: 2048
>>>>>Begin Spectral Data<<<<<
341.393	4.63
341.776	4.63
342.16	4.63
342.543	-37.4
342.927	-66.33
343.31	-70.62
343.693	-55.03
344.077	-58.42
344.46	-63.16
344.843	-54.57
345.226	-39.21
345.61	-17.06
345.993	8.02
346.376	-26.78
346.759	10.96
347.142	26.55
347.525	36.72
347.908	48.47
348.291	68.13
348.674	86.21
349.057	99.77
349.44	120.79
349.823	139.54
350.206	155.82
350.588	185.64
350.971	228.58
351.354	227.45
351.737	237.62
352.119	249.82
352.502	249.15
352.884	280.78
353.267	293.21
353.65	283.5
354.032	289.14
354.414	311.97
354.797	284.4
355.179	301.35
355.562	321.23
355.944	324.62
356.326	341.12
356.709	327.56
357.091	341.35
357.473	347.67
357.855	339.54
358.238	320.33
358.62	326.66
359.002	322.82
359.384	320.78
359.766	345.41
360.148	345.64
360.53	334.79
360.912	338.41
361.294	329.6
361.676	330.27
362.057	327.56
362.439	325.98
362.821	310.16
363.203	325.75
363.584	327.11
363.966	300.22
364.348	312.65
364.729	322.14
365.111	324.85
365.493	315.81
365.874	316.94
366.256	329.14
366.637	340.44
367.019	305.64
367.4	318.97
367.781	317.17
368.163	314.23
368.544	326.43
368.925	309.03
369.306	320.56
369.688	298.86
370.069	299.54
370.45	313.1
370.831	299.99
371.212	312.87
371.593	310.84
371.974	288.92
372.355	310.84
372.736	319.43
373.117	321.69
373.498	307.9
373.879	323.04
374.26	316.04
374.641	320.56
375.021	312.87
375.402	318.52
375.783	331.86
376.163	336.38
376.544	315.81
376.925	317.84
377.305	323.04
377.686	348.35
378.066	327.56
378.447	317.62
378.827	332.31
379.208	349.93
379.588	327.79
379.968	332.08
380.349	319.65
380.729	323.72
381.109	325.75
381.489	331.86
381.87	328.69
382.25	346.54
382.63	349.03
383.01	338.41
383.39	338.18
383.77	328.69
384.15	336.15
384.53	337.51
384.91	337.51
385.29	337.96
385.67	340.44
386.049	351.06
386.429	339.99
386.809	356.49
387.189	351.74
387.568	338.64
387.948	348.13
388.328	349.03
388.707	356.94
389.087	351.97
389.466	345.64
389.846	354.23
390.225	365.08
390.605	357.84
390.984	375.92
391.363	383.83
391.743	357.62
392.122	364.17
392.501	373.21
392.881	369.82
393.26	382.93
393.639	353.32
394.018	361.23
394.397	384.06
394.776	356.71
395.155	363.95
395.534	386.09
395.913	391.74
396.292	386.09
396.671	360.56
397.05	375.24
397.429	368.46
397.808	391.97
398.186	379.99
398.565	377.73
398.944	383.15
399.323	382.7
399.701	370.27
400.08	401.91
400.458	394.9
400.837	411.4
401.215	408.46
401.594	407.79
401.972	389.48
402.351	379.54
402.729	391.97
403.107	378.41
403.486	393.1
403.864	402.36
404.242	393.77
404.62	417.5
404.999	387.45
405.377	411.4
405.755	409.82
406.133	406.88
406.511	432.64
406.889	406.43
407.267	424.96
407.645	413.89
408.023	438.07
408.401	434.9
408.779	425.64
409.156	439.65
409.534	415.47
409.912	421.8
410.29	409.59
410.667	450.5
411.045	453.21
411.422	447.11
411.8	434.23
412.178	443.27
412.555	453.66
412.933	462.25
413.31	480.78
413.687	463.6
414.065	464.96
414.442	469.93
414.819	445.53
415.197	471.51
415.574	471.74
415.951	465.19
416.328	466.77
416.705	478.52
417.082	465.86
417.46	470.61
417.837	494.79
418.214	491.4
418.591	495.02
418.967	477.84
419.344	509.48
419.721	512.42
420.098	483.49
420.475	530.95
420.852	526.2
421.228	528.23
421.605	503.83
421.982	515.13
422.358	534.56
422.735	532.75
423.111	538.18
423.488	522.59
423.864	547.22
424.241	532.53
424.617	563.26
424.994	545.41
425.37	551.51
425.746	564.17
426.123	552.19
426.499	565.97
426.875	566.2
427.251	560.1
427.627	551.74
428.003	560.1
428.379	584.5
428.756	584.96
429.132	574.11
429.507	587.44
429.883	599.65
430.259	603.03
430.635	603.26
431.011	602.36
431.387	599.65
431.763	612.53
432.138	615.46
432.514	637.38
432.89	642.58
433.265	621.79
433.641	652.98
434.016	646.65
434.392	658.85
434.767	648.91
435.143	666.31
435.518	662.69
435.894	642.36
436.269	670.38
436.644	681.9
437.02	682.58
437.395	681
437.77	689.36
438.145	692.98
438.52	728.91
438.895	683.26
439.271	715.35
439.646	730.94
440.021	715.12
440.395	711.28
440.77	727.78
441.145	707.44
441.52	760.09
441.895	739.98
442.27	736.14
442.645	758.29
443.019	744.27
443.394	726.42
443.769	741.79
444.143	744.95
444.518	761
444.892	763.93
445.267	799.41
445.641	777.49
446.016	786.08
446.39	780.43
446.764	794.89
447.139	789.24
447.513	816.81
447.887	795.12
448.262	810.04
448.636	814.33
449.01	823.82
449.384	802.13
449.758	800.77
450.132	822.92
450.506	818.62
450.88	826.53
451.254	816.81
451.628	840.77
452.002	850.71
452.376	841.22
452.75	851.62
453.123	867.66
453.497	887.32
453.871	892.74
454.244	882.58
454.618	912.41
454.992	879.19
455.365	927.32
455.739	906.3
456.112	899.98
456.486	917.83
456.859	931.16
457.232	938.85
457.606	975
457.979	956.7
458.352	978.84
458.725	984.95
459.099	986.53
459.472	1007.09
459.845	1007.77
460.218	1019.75
460.591	1046.64
460.964	1003.25
461.337	1036.92
461.71	1055.68
462.083	1085.06
462.456	1061.55
462.829	1090.71
463.201	1092.29
463.574	1121.67
463.947	1093.42
464.32	1107.65
464.692	1158.27
465.065	1156.47
465.438	1141.1
465.81	1153.08
466.183	1180.65
466.555	1184.26
466.928	1232.4
467.3	1218.39
467.672	1224.94
468.045	1258.38
468.417	1290.02
468.789	1248.89
469.161	1288.44
469.534	1280.31
469.906	1336.35
470.278	1334.09
470.65	1332.06
471.022	1364.6
471.394	1391.04
471.766	1411.38
472.138	1411.83
472.51	1460.19
472.882	1460.19
473.253	1496.57
473.625	1527.08
473.997	1534.08
474.369	1551.71
474.74	1568.89
475.112	1586.51
475.484	1639.84
475.855	1656.34
476.227	1668.77
476.598	1696.34
476.97	1721.42
477.341	1775.89
477.713	1788.54
478.084	1803
478.455	1830.8
478.827	1867.63
479.198	1932.27
479.569	1916.22
479.94	1967.52
480.311	2012.72
480.682	2033.28
481.053	2067.18
481.424	2094.97
481.795	2143.56
482.166	2164.58
482.537	2167.97
482.908	2259.04
483.279	2271.92
483.65	2291.35
484.021	2350.33
484.391	2364.57
484.762	2415.64
485.133	2437.79
485.503	2460.39
485.874	2471.69
486.244	2552.81
486.615	2603.89
486.985	2627.61
487.356	2695.86
487.726	2704.45
488.097	2738.8
488.467	2807.5
488.837	2843.2
489.207	2842.98
489.578	2876.2
489.948	2940.83
490.318	3000.26
490.688	3004.78
491.058	3064.89
491.428	3082.52
491.798	3130.2
492.168	3170.43
492.538	3183.53
492.908	3272.57
493.278	3286.81
493.648	3281.61
494.017	3276.19
494.387	3350.99
494.757	3417.88
495.126	3423.07
495.496	3423.3
495.866	3461.72
496.235	3546.91
496.605	3575.84
496.974	3572.22
497.344	3601.37
497.713	3635.95
498.082	3649.51
498.452	3701.48
498.821	3689.51
499.19	3726.12
499.559	3727.7
499.928	3759.56
500.298	3814.7
500.667	3816.06
501.036	3821.71
501.405	3904.19
501.774	3896.73
502.143	3898.09
502.512	3967.24
502.88	3975.15
503.249	3966.34
503.618	3978.99
503.987	4003.85
504.356	4068.48
504.724	4059.67
505.093	4067.35
505.462	4074.13
505.83	4091.53
506.199	4151.64
506.567	4172.21
506.936	4194.35
507.304	4193.45
507.672	4219.89
508.041	4226.22
508.409	4284.07
508.777	4273.9
509.145	4303.73
509.514	4331.98
509.882	4337.63
510.25	4327.91
510.618	4353.9
510.986	4365.65
511.354	4381.69
511.722	4460.79
512.09	4491.75
512.458	4472.54
512.826	4492.2
513.193	4488.58
513.561	4480
513.929	4573.55
514.297	4567.68
514.664	4583.72
515.032	4600.22
515.4	4625.08
515.767	4651.74
516.135	4661.23
516.502	4636.38
516.869	4697.84
517.237	4707.33
517.604	4724.73
517.972	4772.19
518.339	4762.02
518.706	4710.95
519.073	4722.47
519.44	4778.97
519.808	4839.76
520.175	4840.44
520.542	4842.25
520.909	4907.55
521.276	4884.73
521.643	4924.28
522.009	4961.56
522.376	4966.99
522.743	4963.6
523.11	5044.73
523.477	5035.69
523.843	5062.58
524.21	5126.08
524.577	5116.14
524.943	5147.32
525.31	5179.86
525.676	5250.14
526.043	5257.83
526.409	5290.6
526.776	5296.7
527.142	5308.67
527.508	5347.32
527.874	5366.07
528.241	5385.51
528.607	5404.04
528.973	5454.66
529.339	5453.75
529.705	5492.4
530.071	5545.28
530.437	5568.1
530.803	5622.79
531.169	5587.54
531.535	5604.71
531.901	5639.06
532.267	5667.99
532.632	5705.5
532.998	5729.23
533.364	5733.97
533.73	5797.02
534.095	5823.69
534.461	5824.82
534.826	5841.54
535.192	5856.68
535.557	5926.28
535.923	5896.46
536.288	5892.61
536.653	5949.34
537.019	5998.83
537.384	5977.13
537.749	6047.86
538.114	6115.21
538.479	6071.14
538.845	6061.87
539.21	6128.31
539.575	6119.05
539.94	6150.69
540.305	6200.85
540.67	6199.95
541.034	6214.19
541.399	6265.03
541.764	6296.44
542.129	6261.87
542.494	6316.11
542.858	6358.36
543.223	6303
543.587	6431.13
543.952	6416.67
544.316	6455.54
544.681	6469.32
545.045	6498.47
545.41	6578.25
545.774	6498.25
546.138	6537.79
546.503	6595.42
546.867	6606.72
547.231	6621.63
547.595	6704.8
547.959	6699.6
548.324	6749.77
548.688	6736.43
549.052	6747.51
549.416	6777.11
549.779	6759.71
550.143	6813.95
550.507	6808.75
550.871	6885.13
551.235	6832.25
551.599	6922.42
551.962	6923.09
552.326	6941.4
552.689	6946.82
553.053	6950.66
553.417	7024.56
553.78	7093.94
554.143	7075.41
554.507	7062.3
554.87	7073.6
555.234	7199.02
555.597	7084.45
555.96	7203.09
556.323	7167.38
556.686	7246.7
557.05	7297.32
557.413	7215.74
557.776	7233.82
558.139	7319.92
558.502	7275.18
558.865	7363.08
559.228	7411.44
559.59	7418.67
559.953	7387.26
560.316	7455.74
560.679	7483.08
561.041	7534.6
561.404	7551.78
561.767	7649.63
562.129	7582.51
562.492	7603.53
562.854	7590.65
563.217	7649.63
563.579	7650.31
563.941	7688.05
564.304	7762.85
564.666	7800.81
565.028	7833.58
565.39	7794.48
565.753	7854.37
566.115	7803.52
566.477	7866.57
566.839	7909.28
567.201	7980.92
567.563	7935.72
567.925	8055.95
568.287	8063.86
568.648	8056.85
569.01	8130.75
569.372	8131.88
569.734	8140.01
570.095	8173.23
570.457	8300.46
570.819	8277.41
571.18	8261.59
571.542	8311.76
571.903	8368.25
572.265	8422.49
572.626	8460.68
572.987	8479.66
573.349	8544.75
573.71	8615.93
574.071	8625.87
574.432	8720.79
574.794	8765.08
575.155	8772.31
575.516	8817.73
575.877	8829.26
576.238	8930.95
576.599	9016.15
576.96	9085.98
577.32	9068.35
577.681	9229.47
578.042	9280.55
578.403	9446.42
578.763	9495.23
579.124	9519.41
579.485	9688.22
579.845	9734.77
580.206	9806.63
580.566	9897.71
580.927	9995.78
581.287	10143.12
581.648	10272.39
582.008	10440.97
582.368	10483.45
582.728	10625.6
583.089	10786.5
583.449	10939.49
583.809	11059.03
584.169	11224
584.529	11426.48
584.889	11628.51
585.249	11737.43
585.609	12027.14
585.969	12125.9
586.329	12314.82
586.688	12511.2
587.048	12692.66
587.408	12868.7
587.768	13110.05
588.127	13371.96
588.487	13481.34
588.846	13766.53
589.206	13966.3
589.565	14228.21
589.925	14431.6
590.284	14676.11
590.643	14929.44
591.003	15228.19
591.362	15505.92
591.721	15711.56
592.08	15963.31
592.44	16313.81
592.799	16459.12
593.158	16723.52
593.517	17065.65
593.876	17368.7
594.235	17558.97
594.593	17986.76
594.952	18165.29
595.311	18452.96
595.67	18761.88
596.029	19088.65
596.387	19413.39
596.746	19721.18
597.104	19905.8
597.463	20160.49
597.822	20656.74
598.18	20668.04
598.538	21074.81
598.897	21433.67
599.255	21411.75
599.613	22048.8
599.972	22097.16
600.33	22543.7
600.688	22647.88
601.046	23078.15
601.404	23467.97
601.762	23596.33
602.12	23925.36
602.478	24303.88
602.836	24476.31
603.194	24593.59
603.552	24886.46
603.91	24986.8
604.268	25468.14
604.625	25604.41
604.983	25888.47
605.341	26086.88
605.698	26480.09
606.056	26856.81
606.413	26856.58
606.771	27171.15
607.128	27334.54
607.485	27675.09
607.843	27760.51
608.2	28250.22
608.557	28419.25
608.914	28487.5
609.272	28815.4
609.629	29080.03
609.986	29380.13
610.343	29399.57
610.7	29891.53
611.057	30025.09
611.414	30123.84
611.771	30379.88
612.127	30577.61
612.484	30755.46
612.841	30921.11
613.198	31121.78
613.554	31297.37
613.911	31604.71
614.267	31713.4
614.624	31825.94
614.98	32044.24
615.337	32213.73
615.693	32367.85
616.05	32464.12
616.406	32921.73
616.762	32820.04
617.118	32900.49
617.475	33023.2
617.831	33441.27
618.187	33414.38
618.543	33658.44
618.899	33917.19
619.255	33843.29
619.611	33963.97
619.967	34307.46
620.323	34309.72
620.678	34360.79
621.034	34408.02
621.39	34572.09
621.746	34762.14
622.101	35131.62
622.457	34914.9
622.812	35044.16
623.168	35201.67
623.523	35205.74
623.879	35309.69
624.234	35269.24
624.589	35557.6
624.945	35496.58
625.3	35701.77
625.655	35677.37
626.01	35732.28
626.365	35882.56
626.72	35901.32
627.075	36052.27
627.43	35983.57
627.785	36024.02
628.14	36111.48
628.495	36181.53
628.85	36340.4
629.205	36212.04
629.559	36494.29
629.914	36289.55
630.269	36474.63
630.623	36460.4
630.978	36388.53
631.332	36608.87
631.687	36581.3
632.041	36637.79
632.396	36726.38
632.75	36574.97
633.104	36735.64
633.459	36562.54
633.813	36600.28
634.167	36556.21
634.521	36556.44
634.875	36749.66
635.229	36712.37
635.583	36560.06
635.937	36574.74
636.291	36464.92
636.645	36788.07
636.999	36507.18
637.352	36776.32
637.706	36710.11
638.06	36699.04
638.413	36661.97
638.767	36707.62
639.121	36514.63
639.474	36465.59
639.828	36621.97
640.181	36594.18
640.534	36683.67
640.888	36527.97
641.241	36375.65
641.594	36623.56
641.947	36628.08
642.301	36542.88
642.654	36587.63
643.007	36644.12
643.36	36584.24
643.713	36632.6
644.066	36611.13
644.419	36365.26
644.771	36157.35
645.124	35830.81
645.477	35801.21
645.83	35533.64
646.182	35627.88
646.535	35501.55
646.888	35495
647.24	35377.71
647.593	35635.79
647.945	35456.58
648.298	35393.08
648.65	35331.84
649.002	35223.59
649.355	35342.69
649.707	35326.64
650.059	35393.76
650.411	35827.42
650.763	35850.92
651.115	36345.37
651.467	36147.41
651.819	36144.02
652.171	36025.83
652.523	36085.04
652.875	36058.37
653.227	35960.98
653.578	36184.25
653.93	36155.77
654.282	36023.35
654.633	35723.47
654.985	35985.16
655.337	35957.81
655.688	35900.41
656.039	36091.59
656.391	35753.75
656.742	35737.93
657.094	35752.85
657.445	35995.55
657.796	35789.91
658.147	35800.3
658.498	35821.77
658.849	35981.54
659.2	35837.14
659.551	35838.72
659.902	35919.39
660.253	35828.1
660.604	35912.39
660.955	35711.26
661.306	35755.11
661.656	35780.87
662.007	35673.98
662.358	35765.95
662.708	35809.34
663.059	35717.37
663.409	35545.39
663.76	35723.02
664.11	35684.6
664.461	35798.95
664.811	35770.92
665.161	35775.22
665.511	35694.77
665.862	35689.34
666.212	35806.63
666.562	35737.25
666.912	35803.92
667.262	35642.57
667.612	35788.55
667.962	35774.31
668.312	35701.55
668.662	35842.79
669.011	35716.69
669.361	35470.59
669.711	35670.59
670.06	35640.53
670.41	35642.79
670.76	35599.85
671.109	35601.66
671.459	35551.04
671.808	35447.32
672.157	35566.86
672.507	35512.17
672.856	35465.85
673.205	35426.07
673.554	35613.19
673.904	35307.21
674.253	35439.86
674.602	35325.74
674.951	34927.33
675.3	34876.03
675.649	35356.92
675.998	35334.78
676.346	35217.94
676.695	35429.24
677.044	35312.4
677.393	35344.04
677.741	35270.15
678.09	35140.21
678.438	35195.12
678.787	35347.21
679.135	35153.31
679.484	34962.36
679.832	35152.41
680.181	34910.61
680.529	34945.41
680.877	34986.31
681.225	34896.82
681.573	35150.15
681.922	34813.66
682.27	34686.88
682.618	34672.2
682.966	34675.36
683.314	34782.7
683.661	34572.31
684.009	34553.78
684.357	34452.77
684.705	34469.26
685.053	34548.13
685.4	34303.62
685.748	34241.25
686.095	34147.01
686.443	34039.9
686.79	33989.95
687.138	34047.81
687.485	34077.64
687.832	33875.15
688.18	34028.14
688.527	33663.41
688.874	33850.07
689.221	33755.84
689.568	33615.73
689.915	33590.19
690.262	33545.45
690.609	33302.06
690.956	33265.45
691.303	33220.26
691.65	33118.56
691.997	33247.37
692.344	32952.24
692.69	33022.52
693.037	32983.88
693.383	32765.81
693.73	32933.48
694.077	32661.85
694.423	32625.02
694.769	32409.2
695.116	32349.09
695.462	32348.87
695.808	32276.78
696.155	32427.28
696.501	32032.72
696.847	32118.14
697.193	31870.91
697.539	31971.02
697.885	31754.31
698.231	31665.04
698.577	31752.5
698.923	31597.93
699.269	31370.36
699.614	31360.87
699.96	31337.82
700.306	31295.11
700.651	31238.39
700.997	30978.73
701.342	31060.31
701.688	31038.84
702.033	30943.93
702.379	30793.65
702.724	30859.19
703.069	30854.67
703.415	30419.88
703.76	30552.3
704.105	30483.38
704.45	30351.18
704.795	30221.47
705.14	30254.23
705.485	30116.61
705.83	30074.8
706.175	30065.31
706.52	29952.09
706.865	29778.54
707.209	29891.3
707.554	29671.2
707.899	29801.36
708.243	29659.22
708.588	29524.76
708.932	29323.64
709.277	29328.61
709.621	29440.02
709.966	29256.97
710.31	29268.95
710.654	29027.6
710.998	29155.73
711.342	29043.19
711.687	29029.41
712.031	28887.26
712.375	28783.31
712.719	28907.15
713.063	28723.2
713.407	28771.33
713.75	28622.86
714.094	28689.3
714.438	28604.11
714.782	28616.08
715.125	28436.43
715.469	28563.43
715.812	28262.42
716.156	28220.61
716.499	28175.42
716.843	28302.65
717.186	27967.29
717.53	28074.86
717.873	28145.14
718.216	28052.71
718.559	27994.18
718.902	27770.23
719.246	27858.59
719.589	27728.88
719.932	27580.18
720.275	27556
720.617	27574.76
720.96	27627.41
721.303	27586.96
721.646	27530.91
721.989	27210.92
722.331	27516.9
722.674	27314.2
723.016	27398.94
723.359	27201.21
723.701	27237.36
724.044	27025.39
724.386	26972.74
724.729	27087.76
725.071	27063.36
725.413	27020.42
725.755	26968.22
726.097	26953.08
726.439	26699.98
726.782	26827.43
727.124	26952.4
727.465	26641.22
727.807	26718.51
728.149	26642.8
728.491	26596.02
728.833	26645.29
729.175	26509.02
729.516	26464.95
729.858	26423.6
730.199	26350.15
730.541	26432.19
730.882	26326.65
731.224	26489.13
731.565	26308.57
731.906	26182.93
732.248	26261.34
732.589	26118.97
732.93	25979.99
733.271	26037.85
733.612	26008.69
733.953	26057.51
734.294	25937.51
734.635	25821.81
734.976	25968.47
735.317	25710.85
735.658	25824.29
735.999	25696.39
736.339	25647.57
736.68	25706.78
737.021	25645.77
737.361	25518.54
737.702	25710.17
738.042	25624.3
738.383	25514.47
738.723	25536.16
739.063	25466.11
739.404	25444.19
739.744	25353.8
740.084	25286.23
740.424	25292.33
740.764	25345.89
741.104	25339.33
741.444	25266.79
741.784	25266.12
742.124	25181.82
742.464	25215.95
742.804	25163.75
743.143	25038.55
743.483	25096.18
743.823	24978.67
744.162	24945.67
744.502	25005.33
744.841	24877.2
745.181	24972.11
745.52	24730.76
745.86	24827.71
746.199	24831.78
746.538	24735.96
746.877	24859.57
747.216	24747.94
747.556	24668.16
747.895	24638.79
748.234	24465.46
748.573	24508.85
748.911	24537.77
749.25	24578.9
749.589	24280.15
749.928	24401.28
750.267	24455.52
750.605	24329.64
750.944	24312.92
751.283	24241.74
751.621	24307.27
751.96	24045.36
752.298	24038.8
752.636	24065.02
752.975	23950.67
753.313	23905.47
753.651	24055.98
753.989	23884.68
754.327	23844.01
754.666	23710.68
755.004	23825.7
755.342	23776.21
755.679	23668.42
756.017	23620.73
756.355	23678.59
756.693	23477.24
757.031	23560.85
757.368	23400.85
757.706	23378.26
758.044	23220.29
758.381	23338.71
758.719	23247.19
759.056	23223.46
759.394	23150.46
759.731	22962
760.068	23010.81
760.405	22995.21
760.743	22924.48
761.08	22859.85
