Data from hue_60_FLMS001491_91.txt Node
Date: Mon Feb 06 15:18:12 GMT 2017
User: dcchb
Spectrometer: FLMS00149
Trigger mode: 0
Integration Time (sec): 2.000000E-2
Scans to average: 10
Electric dark correction enabled: true
Nonlinearity correction enabled: false
Boxcar width: 0
XAxis mode: Wavelengths
Number of Pixels in Spectrum: 2048
>>>>>Begin Spectral Data<<<<<
341.393	-10.88
341.776	-10.88
342.16	-10.88
342.543	-64.43
342.927	-68.73
343.31	-71.44
343.693	-85.68
344.077	-56.98
344.46	-74.38
344.843	-49.52
345.226	-24.43
345.61	-33.7
345.993	-29.41
346.376	-19.01
346.759	7.88
347.142	39.29
347.525	41.1
347.908	58.95
348.291	90.82
348.674	94.66
349.057	111.83
349.44	111.38
349.823	149.8
350.206	141.21
350.588	190.7
350.971	205.62
351.354	211.94
351.737	242.9
352.119	256.91
352.502	283.13
352.884	278.38
353.267	301.66
353.65	282.22
354.032	321.09
354.414	298.27
354.797	312.05
355.179	325.61
355.562	314.31
355.944	330.58
356.326	339.17
356.709	356.35
357.091	353.41
357.473	337.82
357.855	346.18
358.238	359.96
358.62	349.57
359.002	320.42
359.384	340.3
359.766	343.47
360.148	340.3
360.53	343.47
360.912	348.44
361.294	349.34
361.676	312.51
362.057	337.82
362.439	336.23
362.821	333.07
363.203	339.17
363.584	330.58
363.966	335.33
364.348	344.6
364.729	345.05
365.111	303.01
365.493	343.01
365.874	318.83
366.256	314.99
366.637	339.85
367.019	318.83
367.4	311.6
367.781	332.17
368.163	296.91
368.544	318.38
368.925	323.35
369.306	313.86
369.688	303.92
370.069	328.1
370.45	299.62
370.831	317.48
371.212	314.99
371.593	327.42
371.974	303.24
372.355	321.09
372.736	337.82
373.117	323.35
373.498	314.09
373.879	324.93
374.26	322.9
374.641	324.03
375.021	328.32
375.402	332.39
375.783	301.88
376.163	336.01
376.544	335.78
376.925	324.26
377.305	337.59
377.686	342.11
378.066	307.08
378.447	337.14
378.827	336.23
379.208	337.36
379.588	337.36
379.968	341.66
380.349	346.18
380.729	348.44
381.109	342.34
381.489	343.92
381.87	357.02
382.25	343.92
382.63	356.8
383.01	366.29
383.39	366.52
383.77	348.21
384.15	363.58
384.53	351.37
384.91	347.08
385.29	370.58
385.67	356.57
386.049	359.06
386.429	357.25
386.809	364.48
387.189	361.32
387.568	357.25
387.948	367.87
388.328	368.1
388.707	361.54
389.087	366.06
389.466	377.81
389.846	378.04
390.225	356.35
390.605	358.83
390.984	352.5
391.363	372.84
391.743	359.96
392.122	378.49
392.501	386.63
392.881	378.27
393.26	388.66
393.639	395.89
394.018	387.76
394.397	379.62
394.776	385.5
395.155	377.81
395.534	390.7
395.913	383.01
396.292	402.22
396.671	400.64
397.05	406.74
397.429	382.11
397.808	392.73
398.186	376.01
398.565	396.8
398.944	398.83
399.323	380.07
399.701	395.89
400.08	383.69
400.458	417.14
400.837	432.05
401.215	402.67
401.594	416.68
401.972	408.1
402.351	416.46
402.729	394.76
403.107	430.02
403.486	402.45
403.864	428.44
404.242	422.11
404.62	443.58
404.999	429.56
405.377	409.9
405.755	434.31
406.133	443.35
406.511	457.59
406.889	451.03
407.267	429.34
407.645	425.95
408.023	430.02
408.401	438.83
408.779	429.56
409.156	456.23
409.534	457.59
409.912	460.3
410.29	467.08
410.667	457.81
411.045	474.08
411.422	463.24
411.8	472.95
412.178	479.96
412.555	468.66
412.933	476.12
413.31	494.87
413.687	469.79
414.065	482.22
414.442	484.48
414.819	509.34
415.197	502.33
415.574	480.64
415.951	504.59
416.328	511.14
416.705	548.88
417.082	511.82
417.46	534.87
417.837	525.16
418.214	516.34
418.591	539.39
418.967	536.91
419.344	509.79
419.721	526.06
420.098	554.08
420.475	540.3
420.852	544.82
421.228	536.23
421.605	543.46
421.982	554.53
422.358	536.45
422.735	556.57
423.111	556.34
423.488	569
423.864	570.35
424.241	577.58
424.617	569.9
424.994	574.65
425.37	598.6
425.746	589.79
426.123	586.17
426.499	598.15
426.875	608.54
427.251	609.45
427.627	613.29
428.003	616
428.379	617.13
428.756	641.76
429.132	651.71
429.507	635.44
429.883	634.76
430.259	634.98
430.635	636.79
431.011	654.64
431.387	653.74
431.763	665.94
432.138	698.71
432.514	677.69
432.89	678.6
433.265	691.93
433.641	697.35
434.016	701.2
434.392	689.67
434.767	697.13
435.143	708.2
435.518	726.73
435.894	736.68
436.269	747.52
436.644	731.93
437.02	717.47
437.395	754.98
437.77	745.26
438.145	766.05
438.52	756.34
438.895	765.38
439.271	773.51
439.646	783.68
440.021	795.88
440.395	793.17
440.77	778.03
441.145	770.8
441.52	813.28
441.895	795.43
442.27	799.27
442.645	797.92
443.019	813.96
443.394	829.33
443.769	819.16
444.143	807.18
444.518	836.79
444.892	837.01
445.267	858.25
445.641	850.57
446.016	876.33
446.39	839.72
446.764	860.74
447.139	876.33
447.513	868.2
447.887	878.14
448.262	888.54
448.636	883.11
449.01	895.77
449.384	891.7
449.758	917.01
450.132	903.9
450.506	915.43
450.88	936.67
451.254	916.33
451.628	942.77
452.002	940.74
452.376	937.57
452.75	976.22
453.123	952.26
453.497	957.91
453.871	990.68
454.244	1013.05
454.618	1008.08
454.992	1023.67
455.365	1030.23
455.739	1033.39
456.112	1029.1
456.486	1070.45
456.859	1046.05
457.232	1099.83
457.606	1109.32
457.979	1098.47
458.352	1142.31
458.725	1128.08
459.099	1129.43
459.472	1161.07
459.845	1179.6
460.218	1155.42
460.591	1194.29
460.964	1211.92
461.337	1188.19
461.71	1245.81
462.083	1267.51
462.456	1268.19
462.829	1258.02
463.201	1290.56
463.574	1283.78
463.947	1300.5
464.32	1335.76
464.692	1379.14
465.065	1364.68
465.438	1338.69
465.81	1419.37
466.183	1439.71
466.555	1452.81
466.928	1463.89
467.3	1484.68
467.672	1509.08
468.045	1527.84
468.417	1551.57
468.789	1580.5
469.161	1575.07
469.534	1601.74
469.906	1639.93
470.278	1693.26
470.65	1700.04
471.022	1748.4
471.394	1779.13
471.766	1793.82
472.138	1815.74
472.51	1877.66
472.882	1929.19
473.253	1974.38
473.625	1994.5
473.997	2026.81
474.369	2066.13
474.74	2101.16
475.112	2165.34
475.484	2230.42
475.855	2278.33
476.227	2304.09
476.598	2376.63
476.97	2427.7
477.341	2479.45
477.713	2568.27
478.084	2596.06
478.455	2722.16
478.827	2770.52
479.198	2870.18
479.569	2911.31
479.94	3001.93
480.311	3070.85
480.682	3180.68
481.053	3260
481.424	3366.44
481.795	3449.37
482.166	3547.68
482.537	3647.11
482.908	3759.65
483.279	3878.29
483.65	3964.61
484.021	4092.29
484.391	4216.13
484.762	4309.91
485.133	4460.42
485.503	4517.14
485.874	4650.02
486.244	4815.66
486.615	4946.51
486.985	5089.56
487.356	5240.51
487.726	5337.68
488.097	5530
488.467	5608.64
488.837	5835.52
489.207	5953.49
489.578	6132.47
489.948	6243.88
490.318	6508.28
490.688	6471.89
491.058	6734.71
491.428	6909.62
491.798	7053.35
492.168	7268.71
492.538	7396.84
492.908	7546.21
493.278	7776.04
493.648	7885.64
494.017	8072.98
494.387	8299.64
494.757	8447.89
495.126	8610.37
495.496	8748.44
495.866	8867.99
496.235	9140.52
496.605	9324.02
496.974	9369.67
497.344	9627.06
497.713	9738.7
498.082	9830.67
498.452	10113.6
498.821	10293.71
499.19	10422.97
499.559	10567.15
499.928	10729.63
500.298	10865.22
500.667	11103.63
501.036	11181.15
501.405	11346.57
501.774	11560.35
502.143	11728.93
502.512	11823.39
502.88	12100.22
503.249	12153.1
503.618	12336.14
503.987	12466.54
504.356	12638.06
504.724	12794.21
505.093	12906.98
505.462	13050.02
505.83	13260.19
506.199	13429
506.567	13583.8
506.936	13748.08
507.304	13928.19
507.672	14100.84
508.041	14116.21
508.409	14382.87
508.777	14456.77
509.145	14660.15
509.514	14783.54
509.882	14941.05
510.25	15033.02
510.618	15286.12
510.986	15290.87
511.354	15539.45
511.722	15725.21
512.09	15931.3
512.458	15938.31
512.826	16193.9
513.193	16307.79
513.561	16460.1
513.929	16658.29
514.297	16833.65
514.664	16925.85
515.032	17127.66
515.4	17251.04
515.767	17351.15
516.135	17469.79
516.502	17460.08
516.869	17863
517.237	17947.97
517.604	17937.58
517.972	18198.36
518.339	18330.11
518.706	18485.14
519.073	18589.09
519.44	18755.18
519.808	18952.24
520.175	18915.86
520.542	19348.62
520.909	19444.21
521.276	19408.95
521.643	19734.14
522.009	19786.57
522.376	20061.37
522.743	20179.33
523.11	20337.06
523.477	20571.18
523.843	20663.61
524.21	20945.18
524.577	21052.98
524.943	21188.57
525.31	21271.5
525.676	21623.36
526.043	21638.5
526.409	21867.87
526.776	22031.03
527.142	22153.51
527.508	22218.6
527.874	22501.98
528.241	22584.01
528.607	22665.36
528.973	22934.06
529.339	22941.06
529.705	23172.47
530.071	23431.67
530.437	23469.19
530.803	23556.64
531.169	23788.95
531.535	23758.67
531.901	23842.06
532.267	23968.16
532.632	24164.53
532.998	24219.9
533.364	24547.8
533.73	24579.44
534.095	24745.08
534.461	24729.27
534.826	24924.29
535.192	24999.54
535.557	25147.56
535.923	25231.17
536.288	25293.32
536.653	25411.28
537.019	25347.78
537.384	25655.12
537.749	25783.47
538.114	25746.41
538.479	25793.64
538.845	25959.29
539.21	26059.4
539.575	26013.75
539.94	26210.36
540.305	26378.94
540.67	26281.09
541.034	26414.87
541.399	26629.33
541.764	26616.45
542.129	26663.45
542.494	26828.19
542.858	26780.96
543.223	26985.7
543.587	27069.99
543.952	27082.42
544.316	27198.13
544.681	27233.61
545.045	27461.62
545.41	27562.64
545.774	27577.55
546.138	27718.34
546.503	27753.82
546.867	27777.09
547.231	28002.4
547.595	28017.54
547.959	28090.98
548.324	28212.79
548.688	28289.4
549.052	28413.24
549.416	28440.58
549.779	28568.94
550.143	28549.96
550.507	28789.95
550.871	28794.02
551.235	28869.5
551.599	29043.5
551.962	29157.85
552.326	29181.35
552.689	29447.56
553.053	29285.76
553.417	29365.98
553.78	29745.4
554.143	29669.47
554.507	29885.06
554.87	29912.86
555.234	30186.3
555.597	29964.38
555.96	30165.05
556.323	30324.6
556.686	30429.45
557.05	30621.77
557.413	30737.02
557.776	30902.66
558.139	31115.54
558.502	31022.66
558.865	31150.57
559.228	31381.52
559.59	31400.05
559.953	31449.31
560.316	31828.97
560.679	31937.44
561.041	32151.22
561.404	32215.62
561.767	32333.81
562.129	32282.74
562.492	32641.83
562.854	32553.69
563.217	32555.5
563.579	32676.17
563.941	32964.3
564.304	33162.26
564.666	33265.76
565.028	33408.81
565.39	33563.83
565.753	33744.85
566.115	33846.31
566.477	33997.95
566.839	33976.93
567.201	34366.53
567.563	34328.33
567.925	34503.7
568.287	34587.76
568.648	34633.41
569.01	34810.58
569.372	35104.59
569.734	34993.63
570.095	35315.88
570.457	35377.8
570.819	35423.22
571.18	35460.28
571.542	35639.03
571.903	35652.82
572.265	35787.96
572.626	35846.26
572.987	36055.97
573.349	36116.08
573.71	36232.01
574.071	36349.98
574.432	36477.2
574.794	36628.61
575.155	36660.93
575.516	36668.16
575.877	36832.45
576.238	36800.36
576.599	36994.03
576.96	36992.67
577.32	37095.49
577.681	37317.18
578.042	37277.86
578.403	37383.4
578.763	37266.34
579.124	37439.89
579.485	37538.19
579.845	37648.47
580.206	37538.19
580.566	37590.4
580.927	37641.69
581.287	37758.3
581.648	37693.44
582.008	37886.43
582.368	37722.6
582.728	37984.51
583.089	37982.93
583.449	37932.08
583.809	38052.53
584.169	38135.92
584.529	37939.09
584.889	38315.35
585.249	38125.3
585.609	38033.1
585.969	38211.17
586.329	38133.43
586.688	38285.07
587.048	38123.26
587.408	38130.95
587.768	38222.24
588.127	38159.42
588.487	38182.47
588.846	38397.83
589.206	37994.23
589.565	38252.75
589.925	38441.45
590.284	38271.73
590.643	38341.34
591.003	38624.94
591.362	38462.69
591.721	38402.13
592.08	38465.4
592.44	38563.03
592.799	38459.07
593.158	38556.7
593.517	38575.91
593.876	38641.67
594.235	38518.96
594.593	38619.52
594.952	38642.12
595.311	38572.52
595.67	38635.57
596.029	38919.85
596.387	38942
596.746	38967.08
597.104	38685.51
597.463	38704.94
597.822	38941.32
598.18	38766.18
598.538	38817.26
598.897	38998.95
599.255	38842.79
599.613	39338.6
599.972	39014.31
600.33	39110.58
600.688	39078.04
601.046	39193.74
601.404	39370.69
601.762	39197.36
602.12	39490.01
602.478	39465.6
602.836	39560.29
603.194	39360.29
603.552	39369.33
603.91	39294.76
604.268	39658.59
604.625	39565.03
604.983	39725.03
605.341	39588.08
605.698	39741.98
606.056	39783.33
606.413	39837.57
606.771	39997.11
607.128	40035.53
607.485	39840.73
607.843	40048.86
608.2	40150.33
608.557	40396.2
608.914	40113.04
609.272	40412.02
609.629	40674.83
609.986	40655.17
610.343	40397.78
610.7	40747.15
611.057	40629.19
611.414	40703.31
611.771	40843.64
612.127	40922.06
612.484	41008.84
612.841	41039.12
613.198	40984.88
613.554	41025.33
613.911	41313.01
614.267	41111.89
614.624	41145.56
614.98	41258.32
615.337	41493.8
615.693	41482.27
616.05	41477.53
616.406	41630.29
616.762	41543.96
617.118	41543.51
617.475	41715.03
617.831	41829.38
618.187	41817.63
618.543	41881.58
618.899	42025.99
619.255	41950.73
619.611	42011.52
619.967	42238.64
620.323	42197.51
620.678	42101.46
621.034	42107.11
621.39	42129.03
621.746	42039.77
622.101	42534.67
622.457	42241.35
622.812	42223.72
623.168	42499.42
623.523	42447.9
623.879	42618.29
624.234	42117.96
624.589	42504.16
624.945	42475.92
625.3	42509.14
625.655	42680.88
626.01	42489.7
626.365	42690.37
626.72	42627.33
627.075	42706.65
627.43	42598.63
627.785	42542.13
628.14	42672.52
628.495	42522.47
628.85	42591.62
629.205	42490.61
629.559	42838.62
629.914	42588.46
630.269	42604.5
630.623	42540.1
630.978	42562.24
631.332	42694.22
631.687	42791.84
632.041	42590.72
632.396	42634.78
632.75	42388.69
633.104	42537.16
633.459	42449.25
633.813	42529.02
634.167	42596.59
634.521	42420.55
634.875	42419.42
635.229	42478.63
635.583	42156.6
635.937	42256.94
636.291	42338.75
636.645	42312.08
636.999	42214.45
637.352	42364.96
637.706	42076.83
638.06	42334.9
638.413	42065.76
638.767	42164.51
639.121	42201.35
639.474	41835.03
639.828	42003.61
640.181	42038.64
640.534	42129.26
640.888	41996.61
641.241	41813.11
641.594	41898.08
641.947	42016.95
642.301	41632.78
642.654	41946.44
643.007	41777.63
643.36	41697.18
643.713	41792.32
644.066	41740.8
644.419	41692.66
644.771	41463.51
645.124	41036.86
645.477	41154.6
645.83	40788.96
646.182	40544.22
646.535	40589.41
646.888	40551.67
647.24	40215.41
647.593	40449.3
647.945	40539.7
648.298	40362.53
648.65	40402.07
649.002	40036.21
649.355	40284.11
649.707	40149.2
650.059	40437.55
650.411	40916.18
650.763	40790.76
651.115	41302.39
651.467	41217.65
651.819	41150.08
652.171	41003.41
652.523	40996.41
652.875	41037.08
653.227	40961.15
653.578	41197.53
653.93	41069.85
654.282	40866.69
654.633	40786.47
654.985	40827.82
655.337	40853.81
655.688	40784.44
656.039	40979.23
656.391	40640.71
656.742	40878.22
657.094	40689.52
657.445	40870.31
657.796	40741.73
658.147	40560.26
658.498	40652.01
658.849	40807.03
659.2	40689.3
659.551	40555.06
659.902	40765.45
660.253	40721.16
660.604	40722.74
660.955	40473.03
661.306	40659.92
661.656	40574.72
662.007	40528.4
662.358	40641.16
662.708	40578.79
663.059	40724.78
663.409	40365.01
663.76	40565.91
664.11	40447.27
664.461	40440.49
664.811	40579.47
665.161	40579.47
665.511	40493.14
665.862	40513.48
666.212	40645.91
666.562	40398.46
666.912	40451.79
667.262	40436.42
667.612	40336.31
667.962	40538.57
668.312	40305.58
668.662	40567.72
669.011	40432.35
669.361	40335.63
669.711	40396.65
670.06	40298.12
670.41	40281.62
670.76	40206.82
671.109	40282.08
671.459	40304.45
671.808	40235.98
672.157	40157.79
672.507	39911.01
672.856	39884.57
673.205	40046.83
673.554	40262.19
673.904	39994.63
674.253	40268.29
674.602	40120.95
674.951	39599.38
675.3	39382.44
675.649	40141.97
675.998	39929.77
676.346	40078.24
676.695	40146.03
677.044	39815.42
677.393	39932.48
677.741	39956.66
678.09	39895.87
678.438	39732.49
678.787	39849.77
679.135	39860.62
679.484	39533.4
679.832	39868.53
680.181	39537.01
680.529	39605.26
680.877	39570.46
681.225	39581.08
681.573	39701.98
681.922	39257.02
682.27	39267.64
682.618	39370.24
682.966	39173.86
683.314	39260.86
683.661	39141.77
684.009	39010.92
684.357	38956.01
684.705	38880.53
685.053	38859.06
685.4	38834.88
685.748	38611.61
686.095	38754.66
686.443	38522.8
686.79	38476.93
687.138	38478.51
687.485	38520.09
687.832	38189.48
688.18	38358.06
688.527	38183.37
688.874	38069.93
689.221	38189.02
689.568	38006.2
689.915	38049.59
690.262	37835.14
690.609	37838.75
690.956	37741.13
691.303	37689.38
691.65	37544.75
691.997	37492.77
692.344	37370.06
692.69	37333.91
693.037	37254.36
693.383	37010.3
693.73	37094.36
694.077	36943.18
694.423	36905.44
694.769	36683.08
695.116	36657.76
695.462	36680.36
695.808	36565.79
696.155	36660.02
696.501	36414.38
696.847	36425
697.193	36105.92
697.539	36160.6
697.885	35996.54
698.231	35905.47
698.577	35883.32
698.923	35742.76
699.269	35546.16
699.614	35515.42
699.96	35487.4
700.306	35439.04
700.651	35379.83
700.997	35309.55
701.342	35147.75
701.688	35184.58
702.033	34958.83
702.379	34878.38
702.724	34839.73
703.069	34893.29
703.415	34492.62
703.76	34571.04
704.105	34570.36
704.45	34483.58
704.795	34286.75
705.14	34154.1
705.485	34153.42
705.83	34056.48
706.175	34043.82
706.52	34013.54
706.865	34001.11
707.209	33838.4
707.554	33795.02
707.899	33901.23
708.243	33609.26
708.588	33629.82
708.932	33429.6
709.277	33369.72
709.621	33367.91
709.966	33131.98
710.31	33281.58
710.654	32873.91
710.998	32987.58
711.342	32884.08
711.687	32935.6
712.031	32836.4
712.375	32736.51
712.719	32576.97
713.063	32621.94
713.407	32616.97
713.75	32454.94
714.094	32331.78
714.438	32339.46
714.782	32420.36
715.125	32194.83
715.469	32267.37
715.812	32080.71
716.156	31968.4
716.499	32050.2
716.843	31989.87
717.186	31742.87
717.53	32030.77
717.873	31866.03
718.216	31665.81
718.559	31629.42
718.902	31459.94
719.246	31452.25
719.589	31378.13
719.932	31338.81
720.275	31248.42
720.617	31275.53
720.96	31241.64
721.303	31123.9
721.646	31296.1
721.989	31010.91
722.331	31108.76
722.674	30953.96
723.016	30987.63
723.359	31019.27
723.701	30849.1
724.044	30654.53
724.386	30451.83
724.729	30684.59
725.071	30687.3
725.413	30654.31
725.755	30593.97
726.097	30461.77
726.439	30362.11
726.782	30349.46
727.124	30389.46
727.465	30242.11
727.807	30327.99
728.149	30248.89
728.491	30192.85
728.833	30062.91
729.175	29880.77
729.516	29960.77
729.858	29920.99
730.199	29935.23
730.541	29985.62
730.882	29759.87
731.224	29833.09
731.565	29649.14
731.906	29665.18
732.248	29635.12
732.589	29575.24
732.93	29527.56
733.271	29511.06
733.612	29510.83
733.953	29431.97
734.294	29352.19
734.635	29252.76
734.976	29262.48
735.317	29232.65
735.658	29043.05
735.999	29161.46
736.339	29061.35
736.68	29218.64
737.021	28991.75
737.361	28963.05
737.702	29104.74
738.042	29013.67
738.383	28869.72
738.723	28948.59
739.063	28783.85
739.404	28800.12
739.744	28822.94
740.084	28582.72
740.424	28679.9
740.764	28498.66
741.104	28663.17
741.444	28418.66
741.784	28327.36
742.124	28388.6
742.464	28462.73
742.804	28297.98
743.143	28314.48
743.483	28369.4
743.823	28112.45
744.162	28138.44
744.502	28160.14
744.841	27969.41
745.181	28083.53
745.52	27990.2
745.86	28051.21
746.199	27853.25
746.538	27842.4
746.877	27969.63
747.216	27898.67
747.556	27882.4
747.895	27928.95
748.234	27610.55
748.573	27535.74
748.911	27644.67
749.25	27526.71
749.589	27499.36
749.928	27433.83
750.267	27478.8
750.605	27354.96
750.944	27270.67
751.283	27171.23
751.621	27191.57
751.96	27036.77
752.298	27124.23
752.636	26990.9
752.975	26960.84
753.313	26969.43
753.651	26945.7
753.989	26704.13
754.327	26745.94
754.666	26654.64
755.004	26670.46
755.342	26613.74
755.679	26524.47
756.017	26379.17
756.355	26480.86
