Data from hue_220_FLMS001491_00029.txt Node
Date: Tue Feb 07 16:39:12 GMT 2017
User: dcchb
Spectrometer: FLMS00149
Trigger mode: 0
Integration Time (sec): 2.000000E-2
Scans to average: 10
Electric dark correction enabled: true
Nonlinearity correction enabled: false
Boxcar width: 0
XAxis mode: Wavelengths
Number of Pixels in Spectrum: 2048
>>>>>Begin Spectral Data<<<<<
341.393	-12.54
341.776	-12.54
342.16	-12.54
342.543	-41.02
342.927	-59.09
343.31	-55.93
343.693	-55.03
344.077	-62.26
344.46	-63.16
344.843	-61.58
345.226	-38.08
345.61	-45.31
345.993	-20.45
346.376	17.74
346.759	4.41
347.142	28.13
347.525	35.59
347.908	43.95
348.291	68.59
348.674	91.64
349.057	111.75
349.44	118.98
349.823	147
350.206	175.02
350.588	201.24
350.971	206.89
351.354	227.23
351.737	224.74
352.119	244.85
352.502	252.99
352.884	267.9
353.267	244.63
353.65	293.44
354.032	287.11
354.414	318.97
354.797	296.15
355.179	311.74
355.562	308.35
355.944	330.05
356.326	323.72
356.709	339.09
357.091	335.25
357.473	332.99
357.855	345.87
358.238	319.65
358.62	345.19
359.002	344.28
359.384	333.66
359.766	340.89
360.148	339.31
360.53	338.86
360.912	327.56
361.294	330.95
361.676	340.89
362.057	314.68
362.439	317.39
362.821	307
363.203	327.11
363.584	325.08
363.966	313.33
364.348	323.04
364.729	314.23
365.111	327.56
365.493	306.55
365.874	311.97
366.256	307.68
366.637	316.49
367.019	316.26
367.4	306.09
367.781	303.61
368.163	296.6
368.544	293.21
368.925	317.39
369.306	322.82
369.688	332.76
370.069	309.26
370.45	308.81
370.831	306.32
371.212	284.63
371.593	311.07
371.974	318.07
372.355	309.94
372.736	313.55
373.117	310.84
373.498	313.33
373.879	306.55
374.26	296.83
374.641	313.55
375.021	291.86
375.402	285.76
375.783	326.43
376.163	329.14
376.544	323.27
376.925	327.79
377.305	310.16
377.686	323.49
378.066	307
378.447	340.67
378.827	331.63
379.208	324.62
379.588	313.33
379.968	310.84
380.349	320.33
380.729	322.59
381.109	316.49
381.489	345.64
381.87	321.46
382.25	321.46
382.63	326.21
383.01	341.8
383.39	316.94
383.77	332.31
384.15	318.3
384.53	337.28
384.91	342.02
385.29	337.96
385.67	349.71
386.049	340.44
386.429	340.22
386.809	329.6
387.189	360.1
387.568	326.21
387.948	360.78
388.328	357.84
388.707	348.58
389.087	351.74
389.466	349.93
389.846	348.8
390.225	358.97
390.605	344.74
390.984	367.33
391.363	368.69
391.743	366.43
392.122	354.45
392.501	361.46
392.881	371.85
393.26	372.53
393.639	371.63
394.018	365.3
394.397	378.41
394.776	378.18
395.155	395.13
395.534	373.89
395.913	364.17
396.292	399.88
396.671	351.52
397.05	387.9
397.429	391.29
397.808	372.08
398.186	383.38
398.565	378.63
398.944	378.41
399.323	389.48
399.701	390.16
400.08	402.59
400.458	415.92
400.837	420.67
401.215	395.81
401.594	411.63
401.972	408.69
402.351	404.62
402.729	431.06
403.107	412.31
403.486	423.83
403.864	423.83
404.242	423.83
404.62	430.38
404.999	442.14
405.377	450.27
405.755	431.06
406.133	425.41
406.511	434.68
406.889	457.28
407.267	442.36
407.645	472.87
408.023	452.98
408.401	469.71
408.779	472.42
409.156	479.65
409.534	485.3
409.912	489.14
410.29	513.09
410.667	493.66
411.045	516.48
411.422	502.92
411.8	511.74
412.178	542.25
412.555	532.53
412.933	528.91
413.31	570.95
413.687	557.39
414.065	573.21
414.442	563.04
414.819	587.22
415.197	595.13
415.574	588.12
415.951	610.27
416.328	619.76
416.705	603.49
417.082	630.38
417.46	626.76
417.837	629.7
418.214	650.72
418.591	660.66
418.967	652.75
419.344	671.28
419.721	661.79
420.098	687.78
420.475	699.53
420.852	708.79
421.228	712.18
421.605	730.49
421.982	737.49
422.358	729.81
422.735	748.57
423.111	768.23
423.488	786.98
423.864	797.38
424.241	822.92
424.617	827.21
424.994	832.41
425.37	829.47
425.746	818.17
426.123	882.12
426.499	899.75
426.875	900.65
427.251	898.85
427.627	897.72
428.003	926.19
428.379	925.29
428.756	928.45
429.132	962.12
429.507	971.61
429.883	987.66
430.259	1019.3
430.635	1016.36
431.011	1029.46
431.387	1024.04
431.763	1058.16
432.138	1051.61
432.514	1088.67
432.89	1093.19
433.265	1096.13
433.641	1148.11
434.016	1118.05
434.392	1160.53
434.767	1200.99
435.143	1223.58
435.518	1203.02
435.894	1243.02
436.269	1252.51
436.644	1277.37
437.02	1290.7
437.395	1328.44
437.77	1339.29
438.145	1372.96
438.52	1360.08
438.895	1353.07
439.271	1432.39
439.646	1464.93
440.021	1453.18
440.395	1474.65
440.77	1480.98
441.145	1518.72
441.52	1544.93
441.895	1518.27
442.27	1551.48
442.645	1553.52
443.019	1561.88
443.394	1617.25
443.769	1650.92
444.143	1618.38
444.518	1656.79
444.892	1665.61
445.267	1652.05
445.641	1692.05
446.016	1740.86
446.39	1731.82
446.764	1684.36
447.139	1721.65
447.513	1726.17
447.887	1747.19
448.262	1760.52
448.636	1779.95
449.01	1786.73
449.384	1852.95
449.758	1809.78
450.132	1868.09
450.506	1846.84
450.88	1877.35
451.254	1893.4
451.628	1905.6
452.002	1916.9
452.376	1937.46
452.75	1916.9
453.123	1958.03
453.497	1993.28
453.871	1996.67
454.244	2023.11
454.618	2053.39
454.992	2080.74
455.365	2062.43
455.739	2141.98
456.112	2139.94
456.486	2159.38
456.859	2177.91
457.232	2200.28
457.606	2166.84
457.979	2246.61
458.352	2278.25
458.725	2250.9
459.099	2291.58
459.472	2339.71
459.845	2351.01
460.218	2408.19
460.591	2383.78
460.964	2441.4
461.337	2476.66
461.71	2494.96
462.083	2523.44
462.456	2527.28
462.829	2553.49
463.201	2580.16
463.574	2616.77
463.947	2633.94
464.32	2689.08
464.692	2661.29
465.065	2717.33
465.438	2765.69
465.81	2778.35
466.183	2790.77
466.555	2888.62
466.928	2911.45
467.3	2859.7
467.672	2917.32
468.045	2978.11
468.417	2974.72
468.789	3013.82
469.161	3012.69
469.534	3092.91
469.906	3160.48
470.278	3154.38
470.65	3168.17
471.022	3233.47
471.394	3309.4
471.766	3338.1
472.138	3355.28
472.51	3395.96
472.882	3442.28
473.253	3506.46
473.625	3534.48
473.997	3586.69
474.369	3642.05
474.74	3635.95
475.112	3680.47
475.484	3734.25
475.855	3797.53
476.227	3824.65
476.598	3919.11
476.97	3948.03
477.341	4058.31
477.713	4075.49
478.084	4129.27
478.455	4201.13
478.827	4180.34
479.198	4300.11
479.569	4265.54
479.94	4441.35
480.311	4452.43
480.682	4473.67
481.053	4644.96
481.424	4654
481.795	4659.88
482.166	4732.19
482.537	4840.44
482.908	4888.57
483.279	4955.46
483.65	4985.07
484.021	5110.04
484.391	5122.92
484.762	5154.1
485.133	5127.89
485.503	5289.24
485.874	5383.7
486.244	5370.14
486.615	5466.41
486.985	5493.53
487.356	5645.84
487.726	5679.96
488.097	5716.57
488.467	5786.85
488.837	5881.54
489.207	5909.11
489.578	5958.15
489.948	6052.61
490.318	6037.24
490.688	6102.1
491.058	6136.67
491.428	6171.48
491.798	6255.54
492.168	6379.38
492.538	6399.04
492.908	6426.38
493.278	6520.62
493.648	6562.43
494.017	6617.57
494.387	6658.69
494.757	6618.47
495.126	6734.17
495.496	6664.57
495.866	6748.41
496.235	6865.47
496.605	6861.63
496.974	6822.31
497.344	6918.12
497.713	6919.93
498.082	7033.15
498.452	7006.03
498.821	7062.98
499.19	7068.18
499.559	7126.48
499.928	7153.82
500.298	7180.72
500.667	7213.93
501.036	7162.18
501.405	7265.01
501.774	7277.66
502.143	7319.92
502.512	7337.32
502.88	7333.03
503.249	7330.32
503.618	7408.05
503.987	7413.7
504.356	7435.85
504.724	7437.43
505.093	7462.97
505.462	7519.92
505.83	7473.59
506.199	7582.74
506.567	7658.22
506.936	7552.46
507.304	7643.3
507.672	7609.86
508.041	7674.26
508.409	7669.29
508.777	7721.94
509.145	7724.2
509.514	7744.54
509.882	7791.77
510.25	7768.72
510.618	7841.94
510.986	7777.08
511.354	7901.6
511.722	7925.78
512.09	7903.63
512.458	7847.14
512.826	7898.89
513.193	7878.1
513.561	7873.13
513.929	7918.77
514.297	7950.86
514.664	7976.63
515.032	7991.32
515.4	7995.61
515.767	7978.89
516.135	7991.32
516.502	7935.27
516.869	8070.18
517.237	8010.75
517.604	7997.19
517.972	8071.31
518.339	8150.41
518.706	7994.03
519.073	8022.95
519.44	8069.73
519.808	8086.68
520.175	8090.07
520.542	8083.97
520.909	8082.16
521.276	8117.41
521.643	8143.63
522.009	8089.62
522.376	8160.12
522.743	8137.07
523.11	8213.68
523.477	8153.34
523.843	8218.88
524.21	8269.5
524.577	8259.78
524.943	8274.02
525.31	8238.77
525.676	8231.53
526.043	8213.68
526.409	8264.08
526.776	8291.19
527.142	8245.09
527.508	8228.15
527.874	8287.58
528.241	8214.59
528.607	8221.37
528.973	8236.05
529.339	8248.48
529.705	8239.22
530.071	8325.77
530.437	8228.6
530.803	8279.22
531.169	8258.88
531.535	8210.29
531.901	8277.64
532.267	8219.11
532.632	8289.16
532.998	8191.31
533.364	8248.71
533.73	8205.09
534.095	8246.68
534.461	8240.12
534.826	8197.19
535.192	8208.26
535.557	8221.82
535.923	8150.63
536.288	8092.1
536.653	8114.48
537.019	8106.79
537.384	8015.95
537.749	8027.02
538.114	8002.16
538.479	8023.63
538.845	7993.12
539.21	7923.75
539.575	7937.98
539.94	7874.26
540.305	7846.91
540.67	7863.86
541.034	7863.64
541.399	7894.14
541.764	7846.91
542.129	7787.93
542.494	7796.29
542.858	7826.35
543.223	7793.13
543.587	7780.25
543.952	7720.81
544.316	7677.43
544.681	7700.7
545.045	7661.61
545.41	7632
545.774	7623.87
546.138	7664.09
546.503	7580.7
546.867	7531.89
547.231	7602.62
547.595	7526.69
547.959	7488.96
548.324	7441.05
548.688	7440.6
549.052	7421.39
549.416	7439.92
549.779	7399.24
550.143	7404.21
550.507	7380.71
550.871	7283.09
551.235	7274.5
551.599	7256.42
551.962	7310.2
552.326	7244.44
552.689	7257.55
553.053	7137.33
553.417	7225.69
553.78	7264.78
554.143	7164.22
554.507	7184.56
554.87	7141.62
555.234	7246.7
555.597	7145.69
555.96	7162.18
556.323	7124.45
556.686	7109.98
557.05	7146.59
557.413	7105.46
557.776	7116.76
558.139	7139.59
558.502	7065.46
558.865	7071.34
559.228	7016.65
559.59	7063.2
559.953	7061.4
560.316	7051.23
560.679	7085.12
561.041	7112.24
561.404	7123.99
561.767	7082.64
562.129	7038.57
562.492	7060.94
562.854	7060.72
563.217	7020.95
563.579	7065.92
563.941	7076.99
564.304	7030.89
564.666	7071.79
565.028	7027.27
565.39	7032.47
565.753	7109.76
566.115	7154.73
566.477	7114.95
566.839	7141.17
567.201	7131
567.563	7132.81
567.925	7111.11
568.287	7162.86
568.648	7115.41
569.01	7194.95
569.372	7212.35
569.734	7135.74
570.095	7181.17
570.457	7172.81
570.819	7255.97
571.18	7149.53
571.542	7205.12
571.903	7237.66
572.265	7241.28
572.626	7252.58
572.987	7230.43
573.349	7267.27
573.71	7282.41
574.071	7294.61
574.432	7325.57
574.794	7325.12
575.155	7297.55
575.516	7358.56
575.877	7362.63
576.238	7396.08
576.599	7451.67
576.96	7413.25
577.32	7372.57
577.681	7415.29
578.042	7459.8
578.403	7469.3
578.763	7494.38
579.124	7497.54
579.485	7513.14
579.845	7533.02
580.206	7549.52
580.566	7558.56
580.927	7555.85
581.287	7595.39
581.648	7588.39
582.008	7630.87
582.368	7672
582.728	7654.6
583.089	7617.09
583.449	7658.44
583.809	7623.64
584.169	7651.66
584.529	7682.85
584.889	7672.45
585.249	7702.28
585.609	7622.51
585.969	7787.7
586.329	7733.02
586.688	7751.55
587.048	7772.56
587.408	7760.59
587.768	7819.12
588.127	7776.41
588.487	7810.08
588.846	7826.8
589.206	7844.88
589.565	7787.25
589.925	7938.21
590.284	7857.99
590.643	7951.99
591.003	7914.03
591.362	7913.8
591.721	7858.44
592.08	7907.7
592.44	7989.28
592.799	7880.81
593.158	7951.32
593.517	8002.16
593.876	7950.41
594.235	7963.97
594.593	7986.8
594.952	7951.99
595.311	8003.29
595.67	8003.97
596.029	8031.99
596.387	8077.64
596.746	8056.62
597.104	7937.53
597.463	8034.7
597.822	8105.66
598.18	8039
598.538	8018.89
598.897	8073.57
599.255	7972.33
599.613	8160.58
599.972	8112.22
600.33	8072.9
600.688	8060.01
601.046	8152.67
601.404	8135.04
601.762	8158.77
602.12	8165.55
602.478	8181.82
602.836	8140.46
603.194	8150.18
603.552	8132.55
603.91	8090.52
604.268	8094.36
604.625	8102.5
604.983	8150.18
605.341	8103.63
605.698	8156.73
606.056	8146.79
606.413	8147.47
606.771	8198.54
607.128	8217.3
607.485	8174.81
607.843	8108.37
608.2	8206.9
608.557	8197.41
608.914	8210.52
609.272	8249.84
609.629	8285.54
609.986	8257.07
610.343	8220.46
610.7	8323.96
611.057	8309.27
611.414	8294.81
611.771	8363.73
612.127	8328.93
612.484	8309.95
612.841	8401.93
613.198	8308.6
613.554	8354.47
613.911	8358.31
614.267	8317.86
614.624	8362.83
614.98	8350.4
615.337	8432.89
615.693	8340.68
616.05	8362.6
616.406	8378.42
616.762	8337.75
617.118	8391.98
617.475	8382.94
617.831	8483.73
618.187	8457.52
618.543	8416.39
618.899	8433.79
619.255	8379.1
619.611	8421.36
619.967	8461.81
620.323	8450.51
620.678	8435.15
621.034	8472.43
621.39	8427.01
621.746	8456.39
622.101	8496.61
622.457	8477.63
622.812	8502.49
623.168	8472.21
623.523	8512.66
623.879	8443.05
624.234	8427.46
624.589	8480.34
624.945	8480.12
625.3	8410.06
625.655	8467.01
626.01	8435.37
626.365	8457.52
626.72	8442.38
627.075	8413.45
627.43	8481.02
627.785	8442.6
628.14	8476.05
628.495	8453.68
628.85	8442.83
629.205	8386.56
629.559	8498.65
629.914	8459.55
630.269	8432.21
630.623	8363.51
630.978	8397.41
631.332	8380.46
631.687	8397.63
632.041	8401.93
632.396	8391.76
632.75	8343.17
633.104	8346.11
633.459	8347.46
633.813	8293
634.167	8362.15
634.521	8330.74
634.875	8331.19
635.229	8328.26
635.583	8279.67
635.937	8229.95
636.291	8274.25
636.645	8277.86
636.999	8241.93
637.352	8234.02
637.706	8220.24
638.06	8235.15
638.413	8234.25
638.767	8142.72
639.121	8169.84
639.474	8168.03
639.828	8272.21
640.181	8187.69
640.534	8156.73
640.888	8130.52
641.241	8158.32
641.594	8122.16
641.947	8115.61
642.301	8093.23
642.654	8152.67
643.007	8180.01
643.36	8140.69
643.713	8091.43
644.066	8129.16
644.419	8097.75
644.771	8037.87
645.124	7935.95
645.477	7947.47
645.83	7913.8
646.182	7903.18
646.535	7857.53
646.888	7933.46
647.24	7812.79
647.593	7820.02
647.945	7884.2
648.298	7830.19
648.65	7828.61
649.002	7822.51
649.355	7876.52
649.707	7807.59
650.059	7842.84
650.411	7908.61
650.763	7979.11
651.115	8093.69
651.467	8007.13
651.819	7988.15
652.171	7995.16
652.523	7979.56
652.875	8021.6
653.227	7946.12
653.578	7945.67
653.93	8030.64
654.282	7987.02
654.633	7978.66
654.985	7974.37
655.337	7994.71
655.688	8014.14
656.039	8029.28
656.391	8014.59
656.742	7978.66
657.094	8035.16
657.445	8000.35
657.796	8022.73
658.147	8016.4
658.498	7974.59
658.849	7961.26
659.2	7975.27
659.551	8036.74
659.902	7992.9
660.253	8053.91
660.604	8086
660.955	8017.53
661.306	8097.3
661.656	8036.29
662.007	8038.32
662.358	8035.38
662.708	8068.6
663.059	8046.68
663.409	8049.17
663.76	8081.26
664.11	8084.19
664.461	8108.83
664.811	8073.8
665.161	8089.39
665.511	8041.03
665.862	8043.74
666.212	8145.21
666.562	8175.04
666.912	8039.9
667.262	8110.18
667.612	8109.05
667.962	8112.22
668.312	8101.37
668.662	8115.15
669.011	8071.54
669.361	8104.98
669.711	8030.41
670.06	8067.47
670.41	8060.92
670.76	8117.41
671.109	8080.35
671.459	8003.74
671.808	8026.34
672.157	8070.64
672.507	8050.07
672.856	7976.4
673.205	8028.15
673.554	8020.69
673.904	7971.43
674.253	8029.73
674.602	8027.02
674.951	7876.52
675.3	7817.08
675.649	8018.66
675.998	7950.64
676.346	8003.52
676.695	7943.63
677.044	7881.26
677.393	7939.34
677.741	7939.11
678.09	7934.37
678.438	7895.5
678.787	7834.03
679.135	7920.81
679.484	7881.49
679.832	7834.48
680.181	7822.28
680.529	7822.28
680.877	7814.37
681.225	7735.73
681.573	7860.92
681.922	7784.32
682.27	7713.58
682.618	7746.58
682.966	7751.77
683.314	7769.85
683.661	7704.09
684.009	7684.88
684.357	7617.77
684.705	7638.78
685.053	7667.48
685.4	7652.57
685.748	7572.8
686.095	7573.93
686.443	7532.12
686.79	7533.25
687.138	7504.77
687.485	7522.4
687.832	7462.29
688.18	7429.75
688.527	7433.59
688.874	7389.75
689.221	7381.16
689.568	7406.47
689.915	7381.39
690.262	7408.05
690.609	7350.2
690.956	7283.09
691.303	7328.51
691.65	7322.63
691.997	7265.01
692.344	7242.41
692.69	7167.38
693.037	7257.55
693.383	7081.28
693.73	7186.59
694.077	7109.98
694.423	7115.41
694.769	7084.9
695.116	7042.19
695.462	7037.44
695.808	7016.2
696.155	6997.9
696.501	6987.05
696.847	6935.52
697.193	6910.89
697.539	6891.68
697.885	6843.32
698.231	6827.5
698.577	6796.32
698.923	6783.44
699.269	6709.77
699.614	6759.48
699.96	6711.35
700.306	6701.86
700.651	6677.9
700.997	6638.58
701.342	6638.58
701.688	6584.8
702.033	6585.7
702.379	6561.52
702.724	6551.13
703.069	6556.32
703.415	6511.81
703.76	6518.13
704.105	6432.49
704.45	6435.65
704.795	6354.75
705.14	6329.21
705.485	6360.85
705.83	6329.89
706.175	6331.47
706.52	6312.26
706.865	6271.13
707.209	6250.34
707.554	6190.68
707.899	6233.17
708.243	6211.48
708.588	6239.72
708.932	6126.73
709.277	6105.49
709.621	6194.53
709.966	6131.93
710.31	6168.54
710.654	6072.5
710.998	6076.11
711.342	6084.25
711.687	6057.13
712.031	6040.18
712.375	6029.78
712.719	6017.13
713.063	6010.8
713.407	5998.37
713.75	5921.99
714.094	5943.46
714.438	5933.29
714.782	5948.88
715.125	5912.95
715.469	5946.4
715.812	5854.2
716.156	5871.6
716.499	5891.03
716.843	5917.25
717.186	5850.13
717.53	5873.4
717.873	5855.78
718.216	5866.85
718.559	5824.14
718.902	5824.59
719.246	5804.48
719.589	5825.95
719.932	5780.3
720.275	5760.87
720.617	5825.72
720.96	5752.73
721.303	5798.83
721.646	5748.89
721.989	5737.14
722.331	5758.15
722.674	5732.39
723.016	5793.63
723.359	5730.13
723.701	5753.63
724.044	5727.87
724.386	5657.82
724.729	5740.98
725.071	5741.2
725.413	5680.19
725.755	5703.24
726.097	5691.49
726.439	5653.52
726.782	5674.31
727.124	5670.25
727.465	5644.03
727.807	5666.4
728.149	5685.84
728.491	5612.85
728.833	5650.81
729.175	5655.78
729.516	5651.04
729.858	5667.08
730.199	5652.39
730.541	5653.98
730.882	5650.81
731.224	5710.92
731.565	5659.17
731.906	5691.04
732.248	5658.5
732.589	5640.64
732.93	5621.66
733.271	5623.02
733.612	5684.71
733.953	5661.21
734.294	5635.45
734.635	5638.61
734.976	5677.03
735.317	5630.7
735.658	5698.49
735.999	5684.26
736.339	5691.71
736.68	5677.7
737.021	5658.27
737.361	5640.42
737.702	5740.08
738.042	5654.2
738.383	5691.49
738.723	5759.06
739.063	5665.5
739.404	5730.36
739.744	5750.7
740.084	5741.2
740.424	5730.58
740.764	5776.68
741.104	5738.72
741.444	5736.01
741.784	5763.13
742.124	5796.34
742.464	5851.94
742.804	5833.18
743.143	5800.19
743.483	5872.73
743.823	5852.39
744.162	5948.66
744.502	5937.58
744.841	5891.48
745.181	5994.76
745.52	5988.43
745.86	5966.74
746.199	6027.75
746.538	6093.29
746.877	6130.8
747.216	6180.29
747.556	6187.97
747.895	6248.54
748.234	6270.23
748.573	6310
748.911	6376.22
749.25	6422.77
749.589	6482.65
749.928	6517.46
750.267	6600.39
750.605	6619.15
750.944	6709.77
751.283	6768.75
751.621	6860.5
751.96	6927.39
752.298	7012.81
752.636	7097.55
752.975	7181.39
753.313	7261.84
753.651	7411.22
753.989	7447.83
754.327	7562.63
754.666	7635.62
755.004	7853.01
755.342	7906.35
755.679	7935.95
756.017	8166
756.355	8260.69
756.693	8349.72
757.031	8551.07
757.368	8623.62
757.706	8804.18
758.044	8944.74
758.381	9114
758.719	9225.18
759.056	9448.68
759.394	9565.51
759.731	9647.09
760.068	9793.75
760.405	10016.8
760.743	10118.49
761.08	10255.44
761.417	10370.91
761.754	10592.83
762.091	10765.93
762.428	10916.89
762.765	11101.74
763.102	11302.87
763.438	11411.34
763.775	11641.16
764.112	11760.71
764.449	11925.45
764.785	12111.66
765.122	12186.01
765.458	12310.07
765.795	12597.07
766.131	12647.01
766.467	12850.17
766.804	12964.07
767.14	13131.97
767.476	13288.8
767.812	13358.41
768.148	13661
768.485	13694.22
768.821	13743.93
769.157	13898.96
