Data from hue_70_FLMS001491_49.txt Node
Date: Mon Feb 06 15:20:58 GMT 2017
User: dcchb
Spectrometer: FLMS00149
Trigger mode: 0
Integration Time (sec): 2.000000E-2
Scans to average: 10
Electric dark correction enabled: true
Nonlinearity correction enabled: false
Boxcar width: 0
XAxis mode: Wavelengths
Number of Pixels in Spectrum: 2048
>>>>>Begin Spectral Data<<<<<
341.393	-3.38
341.776	-3.38
342.16	-3.38
342.543	-72.53
342.927	-66.2
343.31	-53.32
343.693	-63.26
344.077	-68.46
344.46	-77.95
344.843	-65.75
345.226	-33.43
345.61	-9.48
345.993	-4.96
346.376	-4.05
346.759	2.95
347.142	2.05
347.525	48.6
347.908	47.47
348.291	75.72
348.674	93.8
349.057	110.07
349.44	105.77
349.823	152.55
350.206	178.31
350.588	207.69
350.971	225.32
351.354	241.82
351.737	255.6
352.119	249.05
352.502	264.19
352.884	265.32
353.267	277.52
353.65	266.67
354.032	306.45
354.414	304.19
354.797	309.84
355.179	329.05
355.562	331.3
355.944	333.11
356.326	324.07
356.709	348.71
357.091	325.2
357.473	348.93
357.855	341.25
358.238	342.83
358.62	307.12
359.002	329.5
359.384	332.43
359.766	321.81
360.148	354.13
360.53	356.61
360.912	340.34
361.294	348.48
361.676	342.38
362.057	353.45
362.439	336.5
362.821	338.76
363.203	322.27
363.584	320.68
363.966	342.38
364.348	325.88
364.729	303.96
365.111	313.23
365.493	306.45
365.874	316.16
366.256	307.35
366.637	312.55
367.019	326.79
367.4	313.45
367.781	296.73
368.163	321.81
368.544	306.9
368.925	290.18
369.306	310.29
369.688	320.01
370.069	294.24
370.45	321.14
370.831	313.23
371.212	290.4
371.593	303.51
371.974	311.19
372.355	309.84
372.736	275.04
373.117	307.58
373.498	315.94
373.879	327.01
374.26	327.46
374.641	319.78
375.021	299.67
375.402	295.6
375.783	310.51
376.163	318.42
376.544	314.36
376.925	336.73
377.305	308.25
377.686	320.46
378.066	315.71
378.447	312.1
378.827	306.67
379.208	338.76
379.588	305.09
379.968	326.56
380.349	320.46
380.729	344.64
381.109	318.88
381.489	331.53
381.87	328.59
382.25	341.93
382.63	319.78
383.01	329.5
383.39	300.57
383.77	348.48
384.15	333.56
384.53	362.49
384.91	347.12
385.29	347.8
385.67	344.86
386.049	347.58
386.429	328.59
386.809	376.95
387.189	343.96
387.568	349.61
387.948	344.41
388.328	352.77
388.707	358.42
389.087	345.32
389.466	351.87
389.846	365.2
390.225	361.59
390.605	357.29
390.984	362.26
391.363	358.2
391.743	344.86
392.122	357.07
392.501	363.62
392.881	364.98
393.26	355.03
393.639	340.34
394.018	348.71
394.397	370.85
394.776	367.91
395.155	356.84
395.534	372.66
395.913	367.01
396.292	390.74
396.671	358.87
397.05	369.27
397.429	366.33
397.808	379.44
398.186	386.22
398.565	376.28
398.944	374.92
399.323	382.38
399.701	386.44
400.08	390.96
400.458	383.73
400.837	397.97
401.215	372.89
401.594	372.89
401.972	383.28
402.351	389.83
402.729	377.18
403.107	389.83
403.486	385.77
403.864	402.04
404.242	400.68
404.62	402.49
404.999	389.16
405.377	393.9
405.755	399.33
406.133	410.85
406.511	402.72
406.889	393
407.267	426.9
407.645	424.86
408.023	399.1
408.401	438.42
408.779	401.13
409.156	425.77
409.534	414.69
409.912	424.18
410.29	421.25
410.667	437.52
411.045	445.2
411.422	442.49
411.8	438.65
412.178	457.63
412.555	459.89
412.933	441.81
413.31	456.95
413.687	451.75
414.065	459.89
414.442	450.85
414.819	454.24
415.197	480.23
415.574	452.88
415.951	458.99
416.328	470.96
416.705	462.37
417.082	470.96
417.46	474.35
417.837	489.49
418.214	477.06
418.591	476.61
418.967	489.94
419.344	482.26
419.721	498.31
420.098	494.46
420.475	491.75
420.852	512.99
421.228	516.38
421.605	512.99
421.982	516.84
422.358	492.88
422.735	530.17
423.111	500.79
423.488	520.9
423.864	533.33
424.241	522.94
424.617	527.91
424.994	548.02
425.37	532.43
425.746	541.47
426.123	532.2
426.499	545.08
426.875	548.47
427.251	563.39
427.627	547.34
428.003	545.76
428.379	572.88
428.756	562.03
429.132	562.71
429.507	552.32
429.883	553.9
430.259	579.89
430.635	561.13
431.011	591.86
431.387	597.51
431.763	599.09
432.138	609.94
432.514	597.74
432.89	610.17
433.265	630.96
433.641	605.42
434.016	618.53
434.392	624.86
434.767	644.74
435.143	635.03
435.518	632.99
435.894	653.78
436.269	651.07
436.644	663.27
437.02	657.17
437.395	658.98
437.77	679.77
438.145	659.21
438.52	673.22
438.895	696.49
439.271	699.88
439.646	703.05
440.021	691.3
440.395	694.46
440.77	684.74
441.145	690.62
441.52	719.09
441.895	726.55
442.27	725.42
442.645	742.59
443.019	697.17
443.394	722.26
443.769	744.18
444.143	739.66
444.518	761.58
444.892	733.33
445.267	748.02
445.641	766.1
446.016	750.28
446.39	748.47
446.764	753.44
447.139	759.54
447.513	789.82
447.887	771.75
448.262	779.65
448.636	782.14
449.01	795.47
449.384	795.02
449.758	779.65
450.132	790.95
450.506	804.29
450.88	826.43
451.254	817.85
451.628	811.52
452.002	850.61
452.376	820.11
452.75	850.39
453.123	844.06
453.497	860.1
453.871	856.71
454.244	872.76
454.618	902.82
454.992	889.71
455.365	889.48
455.739	927.45
456.112	912.98
456.486	915.24
456.859	923.15
457.232	949.14
457.606	953.44
457.979	964.96
458.352	976.03
458.725	1020.55
459.099	996.6
459.472	1024.62
459.845	1035.24
460.218	1051.74
460.591	1023.94
460.964	1028.01
461.337	1063.04
461.71	1097.84
462.083	1064.62
462.456	1088.35
462.829	1123.6
463.201	1118.4
463.574	1123.83
463.947	1164.73
464.32	1181.9
464.692	1200.21
465.065	1223.03
465.438	1209.25
465.81	1225.74
466.183	1241.56
466.555	1258.29
466.928	1281.79
467.3	1278.85
467.672	1304.84
468.045	1356.81
468.417	1371.05
468.789	1359.53
469.161	1378.28
469.534	1418.96
469.906	1449.47
470.278	1429.36
470.65	1474.55
471.022	1533.31
471.394	1539.18
471.766	1577.37
472.138	1611.95
472.51	1610.82
472.882	1688.33
473.253	1722.23
473.625	1713.42
473.997	1753.19
474.369	1809.46
474.74	1847.65
475.112	1861.43
475.484	1924.03
475.855	1948.21
476.227	2023.69
476.598	2066.63
476.97	2121.77
477.341	2143.23
477.713	2231.14
478.084	2258.71
478.455	2340.97
478.827	2374.41
479.198	2479.95
479.569	2509.1
479.94	2613.73
480.311	2630.23
480.682	2767.85
481.053	2786.83
481.424	2949.77
481.795	2996.77
482.166	3076.54
482.537	3110.21
482.908	3251.68
483.279	3354.95
483.65	3418.23
484.021	3510.43
484.391	3648.96
484.762	3693.48
485.133	3789.97
485.503	3901.38
485.874	4066.12
486.244	4105.89
486.615	4226.8
486.985	4330.52
487.356	4493.46
487.726	4553.34
488.097	4701.81
488.467	4796.27
488.837	5000.56
489.207	5107.9
489.578	5225.41
489.948	5334.56
490.318	5472.19
490.688	5555.8
491.058	5728
491.428	5908.33
491.798	6025.62
492.168	6187.87
492.538	6266.52
492.908	6454.31
493.278	6604.59
493.648	6661.53
494.017	6847.29
494.387	7034.63
494.757	7115.08
495.126	7304
495.496	7372.93
495.866	7535.64
496.235	7678.46
496.605	7840.03
496.974	7941.95
497.344	8103.76
497.713	8264.66
498.082	8344.88
498.452	8482.28
498.821	8600.69
499.19	8733.34
499.559	8891.31
499.928	9096.72
500.298	9133.79
500.667	9305.53
501.036	9315.48
501.405	9481.57
501.774	9591.85
502.143	9735.8
502.512	9739.42
502.88	9922.92
503.249	10041.78
503.618	10162.91
503.987	10224.83
504.356	10423.24
504.724	10549.34
505.093	10615.55
505.462	10752.5
505.83	10892.38
506.199	10996.79
506.567	11160.85
506.936	11175.77
507.304	11362.43
507.672	11484.68
508.041	11554.96
508.409	11642.87
508.777	11826.6
509.145	11880.61
509.514	11991.56
509.882	12054.39
510.25	12185.23
510.618	12256.87
510.986	12424.09
511.354	12550.87
511.722	12685.56
512.09	12755.16
512.458	12752
512.826	12868.15
513.193	12995.38
513.561	13044.19
513.929	13185.88
514.297	13333.45
514.664	13400.79
515.032	13420
515.4	13669.03
515.767	13695.93
516.135	13824.06
516.502	13717.17
516.869	14024.5
517.237	14109.47
517.604	14081.45
517.972	14229.02
518.339	14315.34
518.706	14334.78
519.073	14343.37
519.44	14580.65
519.808	14739.06
520.175	14625.17
520.542	14852.73
520.909	15038.49
521.276	15002.56
521.643	15120.97
522.009	15197.58
522.376	15327.75
522.743	15351.7
523.11	15576.78
523.477	15653.84
523.843	15728.19
524.21	15848.41
524.577	15996.43
524.943	16040.5
525.31	16125.24
525.676	16290.89
526.043	16304.67
526.409	16377.89
526.776	16462.41
527.142	16536.3
527.508	16618.11
527.874	16728.61
528.241	16842.96
528.607	16838.22
528.973	16987.14
529.339	16934.48
529.705	17062.62
530.071	17189.39
530.437	17197.75
530.803	17356.39
531.169	17351.2
531.535	17341.48
531.901	17387.81
532.267	17505.77
532.632	17586.22
532.998	17613.79
533.364	17707.12
533.73	17660.57
534.095	17840
534.461	17774.24
534.826	17906.89
535.192	17868.92
535.557	18034.79
535.923	17989.37
536.288	18007.68
536.653	18082.93
537.019	17976.26
537.384	18096.71
537.749	18144.17
538.114	18174.45
538.479	18088.13
538.845	18224.39
539.21	18365.41
539.575	18331.96
539.94	18296.93
540.305	18383.49
540.67	18349.81
541.034	18374.9
541.399	18477.27
541.764	18379.64
542.129	18386.88
542.494	18490.83
542.858	18517.27
543.223	18496.48
543.587	18580.77
543.952	18592.52
544.316	18464.84
544.681	18573.99
545.045	18595.01
545.41	18573.31
545.774	18743.48
546.138	18584.38
546.503	18783.48
546.867	18736.7
547.231	18799.07
547.595	18783.25
547.959	18837.48
548.324	18879.29
548.688	18840.2
549.052	18764.27
549.416	18879.52
549.779	18792.06
550.143	18857.37
550.507	18917.71
550.871	19034.99
551.235	18879.07
551.599	19114.77
551.962	19015.11
552.326	19047.87
552.689	19060.53
553.053	19000.19
553.417	19079.51
553.78	19246.29
554.143	19159.28
554.507	19207.42
554.87	19179.85
555.234	19323.12
555.597	19152.5
555.96	19248.55
556.323	19308.43
556.686	19361.09
557.05	19458.26
557.413	19543
557.776	19464.81
558.139	19630.01
558.502	19623
558.865	19672.27
559.228	19702.32
559.59	19764.24
559.953	19785.93
560.316	19856.22
560.679	19858.7
561.041	20005.14
561.404	19890.34
561.767	20097.79
562.129	20091.01
562.492	20225.25
562.854	20185.92
563.217	20209.65
563.579	20326.71
563.941	20366.26
564.304	20382.3
564.666	20549.08
565.028	20595.86
565.39	20548.4
565.753	20662.07
566.115	20635.63
566.477	20655.97
566.839	20810.99
567.201	20862.97
567.563	20800.37
567.925	20933.25
568.287	21095.96
568.648	21041.49
569.01	21132.34
569.372	21244.2
569.734	21123.75
570.095	21227.25
570.457	21385.44
570.819	21427.47
571.18	21326.01
571.542	21423.18
571.903	21556.74
572.265	21551.31
572.626	21447.36
572.987	21634.93
573.349	21623.4
573.71	21758.76
574.071	21731.65
574.432	21780.01
574.794	21895.94
575.155	21836.5
575.516	21800.12
575.877	21981.81
576.238	21964.18
576.599	22036.04
576.96	22036.5
577.32	22052.09
577.681	22074.69
578.042	22200.33
578.403	22142.26
578.763	22219.32
579.124	22296.38
579.485	22230.39
579.845	22280.33
580.206	22261.58
580.566	22193.33
580.927	22311.07
581.287	22242.14
581.648	22290.28
582.008	22316.49
582.368	22319.88
582.728	22423.38
583.089	22327.34
583.449	22373.66
583.809	22421.8
584.169	22464.51
584.529	22314.68
584.889	22377.5
585.249	22295.02
585.609	22290.05
585.969	22370.95
586.329	22284.17
586.688	22437.62
587.048	22304.96
587.408	22294.8
587.768	22382.48
588.127	22407.33
588.487	22264.06
588.846	22452.53
589.206	22290.73
589.565	22352.87
589.925	22471.06
590.284	22310.61
590.643	22359.2
591.003	22418.18
591.362	22485.52
591.721	22311.74
592.08	22417.5
592.44	22429.71
592.799	22401.46
593.158	22363.49
593.517	22347
593.876	22394.91
594.235	22437.16
594.593	22248.02
594.952	22510.83
595.311	22310.84
595.67	22420.44
596.029	22462.25
596.387	22397.39
596.746	22514.9
597.104	22466.54
597.463	22425.19
597.822	22430.84
598.18	22395.13
598.538	22469.25
598.897	22524.39
599.255	22499.08
599.613	22672.64
599.972	22569.82
600.33	22616.37
600.688	22452.76
601.046	22563.04
601.404	22559.19
601.762	22550.38
602.12	22708.8
602.478	22649.59
602.836	22557.16
603.194	22502.93
603.552	22607.33
603.91	22537.27
604.268	22614.11
604.625	22564.62
604.983	22615.01
605.341	22599.65
605.698	22640.1
606.056	22630.61
606.413	22709.02
606.771	22790.15
607.128	22786.08
607.485	22705.18
607.843	22746.99
608.2	22777.72
608.557	22926.87
608.914	22914.44
609.272	23015.91
609.629	23053.19
609.986	23069.69
610.343	22942.91
610.7	23063.59
611.057	23046.64
611.414	23118.5
611.771	23234.43
612.127	23243.92
612.484	23141.55
612.841	23323.92
613.198	23259.74
613.554	23198.27
613.911	23359.85
614.267	23351.94
614.624	23258.39
614.98	23467.19
615.337	23431.26
615.693	23412.73
616.05	23414.99
616.406	23634.19
616.762	23579.51
617.118	23569.79
617.475	23464.71
617.831	23553.75
618.187	23632.39
618.543	23733.85
618.899	23690.46
619.255	23725.94
619.611	23641.2
619.967	23740.86
620.323	23863.12
620.678	23734.76
621.034	23614.53
621.39	23620.64
621.746	23643.23
622.101	23967.07
622.457	23813.4
622.812	23843
623.168	23905.37
623.523	23770.69
623.879	23896.33
624.234	23757.81
624.589	23843.68
624.945	23830.35
625.3	23821.99
625.655	23863.12
626.01	23913.96
626.365	23888.65
626.72	23913.51
627.075	23786.73
627.43	23847.3
627.785	23827.64
628.14	23993.06
628.495	23920.97
628.85	23882.78
629.205	23857.92
629.559	23951.47
629.914	23781.31
630.269	23784.7
630.623	23775.89
630.978	23722.78
631.332	23884.58
631.687	23928.2
632.041	23808.65
632.396	23786.51
632.75	23749.67
633.104	23822.44
633.459	23662.44
633.813	23777.69
634.167	23733.63
634.521	23747.19
634.875	23702.89
635.229	23658.6
635.583	23498.83
635.937	23570.47
636.291	23539.96
636.645	23536.8
636.999	23625.38
637.352	23538.38
637.706	23392.85
638.06	23661.09
638.413	23406.86
638.767	23333.64
639.121	23381.77
639.474	23268.78
639.828	23371.38
640.181	23314.43
640.534	23385.84
640.888	23415.9
641.241	23127.09
641.594	23277.82
641.947	23273.98
642.301	23256.35
642.654	23202.12
643.007	23241.66
643.36	23226.07
643.713	23106.98
644.066	23206.18
644.419	23167.09
644.771	23016.81
645.124	22743.37
645.477	22747.44
645.83	22668.12
646.182	22579.08
646.535	22434
646.888	22510.83
647.24	22305.87
647.593	22451.4
647.945	22422.25
648.298	22389.71
648.65	22305.42
649.002	22271.52
649.355	22360.78
649.707	22281.24
650.059	22321.91
650.411	22689.59
650.763	22763.26
651.115	22908.11
651.467	22880.77
651.819	22880.32
652.171	22797.15
652.523	22748.79
652.875	22728.23
653.227	22673.77
653.578	22893.42
653.93	22812.07
654.282	22775.01
654.633	22644.16
654.985	22700.89
655.337	22734.78
655.688	22751.73
656.039	22733.43
656.391	22626.09
656.742	22694.56
657.094	22677.16
657.445	22808
657.796	22714.45
658.147	22723.94
658.498	22707.67
658.849	22793.31
659.2	22734.11
659.551	22679.42
659.902	22716.25
660.253	22754.44
660.604	22711.28
660.955	22715.58
661.306	22748.12
661.656	22586.99
662.007	22662.7
662.358	22801.67
662.708	22759.42
663.059	22691.62
663.409	22622.47
663.76	22727.33
664.11	22757.38
664.461	22788.57
664.811	22695.91
665.161	22734.33
665.511	22631.51
665.862	22714.45
666.212	22809.13
666.562	22776.82
666.912	22695.91
667.262	22757.83
667.612	22711.28
667.962	22810.04
668.312	22783.14
668.662	22934.55
669.011	22786.08
669.361	22704.28
669.711	22692.07
670.06	22664.28
670.41	22592.41
670.76	22555.58
671.109	22698.63
671.459	22649.14
671.808	22624.96
672.157	22662.02
672.507	22563.49
672.856	22552.42
673.205	22605.52
673.554	22595.8
673.904	22480.33
674.253	22645.75
674.602	22460.67
674.951	22177.96
675.3	22059.77
675.649	22469.48
675.998	22437.62
676.346	22492.3
676.695	22471.51
677.044	22381.8
677.393	22354.23
677.741	22315.36
678.09	22398.07
678.438	22302.93
678.787	22363.95
679.135	22294.12
679.484	22187
679.832	22181.35
680.181	22076.72
680.529	22233.55
680.877	22095.03
681.225	22022.03
681.573	22175.7
681.922	22016.84
682.27	22024.07
682.618	22046.67
682.966	21963.28
683.314	21980.45
683.661	21918.53
684.009	21796.73
684.357	21786.56
684.705	21724.19
685.053	21684.87
685.4	21628.82
685.748	21626.79
686.095	21568.26
686.443	21502.73
686.79	21395.38
687.138	21513.12
687.485	21453.24
687.832	21398.55
688.18	21409.85
688.527	21242.62
688.874	21302.73
689.221	21164.43
689.568	21035.62
689.915	20979.8
690.262	21043.98
690.609	20969.86
690.956	20990.65
691.303	20790.43
691.65	20825.23
691.997	20792.46
692.344	20668.17
692.69	20659.81
693.037	20636.53
693.383	20398.12
693.73	20425.01
694.077	20472.47
694.423	20428.63
694.769	20269.99
695.116	20232.7
695.462	20175.53
695.808	20163.55
696.155	20129.88
696.501	20011.47
696.847	19968.53
697.193	19775.99
697.539	19888.76
697.885	19710.68
698.231	19689.89
698.577	19641.76
698.923	19611.02
699.269	19482.67
699.614	19419.16
699.96	19347.3
700.306	19324.03
700.651	19375.1
700.997	19180.53
701.342	19123.13
701.688	19120.64
702.033	19059.85
702.379	19006.29
702.724	18891.27
703.069	19036.58
703.415	18804.04
703.76	18761.55
704.105	18769.01
704.45	18737.6
704.795	18651.95
705.14	18489.47
705.485	18513.88
705.83	18415.8
706.175	18429.36
706.52	18377.84
706.865	18325.41
707.209	18230.5
707.554	18276.14
707.899	18245.18
708.243	18138.29
708.588	18019.65
708.932	17971.07
709.277	17952.31
709.621	17909.83
709.966	17843.61
710.31	17872.09
710.654	17780.34
710.998	17714.8
711.342	17848.36
711.687	17722.71
712.031	17657.63
712.375	17571.98
712.719	17654.69
713.063	17503.51
713.407	17628.48
713.75	17520.23
714.094	17448.82
714.438	17268.94
714.782	17367.02
715.125	17320.01
715.469	17248.83
715.812	17225.55
716.156	17143.52
716.499	17097.87
716.843	17128.15
717.186	17014.48
717.53	17059.23
717.873	17114.59
718.216	17039.57
718.559	16939
718.902	16829.85
719.246	16852.9
719.589	16872.79
719.932	16827.14
720.275	16793.7
720.617	16823.75
720.96	16803.87
721.303	16853.81
721.646	16826.92
721.989	16723.64
722.331	16769.52
722.674	16594.15
723.016	16591.67
723.359	16669.18
723.701	16571.78
724.044	16496.98
724.386	16504.89
724.729	16536.98
725.071	16485.91
725.413	16527.72
725.755	16494.95
726.097	16387.61
726.439	16405.68
726.782	16451.78
727.124	16459.24
727.465	16322.52
727.807	16299.02
728.149	16326.82
728.491	16321.39
728.833	16357.32
729.175	16239.36
729.516	16231.45
729.858	16174.96
730.199	16263.32
730.541	16195.07
730.882	16128.63
731.224	16202.98
731.565	16073.72
731.906	16188.52
732.248	16149.42
732.589	16031.68
732.93	16044.34
733.271	16104.22
733.612	16129.76
733.953	16112.36
734.294	16027.62
734.635	16031.68
734.976	16072.13
735.317	15915.3
735.658	15970.89
735.999	16008.18
736.339	15994.4
736.68	16059.7
737.021	15956.88
737.361	15904.68
737.702	16013.83
738.042	16056.09
738.383	15989.2
738.723	15973.38
739.063	15970.22
739.404	15980.16
739.744	15960.72
740.084	15852.93
740.424	16014.73
740.764	15857
741.104	15965.47
741.444	15867.62
741.784	15904.68
742.124	15898.13
742.464	15951.01
742.804	15988.29
743.143	15953.94
743.483	15924.12
743.823	15999.82
744.162	15937.22
744.502	16039.37
744.841	15967.96
745.181	16164.56
745.52	16054.28
745.86	16153.94
746.199	16009.08
746.538	16096.54
746.877	16185.58
747.216	16260.6
747.556	16263.09
747.895	16208.85
748.234	16294.27
748.573	16250.21
748.911	16329.53
749.25	16380.6
749.589	16334.73
749.928	16482.74
750.267	16533.59
750.605	16493.59
750.944	16523.87
751.283	16583.53
751.621	16661.5
751.96	16630.31
752.298	16654.04
752.636	16736.52
752.975	16837.31
753.313	16802.74
753.651	16990.53
753.989	16984.88
754.327	17100.81
754.666	16992.11
755.004	17119.11
755.342	17213.12
755.679	17313.91
756.017	17227.58
756.355	17539.67
756.693	17418.99
757.031	17668.93
