Data from hue_310_FLMS001491_88.txt Node
Date: Mon Feb 06 15:50:20 GMT 2017
User: dcchb
Spectrometer: FLMS00149
Trigger mode: 0
Integration Time (sec): 2.000000E-2
Scans to average: 10
Electric dark correction enabled: true
Nonlinearity correction enabled: false
Boxcar width: 0
XAxis mode: Wavelengths
Number of Pixels in Spectrum: 2048
>>>>>Begin Spectral Data<<<<<
341.393	-12.54
341.776	-12.54
342.16	-12.54
342.543	-69.72
342.927	-69.49
343.31	-51.41
343.693	-78.53
344.077	-73.33
344.46	-62.26
344.843	-59.09
345.226	-57.06
345.61	-8.47
345.993	-20.45
346.376	-2.6
346.759	20.45
347.142	23.39
347.525	46.89
347.908	45.76
348.291	84.4
348.674	83.95
349.057	108.36
349.44	135.25
349.823	141.35
350.206	176.83
350.588	183.16
350.971	216.83
351.354	216.38
351.737	223.84
352.119	264.74
352.502	248.92
352.884	284.85
353.267	272.65
353.65	292.08
354.032	302.93
354.414	310.39
354.797	329.37
355.179	306.09
355.562	322.36
355.944	337.96
356.326	348.13
356.709	331.4
357.091	345.87
357.473	338.41
357.855	360.1
358.238	344.96
358.62	349.26
359.002	329.6
359.384	339.99
359.766	347.45
360.148	349.93
360.53	360.33
360.912	357.17
361.294	332.76
361.676	331.18
362.057	332.08
362.439	335.47
362.821	345.19
363.203	331.18
363.584	319.2
363.966	328.01
364.348	321.46
364.729	345.41
365.111	328.24
365.493	320.78
365.874	320.33
366.256	313.1
366.637	310.61
367.019	313.33
367.4	319.43
367.781	330.5
368.163	308.81
368.544	313.78
368.925	318.75
369.306	318.97
369.688	332.31
370.069	313.1
370.45	320.33
370.831	318.75
371.212	309.26
371.593	326.43
371.974	334.57
372.355	321.46
372.736	312.65
373.117	318.75
373.498	331.18
373.879	309.94
374.26	321.23
374.641	315.81
375.021	325.3
375.402	323.49
375.783	319.2
376.163	339.99
376.544	316.04
376.925	334.79
377.305	329.14
377.686	309.94
378.066	333.66
378.447	323.95
378.827	349.93
379.208	336.83
379.588	344.74
379.968	319.43
380.349	328.24
380.729	353.1
381.109	333.44
381.489	344.06
381.87	353.32
382.25	351.29
382.63	366.43
383.01	351.29
383.39	346.32
383.77	336.38
384.15	356.49
384.53	349.71
384.91	354.23
385.29	374.57
385.67	341.8
386.049	360.56
386.429	364.62
386.809	363.72
387.189	349.71
387.568	362.59
387.948	364.85
388.328	359.2
388.707	358.07
389.087	371.85
389.466	367.11
389.846	374.34
390.225	382.25
390.605	361.01
390.984	367.79
391.363	371.4
391.743	354.45
392.122	383.61
392.501	363.27
392.881	375.02
393.26	377.73
393.639	389.26
394.018	395.36
394.397	400.1
394.776	393.32
395.155	396.71
395.534	382.93
395.913	378.18
396.292	378.18
396.671	401.46
397.05	395.13
397.429	407.11
397.808	406.66
398.186	387.45
398.565	418.18
398.944	383.61
399.323	405.75
399.701	424.51
400.08	401.68
400.458	405.07
400.837	424.06
401.215	411.18
401.594	421.8
401.972	446.43
402.351	410.5
402.729	428.35
403.107	417.73
403.486	448.91
403.864	441.68
404.242	433.32
404.62	456.15
404.999	441.23
405.377	467.22
405.755	463.38
406.133	446.43
406.511	465.19
406.889	476.71
407.267	489.14
407.645	490.72
408.023	467.45
408.401	479.65
408.779	502.92
409.156	514
409.534	489.14
409.912	525.3
410.29	517.39
410.667	538.63
411.045	526.43
411.422	534.56
411.8	547.9
412.178	539.99
412.555	553.09
412.933	549.25
413.31	575.01
413.687	563.26
414.065	583.6
414.442	608.68
414.819	591.06
415.197	605.07
415.574	618.63
415.951	624.5
416.328	625.41
416.705	624.73
417.082	629.7
417.46	640.55
417.837	657.27
418.214	680.55
418.591	676.93
418.967	666.99
419.344	677.38
419.721	702.02
420.098	689.59
420.475	723.71
420.852	728.68
421.228	707.44
421.605	723.94
421.982	751.96
422.358	763.48
422.735	740.21
423.111	784.5
423.488	771.39
423.864	789.7
424.241	789.24
424.617	786.53
424.994	783.14
425.37	829.7
425.746	836.02
426.123	839.86
426.499	831.96
426.875	859.07
427.251	859.98
427.627	880.54
428.003	894.78
428.379	879.19
428.756	902.01
429.132	932.07
429.507	930.94
429.883	938.17
430.259	961.67
430.635	952.86
431.011	970.93
431.387	987.66
431.763	990.6
432.138	988.34
432.514	998.73
432.89	1022.23
433.265	1055.23
433.641	1057.94
434.016	1064.72
434.392	1064.72
434.767	1093.42
435.143	1074.89
435.518	1111.72
435.894	1116.24
436.269	1139.52
436.644	1137.48
437.02	1161.44
437.395	1179.07
437.77	1188.56
438.145	1175.68
438.52	1202.12
438.895	1209.35
439.271	1198.05
439.646	1234.2
440.021	1220.65
440.395	1225.17
440.77	1226.97
441.145	1255.22
441.52	1263.81
441.895	1277.37
442.27	1285.5
442.645	1305.84
443.019	1292.51
443.394	1300.64
443.769	1307.65
444.143	1295.22
444.518	1362.34
444.892	1333.86
445.267	1337.03
445.641	1321.43
446.016	1370.92
446.39	1353.52
446.764	1343.81
447.139	1364.6
447.513	1374.77
447.887	1378.16
448.262	1348.78
448.636	1384.03
449.01	1384.94
449.384	1422.67
449.758	1392.84
450.132	1396.91
450.506	1394.43
450.88	1406.63
451.254	1396.91
451.628	1429.45
452.002	1459.51
452.376	1450.02
452.75	1462
453.123	1459.51
453.497	1469.23
453.871	1508.55
454.244	1528.21
454.618	1491.83
454.992	1532.05
455.365	1552.16
455.739	1542.22
456.112	1567.98
456.486	1566.63
456.859	1574.08
457.232	1608.21
457.606	1584.03
457.979	1615.66
458.352	1620.64
458.725	1662.67
459.099	1649.56
459.472	1672.39
459.845	1668.54
460.218	1682.78
460.591	1717.36
460.964	1713.97
461.337	1722.55
461.71	1738.6
462.083	1757.35
462.456	1774.98
462.829	1772.72
463.201	1787.18
463.574	1812.49
463.947	1816.34
464.32	1872.38
464.692	1840.06
465.065	1872.38
465.438	1870.8
465.81	1871.93
466.183	1924.13
466.555	1939.72
466.928	1943.56
467.3	1979.27
467.672	1964.58
468.045	1998.25
468.417	2013.39
468.789	2013.39
469.161	2032.83
469.534	2054.3
469.906	2100.85
470.278	2112.15
470.65	2135.65
471.022	2165.25
471.394	2136.55
471.766	2151.47
472.138	2200.06
472.51	2223.56
472.882	2272.14
473.253	2274.4
473.625	2288.19
473.997	2349.66
474.369	2348.75
474.74	2367.28
475.112	2385.81
475.484	2435.76
475.855	2469.2
476.227	2445.25
476.598	2504.68
476.97	2512.59
477.341	2563.44
477.713	2569.76
478.084	2561.63
478.455	2612.7
478.827	2686.6
479.198	2715.75
479.569	2732.24
479.94	2767.05
480.311	2758.46
480.682	2840.49
481.053	2861.51
481.424	2902.86
481.795	2926.14
482.166	2962.07
482.537	2947.15
482.908	3020.6
483.279	3040.03
483.65	3086.81
484.021	3123.87
484.391	3156.41
484.762	3192.12
485.133	3205.45
485.503	3224.66
485.874	3249.29
486.244	3299.24
486.615	3320.25
486.985	3360.7
487.356	3435.05
487.726	3445.67
488.097	3457.65
488.467	3496.29
488.837	3542.84
489.207	3553.92
489.578	3625.1
489.948	3651.32
490.318	3692.9
490.688	3690.86
491.058	3752.78
491.428	3789.62
491.798	3837.3
492.168	3851.54
492.538	3839.79
492.908	3899.22
493.278	3936.51
493.648	3957.07
494.017	4010.18
494.387	4001.14
494.757	4005.66
495.126	4093.34
495.496	4069.84
495.866	4055.83
496.235	4167.46
496.605	4174.69
496.974	4178.99
497.344	4193.45
497.713	4230.51
498.082	4225.54
498.452	4312.54
498.821	4303.95
499.19	4321.58
499.559	4315.93
499.928	4354.35
500.298	4361.81
500.667	4388.7
501.036	4371.98
501.405	4428.47
501.774	4457.62
502.143	4419.21
502.512	4494.91
502.88	4485.19
503.249	4510.73
503.618	4496.72
503.987	4509.82
504.356	4499.88
504.724	4524.74
505.093	4601.35
505.462	4628.01
505.83	4652.87
506.199	4673.89
506.567	4681.8
506.936	4710.27
507.304	4726.99
507.672	4764.96
508.041	4777.16
508.409	4809.93
508.777	4837.05
509.145	4828.91
509.514	4795.24
509.882	4842.7
510.25	4835.47
510.618	4846.54
510.986	4856.03
511.354	4912.3
511.722	4983.03
512.09	4979.19
512.458	4959.98
512.826	4998.85
513.193	4986.87
513.561	4995.46
513.929	5028
514.297	5068.68
514.664	5110.49
515.032	5105.06
515.4	5103.93
515.767	5139.41
516.135	5133.99
516.502	5090.83
516.869	5198.39
517.237	5180.32
517.604	5170.37
517.972	5205.17
518.339	5183.48
518.706	5233.65
519.073	5282.91
519.44	5275
519.808	5269.13
520.175	5267.55
520.542	5373.31
520.909	5404.26
521.276	5327.43
521.643	5429.35
522.009	5408.56
522.376	5464.83
522.743	5444.26
523.11	5497.14
523.477	5517.26
523.843	5571.49
524.21	5545.28
524.577	5645.61
524.943	5634.54
525.31	5669.79
525.676	5682.22
526.043	5706.63
526.409	5710.25
526.776	5769.45
527.142	5755.44
527.508	5802.67
527.874	5825.27
528.241	5889.22
528.607	5815.33
528.973	5943.46
529.339	5935.55
529.705	6015.32
530.071	6025.04
530.437	6030.24
530.803	6111.59
531.169	6107.07
531.535	6121.53
531.901	6167.86
532.267	6190.01
532.632	6168.54
532.998	6176.9
533.364	6218.03
533.73	6205.6
534.095	6331.02
534.461	6315.65
534.826	6314.07
535.192	6352.04
535.557	6408.76
535.923	6415.54
536.288	6494.41
536.653	6479.94
537.019	6444.92
537.384	6521.75
537.749	6547.96
538.114	6571.92
538.479	6564.69
538.845	6662.08
539.21	6632.48
539.575	6673.38
539.94	6655.08
540.305	6747.28
540.67	6764.23
541.034	6767.39
541.399	6800.39
541.764	6796.77
542.129	6884.45
542.494	6898.46
542.858	6940.95
543.223	6924.45
543.587	6966.71
543.952	6969.2
544.316	7061.62
544.681	7004.45
545.045	7069.31
545.41	7140.49
545.774	7166.7
546.138	7167.38
546.503	7175.52
546.867	7222.75
547.231	7237.89
547.595	7328.96
547.959	7322.63
548.324	7270.43
548.688	7337.77
549.052	7402.18
549.416	7334.38
549.779	7426.36
550.143	7403.31
550.507	7449.86
550.871	7453.93
551.235	7493.02
551.599	7566.02
551.962	7555.85
552.326	7567.6
552.689	7623.19
553.053	7534.6
553.417	7615.05
553.78	7769.4
554.143	7655.05
554.507	7721.72
554.87	7731.44
555.234	7751.77
555.597	7727.59
555.96	7800.59
556.323	7818.66
556.686	7824.77
557.05	7928.49
557.413	7925.55
557.776	7875.16
558.139	8003.29
558.502	7959.45
558.865	7974.59
559.228	8071.99
559.59	8065.89
559.953	8057.53
560.316	8129.16
560.679	8101.37
561.041	8187.92
561.404	8217.3
561.767	8249.61
562.129	8213
562.492	8276.51
562.854	8238.09
563.217	8314.47
563.579	8359.22
563.941	8375.49
564.304	8406.22
564.666	8412.55
565.028	8495.71
565.39	8434.92
565.753	8490.06
566.115	8458.87
566.477	8555.37
566.839	8552.2
567.201	8600.56
567.563	8664.97
567.925	8628.81
568.287	8693.44
568.648	8713.78
569.01	8766.21
569.372	8807.11
569.734	8770.96
570.095	8797.85
570.457	8888.47
570.819	8932.99
571.18	8941.57
571.542	9049.82
571.903	9009.14
572.265	9187.22
572.626	9161.45
572.987	9181.79
573.349	9264.28
573.71	9257.5
574.071	9313.09
574.432	9451.84
574.794	9439.19
575.155	9610.93
575.516	9502.46
575.877	9579.3
576.238	9723.02
576.599	9774.77
576.96	9796.47
577.32	9910.13
577.681	10066.06
578.042	10101.54
578.403	10197.36
578.763	10306.51
579.124	10395.32
579.485	10519.16
579.845	10666.27
580.206	10714.63
580.566	10893.84
580.927	10969.32
581.287	11169.76
581.648	11211.8
582.008	11388.51
582.368	11550.54
582.728	11686.13
583.089	11845.68
583.449	12051.32
583.809	12208.15
584.169	12382.16
584.529	12541.48
584.889	12884.97
585.249	12951.18
585.609	13105.08
585.969	13427.1
586.329	13581.9
586.688	13836.59
587.048	14102.79
587.408	14280.87
587.768	14480.18
588.127	14749.33
588.487	15002.2
588.846	15341.86
589.206	15536.43
589.565	15839.02
589.925	16152.23
590.284	16323.98
590.643	16676.51
591.003	16954.92
591.362	17229.49
591.721	17581.12
592.08	17783.6
592.44	18091.61
592.799	18432.4
593.158	18728.21
593.517	19090.68
593.876	19275.31
594.235	19599.37
594.593	19912.58
594.952	20294.72
595.311	20466.69
595.67	20947.36
596.029	21213.34
596.387	21623.95
596.746	22056.71
597.104	22046.31
597.463	22512.29
597.822	22862.34
598.18	23021.65
598.538	23244.7
598.897	23785.25
599.255	23915.19
599.613	24477.44
599.972	24693.02
600.33	25005.78
600.688	25180.69
601.046	25544.3
601.404	26010.05
601.762	26069.03
602.12	26568.23
602.478	26797.37
602.836	27175.22
603.194	27342.67
603.552	27574.3
603.91	27729.33
604.268	28222.87
604.625	28355.3
604.983	28773.14
605.341	28899.92
605.698	29305.78
606.056	29638.2
606.413	29841.36
606.771	30194.12
607.128	30407.45
607.485	30517.05
607.843	30629.59
608.2	31108
608.557	31350.7
608.914	31553.86
609.272	31927.41
609.629	32109.33
609.986	32451.01
610.343	32494.17
610.7	32835.63
611.057	33004.22
611.414	33257.09
611.771	33451.89
612.127	33710.19
612.484	34012.33
612.841	34154.92
613.198	34234.69
613.554	34427.23
613.911	34758.97
614.267	34925.3
614.624	35059.3
614.98	35092.52
615.337	35518.28
615.693	35527.09
616.05	35638.95
616.406	36139.5
616.762	36085.04
617.118	36212.04
617.475	36301.31
617.831	36687.96
618.187	36745.81
618.543	37042.3
618.899	37209.98
619.255	37244.33
619.611	37330.43
619.967	37605.9
620.323	37761.83
620.678	37761.15
621.034	37795.5
621.39	37897.42
621.746	38109.17
622.101	38511.19
622.457	38360.91
622.812	38484.52
623.168	38645.42
623.523	38665.31
623.879	38926.1
624.234	38824.18
624.589	38954.79
624.945	38936.94
625.3	39229.36
625.655	39211.74
626.01	39344.16
626.365	39373.32
626.72	39561.56
627.075	39397.5
627.43	39586.19
627.785	39627.09
628.14	39707.54
628.495	39859.4
628.85	39851.49
629.205	39713.87
629.559	40032.05
629.914	39869.57
630.269	40106.4
630.623	39942.79
630.978	39840.87
631.332	40234.31
631.687	40521.08
632.041	40105.5
632.396	40300.3
632.75	40082.67
633.104	40204.03
633.459	40153.41
633.813	40080.87
634.167	40173.29
634.521	40354.76
634.875	40312.73
635.229	40283.8
635.583	40104.37
635.937	40229.56
636.291	40236.12
636.645	40390.69
636.999	40201.99
637.352	40299.62
637.706	40214.65
638.06	40385.27
638.413	40282.22
638.767	40215.78
639.121	40230.02
639.474	40056.69
639.828	40129
640.181	40144.59
640.534	40257.59
640.888	40234.54
641.241	40114.31
641.594	40215.1
641.947	40257.59
642.301	40167.87
642.654	40258.04
643.007	40221.65
643.36	40156.35
643.713	40129.68
644.066	40226.17
644.419	40056.69
644.771	39741.89
645.124	39449.25
645.477	39506.64
645.83	39196.14
646.182	39145.98
646.535	38943.95
646.888	39032.08
647.24	38706.44
647.593	38887.23
647.945	38941.01
648.298	38809.26
648.65	38704.86
649.002	38621.92
649.355	38957.28
649.707	38801.8
650.059	39000.44
650.411	39332.86
650.763	39442.92
651.115	39872.74
651.467	39577.83
651.819	39666.87
652.171	39547.32
652.523	39502.35
652.875	39520.88
653.227	39440.43
653.578	39648.11
653.93	39669.58
654.282	39458.96
654.633	39430.94
654.985	39368.8
655.337	39451.96
655.688	39460.54
656.039	39614.21
656.391	39226.43
656.742	39180.55
657.094	39366.99
657.445	39530.15
657.796	39440.21
658.147	39284.96
658.498	39370.15
658.849	39446.76
659.2	39289.93
659.551	39338.97
659.902	39350.04
660.253	39353.65
660.604	39368.12
660.955	39096.26
661.306	39423.94
661.656	39226.2
662.007	39215.35
662.358	39335.35
662.708	39192.98
663.059	39192.98
663.409	38963.83
663.76	39419.19
664.11	39221.68
664.461	39252.64
664.811	39196.37
665.161	39140.78
665.511	39094.45
665.862	39291.06
666.212	39236.6
666.562	39231.4
666.912	39208.12
667.262	39201.34
667.612	39133.55
667.962	39257.39
668.312	39046.54
668.662	39236.37
669.011	39188.46
669.361	39243.37
669.711	39114.79
670.06	38953.67
670.41	38864.4
670.76	38948.92
671.109	39047.67
671.459	38960.67
671.808	38979.2
672.157	39044.96
672.507	38790.51
672.856	38861.46
673.205	38845.65
673.554	39011.74
673.904	38905.76
674.253	39156.6
674.602	38827.34
674.951	38296.06
675.3	38242.05
675.649	38770.62
675.998	38712.54
676.346	38695.82
676.695	38789.83
677.044	38426
677.393	38649.04
677.741	38863.95
678.09	38590.51
678.438	38494.02
678.787	38632.32
679.135	38618.76
679.484	38354.81
679.832	38715.48
680.181	38405.66
680.529	38430.97
680.877	38225.1
681.225	38170.18
681.573	38546.44
681.922	38168.6
682.27	38117.98
682.618	38136.51
682.966	37875.95
683.314	38080.24
683.661	37990.75
684.009	37925.9
684.357	37776.07
684.705	37778.1
685.053	37549.63
685.4	37655.62
685.748	37442.74
686.095	37636.19
686.443	37425.34
686.79	37340.83
687.138	37506.92
687.485	37323.88
687.832	37303.76
688.18	37383.76
688.527	36963.66
688.874	37027.39
689.221	36976.54
689.568	36983.55
689.915	36740.16
690.262	36863.78
690.609	36666.95
690.956	36620.39
691.303	36652.93
691.65	36352.38
691.997	36392.83
692.344	36309.44
692.69	36146.28
693.037	36268.76
693.383	36056.11
693.73	36112.38
694.077	35909.45
694.423	35894.99
694.769	35700.87
695.116	35661.77
695.462	35463.14
695.808	35551.49
696.155	35563.02
696.501	35210.26
696.847	35280.54
697.193	35088.91
697.539	35277.15
697.885	34933.21
698.231	34767.33
698.577	34855.24
698.923	34830.61
699.269	34621.12
699.614	34388.59
699.96	34473.78
700.306	34453.9
700.651	34490.28
700.997	34148.14
701.342	34239.66
701.688	34075.15
702.033	34103.4
702.379	34111.08
702.724	33897.07
703.069	34031.53
703.415	33607.59
703.76	33567.37
704.105	33658.66
704.45	33498.67
704.795	33357.88
705.14	33215.51
705.485	33218
705.83	33090.09
706.175	33083.31
706.52	33088.96
706.865	32821.62
707.209	32890.32
707.554	32831.11
707.899	32903.65
708.243	32613.94
708.588	32580.27
708.932	32299.83
709.277	32306.38
709.621	32334.18
709.966	32221.86
710.31	32289.43
710.654	32089.21
710.998	32171.92
711.342	31938.48
711.687	31997.46
712.031	31827.07
712.375	31742.33
712.719	31791.59
713.063	31667.98
713.407	31745.04
713.75	31579.62
714.094	31591.37
714.438	31365.62
714.782	31535.55
715.125	31336.92
715.469	31367.2
715.812	31069.35
716.156	30999.07
716.499	31094.89
716.843	30945.06
717.186	30848.34
717.53	31011.5
717.873	31059.86
718.216	30863.48
718.559	30763.82
718.902	30631.4
719.246	30765.41
719.589	30486.99
719.932	30441.8
720.275	30562.25
720.617	30333.33
720.96	30375.36
721.303	30368.13
721.646	30378.3
721.989	30070.06
722.331	30280.22
722.674	30274.12
723.016	30250.39
723.359	30094.46
723.701	30124.74
724.044	29881.59
724.386	29793.68
724.729	29838.2
725.071	29726.56
725.413	29717.3
725.755	29780.35
726.097	29656.73
726.439	29527.47
726.782	29483.18
727.124	29607.24
727.465	29372.67
727.807	29366.8
728.149	29259.46
728.491	29353.92
728.833	29353.69
729.175	29126.35
729.516	29066.69
729.858	29019.24
730.199	29176.97
730.541	29160.93
730.882	28929.07
731.224	29154.83
731.565	28920.03
731.906	28854.27
732.248	28883.87
732.589	28771.33
732.93	28562.53
733.271	28707.61
733.612	28738.11
733.953	28715.74
734.294	28531.11
734.635	28466.03
734.976	28587.61
735.317	28386.94
735.658	28302.87
735.999	28350.33
736.339	28298.13
736.68	28337.67
737.021	28314.62
737.361	28181.07
737.702	28333.83
738.042	28176.77
738.383	28102.65
738.723	28128.19
739.063	28086.61
739.404	28081.86
739.744	27939.94
740.084	27843.45
740.424	27870.79
740.764	27861.98
741.104	27881.64
741.444	27763.45
741.784	27666.05
742.124	27748.54
742.464	27701.31
742.804	27612.04
743.143	27626.96
743.483	27636.9
743.823	27419.73
744.162	27464.7
744.502	27519.39
744.841	27294.76
745.181	27374.08
745.52	27234.2
745.86	27286.85
746.199	27206.63
746.538	27205.5
746.877	27099.51
747.216	27094.77
747.556	27093.19
747.895	27086.86
748.234	26953.75
748.573	26885.96
748.911	26863.36
749.25	26882.8
749.589	26765.28
749.928	26828.11
750.267	26786.08
750.605	26617.27
750.944	26666.76
751.283	26467.89
751.621	26654.78
751.96	26535.01
752.298	26324.62
752.636	26506.76
752.975	26163.04
753.313	26116.26
753.651	26303.83
753.989	26086.88
754.327	26029.94
754.666	25833.78
755.004	25911.52
755.342	25966.44
755.679	25853.44
756.017	25715.37
756.355	25797.17
756.693	25606.22
757.031	25727.8
757.368	25485.54
757.706	25484.19
758.044	25422.5
758.381	25499.56
758.719	25343.63
759.056	25313.35
759.394	25206.46
