Data from hue_160_FLMS001491_00079.txt Node
Date: Tue Feb 07 16:51:41 GMT 2017
User: dcchb
Spectrometer: FLMS00149
Trigger mode: 0
Integration Time (sec): 2.000000E-2
Scans to average: 10
Electric dark correction enabled: true
Nonlinearity correction enabled: false
Boxcar width: 0
XAxis mode: Wavelengths
Number of Pixels in Spectrum: 2048
>>>>>Begin Spectral Data<<<<<
341.393	-20.17
341.776	-20.17
342.16	-20.17
342.543	-64.69
342.927	-49.77
343.31	-70.79
343.693	-52.71
344.077	-37.57
344.46	-75.76
344.843	-47.51
345.226	-21.3
345.61	-49.09
345.993	-21.3
346.376	-18.59
346.759	8.3
347.142	2.88
347.525	37.68
347.908	61.86
348.291	72.94
348.674	109.77
349.057	101.18
349.44	126.27
349.823	146.61
350.206	162.43
350.588	177.57
350.971	206.49
351.354	224.8
351.737	224.57
352.119	242.65
352.502	265.02
352.884	268.64
353.267	280.61
353.65	295.3
354.032	293.04
354.414	302.99
354.797	318.81
355.179	312.03
355.562	321.29
355.944	327.62
356.326	328.52
356.709	350.44
357.091	321.74
357.473	354.96
357.855	339.14
358.238	342.99
358.62	336.66
359.002	351.57
359.384	333.95
359.766	335.08
360.148	319.26
360.53	351.35
360.912	334.62
361.294	332.59
361.676	333.72
362.057	327.39
362.439	334.17
362.821	326.71
363.203	339.6
363.584	321.52
363.966	315.87
364.348	308.64
364.729	314.51
365.111	313.61
365.493	320.16
365.874	318.58
366.256	297.56
366.637	326.94
367.019	329.88
367.4	324.91
367.781	334.17
368.163	324
368.544	300.05
368.925	309.09
369.306	328.3
369.688	304.12
370.069	335.08
370.45	331.91
370.831	314.96
371.212	317.68
371.593	301.63
371.974	327.84
372.355	312.03
372.736	304.12
373.117	300.5
373.498	322.87
373.879	311.35
374.26	345.47
374.641	316.32
375.021	328.75
375.402	321.07
375.783	334.85
376.163	307.05
376.544	317.45
376.925	322.42
377.305	328.07
377.686	324.91
378.066	321.52
378.447	330.78
378.827	314.29
379.208	334.62
379.588	342.53
379.968	335.98
380.349	336.66
380.729	306.83
381.109	343.44
381.489	324.91
381.87	346.83
382.25	344.57
382.63	337.11
383.01	347.05
383.39	339.82
383.77	336.88
384.15	337.79
384.53	369.43
384.91	336.88
385.29	347.5
385.67	338.47
386.049	346.15
386.429	368.07
386.809	340.95
387.189	359.71
387.568	354.96
387.948	357.67
388.328	358.58
388.707	361.97
389.087	368.52
389.466	386.83
389.846	354.51
390.225	380.05
390.605	352.93
390.984	349.54
391.363	373.72
391.743	384.11
392.122	380.05
392.501	346.6
392.881	372.82
393.26	376.66
393.639	367.39
394.018	383.66
394.397	379.14
394.776	380.05
395.155	389.09
395.534	394.28
395.913	387.05
396.292	382.98
396.671	390.89
397.05	378.24
397.429	387.96
397.808	369.2
398.186	390.44
398.565	394.96
398.944	397.45
399.323	411.91
399.701	403.32
400.08	409.2
400.458	399.48
400.837	413.72
401.215	406.49
401.594	387.73
401.972	397
402.351	397
402.729	433.83
403.107	411.01
403.486	426.37
403.864	420.27
404.242	415.75
404.62	426.15
404.999	408.07
405.377	410.78
405.755	418.24
406.133	434.96
406.511	425.92
406.889	423.89
407.267	422.53
407.645	441.51
408.023	430.67
408.401	469.76
408.779	453.72
409.156	451.68
409.534	440.38
409.912	453.49
410.29	451.68
410.667	459.82
411.045	453.94
411.422	462.08
411.8	458.46
412.178	459.37
412.555	478.12
412.933	490.78
413.31	496.88
413.687	474.73
414.065	500.72
414.442	493.94
414.819	488.97
415.197	481.29
415.574	473.15
415.951	519.25
416.328	506.37
416.705	506.6
417.082	514.96
417.46	514.28
417.837	523.55
418.214	510.66
418.591	511.79
418.967	526.71
419.344	546.14
419.721	553.38
420.098	529.42
420.475	548.86
420.852	550.44
421.228	549.08
421.605	554.73
421.982	572.58
422.358	549.31
422.735	564.45
423.111	555.86
423.488	556.54
423.864	580.49
424.241	574.17
424.617	586.59
424.994	587.72
425.37	592.47
425.746	601.96
426.123	602.87
426.499	624.56
426.875	615.52
427.251	623.88
427.627	637.67
428.003	633.37
428.379	619.36
428.756	640.15
429.132	627.27
429.507	649.42
429.883	665.01
430.259	671.34
430.635	662.52
431.011	649.42
431.387	659.59
431.763	675.86
432.138	701.39
432.514	671.56
432.89	696.87
433.265	707.5
433.641	715.4
434.016	723.31
434.392	722.64
434.767	737.78
435.143	724.67
435.518	744.33
435.894	747.27
436.269	770.09
436.644	750.88
437.02	761.96
437.395	771
437.77	793.14
438.145	815.06
438.52	808.06
438.895	783.88
439.271	810.32
439.646	829.98
440.021	825.23
440.395	829.98
440.77	845.12
441.145	847.83
441.52	869.98
441.895	848.96
442.27	840.6
442.645	864.55
443.019	876.3
443.394	854.38
443.769	882.86
444.143	869.75
444.518	883.54
444.892	886.25
445.267	889.41
445.641	913.59
446.016	924.21
446.39	911.56
446.764	926.7
447.139	912.46
447.513	924.21
447.887	935.96
448.262	981.61
448.636	956.3
449.01	952.69
449.384	981.84
449.758	998.34
450.132	1001.95
450.506	1002.18
450.88	1019.35
451.254	1009.63
451.628	1027.71
452.002	1050.76
452.376	1027.26
452.75	1068.84
453.123	1048.96
453.497	1067.49
453.871	1074.72
454.244	1092.57
454.618	1086.69
454.992	1094.83
455.365	1092.57
455.739	1127.82
456.112	1145.68
456.486	1150.42
456.859	1159.46
457.232	1188.84
457.606	1198.1
457.979	1207.37
458.352	1221.83
458.725	1256.18
459.099	1251.89
459.472	1272.45
459.845	1289.85
460.218	1304.77
460.591	1311.32
460.964	1352
461.337	1363.75
461.71	1378.21
462.083	1386.35
462.456	1370.75
462.829	1394.71
463.201	1483.75
463.574	1446.01
463.947	1450.98
464.32	1498.21
464.692	1527.81
465.065	1538.21
465.438	1532.56
465.81	1588.6
466.183	1573.01
466.555	1618.66
466.928	1661.37
467.3	1639.67
467.672	1698.2
468.045	1745.89
468.417	1739.78
468.789	1743.4
469.161	1815.04
469.534	1813.68
469.906	1858.2
470.278	1910.63
470.65	1920.34
471.022	1967.35
471.394	1965.54
471.766	2021.13
472.138	2055.93
472.51	2126.67
472.882	2153.33
473.253	2179.1
473.625	2246.89
473.997	2312.2
474.369	2306.55
474.74	2354.68
475.112	2454.34
475.484	2504.74
475.855	2537.05
476.227	2577.73
476.598	2670.16
476.97	2713.32
477.341	2780.21
477.713	2864.95
478.084	2893.2
478.455	2983.37
478.827	3071.73
479.198	3170.48
479.569	3246.41
479.94	3318.5
480.311	3331.16
480.682	3473.3
481.053	3591.71
481.424	3683.91
481.795	3746.06
482.166	3818.15
482.537	3920.07
482.908	4033.28
483.279	4137.69
483.65	4246.61
484.021	4362.77
484.391	4451.13
484.762	4579.03
485.133	4602.53
485.503	4732.7
485.874	4899.93
486.244	5033.71
486.615	5112.58
486.985	5203.87
487.356	5359.8
487.726	5510.99
488.097	5571.1
488.467	5685.22
488.837	5866.23
489.207	5990.29
489.578	6185.54
489.948	6222.15
490.318	6376.95
490.688	6460.34
491.058	6657.4
491.428	6757.05
491.798	6831.85
492.168	7071.17
492.538	7142.35
492.908	7242.24
493.278	7470.93
493.648	7529.01
494.017	7635.22
494.387	7726.52
494.757	7896.69
495.126	8039.96
495.496	8037.25
495.866	8225.72
496.235	8325.6
496.605	8508.42
496.974	8552.71
497.344	8674.97
497.713	8758.81
498.082	8871.57
498.452	9020.72
498.821	9000.16
499.19	9200.38
499.559	9308.85
499.928	9337.78
500.298	9467.72
500.667	9590.2
501.036	9651.44
501.405	9785.45
501.774	9731.67
502.143	9946.8
502.512	9976.63
502.88	10055.72
503.249	10086.01
503.618	10173.24
503.987	10265.66
504.356	10410.29
504.724	10470.18
505.093	10449.39
505.462	10423.85
505.83	10566.67
506.199	10699.78
506.567	10835.59
506.936	10793.11
507.304	10870.17
507.672	11002.14
508.041	11014.57
508.409	11062.25
508.777	11214.56
509.145	11242.81
509.514	11326.43
509.882	11394.67
510.25	11386.31
510.618	11438.06
510.986	11501.34
511.354	11584.95
511.722	11672.63
512.09	11787.66
512.458	11725.28
512.826	11782.01
513.193	11884.83
513.561	11849.35
513.929	11884.83
514.297	11937.48
514.664	12090.25
515.032	12079.85
515.4	12146.29
515.767	12132.05
516.135	12191.94
516.502	12094.31
516.869	12293.18
517.237	12261.09
517.604	12260.41
517.972	12373.86
518.339	12425.38
518.706	12424.7
519.073	12425.61
519.44	12491.82
519.808	12498.82
520.175	12490.01
520.542	12574.53
520.909	12751.92
521.276	12617.69
521.643	12725.94
522.009	12646.39
522.376	12709.67
522.743	12788.08
523.11	12926.61
523.477	12963.9
523.843	13002.09
524.21	13111.69
524.577	13086.83
524.943	13131.8
525.31	13080.5
525.676	13216.77
526.043	13234.85
526.409	13224.91
526.776	13180.61
527.142	13264.68
527.508	13222.87
527.874	13286.15
528.241	13341.97
528.607	13283.44
528.973	13353.94
529.339	13256.09
529.705	13421.74
530.071	13489.76
530.437	13361.4
530.803	13339.71
531.169	13476.88
531.535	13338.8
531.901	13366.37
532.267	13309.88
532.632	13384.68
532.998	13380.16
533.364	13362.98
533.73	13278.24
534.095	13386.94
534.461	13366.37
534.826	13325.02
535.192	13208.41
535.557	13365.47
535.923	13347.84
536.288	13286.15
536.653	13310.55
537.019	13217.9
537.384	13146.94
537.749	13127.06
538.114	13224
538.479	13150.11
538.845	13088.86
539.21	13083.89
539.575	13034.86
539.94	13045.7
540.305	13032.37
540.67	12931.13
541.034	13023.78
541.399	12946.04
541.764	12943.33
542.129	12866.27
542.494	12857.01
542.858	12861.98
543.223	12826.5
543.587	12820.62
543.952	12832.6
544.316	12680.97
544.681	12664.47
545.045	12625.6
545.41	12557.58
545.774	12598.26
546.138	12577.69
546.503	12529.56
546.867	12494.08
547.231	12422.44
547.595	12448.2
547.959	12447.98
548.324	12323.01
548.688	12232.39
549.052	12432.61
549.416	12247.98
549.779	12231.26
550.143	12279.39
550.507	12251.15
550.871	12200.07
551.235	12151.26
551.599	12212.5
551.962	12051.83
552.326	12102.9
552.689	12044.37
553.053	11970.93
553.417	12008.89
553.78	12156.01
554.143	11950.59
554.507	11965.05
554.87	11967.54
555.234	11967.99
555.597	11909.46
555.96	11946.97
556.323	11906.3
556.686	11868.11
557.05	11923.92
557.413	11796.02
557.776	11821.1
558.139	11885.05
558.502	11861.55
558.865	11783.36
559.228	11815.68
559.59	11873.53
559.953	11787.43
560.316	11901.78
560.679	11805.06
561.041	11895.45
561.404	11878.73
561.767	11879.63
562.129	11842.12
562.492	12019.29
562.854	11832.63
563.217	11750.14
563.579	11869.24
563.941	11911.04
564.304	11872.63
564.666	11914.21
565.028	11881.44
565.39	11989.46
565.753	11959.63
566.115	11913.08
566.477	11927.54
566.839	11888.9
567.201	11928.22
567.563	11966.63
567.925	12004.37
568.287	11961.21
568.648	11888.9
569.01	11960.98
569.372	12051.38
569.734	12014.77
570.095	12006.18
570.457	12101.09
570.819	12111.04
571.18	12086.41
571.542	12185.61
571.903	12148.78
572.265	12141.32
572.626	12160.98
572.987	12137.48
573.349	12168.21
573.71	12206.63
574.071	12172.05
574.432	12266.06
574.794	12284.82
575.155	12324.14
575.516	12223.8
575.877	12244.14
576.238	12215.89
576.599	12239.4
576.96	12305.83
577.32	12227.42
577.681	12231.49
578.042	12277.81
578.403	12233.52
578.763	12200.53
579.124	12286.63
579.485	12206.4
579.845	12286.17
580.206	12229.68
580.566	12320.52
580.927	12210.92
581.287	12303.8
581.648	12242.11
582.008	12258.6
582.368	12312.84
582.728	12236.68
583.089	12271.71
583.449	12229.68
583.809	12153.07
584.169	12216.57
584.529	12136.57
584.889	12242.79
585.249	12149.23
585.609	12189.91
585.969	12199.17
586.329	12135.22
586.688	12120.3
587.048	12190.36
587.408	12032.85
587.768	11992.85
588.127	12076.69
588.487	12046.63
588.846	12088.67
589.206	11984.49
589.565	12081.43
589.925	12078.27
590.284	12139.06
590.643	12062.68
591.003	12047.31
591.362	11975.9
591.721	12069.91
592.08	12110.13
592.44	12083.02
592.799	12028.1
593.158	12087.99
593.517	12043.24
593.876	12031.27
594.235	12011.15
594.593	11963.24
594.952	12030.81
595.311	11939.97
595.67	11924.83
596.029	11976.13
596.387	12037.59
596.746	12064.03
597.104	11946.52
597.463	11889.57
597.822	12039.17
598.18	11998.05
598.538	11886.18
598.897	11951.27
599.255	11870.59
599.613	11958.73
599.972	11886.41
600.33	11965.96
600.688	11864.04
601.046	11937.03
601.404	11934.77
601.762	11958.27
602.12	12029.23
602.478	11982.23
602.836	12001.21
603.194	11978.84
603.552	12015.22
603.91	11899.97
604.268	11935.22
604.625	11858.39
604.983	12001.44
605.341	11896.13
605.698	11958.27
606.056	11922.12
606.413	11935.45
606.771	11905.62
607.128	11913.53
607.485	11935.9
607.843	11935
608.2	12062.23
608.557	11996.92
608.914	11957.82
609.272	12017.03
609.629	12008.22
609.986	12087.99
610.343	11928.9
610.7	12007.09
611.057	12087.31
611.414	11991.72
611.771	12034.66
612.127	12103.58
612.484	12087.08
612.841	12123.01
613.198	12081.43
613.554	12115.11
613.911	12160.98
614.267	12124.14
614.624	12139.29
614.98	12216.35
615.337	12212.73
615.693	12139.96
616.05	12156.69
616.406	12200.53
616.762	12178.61
617.118	12198.27
617.475	12158.95
617.831	12280.52
618.187	12229.9
618.543	12264.03
618.899	12287.98
619.255	12309
619.611	12208.66
619.967	12259.73
620.323	12402.56
620.678	12256.8
621.034	12271.94
621.39	12337.47
621.746	12176.57
622.101	12311.94
622.457	12319.62
622.812	12300.19
623.168	12353.29
623.523	12373.86
623.879	12316.23
624.234	12196.46
624.589	12344.03
624.945	12367.75
625.3	12241.2
625.655	12302.9
626.01	12273.75
626.365	12316.91
626.72	12265.84
627.075	12246.63
627.43	12300.19
627.785	12246.4
628.14	12245.27
628.495	12234.65
628.85	12253.86
629.205	12210.92
629.559	12255.89
629.914	12227.42
630.269	12218.38
630.623	12191.26
630.978	12174.54
631.332	12127.76
631.687	12184.03
632.041	12176.12
632.396	12151.26
632.75	12059.97
633.104	12046.86
633.459	12032.85
633.813	12123.69
634.167	12028.55
634.521	12059.51
634.875	12023.36
635.229	12056.35
635.583	11964.6
635.937	12025.62
636.291	12019.29
636.645	12014.99
636.999	12022.9
637.352	11904.04
637.706	11886.64
638.06	11977.48
638.413	11991.27
638.767	11824.04
639.121	11905.17
639.474	11860.2
639.828	11816.58
640.181	11877.82
640.534	11793.53
640.888	11830.37
641.241	11785.62
641.594	11840.31
641.947	11849.58
642.301	11821.78
642.654	11867.43
643.007	11809.35
643.36	11780.2
643.713	11675.34
644.066	11771.16
644.419	11703.14
644.771	11663.14
645.124	11603.93
645.477	11537.49
645.83	11473.54
646.182	11377.5
646.535	11392.64
646.888	11421.34
647.24	11380.66
647.593	11361.9
647.945	11381.79
648.298	11279.65
648.65	11244.39
649.002	11277.61
649.355	11328.46
649.707	11329.82
650.059	11356.71
650.411	11475.12
650.763	11558.74
651.115	11567.32
651.467	11528.45
651.819	11614.1
652.171	11582.01
652.523	11570.94
652.875	11557.83
653.227	11502.47
653.578	11577.94
653.93	11586.31
654.282	11506.53
654.633	11490.26
654.985	11594.89
655.337	11600.77
655.688	11583.37
656.039	11619.52
656.391	11502.24
656.742	11570.26
657.094	11551.5
657.445	11655
657.796	11542.01
658.147	11591.96
658.498	11530.04
658.849	11622.01
659.2	11548.79
659.551	11478.06
659.902	11581.11
660.253	11576.36
660.604	11624.5
660.955	11532.07
661.306	11507.89
661.656	11594.44
662.007	11610.26
662.358	11738.62
662.708	11622.91
663.059	11615.91
663.409	11620.65
663.76	11629.02
664.11	11633.76
664.461	11644.16
664.811	11693.65
665.161	11680.77
665.511	11638.96
665.862	11587.44
666.212	11702.23
666.562	11716.92
666.912	11653.42
667.262	11612.97
667.612	11599.19
667.962	11617.04
668.312	11564.61
668.662	11669.24
669.011	11609.58
669.361	11605.97
669.711	11546.98
670.06	11545.4
670.41	11501.34
670.76	11563.93
671.109	11589.47
671.459	11545.4
671.808	11533.65
672.157	11575.46
672.507	11473.77
672.856	11509.92
673.205	11466.76
673.554	11607.55
673.904	11469.92
674.253	11525.97
674.602	11556.02
674.951	11373.66
675.3	11297.73
675.649	11502.92
675.998	11452.98
676.346	11452.07
676.695	11471.28
677.044	11412.52
677.393	11378.18
677.741	11466.53
678.09	11367.33
678.438	11391.28
678.787	11399.87
679.135	11375.92
679.484	11355.8
679.832	11363.03
680.181	11327.56
680.529	11324.39
680.877	11253.43
681.225	11236.94
681.573	11266.99
681.922	11238.29
682.27	11193.1
682.618	11154.23
682.966	11148.35
683.314	11190.61
683.661	11111.97
684.009	11017.51
684.357	11060.22
684.705	11069.93
685.053	11024.29
685.4	10998.52
685.748	10921.46
686.095	10993.33
686.443	10890.96
686.79	10872.65
687.138	10920.79
687.485	10959.66
687.832	10878.53
688.18	10904.52
688.527	10785.65
688.874	10773.9
689.221	10704.52
689.568	10738.64
689.915	10660.23
690.262	10670.4
690.609	10660.23
690.956	10575.48
691.303	10551.53
691.65	10491.87
691.997	10511.31
692.344	10474.02
692.69	10459.1
693.037	10306.57
693.383	10346.79
693.73	10280.8
694.077	10209.17
694.423	10213.23
694.769	10268.15
695.116	10222.73
695.462	10179.79
695.808	10188.83
696.155	10134.14
696.501	10051.66
696.847	10076.97
697.193	10026.57
697.539	10018.66
697.885	9913.81
698.231	9856.41
698.577	9938.21
698.923	9811.44
699.269	9803.53
699.614	9746.35
699.96	9706.35
700.306	9689.63
700.651	9676.75
700.997	9614.15
701.342	9595.17
701.688	9552.69
702.033	9534.16
702.379	9524.44
702.724	9462.07
703.069	9551.56
703.415	9391.79
703.76	9324.67
704.105	9331.22
704.45	9356.99
704.795	9260.94
705.14	9226.59
705.485	9230.21
705.83	9220.94
706.175	9157.44
706.52	9163.54
706.865	9109.53
707.209	9128.74
707.554	9071.8
707.899	9044.45
708.243	9046.71
708.588	8962.65
708.932	8914.74
709.277	8927.62
709.621	8932.82
709.966	8925.36
710.31	8854.4
710.654	8811.46
710.998	8870.22
711.342	8847.39
711.687	8794.74
712.031	8762.42
712.375	8725.82
712.719	8687.17
713.063	8696.21
713.407	8706.61
713.75	8624.58
714.094	8692.14
714.438	8578.25
714.782	8653.73
715.125	8621.41
715.469	8605.14
715.812	8554.75
716.156	8554.75
716.499	8528.31
716.843	8539.38
717.186	8412.15
717.53	8477.91
717.873	8514.3
718.216	8443.11
718.559	8504.35
718.902	8401.08
719.246	8439.27
719.589	8433.17
719.932	8387.29
720.275	8325.37
720.617	8360.4
720.96	8335.09
721.303	8393.4
721.646	8338.93
721.989	8271.59
722.331	8318.82
722.674	8292.61
723.016	8350.01
723.359	8343.45
723.701	8345.94
724.044	8225.94
724.386	8206.96
724.729	8320.63
725.071	8229.33
725.413	8271.82
725.755	8283.12
726.097	8186.85
726.439	8231.14
726.782	8159.28
727.124	8274.98
727.465	8175.55
727.807	8191.59
728.149	8122.44
728.491	8187.75
728.833	8161.08
729.175	8124.02
729.516	8180.52
729.858	8083.12
730.199	8151.59
730.541	8117.7
730.882	8126.74
731.224	8206.96
731.565	8066.62
731.906	8130.13
732.248	8125.15
732.589	8039.96
732.93	8089.22
733.271	8053.29
733.612	8153.18
733.953	8082.67
734.294	8122.44
734.635	8085.83
734.976	8136.45
735.317	8078.83
735.658	8062.56
735.999	8092.61
736.339	8129.9
736.68	8133.06
737.021	8105.27
737.361	8031.37
737.702	8123.8
738.042	8172.61
738.383	8089.67
738.723	8176.45
739.063	8159.5
739.404	8176.9
739.744	8174.87
740.084	8214.64
740.424	8231.14
740.764	8216.45
741.104	8129.45
741.444	8179.16
741.784	8230.91
742.124	8223.23
742.464	8224.59
742.804	8201.76
743.143	8251.93
743.483	8350.68
743.823	8293.28
744.162	8285.15
744.502	8415.32
744.841	8356.56
745.181	8480.17
745.52	8413.06
745.86	8457.35
746.199	8448.53
746.538	8532.37
746.877	8578.02
747.216	8633.39
747.556	8646.27
747.895	8690.11
748.234	8689.21
748.573	8767.17
748.911	8817.11
749.25	8856.43
749.589	9008.52
749.928	9005.36
750.267	9112.47
750.605	9137.33
750.944	9217.55
751.283	9256.65
751.621	9292.35
751.96	9362.64
752.298	9505.46
752.636	9588.84
752.975	9677.2
753.313	9724.66
753.651	9924.43
753.989	9942.51
754.327	10033.35
754.666	10005.33
755.004	10278.32
755.342	10328.03
755.679	10484.19
756.017	10579.55
756.355	10735.71
756.693	10803.95
757.031	10944.51
757.368	11120.56
757.706	11255.69
758.044	11294.79
758.381	11506.99
758.719	11696.59
759.056	11862.46
