Data from hue_36_FLMS001491_00020.txt Node
Date: Tue Feb 07 17:29:28 GMT 2017
User: dcchb
Spectrometer: FLMS00149
Trigger mode: 0
Integration Time (sec): 2.000000E-2
Scans to average: 10
Electric dark correction enabled: true
Nonlinearity correction enabled: false
Boxcar width: 0
XAxis mode: Wavelengths
Number of Pixels in Spectrum: 2048
>>>>>Begin Spectral Data<<<<<
341.393	-15.4
341.776	-15.4
342.16	-15.4
342.543	-63.08
342.927	-70.08
343.31	-63.53
343.693	-59.69
344.077	-63.3
344.46	-65.79
344.843	-87.26
345.226	-36.64
345.61	-17.65
345.993	-25.34
346.376	1.78
346.759	-2.74
347.142	23.7
347.525	41.78
347.908	78.61
348.291	60.99
348.674	89.69
349.057	125.39
349.44	116.35
349.823	136.69
350.206	150.93
350.588	202.45
350.971	216.01
351.354	232.73
351.737	228.89
352.119	241.32
352.502	260.53
352.884	265.95
353.267	257.82
353.65	294.88
354.032	263.02
354.414	309.79
354.797	308.89
355.179	331.04
355.562	328.55
355.944	322.68
356.326	325.61
356.709	322.22
357.091	321.55
357.473	340.75
357.855	340.75
358.238	337.82
358.62	336.69
359.002	333.97
359.384	342.56
359.766	328.32
360.148	346.18
360.53	336.91
360.912	346.18
361.294	338.27
361.676	326.74
362.057	345.5
362.439	320.87
362.821	330.58
363.203	320.64
363.584	332.62
363.966	323.58
364.348	314.09
364.729	322.45
365.111	305.73
365.493	338.95
365.874	310.92
366.256	322.45
366.637	332.39
367.019	310.7
367.4	322.45
367.781	319.06
368.163	301.43
368.544	333.3
368.925	319.51
369.306	304.6
369.688	322.22
370.069	299.62
370.45	310.47
370.831	305.05
371.212	328.55
371.593	326.52
371.974	319.74
372.355	315.44
372.736	321.77
373.117	329
373.498	321.77
373.879	316.12
374.26	316.35
374.641	304.82
375.021	324.03
375.402	291.04
375.783	322.45
376.163	334.43
376.544	341.21
376.925	316.12
377.305	326.97
377.686	334.2
378.066	327.19
378.447	319.74
378.827	293.98
379.208	320.19
379.588	341.88
379.968	331.26
380.349	325.39
380.729	337.82
381.109	319.06
381.489	343.47
381.87	343.24
382.25	351.15
382.63	353.18
383.01	333.97
383.39	325.84
383.77	312.96
384.15	318.38
384.53	326.97
384.91	328.78
385.29	329.23
385.67	347.53
386.049	340.3
386.429	345.73
386.809	356.8
387.189	339.17
387.568	352.05
387.948	359.96
388.328	353.86
388.707	358.83
389.087	395.67
389.466	350.02
389.846	351.83
390.225	362.67
390.605	346.86
390.984	348.89
391.363	346.18
391.743	349.12
392.122	362.22
392.501	344.82
392.881	372.84
393.26	365.84
393.639	372.62
394.018	359.28
394.397	380.53
394.776	369.23
395.155	365.16
395.534	360.64
395.913	379.85
396.292	368.55
396.671	380.07
397.05	378.49
397.429	371.71
397.808	390.02
398.186	390.02
398.565	383.46
398.944	375.78
399.323	394.54
399.701	387.31
400.08	379.85
400.458	389.57
400.837	354.99
401.215	388.21
401.594	392.05
401.972	393.18
402.351	378.94
402.729	392.28
403.107	386.85
403.486	398.83
403.864	396.12
404.242	400.41
404.62	411.71
404.999	405.16
405.377	404.25
405.755	405.61
406.133	422.33
406.511	427.08
406.889	414.2
407.267	402.22
407.645	427.76
408.023	406.29
408.401	437.25
408.779	441.32
409.156	442.45
409.534	454.65
409.912	421.2
410.29	440.64
410.667	435.21
411.045	428.89
411.422	462.11
411.8	443.58
412.178	456.46
412.555	445.84
412.933	460.07
413.31	452.16
413.687	455.55
414.065	453.75
414.442	481.99
414.819	460.52
415.197	475.21
415.574	465.95
415.951	478.6
416.328	480.41
416.705	469.11
417.082	464.82
417.46	481.09
417.837	510.24
418.214	475.44
418.591	490.58
418.967	504.59
419.344	505.04
419.721	515.66
420.098	512.5
420.475	496
420.852	520.86
421.228	499.39
421.605	508.88
421.982	521.54
422.358	519.05
422.735	506.4
423.111	521.77
423.488	527.87
423.864	506.63
424.241	551.14
424.617	550.01
424.994	548.88
425.37	545.04
425.746	528.77
426.123	556.57
426.499	549.56
426.875	559.28
427.251	565.38
427.627	588.43
428.003	570.8
428.379	558.15
428.756	582.78
429.132	586.17
429.507	600.86
429.883	579.84
430.259	620.97
430.635	603.8
431.011	598.83
431.387	617.36
431.763	601.09
432.138	627.75
432.514	630.24
432.89	597.24
433.265	623.23
433.641	640.86
434.016	636.57
434.392	643.34
434.767	658.71
435.143	660.29
435.518	659.39
435.894	655.1
436.269	648.54
436.644	666.85
437.02	677.47
437.395	671.82
437.77	684.7
438.145	686.96
438.52	665.04
438.895	705.94
439.271	698.48
439.646	705.26
440.021	692.61
440.395	699.84
440.77	717.69
441.145	705.04
441.52	737.81
441.895	727.64
442.27	733.29
442.645	750.23
443.019	735.77
443.394	725.38
443.769	751.14
444.143	755.43
444.518	747.3
444.892	757.92
445.267	753.85
445.641	757.92
446.016	777.35
446.39	781.19
446.764	780.74
447.139	779.84
447.513	802.21
447.887	781.19
448.262	812.61
448.636	790.69
449.01	796.79
449.384	816.67
449.758	811.93
450.132	807.86
450.506	824.81
450.88	822.1
451.254	827.75
451.628	841.98
452.002	834.53
452.376	841.08
452.75	867.29
453.123	854.86
453.497	856.9
453.871	852.38
454.244	864.81
454.618	890.8
454.992	887.18
455.365	920.17
455.739	908.87
456.112	931.7
456.486	938.7
456.859	946.84
457.232	936.44
457.606	957.91
457.979	945.26
458.352	976.22
458.725	996.33
459.099	1001.98
459.472	1010.79
459.845	1010.34
460.218	1013.73
460.591	1041.3
460.964	1031.13
461.337	1060.06
461.71	1055.99
462.083	1083.56
462.456	1093.05
462.829	1106.16
463.201	1114.74
463.574	1128.98
463.947	1131.92
464.32	1156.55
464.692	1171.24
465.065	1174.86
465.438	1197.68
465.81	1203.1
466.183	1212.6
466.555	1240.84
466.928	1250.33
467.3	1274.06
467.672	1281.29
468.045	1325.36
468.417	1311.8
468.789	1317.9
469.161	1305.02
469.534	1366.26
469.906	1363.1
470.278	1428.41
470.65	1436.09
471.022	1438.8
471.394	1502.98
471.766	1528.07
472.138	1536.88
472.51	1589.08
472.882	1592.25
473.253	1614.62
473.625	1639.93
473.997	1688.51
474.369	1711.57
474.74	1720.15
475.112	1783.43
475.484	1834.73
475.855	1853.48
476.227	1889.41
476.598	1923.09
476.97	1959.47
477.341	2024.55
477.713	2056.41
478.084	2071.1
478.455	2111.33
478.827	2162.63
479.198	2243.53
479.569	2267.26
479.94	2352
480.311	2429.96
480.682	2484.43
481.053	2537.98
481.424	2612.11
481.795	2693.23
482.166	2711.54
482.537	2786.79
482.908	2862.27
483.279	2923.96
483.65	2974.81
484.021	3101.13
484.391	3128.03
484.762	3242.82
485.133	3293.44
485.503	3357.4
485.874	3490.28
486.244	3582.93
486.615	3619.09
486.985	3741.12
487.356	3865.18
487.726	3906.54
488.097	4000.09
488.467	4061.33
488.837	4198.73
489.207	4272.4
489.578	4350.37
489.948	4450.25
490.318	4550.59
490.688	4609.57
491.058	4744.93
491.428	4789.22
491.798	4939.73
492.168	5029.9
492.538	5131.14
492.908	5231.7
493.278	5306.05
493.648	5374.75
494.017	5527.51
494.387	5584.01
494.757	5687.28
495.126	5768.63
495.496	5829.42
495.866	5904.68
496.235	6019.02
496.605	6123.88
496.974	6250.2
497.344	6259.69
497.713	6351.44
498.082	6465.34
498.452	6557.54
498.821	6592.79
499.19	6692
499.559	6802.73
499.928	6873.01
500.298	6944.87
500.667	7020.35
501.036	7076.62
501.405	7080.69
501.774	7117.3
502.143	7317.75
502.512	7389.83
502.88	7452.43
503.249	7462.37
503.618	7640.22
503.987	7641.13
504.356	7700.33
504.724	7819.43
505.093	7853.32
505.462	7978.07
505.83	7993.89
506.199	8082.7
506.567	8208.8
506.936	8235.01
507.304	8331.05
507.672	8333.31
508.041	8404.04
508.409	8434.1
508.777	8540.31
509.145	8667.77
509.514	8640.2
509.882	8743.7
510.25	8783.02
510.618	8898.04
510.986	8875.67
511.354	8971.71
511.722	9094.65
512.09	9176.68
512.458	9126.51
512.826	9225.49
513.193	9303.68
513.561	9325.38
513.929	9417.35
514.297	9499.83
514.664	9553.62
515.032	9566.73
515.4	9694.18
515.767	9706.38
516.135	9786.61
516.502	9828.19
516.869	9911.8
517.237	9939.6
517.604	10036.09
517.972	10051.46
518.339	10124.68
518.706	10134.39
519.073	10199.7
519.44	10223.88
519.808	10342.07
520.175	10385.01
520.542	10471.56
520.909	10550.65
521.276	10541.84
521.643	10723.53
522.009	10742.29
522.376	10769.18
522.743	10810.31
523.11	10886.92
523.477	11084.2
523.843	11104.54
524.21	11183.86
524.577	11246.23
524.943	11337.98
525.31	11360.58
525.676	11466.56
526.043	11532.55
526.409	11595.6
526.776	11736.16
527.142	11710.62
527.508	11777.74
527.874	11973.44
528.241	11920.34
528.607	11962.82
528.973	12093.21
529.339	12047.34
529.705	12256.37
530.071	12314.9
530.437	12357.39
530.803	12436.48
531.169	12532.75
531.535	12474.45
531.901	12600.54
532.267	12630.37
532.632	12749.02
532.998	12780.65
533.364	12870.37
533.73	12943.81
534.095	12974.55
534.461	13064.71
534.826	13130.93
535.192	13206.18
535.557	13191.26
535.923	13306.97
536.288	13287.08
536.653	13432.39
537.019	13363.91
537.384	13404.14
537.749	13518.26
538.114	13575.21
538.479	13560.07
538.845	13706.73
539.21	13585.38
539.575	13693.85
539.94	13723.23
540.305	13828.53
540.67	13862.66
541.034	13932.26
541.399	13959.6
541.764	13965.03
542.129	14076.66
542.494	14159.37
542.858	14210.45
543.223	14165.02
543.587	14315.3
543.952	14286.6
544.316	14457.67
544.681	14386.03
545.045	14468.97
545.41	14596.42
545.774	14605.46
546.138	14680.26
546.503	14714.39
546.867	14787.61
547.231	14921.16
547.595	14830.99
547.959	15007.49
548.324	14998.67
548.688	14975.85
549.052	15109.63
549.416	15158.67
549.779	15173.36
550.143	15194.15
550.507	15380.58
550.871	15363.41
551.235	15275.05
551.599	15486.8
551.962	15480.24
552.326	15536.29
552.689	15625.78
553.053	15613.12
553.417	15585.78
553.78	15782.61
554.143	15763.17
554.507	15780.57
554.87	15887.69
555.234	16022.83
555.597	15955.03
555.96	16079.1
556.323	16168.59
556.686	16212.88
557.05	16280.9
557.413	16314.8
557.776	16300.79
558.139	16470.27
558.502	16504.62
558.865	16455.58
559.228	16668.23
559.59	16608.12
559.953	16695.58
560.316	16832.3
560.679	16839.3
561.041	17007.66
561.404	17078.84
561.767	17137.37
562.129	17119.75
562.492	17217.82
562.854	17225.73
563.217	17211.27
563.579	17352.06
563.941	17401.55
564.304	17433.64
564.666	17707.08
565.028	17604.48
565.39	17670.47
565.753	17738.71
566.115	17769.67
566.477	17882.67
566.839	17896
567.201	18134.41
567.563	18146.61
567.925	18218.48
568.287	18215.76
568.648	18205.59
569.01	18361.07
569.372	18422.99
569.734	18531.46
570.095	18633.38
570.457	18625.92
570.819	18734.39
571.18	18791.79
571.542	18867.95
571.903	18901.85
572.265	18991.34
572.626	19076.53
572.987	19115.18
573.349	19209.64
573.71	19265.23
574.071	19422.74
574.432	19547.93
574.794	19637.65
575.155	19670.64
575.516	19603.75
575.877	19724.2
576.238	19954.02
576.599	20048.26
576.96	20150.85
577.32	20207.8
577.681	20411.41
578.042	20478.53
578.403	20617.51
578.763	20703.38
579.124	20825.64
579.485	21018.63
579.845	21261.79
580.206	21268.11
580.566	21360.31
580.927	21506.52
581.287	21713.53
581.648	21810.92
582.008	22031.48
582.368	22204.59
582.728	22363.9
583.089	22467.18
583.449	22619.04
583.809	22705.36
584.169	22986.71
584.529	23162.75
584.889	23502.4
585.249	23456.98
585.609	23648.62
585.969	24058.77
586.329	24041.83
586.688	24309.16
587.048	24440.23
587.408	24512.32
587.768	24843.16
588.127	24936.04
588.487	25203.15
588.846	25667.09
589.206	25569.92
589.565	25836.35
589.925	26270.92
590.284	26265.95
590.643	26649.21
591.003	26879.94
591.362	27124.46
591.721	27343.89
592.08	27428.86
592.44	27725.57
592.799	27987.03
593.158	28060.7
593.517	28398.55
593.876	28536.85
594.235	28739.33
594.593	28993.11
594.952	29338.18
595.311	29408.69
595.67	29682.36
596.029	30140.87
596.387	30206.64
596.746	30345.16
597.104	30385.16
597.463	30643.46
597.822	30852.27
598.18	31084.13
598.538	31182.43
598.897	31592.81
599.255	31415.19
599.613	32158
599.972	32159.13
600.33	32389.85
600.688	32355.05
601.046	32816.06
601.404	32985.09
601.762	33059.89
602.12	33293.56
602.478	33546.21
602.836	33708.69
603.194	33672.53
603.552	34005.63
603.91	34042.69
604.268	34324.94
604.625	34419.41
604.983	34680.64
605.341	34523.81
605.698	34942.1
606.056	34938.71
606.413	35179.16
606.771	35460.28
607.128	35546.16
607.485	35547.06
607.843	35679.71
608.2	36090.32
608.557	36272.69
608.914	36129.19
609.272	36585.9
609.629	36703.64
609.986	36906.57
610.343	36885.78
610.7	37124.42
611.057	37100.92
611.414	37375.26
611.771	37376.84
612.127	37700.68
612.484	37697.06
612.841	37956.04
613.198	37915.58
613.554	37912.2
613.911	38209.36
614.267	38208.46
614.624	38468.56
614.98	38622.91
615.337	38710.14
615.693	38751.04
616.05	38752.63
616.406	39246.85
616.762	39031.26
617.118	39117.59
617.475	39121.65
617.831	39227.19
618.187	39536.56
618.543	39575.2
618.899	39873.05
619.255	39717.57
619.611	39720.06
619.967	39969.32
620.323	40108.97
620.678	40013.38
621.034	40064
621.39	39978.81
621.746	40037.79
622.101	40641.84
622.457	40332.7
622.812	40541.05
623.168	40448.85
623.523	40639.13
623.879	40794.61
624.234	40509.19
624.589	40680.26
624.945	40841.84
625.3	40903.53
625.655	40974.26
626.01	40974.49
626.365	40916.86
626.72	40978.56
627.075	40964.77
627.43	41054.71
627.785	40906.24
628.14	41243.41
628.495	41090.19
628.85	41089.51
629.205	41119.57
629.559	41256.51
629.914	41214.71
630.269	41279.11
630.623	41201.15
630.978	41082.06
631.332	41223.07
631.687	41398.88
632.041	41221.49
632.396	41416.51
632.75	41170.87
633.104	41304.65
633.459	41213.35
633.813	41127.48
634.167	41266.23
634.521	41126.12
634.875	41331.77
635.229	41286.34
635.583	41202.28
635.937	41084.54
636.291	41222.84
636.645	41131.09
636.999	41196.4
637.352	41311.2
637.706	40918.9
638.06	41313.91
638.413	41080.47
638.767	41145.56
639.121	41141.71
639.474	40994.6
639.828	40957.09
640.181	41033.24
640.534	40878.9
640.888	40843.42
641.241	40732.46
641.594	40814.94
641.947	41115.5
642.301	40783.76
642.654	40852
643.007	40950.76
643.36	40820.14
643.713	40780.59
644.066	40981.95
644.419	40752.35
644.771	40453.15
645.124	40087.96
645.477	39876.89
645.83	39759.6
646.182	39698.81
646.535	39711.02
646.888	39734.75
647.24	39465.37
647.593	39792.6
647.945	39723.45
648.298	39358.26
648.65	39452.04
649.002	39240.07
649.355	39585.37
649.707	39443.23
650.059	39543.34
650.411	40144.68
650.763	40183.32
651.115	40575.18
651.467	40370.66
651.819	40207.5
652.171	40232.81
652.523	40370.89
652.875	40171.34
653.227	40009.09
653.578	40296.31
653.93	40107.62
654.282	40083.66
654.633	39957.11
654.985	40026.94
655.337	40221.74
655.688	40064.68
656.039	40203.89
656.391	39999.82
656.742	40114.17
657.094	40047.73
657.445	40140.39
657.796	39975.64
658.147	39936.55
658.498	39992.59
658.849	40044.34
659.2	39931.35
659.551	39885.48
659.902	40132.25
660.253	39921.63
660.604	39945.36
660.955	39792.6
661.306	40087.28
661.656	39926.83
662.007	39890.67
662.358	39941.52
662.708	39938.81
663.059	39779.72
663.409	39562.55
663.76	39904.46
664.11	39840.05
664.461	39961.41
664.811	39906.72
665.161	39873.05
665.511	39829.88
665.862	39704.01
666.212	39972.48
666.562	39941.75
666.912	39760.73
667.262	39762.77
667.612	39791.47
667.962	39874.18
668.312	39794.18
668.662	39875.99
669.011	39758.02
669.361	39763.22
669.711	39660.62
670.06	39692.04
670.41	39505.37
670.76	39624.24
671.109	39659.95
671.459	39614.98
671.808	39581.3
672.157	39722.77
672.507	39439.16
672.856	39570.23
673.205	39528.2
673.554	39598.48
673.904	39505.15
674.253	39752.6
674.602	39555.09
674.951	38871.49
675.3	38817.48
675.649	39438.71
675.998	39365.26
676.346	39312.16
676.695	39532.27
677.044	39113.52
677.393	39335.89
677.741	39445.04
678.09	39230.13
678.438	39182.67
678.787	39283.68
679.135	39336.34
679.484	38832.62
679.832	39139.51
680.181	39021.09
680.529	39125.27
680.877	39014.54
681.225	38869.46
681.573	39177.47
681.922	38967.99
682.27	38749.46
682.618	38850.25
682.966	38669.92
683.314	38811.15
683.661	38563.93
684.009	38580.2
684.357	38377.95
684.705	38353.99
685.053	38412.97
685.4	38142.92
685.748	38143.38
686.095	38158.74
686.443	38062.02
686.79	37941.8
687.138	38159.42
687.485	38047.56
687.832	37965.08
688.18	37922.14
688.527	37716.49
688.874	37754.46
689.221	37645.08
689.568	37554.01
689.915	37403.73
690.262	37561.24
690.609	37422.26
690.956	37150.18
691.303	37262.27
691.65	37136.62
691.997	36993.8
692.344	37013.24
692.69	36979.56
693.037	36900.47
693.383	36603.53
693.73	36688.27
694.077	36566.02
694.423	36601.72
694.769	36511.1
695.116	36289.87
695.462	36198.79
695.808	36086.03
696.155	36165.8
696.501	35870.44
696.847	35928.29
697.193	35757.68
697.539	35819.82
697.885	35522.65
698.231	35609.88
698.577	35570.79
698.923	35417.8
699.269	35286.5
699.614	35123.79
699.96	35041.54
700.306	35128.99
700.651	35030.01
700.997	34816.68
701.342	34772.84
701.688	34652.39
702.033	34624.37
702.379	34581.89
702.724	34464.83
703.069	34699.62
703.415	34117.04
703.76	34331.27
704.105	34183.93
704.45	34161.11
704.795	33983.03
705.14	33866.88
705.485	33922.7
705.83	33738.52
706.175	33577.17
706.52	33596.15
706.865	33435.48
707.209	33493.55
707.554	33332.88
707.899	33411.52
708.243	33187.8
708.588	33116.39
708.932	33100.8
709.277	32974.02
709.621	33135.37
709.966	32808.6
710.31	32906.45
710.654	32600.7
710.998	32727.7
711.342	32620.58
711.687	32506.46
712.031	32401.38
712.375	32309.63
712.719	32347.6
713.063	32316.41
713.407	32293.59
713.75	32069.86
714.094	32150.09
714.438	31980.15
714.782	32032.8
715.125	31865.8
715.469	31870.09
715.812	31852.24
716.156	31627.39
716.499	31605.47
716.843	31649.54
717.186	31415.87
717.53	31591.46
717.873	31497.45
718.216	31513.04
718.559	31453.83
718.902	31151.24
719.246	31119.61
719.589	31090
719.932	30997.8
720.275	31046.84
720.617	30861.31
720.96	30852.04
721.303	30819.05
721.646	30842.78
721.989	30783.34
722.331	30768.2
722.674	30637.13
723.016	30781.08
723.359	30639.62
723.701	30688.88
724.044	30481.43
724.386	30406.86
724.729	30546.74
725.071	30336.58
725.413	30485.5
725.755	30357.37
726.097	30225.17
726.439	30191.95
726.782	30152.4
727.124	30290.02
727.465	30047.54
727.807	29987.66
728.149	29983.14
728.491	29883.93
728.833	29866.08
729.175	29747.21
729.516	29815.46
729.858	29680.1
730.199	29768.45
730.541	29757.16
730.882	29651.17
731.224	29657.5
731.565	29390.61
731.906	29433.55
732.248	29457.28
732.589	29334.79
732.93	29166.89
733.271	29369.82
733.612	29381.8
733.953	29256.6
734.294	29304.96
734.635	29089.38
734.976	29150.39
735.317	28929.38
735.658	28830.17
735.999	28995.59
736.339	28847.8
736.68	28957.63
737.021	28821.36
737.361	28683.51
737.702	28897.97
738.042	28742.49
738.383	28755.6
738.723	28758.99
739.063	28714.47
739.404	28619.33
739.744	28612.78
740.084	28467.92
740.424	28593.8
740.764	28341.83
741.104	28662.95
741.444	28309.28
741.784	28295.72
742.124	28417.98
742.464	28351.99
742.804	28279.23
743.143	28255.5
743.483	28189.51
743.823	27938.22
744.162	28164.88
744.502	28123.07
744.841	27885.79
745.181	28063.64
745.52	27916.07
745.86	27914.72
746.199	27812.57
746.538	27810.99
746.877	27816.19
747.216	27778.68
747.556	27794.95
747.895	27851.89
748.234	27573.03
748.573	27507.5
748.911	27576.65
749.25	27457.55
749.589	27429.53
749.928	27458.68
750.267	27417.56
750.605	27307.28
750.944	27355.18
751.283	27192.03
751.621	27276.99
751.96	27089.65
752.298	27141.63
752.636	26980.73
752.975	26997.91
753.313	26867.74
753.651	27016.21
753.989	26823.67
754.327	26667.07
754.666	26737.57
755.004	26733.28
755.342	26701.42
755.679	26671.59
756.017	26583
756.355	26556.34
756.693	26406.51
757.031	26333.74
757.368	26221.88
757.706	26274.08
