Data from hue_26_FLMS001491_00005.txt Node
Date: Tue Feb 07 17:13:29 GMT 2017
User: dcchb
Spectrometer: FLMS00149
Trigger mode: 0
Integration Time (sec): 2.000000E-2
Scans to average: 10
Electric dark correction enabled: true
Nonlinearity correction enabled: false
Boxcar width: 0
XAxis mode: Wavelengths
Number of Pixels in Spectrum: 2048
>>>>>Begin Spectral Data<<<<<
341.393	-6.79
341.776	-6.79
342.16	-6.79
342.543	-66.45
342.927	-96.96
343.31	-63.74
343.693	-79.33
344.077	-58.77
344.46	-72.1
344.843	-48.15
345.226	-39.34
345.61	-30.07
345.993	-27.13
346.376	7.9
346.759	26.88
347.142	32.08
347.525	37.5
347.908	59.19
348.291	60.32
348.674	84.96
349.057	109.81
349.44	136.03
349.823	138.29
350.206	166.31
350.588	181
350.971	223.26
351.354	218.96
351.737	241.11
352.119	236.14
352.502	267.32
352.884	263.26
353.267	278.85
353.65	287.44
354.032	299.19
354.414	294.89
354.797	324.27
355.179	309.58
355.562	316.36
355.944	317.49
356.326	338.28
356.709	350.03
357.091	338.06
357.473	333.54
357.855	345.06
358.238	372.41
358.62	338.96
359.002	359.52
359.384	333.99
359.766	327.89
360.148	343.93
360.53	344.61
360.912	345.74
361.294	342.58
361.676	341.9
362.057	322.01
362.439	343.71
362.821	312.97
363.203	341.9
363.584	343.03
363.966	330.15
364.348	323.14
364.729	327.89
365.111	294.89
365.493	303.03
365.874	326.08
366.256	300.09
366.637	337.6
367.019	320.88
367.4	313.2
367.781	295.12
368.163	307.55
368.544	316.59
368.925	297.61
369.306	318.85
369.688	313.65
370.069	327.66
370.45	306.64
370.831	326.53
371.212	298.28
371.593	327.21
371.974	319.75
372.355	300.54
372.736	309.36
373.117	339.64
373.498	325.85
373.879	314.78
374.26	289.7
374.641	323.37
375.021	316.59
375.402	336.93
375.783	309.58
376.163	321.33
376.544	340.54
376.925	351.39
377.305	323.37
377.686	337.6
378.066	341.9
378.447	336.47
378.827	338.06
379.208	309.36
379.588	328.11
379.968	335.12
380.349	342.12
380.729	353.87
381.109	331.95
381.489	338.51
381.87	333.99
382.25	331.73
382.63	338.73
383.01	337.83
383.39	339.86
383.77	358.62
384.15	363.14
384.53	352.29
384.91	330.37
385.29	344.16
385.67	355
386.049	332.41
386.429	334.89
386.809	351.16
387.189	356.59
387.568	344.84
387.948	362.24
388.328	332.41
388.707	356.36
389.087	380.54
389.466	361.11
389.846	366.08
390.225	365.63
390.605	373.99
390.984	378.96
391.363	365.85
391.743	376.02
392.122	370.6
392.501	374.67
392.881	381.22
393.26	381.22
393.639	355.68
394.018	371.95
394.397	386.64
394.776	387.55
395.155	388
395.534	388.9
395.913	383.25
396.292	387.55
396.671	387.55
397.05	390.26
397.429	377.15
397.808	375.34
398.186	406.08
398.565	392.29
398.944	392.52
399.323	403.37
399.701	385.29
400.08	407.43
400.458	393.42
400.837	374.89
401.215	412.4
401.594	379.86
401.972	401.78
402.351	398.39
402.729	403.14
403.107	399.75
403.486	415.57
403.864	416.7
404.242	420.54
404.62	411.73
404.999	418.05
405.377	415.12
405.755	416.7
406.133	417.6
406.511	434.78
406.889	418.28
407.267	413.08
407.645	423.03
408.023	426.42
408.401	434.32
408.779	425.29
409.156	418.96
409.534	437.49
409.912	434.78
410.29	451.73
410.667	450.14
411.045	452.63
411.422	488.33
411.8	458.73
412.178	466.87
412.555	465.51
412.933	477.49
413.31	484.49
413.687	476.81
414.065	478.62
414.442	469.58
414.819	486.07
415.197	482.01
415.574	499.86
415.951	505.74
416.328	497.6
416.705	493.53
417.082	495.79
417.46	503.7
417.837	529.24
418.214	501.22
418.591	508.22
418.967	503.93
419.344	511.38
419.721	517.94
420.098	517.03
420.475	504.61
420.852	504.15
421.228	537.15
421.605	524.27
421.982	526.53
422.358	533.98
422.735	538.73
423.111	539.41
423.488	522.23
423.864	554.1
424.241	561.1
424.617	528.56
424.994	536.92
425.37	571.27
425.746	543.93
426.123	559.52
426.499	546.86
426.875	555.9
427.251	587.54
427.627	585.51
428.003	586.86
428.379	585.73
428.756	591.16
429.132	599.07
429.507	630.25
429.883	600.87
430.259	606.75
430.635	596.58
431.011	629.12
431.387	609.91
431.763	658.95
432.138	615.11
432.514	639.97
432.89	634.09
433.265	672.51
433.641	667.76
434.016	654.43
434.392	675.67
434.767	677.93
435.143	657.37
435.518	667.54
435.894	672.28
436.269	693.98
436.644	716.35
437.02	699.85
437.395	686.07
437.77	709.8
438.145	691.27
438.52	717.26
438.895	740.08
439.271	707.99
439.646	739.4
440.021	732.62
440.395	728.55
440.77	742.34
441.145	734.43
441.52	752.51
441.895	751.38
442.27	768.33
442.645	767.88
443.019	793.41
443.394	762.23
443.769	773.3
444.143	764.03
444.518	781.43
444.892	796.35
445.267	762.9
445.641	811.94
446.016	783.02
446.39	804.94
446.764	800.87
447.139	792.73
447.513	801.32
447.887	806.74
448.262	802.45
448.636	835.9
449.01	822.34
449.384	829.34
449.758	828.44
450.132	847.87
450.506	839.74
450.88	858.27
451.254	850.58
451.628	886.52
452.002	881.32
452.376	885.84
452.75	882.9
453.123	886.29
453.497	916.35
453.871	909.57
454.244	938.49
454.618	947.31
454.992	948.44
455.365	947.98
455.739	956.8
456.112	969
456.486	962.9
456.859	964.25
457.232	975.55
457.606	999.06
457.979	976.01
458.352	1010.81
458.725	1034.53
459.099	1020.98
459.472	1032.73
459.845	1066.85
460.218	1063.91
460.591	1078.83
460.964	1079.28
461.337	1122.22
461.71	1126.96
462.083	1098.26
462.456	1105.72
462.829	1143.68
463.201	1165.6
463.574	1153.4
463.947	1164.25
464.32	1182.55
464.692	1217.58
465.065	1204.25
465.438	1222.78
465.81	1233.4
466.183	1265.94
466.555	1260.52
466.928	1305.04
467.3	1263.46
467.672	1317.24
468.045	1324.47
468.417	1344.13
468.789	1325.15
469.161	1381.42
469.534	1378.93
469.906	1413.06
470.278	1432.26
470.65	1434.3
471.022	1461.64
471.394	1502.32
471.766	1490.34
472.138	1533.73
472.51	1533.73
472.882	1563.33
473.253	1595.65
473.625	1587.29
473.997	1644.24
474.369	1695.53
474.74	1662.54
475.112	1697.79
475.484	1734.86
475.855	1766.49
476.227	1791.58
476.598	1821.63
476.97	1879.03
477.341	1889.2
477.713	1908.64
478.084	1951.35
478.455	2029.99
478.827	2036.32
479.198	2056.65
479.569	2121.51
479.94	2148.18
480.311	2187.72
480.682	2203.09
481.053	2263.2
481.424	2320.38
481.795	2331.9
482.166	2389.08
482.537	2400.37
482.908	2451.22
483.279	2498.23
483.65	2549.98
484.021	2591.56
484.391	2625.68
484.762	2702.74
485.133	2748.84
485.503	2717.65
485.874	2822.28
486.244	2856.86
486.615	2928.5
486.985	2950.64
487.356	3042.17
487.726	3095.72
488.097	3134.59
488.467	3130.3
488.837	3223.63
489.207	3264.31
489.578	3334.36
489.948	3349.95
490.318	3399.9
490.688	3436.28
491.058	3480.12
491.428	3561.7
491.798	3587.24
492.168	3650.29
492.538	3698.87
492.908	3743.16
493.278	3831.3
493.648	3798.53
494.017	3855.03
494.387	3860.22
494.757	3985.64
495.126	4000.78
495.496	4023.38
495.866	4035.13
496.235	4119.65
496.605	4125.98
496.974	4159.88
497.344	4267.44
497.713	4257.73
498.082	4326.43
498.452	4361.45
498.821	4334.11
499.19	4367.33
499.559	4444.16
499.928	4452.3
500.298	4500.43
500.667	4534.78
501.036	4545.86
501.405	4576.81
501.774	4577.27
502.143	4665.4
502.512	4676.93
502.88	4707.66
503.249	4782.91
503.618	4780.88
503.987	4829.46
504.356	4867.2
504.724	4881.21
505.093	4877.6
505.462	4916.47
505.83	4945.17
506.199	4989.01
506.567	5047.54
506.936	5037.14
507.304	5048.21
507.672	5093.64
508.041	5132.73
508.409	5157.14
508.777	5252.05
509.145	5249.11
509.514	5205.27
509.882	5287.98
510.25	5277.81
510.618	5309
510.986	5338.83
511.354	5380.64
511.722	5405.95
512.09	5483.46
512.458	5467.19
512.826	5518.94
513.193	5493.85
513.561	5488.2
513.929	5537.24
514.297	5585.15
514.664	5619.27
515.032	5608.2
515.4	5653.62
515.767	5698.82
516.135	5690.01
516.502	5725.49
516.869	5790.79
517.237	5817.46
517.604	5763.22
517.972	5831.92
518.339	5878.02
518.706	5917.8
519.073	5941.3
519.44	5952.6
519.808	5994.63
520.175	5979.94
520.542	6068.3
520.909	6117.79
521.276	6037.34
521.643	6119.82
522.009	6171.8
522.376	6165.7
522.743	6202.76
523.11	6263.78
523.477	6311.46
523.843	6338.35
524.21	6352.36
524.577	6434.62
524.943	6385.13
525.31	6426.48
525.676	6512.13
526.043	6580.6
526.409	6507.84
526.776	6608.63
527.142	6631.22
527.508	6641.17
527.874	6725.68
528.241	6758.45
528.607	6708.96
528.973	6827.6
529.339	6819.69
529.705	6913.7
530.071	6928.84
530.437	6966.58
530.803	7021.95
531.169	7018.78
531.535	7030.99
531.901	7072.79
532.267	7079.12
532.632	7169.74
532.998	7201.83
533.364	7220.14
533.73	7235.28
534.095	7331.54
534.461	7277.99
534.826	7362.73
535.192	7389.17
535.557	7397.31
535.923	7418.55
536.288	7389.4
536.653	7426.68
537.019	7425.55
537.384	7544.87
537.749	7566.79
538.114	7604.76
538.479	7611.54
538.845	7641.59
539.21	7661.25
539.575	7665.55
539.94	7718.43
540.305	7794.81
540.67	7754.36
541.034	7800.68
541.399	7898.99
541.764	7896.73
542.129	7906.67
542.494	7878.65
542.858	7987.12
543.223	7976.95
543.587	8020.11
543.952	8061.47
544.316	8086.78
544.681	8127.68
545.045	8090.39
545.41	8153.9
545.774	8177.4
546.138	8184.86
546.503	8268.47
546.867	8316.83
547.231	8348.69
547.595	8390.05
547.959	8387.56
548.324	8418.07
548.688	8463.72
549.052	8498.29
549.416	8555.47
549.779	8493.77
550.143	8616.48
550.507	8640.66
550.871	8666.88
551.235	8580.78
551.599	8698.51
551.962	8690.15
552.326	8679.98
552.689	8782.13
553.053	8812.41
553.417	8755.69
553.78	8908.23
554.143	8880.66
554.507	8926.53
554.87	8942.35
555.234	9058.05
555.597	9001.33
555.96	9007.43
556.323	9018.73
556.686	9084.94
557.05	9138.28
557.413	9109.8
557.776	9149.35
558.139	9193.64
558.502	9216.24
558.865	9222.34
559.228	9309.57
559.59	9310.02
559.953	9377.14
560.316	9424.6
560.679	9520.64
561.041	9523.58
561.404	9512.73
561.767	9566.74
562.129	9495.78
562.492	9615.55
562.854	9681.77
563.217	9715.66
563.579	9684.48
563.941	9790.01
564.304	9766.96
564.666	9869.56
565.028	9793.4
565.39	9880.63
565.753	9893.29
566.115	9901.87
566.477	10025.71
566.839	10018.03
567.201	10132.37
567.563	10058.25
567.925	10194.75
568.287	10152.71
568.648	10167.85
569.01	10267.74
569.372	10386.15
569.734	10295.31
570.095	10399.03
570.457	10448.75
570.819	10466.83
571.18	10476.32
571.542	10509.77
571.903	10561.29
572.265	10720.38
572.626	10674.73
572.987	10723.09
573.349	10693.26
573.71	10857.78
574.071	10868.85
574.432	10943.43
574.794	11068.17
575.155	11032.92
575.516	11127.38
575.877	11215.51
576.238	11277.43
576.599	11368.95
576.96	11399.69
577.32	11502.28
577.681	11607.82
578.042	11682.16
578.403	11740.02
578.763	11768.94
579.124	11912.44
579.485	12055.71
579.845	12123.06
580.206	12269.04
580.566	12371.19
580.927	12462.48
581.287	12718.75
581.648	12715.58
582.008	12884.39
582.368	13081.45
582.728	13183.59
583.089	13378.62
583.449	13469.46
583.809	13610.48
584.169	13833.29
584.529	14004.36
584.889	14249.78
585.249	14346.95
585.609	14571.58
585.969	14835.75
586.329	14930.67
586.688	15183.54
587.048	15423.08
587.408	15579.01
587.768	15817.65
588.127	16072.33
588.487	16223.29
588.846	16588.93
589.206	16723.16
589.565	17076.6
589.925	17344.84
590.284	17583.48
590.643	17883.58
591.003	18128.1
591.362	18467.52
591.721	18784.35
592.08	19016.89
592.44	19316.31
592.799	19500.72
593.158	19750.2
593.517	20048.72
593.876	20411.88
594.235	20667.69
594.593	20914.69
594.952	21316.71
595.311	21520.55
595.67	21891.39
596.029	22324.14
596.387	22618.83
596.746	22958.7
597.104	23231.01
597.463	23404.57
597.822	23857.21
598.18	23957.1
598.538	24306.92
598.897	24725.66
599.255	24884.76
599.613	25448.81
599.972	25562.03
600.33	25928.34
600.688	26143.48
601.046	26481.32
601.404	26883.57
601.762	27066.39
602.12	27512.48
602.478	27748.41
602.836	28086.93
603.194	28116.76
603.552	28549.74
603.91	28618.89
604.268	29125.1
604.625	29267.69
604.983	29701.13
605.341	29797.85
605.698	30236.03
606.056	30494.78
606.413	30638.95
606.771	31011.37
607.128	31250.46
607.485	31300.63
607.843	31622.88
608.2	32009.09
608.557	32316.42
608.914	32369.3
609.272	32854.94
609.629	32994.82
609.986	33244.54
610.343	33181.71
610.7	33719.78
611.057	33916.83
611.414	34044.29
611.771	34265.3
612.127	34583.48
612.484	34684.95
612.841	35053.75
613.198	35044.26
613.554	35249.45
613.911	35646.51
614.267	35763.57
614.624	35827.07
614.98	36054.63
615.337	36441.51
615.693	36559.48
616.05	36715.63
616.406	37042.85
616.762	37037.88
617.118	37282.85
617.475	37299.34
617.831	37550.86
618.187	37669.96
618.543	37798.77
618.899	38217.06
619.255	38118.08
619.611	38318.53
619.967	38542.25
620.323	38801.45
620.678	38623.83
621.034	38628.35
621.39	38835.12
621.746	38878.29
622.101	39359.18
622.457	39219.29
622.812	39344.94
623.168	39443.92
623.523	39553.97
623.879	39739.28
624.234	39630.81
624.589	39849.11
624.945	39843.01
625.3	40070.12
625.655	40092.94
626.01	40240.96
626.365	40336.55
626.72	40291.36
627.075	40367.51
627.43	40304.01
627.785	40507.62
628.14	40641.18
628.495	40764.34
628.85	40671.23
629.205	40809.99
629.559	41000.49
629.914	40673.72
630.269	40763.66
630.623	40872.81
630.978	40862.41
631.332	41041.39
631.687	41226.7
632.041	41062.18
632.396	41118
632.75	40995.29
633.104	41144.21
633.459	40993.03
633.813	41132.24
634.167	41125.46
634.521	41070.09
634.875	41173.14
635.229	41106.7
635.583	40899.48
635.937	41060.38
636.291	41078
636.645	41097.21
636.999	41056.31
637.352	41204.55
637.706	41078
638.06	41138.57
638.413	41247.94
638.767	41124.1
639.121	41188.28
639.474	40991.9
639.828	41099.92
640.181	41101.05
640.534	41305.11
640.888	40942.41
641.241	40948.74
641.594	40847.27
641.947	41156.19
642.301	40952.81
642.654	41067.61
643.007	41088.4
643.36	41071.67
643.713	40926.59
644.066	40979.47
644.419	40756.65
644.771	40560.73
645.124	40240.28
645.477	40383.78
645.83	39895.43
646.182	40000.74
646.535	39749
646.888	39786.06
647.24	39698.6
647.593	39906.51
647.945	39785.61
648.298	39868.77
648.65	39582.9
649.002	39598.04
649.355	39772.05
649.707	39771.6
650.059	39863.8
650.411	40277.57
650.763	40326.61
651.115	40758.24
651.467	40625.81
651.819	40699.93
652.171	40600.95
652.523	40436.21
652.875	40574.06
653.227	40383.56
653.578	40572.03
653.93	40549.88
654.282	40392.37
654.633	40375.87
654.985	40517.11
655.337	40380.17
655.688	40479.37
656.039	40555.53
656.391	40246.61
656.742	40360.05
657.094	40299.94
657.445	40596.21
657.796	40418.36
658.147	40459.71
658.498	40405.7
658.849	40473.5
659.2	40354.41
659.551	40211.36
659.902	40477.11
660.253	40317.8
660.604	40356.66
660.955	40224.92
661.306	40345.37
661.656	40260.4
662.007	40246.84
662.358	40345.59
662.708	40250.45
663.059	40242.09
663.409	40037.8
663.76	40375.42
664.11	40187.18
664.461	40275.99
664.811	40333.61
665.161	40305.59
665.511	40231.24
665.862	40038.03
666.212	40210.68
666.562	40271.47
666.912	40243.9
667.262	40151.7
667.612	40155.31
667.962	40141.3
668.312	40139.72
668.662	40337.46
669.011	40146.73
669.361	40100.63
669.711	40071.47
670.06	40126.61
670.41	39932.04
670.76	39898.37
671.109	40166.16
671.459	39985.6
671.808	40020.4
672.157	40022.44
672.507	39778.6
672.856	39847.07
673.205	39913.06
673.554	40018.82
673.904	39782.44
674.253	40012.04
674.602	39858.15
674.951	39458.61
675.3	39162.8
675.649	39779.28
675.998	39718.49
676.346	39710.13
676.695	39929.33
677.044	39563.47
677.393	39681.43
677.741	39710.81
678.09	39708.32
678.438	39584.03
678.787	39604.59
679.135	39643.46
679.484	39327.77
679.832	39494.09
680.181	39158.28
680.529	39329.35
680.877	39124.38
681.225	39190.59
681.573	39521.21
681.922	39175
682.27	39198.28
682.618	39116.02
682.966	38952.63
683.314	39164.83
683.661	38946.31
684.009	38757.38
684.357	38718.06
684.705	38817.04
685.053	38879.19
685.4	38686.2
685.748	38641
686.095	38590.38
686.443	38450.95
686.79	38446.21
687.138	38491.18
687.485	38451.18
687.832	38238.75
688.18	38238.3
688.527	38096.61
688.874	38011.42
689.221	37966.22
689.568	37949.27
689.915	37720.58
690.262	37748.82
690.609	37554.25
690.956	37577.3
691.303	37535.04
691.65	37429.96
691.997	37441.49
692.344	37219.35
692.69	37267.93
693.037	37120.59
693.383	36922.63
693.73	36962.18
694.077	36801.5
694.423	36816.19
694.769	36691.22
695.116	36585.92
695.462	36511.12
695.808	36527.16
696.155	36640.15
696.501	36247.17
696.847	36247.17
697.193	36004.01
697.539	36283.1
697.885	35873.84
698.231	35910.45
698.577	35864.81
698.923	35858.03
699.269	35584.59
699.614	35343.92
699.96	35536.45
700.306	35334.88
700.651	35232.96
700.997	35010.36
701.342	35190.7
701.688	35114.99
702.033	35000.42
702.379	34844.04
702.724	34900.76
703.069	34919.29
703.415	34468.68
703.76	34507.55
704.105	34578.51
704.45	34414.67
704.795	34327.44
705.14	34157.96
705.485	34261.68
705.83	34049.26
706.175	34136.26
706.52	33989.15
706.865	33797.97
707.209	33768.36
707.554	33573.57
707.899	33602.04
708.243	33538.77
708.588	33497.41
708.932	33341.93
709.277	33266.46
709.621	33266
709.966	33047.7
710.31	33160.24
710.654	32793.93
710.998	32896.52
711.342	32873.25
711.687	32823.98
712.031	32668.73
712.375	32537.66
712.719	32568.4
713.063	32533.59
713.407	32625.34
713.75	32456.53
714.094	32471
714.438	32201.17
714.782	32312.81
715.125	32097.45
715.469	32200.04
715.812	32024
716.156	31966.38
716.499	31723.67
716.843	31920.28
717.186	31840.96
717.53	31973.38
717.873	31853.61
718.216	31658.14
718.559	31679.38
718.902	31576.1
719.246	31567.74
719.589	31470.34
719.932	31365.71
720.275	31193.97
720.617	31261.54
720.96	31145.38
721.303	31165.04
721.646	31128.88
721.989	31015.44
722.331	31103.8
722.674	30958.04
723.016	31077.81
723.359	30924.37
723.701	31004.82
724.044	30736.35
724.386	30753.75
724.729	30868.1
725.071	30716.24
725.413	30610.93
725.755	30581.1
726.097	30530.48
726.439	30347.66
726.782	30465.17
727.124	30536.36
727.465	30341.11
727.807	30394.21
728.149	30269.02
728.491	30199.64
728.833	30213.43
729.175	30073.55
729.516	29960.1
729.858	30004.85
730.199	30077.39
730.541	29926.88
730.882	29893.44
731.224	29925.3
731.565	29733.67
731.906	29830.39
732.248	29740.9
732.589	29681.24
732.93	29552.66
733.271	29490.28
733.612	29582.03
733.953	29588.13
734.294	29484.18
734.635	29406.67
734.976	29413.68
735.317	29221.36
735.658	29209.39
735.999	29236.28
736.339	29286.9
736.68	29275.83
737.021	29299.55
737.361	29046.23
737.702	29204.42
738.042	29113.12
738.383	28985.21
738.723	28979.34
739.063	28897.98
739.404	28979.79
739.744	28907.25
740.084	28856.18
740.424	28901.6
740.764	28730.3
741.104	28780.47
741.444	28690.98
741.784	28568.05
742.124	28618.89
742.464	28655.05
742.804	28395.85
743.143	28502.97
743.483	28422.06
743.823	28322.86
744.162	28335.06
744.502	28392.01
744.841	28279.69
745.181	28333.7
745.52	28287.38
745.86	28279.92
746.199	28153.37
746.538	28043.09
746.877	28145.69
747.216	28129.19
747.556	28046.48
747.895	28049.42
748.234	27952.02
748.573	27834.51
748.911	27779.59
749.25	27776.88
749.589	27731.91
749.928	27755.87
750.267	27750.67
750.605	27624.34
750.944	27639.26
751.283	27512.71
751.621	27649.2
751.96	27419.6
752.298	27371.24
752.636	27514.74
752.975	27357.23
753.313	27304.35
753.651	27274.75
753.989	27204.02
754.327	27109.78
754.666	26936.9
755.004	27046.28
755.342	26978.26
755.679	26879.28
756.017	26808.77
756.355	26787.08
756.693	26708.66
757.031	26731.49
757.368	26706.4
757.706	26674.54
758.044	26460.76
758.381	26532.17
758.719	26435.22
759.056	26410.59
759.394	26341.89
759.731	26088.34
760.068	26098.06
760.405	26081.11
