Data from hue_350_FLMS001491_53.txt Node
Date: Mon Feb 06 15:38:13 GMT 2017
User: dcchb
Spectrometer: FLMS00149
Trigger mode: 0
Integration Time (sec): 2.000000E-2
Scans to average: 10
Electric dark correction enabled: true
Nonlinearity correction enabled: false
Boxcar width: 0
XAxis mode: Wavelengths
Number of Pixels in Spectrum: 2048
>>>>>Begin Spectral Data<<<<<
341.393	-17.73
341.776	-17.73
342.16	-17.73
342.543	-67.67
342.927	-63.6
343.31	-60.89
343.693	-67.67
344.077	-51.4
344.46	-62.02
344.843	-61.34
345.226	-38.06
345.61	-25.86
345.993	-13.66
346.376	-2.13
346.759	-2.81
347.142	22.5
347.525	34.48
347.908	60.01
348.291	61.14
348.674	92.33
349.057	115.38
349.44	149.95
349.823	153.12
350.206	154.47
350.588	173.68
350.971	224.75
351.354	210.07
351.737	244.19
352.119	253
352.502	281.93
352.884	286.67
353.267	277.41
353.65	280.8
354.032	293.23
354.414	321.47
354.797	311.98
355.179	316.28
355.562	335.26
355.944	333.45
356.326	321.7
356.709	330.51
357.091	312.66
357.473	345.43
357.855	356.73
358.238	348.14
358.62	340.46
359.002	322.83
359.384	330.06
359.766	354.69
360.148	346.56
360.53	327.8
360.912	334.36
361.294	331.64
361.676	357.41
362.057	326.9
362.439	342.72
362.821	315.15
363.203	326.22
363.584	341.14
363.966	334.58
364.348	320.12
364.729	305.43
365.111	322.83
365.493	313.11
365.874	329.61
366.256	330.29
366.637	311.53
367.019	297.29
367.4	318.99
367.781	323.06
368.163	314.24
368.544	321.02
368.925	325.32
369.306	326.67
369.688	311.76
370.069	310.63
370.45	309.72
370.831	310.63
371.212	317.86
371.593	311.98
371.974	308.37
372.355	318.08
372.736	296.62
373.117	315.37
373.498	314.92
373.879	313.79
374.26	317.41
374.641	284.87
375.021	313.79
375.402	329.16
375.783	318.54
376.163	338.2
376.544	297.97
376.925	327.8
377.305	328.48
377.686	315.15
378.066	321.47
378.447	340.91
378.827	315.15
379.208	333.68
379.588	333.9
379.968	339.78
380.349	318.08
380.729	341.81
381.109	329.84
381.489	348.59
381.87	346.11
382.25	328.93
382.63	329.61
383.01	335.03
383.39	328.93
383.77	342.04
384.15	322.83
384.53	338.42
384.91	353.34
385.29	335.03
385.67	360.8
386.049	355.6
386.429	350.63
386.809	355.37
387.189	348.82
387.568	362.83
387.948	358.54
388.328	359.89
388.707	358.08
389.087	370.29
389.466	352.89
389.846	374.81
390.225	358.08
390.605	371.87
390.984	356.05
391.363	364.86
391.743	378.2
392.122	352.66
392.501	367.8
392.881	366.45
393.26	370.96
393.639	357.41
394.018	349.95
394.397	343.85
394.776	365.77
395.155	348.37
395.534	360.12
395.913	371.87
396.292	385.43
396.671	363.06
397.05	375.26
397.429	379.1
397.808	378.87
398.186	364.64
398.565	377.74
398.944	371.87
399.323	364.86
399.701	389.5
400.08	378.65
400.458	384.75
400.837	381.13
401.215	369.16
401.594	397.86
401.972	388.14
402.351	396.05
402.729	400.79
403.107	381.13
403.486	411.42
403.864	409.38
404.242	407.35
404.62	397.63
404.999	408.25
405.377	402.38
405.755	401.25
406.133	400.79
406.511	405.09
406.889	419.33
407.267	413.68
407.645	429.95
408.023	437.4
408.401	412.55
408.779	429.27
409.156	432.21
409.534	441.92
409.912	428.82
410.29	428.59
410.667	439.44
411.045	441.7
411.422	451.19
411.8	437.86
412.178	450.96
412.555	445.09
412.933	452.09
413.31	450.28
413.687	456.84
414.065	479.44
414.442	471.98
414.819	465.88
415.197	473.56
415.574	466.56
415.951	467.23
416.328	505.2
416.705	480.11
417.082	498.65
417.46	487.35
417.837	483.05
418.214	502.49
418.591	497.52
418.967	497.29
419.344	494.13
419.721	521.92
420.098	525.31
420.475	493.67
420.852	529.38
421.228	510.4
421.605	523.96
421.982	531.86
422.358	537.06
422.735	543.62
423.111	527.34
423.488	540.45
423.864	552.2
424.241	556.72
424.617	553.11
424.994	549.49
425.37	541.58
425.746	565.99
426.123	562.82
426.499	556.95
426.875	590.85
427.251	587.23
427.627	565.99
428.003	591.52
428.379	571.19
428.756	585.2
429.132	580.45
429.507	587.91
429.883	596.04
430.259	597.63
430.635	600.56
431.011	594.91
431.387	634.01
431.763	648.25
432.138	632.2
432.514	650.73
432.89	639.43
433.265	642.14
433.641	645.99
434.016	659.54
434.392	668.13
434.767	678.75
435.143	667.91
435.518	688.24
435.894	686.44
436.269	672.65
436.644	671.3
437.02	686.21
437.395	688.47
437.77	683.72
438.145	721.69
438.52	704.52
438.895	720.33
439.271	719.66
439.646	716.49
440.021	749.03
440.395	728.24
440.77	719.43
441.145	737.28
441.52	785.42
441.895	752.65
442.27	754.01
442.645	758.53
443.019	755.36
443.394	758.07
443.769	810.5
444.143	772.31
444.518	766.21
444.892	758.98
445.267	801.91
445.641	765.53
446.016	787.9
446.39	819.54
446.764	817.28
447.139	791.74
447.513	801.91
447.887	798.3
448.262	790.16
448.636	783.61
449.01	829.03
449.384	830.16
449.758	810.95
450.132	822.25
450.506	825.64
450.88	813.21
451.254	841.46
451.628	832.87
452.002	829.71
452.376	858.41
452.75	876.26
453.123	873.55
453.497	870.16
453.871	873.78
454.244	898.41
454.618	870.39
454.992	901.35
455.365	896.83
455.739	926.43
456.112	905.64
456.486	937.5
456.859	925.75
457.232	951.29
457.606	929.82
457.979	918.97
458.352	953.1
458.725	967.56
459.099	982.47
459.472	1005.3
459.845	1000.55
460.218	1009.37
460.591	1024.73
460.964	1025.41
461.337	1033.09
461.71	1033.55
462.083	1029.7
462.456	1054.34
462.829	1036.03
463.201	1076.48
463.574	1064.05
463.947	1087.78
464.32	1085.3
464.692	1108.12
465.065	1078.52
465.438	1108.12
465.81	1145.63
466.183	1142.92
466.555	1175.46
466.928	1168.01
467.3	1174.79
467.672	1193.77
468.045	1209.81
468.417	1216.82
468.789	1215.69
469.161	1231.96
469.534	1278.29
469.906	1270.6
470.278	1299.98
470.65	1303.37
471.022	1324.84
471.394	1326.19
471.766	1336.14
472.138	1358.74
472.51	1398.51
472.882	1408
473.253	1399.86
473.625	1409.81
473.997	1465.17
474.369	1471.73
474.74	1482.35
475.112	1490.71
475.484	1575.68
475.855	1558.96
476.227	1558.96
476.598	1602.12
476.97	1611.84
477.341	1653.64
477.713	1639.18
478.084	1683.7
478.455	1737.93
478.827	1737.48
479.198	1802.34
479.569	1808.22
479.94	1857.25
480.311	1867.87
480.682	1909.91
481.053	1934.31
481.424	1957.82
481.795	2023.35
482.166	2022.22
482.537	2016.57
482.908	2077.36
483.279	2131.14
483.65	2111.03
484.021	2170.92
484.391	2206.85
484.762	2257.24
485.133	2243.01
485.503	2311.48
485.874	2363.23
486.244	2364.58
486.615	2412.72
486.985	2451.59
487.356	2496.33
487.726	2510.34
488.097	2523.22
488.467	2561.64
488.837	2631.7
489.207	2625.14
489.578	2692.71
489.948	2686.84
490.318	2730
490.688	2770.45
491.058	2827.62
491.428	2820.17
491.798	2845.48
492.168	2902.88
492.538	2900.39
492.908	2953.72
493.278	3015.19
493.648	3027.84
494.017	3058.13
494.387	3075.53
494.757	3122.08
495.126	3145.81
495.496	3132.7
495.866	3234.62
496.235	3211.79
496.605	3233.04
496.974	3290.89
497.344	3295.86
497.713	3304.22
498.082	3295.63
498.452	3356.2
498.821	3379.7
499.19	3376.76
499.559	3347.38
499.928	3433.94
500.298	3494.27
500.667	3473.03
501.036	3500.15
501.405	3490.66
501.774	3499.02
502.143	3555.06
502.512	3522.75
502.88	3587.38
503.249	3608.39
503.618	3623.53
503.987	3640.48
504.356	3681.61
504.724	3647.71
505.093	3700.37
505.462	3728.16
505.83	3718.45
506.199	3740.59
506.567	3738.33
506.936	3748.96
507.304	3820.59
507.672	3851.78
508.041	3823.53
508.409	3850.2
508.777	3871.44
509.145	3902.85
509.514	3874.15
509.882	3909.63
510.25	3899.23
510.618	3894.94
510.986	3902.85
511.354	3944.2
511.722	4012
512.09	4038.89
512.458	4041.38
512.826	4045.22
513.193	4073.69
513.561	4065.78
513.929	4074.14
514.297	4133.58
514.664	4132.9
515.032	4074.14
515.4	4164.76
515.767	4153.01
516.135	4186.01
516.502	4138.32
516.869	4178.1
517.237	4178.55
517.604	4167.48
517.972	4209.73
518.339	4249.73
518.706	4245.67
519.073	4210.86
519.44	4244.08
519.808	4336.96
520.175	4268.26
520.542	4338.77
520.909	4347.13
521.276	4303.97
521.643	4374.02
522.009	4393.91
522.376	4467.35
522.743	4431.2
523.11	4461.25
523.477	4483.85
523.843	4496.28
524.21	4560.91
524.577	4567.24
524.943	4577.18
525.31	4615.6
525.676	4618.31
526.043	4629.38
526.409	4650.4
526.776	4756.84
527.142	4653.56
527.508	4703.73
527.874	4750.96
528.241	4784.86
528.607	4748.48
528.973	4838.87
529.339	4828.7
529.705	4850.4
530.071	4871.86
530.437	4917.96
530.803	4913.9
531.169	4919.09
531.535	4972.2
531.901	5025.76
532.267	4997.06
532.632	5002.48
532.998	5063.27
533.364	5066.43
533.73	5138.3
534.095	5143.95
534.461	5168.13
534.826	5168.35
535.192	5174.68
535.557	5232.76
535.923	5188.47
536.288	5206.32
536.653	5264.4
537.019	5189.14
537.384	5249.48
537.749	5305.3
538.114	5311.85
538.479	5314.79
538.845	5331.51
539.21	5364.96
539.575	5368.35
539.94	5441.34
540.305	5453.09
540.67	5431.17
541.034	5526.54
541.399	5501.9
541.764	5541.22
542.129	5556.59
542.494	5528.8
542.858	5562.92
543.223	5658.51
543.587	5593.88
543.952	5644.72
544.316	5730.82
544.681	5663.93
545.045	5714.78
545.41	5740.54
545.774	5722.46
546.138	5767.66
546.503	5771.73
546.867	5773.76
547.231	5812.86
547.595	5894.21
547.959	5833.87
548.324	5889.46
548.688	5925.62
549.052	5923.59
549.416	5992.06
549.779	5971.04
550.143	5992.74
550.507	6015.79
550.871	6020.53
551.235	6066.41
551.599	6122.68
551.962	6155.22
552.326	6102.79
552.689	6147.99
553.053	6125.39
553.417	6129.68
553.78	6242.67
554.143	6179.63
554.507	6269.57
554.87	6253.97
555.234	6319.73
555.597	6308.44
555.96	6307.98
556.323	6391.37
556.686	6342.56
557.05	6407.19
557.413	6354.99
557.776	6396.34
558.139	6432.27
558.502	6467.75
558.865	6484.02
559.228	6435.89
559.59	6506.17
559.953	6510.92
560.316	6571.25
560.679	6558.37
561.041	6583.68
561.404	6603.34
561.767	6752.04
562.129	6650.57
562.492	6664.81
562.854	6750.01
563.217	6739.61
563.579	6728.76
563.941	6780.06
564.304	6785.94
564.666	6845.14
565.028	6832.04
565.39	6865.03
565.753	6883.34
566.115	6911.13
566.477	6918.36
566.839	6929.44
567.201	7016.21
567.563	6983.67
567.925	7003.33
568.287	7092.82
568.648	7077.91
569.01	7117.91
569.372	7117
569.734	7165.14
570.095	7227.28
570.457	7250.78
570.819	7239.71
571.18	7319.03
571.542	7293.04
571.903	7361.74
572.265	7396.54
572.626	7410.55
572.987	7463.66
573.349	7493.94
573.71	7565.13
574.071	7542.3
574.432	7650.77
574.794	7700.94
575.155	7701.17
575.516	7766.25
575.877	7865.68
576.238	7906.36
576.599	7989.52
576.96	8036.07
577.32	8112.91
577.681	8166.92
578.042	8300.7
578.403	8340.02
578.763	8392
579.124	8455.72
579.485	8577.53
579.845	8703.85
580.206	8746.11
580.566	8850.74
580.927	8941.36
581.287	9062.04
581.648	9201.47
582.008	9342.03
582.368	9508.35
582.728	9655.01
583.089	9796.03
583.449	9913.99
583.809	10041.9
584.169	10284.38
584.529	10424.94
584.889	10684.82
585.249	10771.14
585.609	10858.6
585.969	11163.68
586.329	11270.79
586.688	11518.24
587.048	11731.12
587.408	11912.58
587.768	12116.64
588.127	12360.48
588.487	12554.37
588.846	12825.1
589.206	13031.42
589.565	13297.63
589.925	13578.98
590.284	13726.32
590.643	14048.57
591.003	14331.95
591.362	14588.67
591.721	14842.45
592.08	15108.88
592.44	15442.88
592.799	15688.3
593.158	15947.96
593.517	16220.72
593.876	16529.86
594.235	16777.09
594.593	17115.16
594.952	17480.8
595.311	17651.87
595.67	17907.23
596.029	18246.88
596.387	18670.6
596.746	18987.2
597.104	19133.64
597.463	19476.23
597.822	19865.14
598.18	20061.07
598.538	20417.22
598.897	20818.34
599.255	20896.53
599.613	21547.58
599.972	21586.68
600.33	21959.55
600.688	22160
601.046	22590.72
601.404	22912.74
601.762	23009.01
602.12	23521.77
602.478	23691.93
602.836	23975.77
603.194	24182.54
603.552	24572.59
603.91	24752.24
604.268	24958.34
604.625	25109.52
604.983	25674.71
605.341	25704.76
605.698	26151.3
606.056	26349.04
606.413	26725.98
606.771	27031.05
607.128	27085.06
607.485	27335.23
607.843	27441.89
608.2	27966.17
608.557	28260.4
608.914	28326.61
609.272	28617
609.629	28851.8
609.986	29168.4
610.343	29189.19
610.7	29753.24
611.057	29882.05
611.414	29979.45
611.771	30175.83
612.127	30458.54
612.484	30580.79
612.841	30802.71
613.198	30884.29
613.554	31088.8
613.911	31423.26
614.267	31460.99
614.624	31725.39
614.98	31892.62
615.337	32150.92
615.693	32366.51
616.05	32288.54
616.406	32808.98
616.762	32729.66
617.118	33015.53
617.475	33081.29
617.831	33362.87
618.187	33442.19
618.543	33657.55
618.899	33967.82
619.255	33944.09
619.611	34033.36
619.967	34297.08
620.323	34492.78
620.678	34393.57
621.034	34423.4
621.39	34600.57
621.746	34649.84
622.101	35070.62
622.457	34991.75
622.812	35207.79
623.168	35287.79
623.523	35415.24
623.879	35434.9
624.234	35426.31
624.589	35521.9
624.945	35613.2
625.3	35847.77
625.655	35884.61
626.01	36010.71
626.365	36045.51
626.72	36102.68
627.075	36155.56
627.43	36160.53
627.785	36147.88
628.14	36207.76
628.495	36424.71
628.85	36439.39
629.205	36268.55
629.559	36566.17
629.914	36596.45
630.269	36623.8
630.623	36609.33
630.978	36607.98
631.332	36767.3
631.687	36753.06
632.041	36603.01
632.396	36830.57
632.75	36684.36
633.104	36901.3
633.459	36657.24
633.813	36753.06
634.167	36648.66
634.521	36859.27
634.875	36858.37
635.229	36965.93
635.583	36678.26
635.937	36664.47
636.291	36707.86
636.645	36846.39
636.999	36784.7
637.352	36916.9
637.706	36545.61
638.06	36886.16
638.413	36728.65
638.767	36869.21
639.121	36838.48
639.474	36682.78
639.828	36868.08
640.181	36782.66
640.534	36810.68
640.888	36739.73
641.241	36596.23
641.594	36676.45
641.947	36801.65
642.301	36719.84
642.654	36674.19
643.007	36764.13
643.36	36680.74
643.713	36647.07
644.066	36788.99
644.419	36604.14
644.771	36324.37
645.124	35914.66
645.477	36121.66
645.83	35793.54
646.182	35673.31
646.535	35576.82
646.888	35702.24
647.24	35414.34
647.593	35809.36
647.945	35650.72
648.298	35564.16
648.65	35432.19
649.002	35318.52
649.355	35428.12
649.707	35391.51
650.059	35535.92
650.411	36063.59
650.763	36058.61
651.115	36525.72
651.467	36365.95
651.819	36363.69
652.171	36226.07
652.523	36348.32
652.875	36217.93
653.227	36067.43
653.578	36272.17
653.93	36286.4
654.282	36029.91
654.633	35921.22
654.985	36116.01
655.337	36142.45
655.688	36138.16
656.039	36242.79
656.391	35836.92
656.742	36014.77
657.094	36001.67
657.445	36148.1
657.796	35868.79
658.147	36043.7
658.498	35923.48
658.849	36101.1
659.2	35950.14
659.551	35877.38
659.902	36092.06
660.253	35901.78
660.604	36108.56
660.955	35848.9
661.306	35972.06
661.656	35864.04
662.007	35852.97
662.358	35873.99
662.708	35920.76
663.059	35963.25
663.409	35730.04
663.76	35976.13
664.11	35935.23
664.461	35877.83
664.811	35887.09
665.161	35875.79
665.511	35737.72
665.862	35863.82
666.212	35885.51
666.562	35880.54
666.912	35959.63
667.262	35767.1
667.612	35804.16
667.962	35900.88
668.312	35866.75
668.662	35899.97
669.011	35847.32
669.361	35852.97
669.711	35692.52
670.06	35604.39
670.41	35746.98
670.76	35619.76
671.109	35748.34
671.459	35693.2
671.808	35637.38
672.157	35704.27
672.507	35457.95
672.856	35491.17
673.205	35473.32
673.554	35666.53
673.904	35529.59
674.253	35751.73
674.602	35631.96
674.951	35042.6
675.3	34974.35
675.649	35509.48
675.998	35464.51
676.346	35438.52
676.695	35504.28
677.044	35321.23
677.393	35585.41
677.741	35490.27
678.09	35230.84
678.438	35269.93
678.787	35375.47
679.135	35280.33
679.484	35118.07
679.832	35105.64
680.181	35102.03
680.529	35158.98
680.877	34989.72
681.225	34985.87
681.573	35084.18
681.922	34806.67
682.27	34865.2
682.618	34853.9
682.966	34695.94
683.314	34862.71
683.661	34859.32
684.009	34451.42
684.357	34530.74
684.705	34402.16
685.053	34456.4
685.4	34338.43
685.748	34269.73
686.095	34277.87
686.443	34223.63
686.79	34253.69
687.138	34314.03
687.485	34112.9
687.832	34081.49
688.18	34119.91
688.527	33896.19
688.874	33813.7
689.221	33893.93
689.568	33611.22
689.915	33741.39
690.262	33640.82
690.609	33544.33
690.956	33434.73
691.303	33432.24
691.65	33306.14
691.997	33350.66
692.344	33025.7
692.69	33161.52
693.037	33108.86
693.383	32757.01
693.73	33048.98
694.077	32710
694.423	32693.5
694.769	32611.47
695.116	32541.42
695.462	32479.05
695.808	32370.35
696.155	32455.32
696.501	32241.54
696.847	32246.74
697.193	32119.06
697.539	32107.98
697.885	31948.44
698.231	31789.8
698.577	31834.77
698.923	31782.34
699.269	31554.78
699.614	31379.42
699.96	31480.88
700.306	31368.12
700.651	31285.41
700.997	31112.98
701.342	31144.84
701.688	31056.49
702.033	30976.49
702.379	30940.56
702.724	30861.01
703.069	30825.53
703.415	30519.1
703.76	30550.28
704.105	30609.49
704.45	30462.15
704.795	30460.57
705.14	30242.95
705.485	30356.17
705.83	30157.07
706.175	30189.62
706.52	30078.88
706.865	29914.59
707.209	29978.55
707.554	29826.91
707.899	29880.25
708.243	29755.5
708.588	29821.04
708.932	29540.82
709.277	29544.66
709.621	29450.43
709.966	29305.8
710.31	29328.62
710.654	29084.33
710.998	29222.41
711.342	29166.82
711.687	29249.75
712.031	28960.5
712.375	28925.47
712.719	28895.86
713.063	28861.74
713.407	28907.39
713.75	28736.77
714.094	28717.56
714.438	28526.83
714.782	28695.64
715.125	28441.41
715.469	28438.93
715.812	28407.97
716.156	28272.15
716.499	28287.07
716.843	28305.37
717.186	28126.62
717.53	28245.94
717.873	28160.97
718.216	27964.82
718.559	27955.1
718.902	27708.55
719.246	27862.67
719.589	27780.64
719.932	27699.96
720.275	27709.91
720.617	27602.11
720.96	27580.64
721.303	27600.98
721.646	27715.78
721.989	27393.98
722.331	27391.27
722.674	27388.56
723.016	27277.6
723.359	27331.84
723.701	27415
724.044	27384.04
724.386	27057.27
724.729	27217.72
725.071	27184.72
725.413	27088.68
725.755	27019.76
726.097	26911.96
726.439	26780.67
726.782	26868.8
727.124	26869.25
727.465	26690.27
727.807	26755.81
728.149	26665.41
728.491	26584.51
728.833	26692.08
729.175	26634.91
729.516	26529.83
729.858	26638.3
730.199	26616.6
730.541	26438.75
730.882	26365.99
731.224	26451.86
731.565	26353.78
731.906	26245.31
732.248	26343.84
732.589	26099.1
732.93	26014.81
733.271	26050.74
733.612	26045.09
733.953	26190.17
734.294	26048.03
734.635	25946.11
734.976	25963.06
735.317	25829.73
735.658	25819.79
735.999	25892.1
736.339	25784.08
736.68	25835.38
737.021	25808.49
737.361	25600.13
737.702	25661.37
738.042	25627.93
738.383	25575.05
738.723	25615.72
739.063	25652.56
739.404	25685.55
739.744	25396.75
740.084	25349.07
740.424	25436.97
740.764	25337.31
741.104	25481.94
741.444	25290.08
741.784	25247.6
742.124	25153.14
742.464	25228.39
742.804	25220.48
743.143	25157.88
743.483	25128.73
743.823	24872.92
744.162	24937.78
744.502	25032.92
744.841	24827.27
745.181	24924.44
745.52	24744.79
745.86	24864.56
746.199	24804.22
746.538	24761.51
746.877	24778.68
747.216	24744.79
747.556	24671.12
747.895	24756.31
748.234	24644.45
748.573	24598.12
748.911	24505.92
749.25	24563.1
749.589	24352.93
749.928	24396.77
750.267	24330.11
750.605	24274.29
750.944	24313.61
751.283	24215.31
751.621	24281.75
751.96	24095.54
752.298	24110.45
752.636	24107.52
752.975	24023
753.313	23902.32
753.651	24145.71
753.989	23813.06
754.327	23811.25
754.666	23752.72
755.004	23685.61
755.342	23801.08
755.679	23659.39
756.017	23535.78
756.355	23740.75
756.693	23467.76
757.031	23561.54
757.368	23400.19
757.706	23363.58
758.044	23245.84
758.381	23389.57
758.719	23114.32
759.056	23215.34
759.394	23109.58
759.731	22988.68
760.068	22935.12
760.405	22981.22
760.743	22893.99
761.08	22790.94
