Data from hue_38_FLMS001491_00100.txt Node
Date: Tue Feb 07 17:32:15 GMT 2017
User: dcchb
Spectrometer: FLMS00149
Trigger mode: 0
Integration Time (sec): 2.000000E-2
Scans to average: 10
Electric dark correction enabled: true
Nonlinearity correction enabled: false
Boxcar width: 0
XAxis mode: Wavelengths
Number of Pixels in Spectrum: 2048
>>>>>Begin Spectral Data<<<<<
341.393	-3.87
341.776	-3.87
342.16	-3.87
342.543	-68.5
342.927	-75.96
343.31	-74.38
343.693	-67.37
344.077	-56.75
344.46	-66.24
344.843	-57.43
345.226	-44.09
345.61	-28.5
345.993	-21.95
346.376	13.76
346.759	21.89
347.142	9.69
347.525	51.5
347.908	57.6
348.291	59.41
348.674	78.61
349.057	124.26
349.44	130.82
349.823	155.45
350.206	159.74
350.588	180.08
350.971	208.78
351.354	232.06
351.737	237.71
352.119	263.24
352.502	259.17
352.884	274.31
353.267	285.16
353.65	300.08
354.032	319.29
354.414	303.01
354.797	303.69
355.179	322.45
355.562	342.56
355.944	313.86
356.326	349.34
356.709	337.14
357.091	362.45
357.473	354.99
357.855	356.12
358.238	330.81
358.62	329.68
359.002	329
359.384	346.63
359.766	357.93
360.148	334.65
360.53	330.13
360.912	338.04
361.294	340.75
361.676	335.56
362.057	327.42
362.439	334.65
362.821	331.94
363.203	350.7
363.584	346.18
363.966	347.76
364.348	328.32
364.729	329.68
365.111	355.67
365.493	326.97
365.874	335.1
366.256	286.52
366.637	318.16
367.019	319.51
367.4	321.32
367.781	348.44
368.163	326.97
368.544	321.09
368.925	318.38
369.306	317.25
369.688	307.08
370.069	322.22
370.45	312.05
370.831	314.77
371.212	303.69
371.593	305.27
371.974	299.85
372.355	304.6
372.736	330.58
373.117	327.87
373.498	317.03
373.879	307.76
374.26	298.27
374.641	317.7
375.021	340.53
375.402	332.84
375.783	335.33
376.163	348.89
376.544	356.35
376.925	329.23
377.305	344.6
377.686	347.76
378.066	320.87
378.447	342.79
378.827	325.16
379.208	347.08
379.588	329.45
379.968	343.92
380.349	341.21
380.729	340.75
381.109	359.74
381.489	354.31
381.87	352.28
382.25	369.45
382.63	355.89
383.01	349.57
383.39	354.99
383.77	353.18
384.15	357.93
384.53	366.29
384.91	372.39
385.29	346.4
385.67	361.32
386.049	354.76
386.429	359.06
386.809	347.99
387.189	343.01
387.568	358.38
387.948	356.35
388.328	353.63
388.707	332.17
389.087	355.22
389.466	379.17
389.846	354.31
390.225	364.93
390.605	370.81
390.984	362.67
391.363	374.65
391.743	401.77
392.122	372.39
392.501	363.58
392.881	390.47
393.26	392.5
393.639	374.88
394.018	373.75
394.397	389.11
394.776	361.54
395.155	398.38
395.534	380.98
395.913	379.85
396.292	394.31
396.671	390.7
397.05	405.38
397.429	391.15
397.808	422.79
398.186	392.28
398.565	421.88
398.944	418.27
399.323	401.09
399.701	422.33
400.08	408.77
400.458	434.99
400.837	405.16
401.215	409.9
401.594	408.77
401.972	403.58
402.351	419.4
402.729	421.88
403.107	429.56
403.486	430.02
403.864	427.98
404.242	446.29
404.62	434.31
404.999	433.63
405.377	420.98
405.755	421.66
406.133	423.01
406.511	436.12
406.889	445.16
407.267	461.88
407.645	459.39
408.023	429.79
408.401	454.65
408.779	451.94
409.156	456
409.534	453.97
409.912	474.08
410.29	475.21
410.667	497.13
411.045	473.18
411.422	457.59
411.8	451.71
412.178	489.22
412.555	487.19
412.933	476.57
413.31	471.15
413.687	496.68
414.065	493.97
414.442	483.35
414.819	498.26
415.197	507.53
415.574	519.28
415.951	518.15
416.328	503.91
416.705	525.61
417.082	534.42
417.46	536.91
417.837	506.85
418.214	561.76
418.591	531.26
418.967	573.74
419.344	521.99
419.721	535.55
420.098	504.59
420.475	551.14
420.852	561.09
421.228	555.44
421.605	564.93
421.982	562.22
422.358	559.28
422.735	571.26
423.111	591.82
423.488	574.87
423.864	583.69
424.241	611.48
424.617	588.88
424.994	595.21
425.37	604.7
425.746	610.58
426.123	628.43
426.499	603.57
426.875	601.31
427.251	603.8
427.627	605.61
428.003	636.11
428.379	648.99
428.756	657.36
429.132	661.88
429.507	649.22
429.883	669.11
430.259	677.69
430.635	646.51
431.011	657.13
431.387	682.21
431.763	705.26
432.138	716.11
432.514	693.51
432.89	671.59
433.265	691.7
433.641	693.29
434.016	715.43
434.392	719.73
434.767	726.05
435.143	733.29
435.518	732.38
435.894	758.6
436.269	752.04
436.644	751.14
437.02	766.73
437.395	761.08
437.77	767.18
438.145	772.83
438.52	803.11
438.895	800.85
439.271	802.89
439.646	808.54
440.021	818.48
440.395	806.5
440.77	836.11
441.145	833.17
441.52	852.38
441.895	816.9
442.27	822.55
442.645	838.82
443.019	860.29
443.394	841.76
443.769	866.84
444.143	856.45
444.518	871.59
444.892	837.24
445.267	881.76
445.641	897.12
446.016	895.99
446.39	920.85
446.764	903
447.139	915.43
447.513	899.16
447.887	895.77
448.262	918.82
448.636	930.12
449.01	917.91
449.384	933.05
449.758	936.22
450.132	952.04
450.506	955.2
450.88	969.44
451.254	960.85
451.628	949.33
452.002	976.67
452.376	966.95
452.75	1015.99
453.123	1019.83
453.497	1018.7
453.871	1037.01
454.244	1034.97
454.618	1034.29
454.992	1050.34
455.365	1086.5
455.739	1088.76
456.112	1097.8
456.486	1092.15
456.859	1098.93
457.232	1120.39
457.606	1106.16
457.979	1135.08
458.352	1169.88
458.725	1151.58
459.099	1189.32
459.472	1204.23
459.845	1231.58
460.218	1199.04
460.591	1250.79
460.964	1251.69
461.337	1286.94
461.71	1288.3
462.083	1303.67
462.456	1309.09
462.829	1322.2
463.201	1349.77
463.574	1310.22
463.947	1378.24
464.32	1389.31
464.692	1408.52
465.065	1377.34
465.438	1410.1
465.81	1433.15
466.183	1467.05
466.555	1484
466.928	1502.98
467.3	1503.21
467.672	1540.27
468.045	1595.41
468.417	1594.73
468.789	1635.63
469.161	1610.1
469.534	1653.04
469.906	1667.27
470.278	1729.19
470.65	1722.86
471.022	1769.87
471.394	1800.15
471.766	1802.18
472.138	1828.62
472.51	1865.01
472.882	1888.06
473.253	1932.58
473.625	2012.12
473.997	2006.02
474.369	2057.09
474.74	2084.66
475.112	2143.42
475.484	2165.34
475.855	2230.65
476.227	2262.29
476.598	2340.02
476.97	2372.79
477.341	2402.39
477.713	2472.22
478.084	2513.35
478.455	2583.18
478.827	2633.8
479.198	2713.57
479.569	2714.48
479.94	2838.09
480.311	2885.32
480.682	2956.5
481.053	3061.59
481.424	3137.97
481.795	3177.52
482.166	3274.46
482.537	3295.93
482.908	3393.55
483.279	3483.27
483.65	3575.7
484.021	3657.73
484.391	3777.05
484.762	3773.66
485.133	3870.83
485.503	3935.24
485.874	4081.9
486.244	4140.88
486.615	4328.45
486.985	4350.82
487.356	4490.25
487.726	4541.1
488.097	4640.75
488.467	4733.41
488.837	4878.71
489.207	4998.48
489.578	5059.27
489.948	5176.33
490.318	5259.04
490.688	5346.5
491.058	5510.34
491.428	5556.44
491.798	5692.93
492.168	5856.31
492.538	5923.88
492.908	6017.89
493.278	6072.81
493.648	6200.94
494.017	6306.25
494.387	6458.78
494.757	6491.55
495.126	6612.68
495.496	6675.95
495.866	6790.98
496.235	6867.81
496.605	6995.49
496.974	7032.56
497.344	7109.62
497.713	7302.38
498.082	7295.37
498.452	7460.79
498.821	7573.33
499.19	7528.81
499.559	7687.91
499.928	7810.16
500.298	7907.33
500.667	7949.59
501.036	8032.75
501.405	8128.57
501.774	8223.48
502.143	8264.61
502.512	8347.77
502.88	8428.68
503.249	8477.04
503.618	8624.15
503.987	8640.87
504.356	8783.24
504.724	8768.55
505.093	8936.91
505.462	8969.23
505.83	8998.61
506.199	9105.04
506.567	9253.51
506.936	9239.73
507.304	9368.54
507.672	9372.61
508.041	9507.07
508.409	9573.73
508.777	9659.38
509.145	9768.98
509.514	9825.48
509.882	9849.66
510.25	9927.39
510.618	9984.34
510.986	10025.47
511.354	10171.46
511.722	10273.37
512.09	10330.32
512.458	10340.72
512.826	10402.18
513.193	10531.67
513.561	10563.54
513.929	10628.39
514.297	10732.34
514.664	10773.02
515.032	10868.61
515.4	10989.51
515.767	10980.25
516.135	11010.53
516.502	11067.25
516.869	11218.89
517.237	11281.26
517.604	11187.47
517.972	11391.31
518.339	11445.77
518.706	11519.89
519.073	11576.62
519.44	11595.6
519.808	11696.61
520.175	11662.26
520.542	11851.19
520.909	11911.52
521.276	11916.27
521.643	12092.31
522.009	12102.93
522.376	12252.76
522.743	12255.24
523.11	12397.61
523.477	12477.38
523.843	12641.22
524.21	12705.17
524.577	12786.08
524.943	12899.07
525.31	12850.26
525.676	13025.62
526.043	13033.08
526.409	13144.48
526.776	13235.1
527.142	13352.39
527.508	13339.51
527.874	13398.04
528.241	13565.94
528.607	13622.89
528.973	13744.47
529.339	13739.72
529.705	13908.98
530.071	14030.11
530.437	14105.14
530.803	14113.27
531.169	14174.51
531.535	14220.16
531.901	14283.44
532.267	14278.24
532.632	14389.65
532.998	14449.08
533.364	14572.24
533.73	14626.93
534.095	14738.34
534.461	14800.49
534.826	14851.78
535.192	14831.45
535.557	15023.98
535.923	15045.23
536.288	15082.29
536.653	15179.23
537.019	15131.55
537.384	15193.92
537.749	15273.24
538.114	15390.75
538.479	15352.11
538.845	15477.53
539.21	15411.77
539.575	15485.44
539.94	15596.62
540.305	15693.34
540.67	15717.98
541.034	15763.4
541.399	15831.65
541.764	15944.41
542.129	16012.66
542.494	16038.87
542.858	16137.17
543.223	16072.32
543.587	16275.93
543.952	16219.21
544.316	16291.97
544.681	16288.58
545.045	16371.52
545.41	16555.92
545.774	16536.03
546.138	16634.34
546.503	16710.49
546.867	16681.57
547.231	16809.7
547.595	16870.04
547.959	16843.14
548.324	16942.35
548.688	16958.85
549.052	17025.06
549.416	17112.29
549.779	17129.92
550.143	17212.4
550.507	17245.39
550.871	17390.93
551.235	17456.24
551.599	17473.18
551.962	17560.41
552.326	17633.86
552.689	17606.74
553.053	17542.11
553.417	17703.01
553.78	17986.17
554.143	17919.73
554.507	17982.78
554.87	17964.25
555.234	18127.86
555.597	18065.94
555.96	18175.99
556.323	18164.69
556.686	18248.31
557.05	18419.6
557.413	18438.81
557.776	18514.97
558.139	18635.19
558.502	18691.68
558.865	18625.24
559.228	18718.8
559.59	18804.9
559.953	18866.82
560.316	19043.09
560.679	19028.85
561.041	19150.43
561.404	19239.24
561.767	19304.1
562.129	19325.34
562.492	19430.42
562.854	19455.05
563.217	19510.19
563.579	19573.24
563.941	19670.19
564.304	19713.13
564.666	19852.33
565.028	19884.65
565.39	19909.73
565.753	20081.7
566.115	20177.07
566.477	20165.54
566.839	20221.81
567.201	20468.13
567.563	20450.28
567.925	20570.96
568.287	20595.81
568.648	20635.14
569.01	20788.35
569.372	20877.16
569.734	20882.13
570.095	21060.66
570.457	21093.65
570.819	21121.68
571.18	21196.7
571.542	21247.77
571.903	21316.93
572.265	21471.5
572.626	21491.61
572.987	21589.23
573.349	21624.26
573.71	21775.9
574.071	21922.11
574.432	21927.08
574.794	22220.4
575.155	22165.26
575.516	22207.75
575.877	22399.16
576.238	22435.77
576.599	22644.8
576.96	22750.56
577.32	22835.76
577.681	23020.16
578.042	23091.12
578.403	23233.26
578.763	23324.56
579.124	23562.74
579.485	23626.92
579.845	23875.05
580.206	23929.29
580.566	23967.03
580.927	24158.66
581.287	24474.81
581.648	24534.92
582.008	24763.84
582.368	24778.08
582.728	25043.16
583.089	25085.41
583.449	25230.04
583.809	25403.82
584.169	25586.42
584.529	25633.65
584.889	26163.13
585.249	26111.83
585.609	26257.59
585.969	26574.41
586.329	26589.78
586.688	26956.78
587.048	27106.38
587.408	27206.04
587.768	27554.05
588.127	27619.13
588.487	27786.13
588.846	28195.61
589.206	28331.43
589.565	28384.99
589.925	28888.7
590.284	28881.47
590.643	29153.33
591.003	29458.86
591.362	29721.22
591.721	29882.58
592.08	29999.41
592.44	30331.38
592.799	30461.54
593.158	30553.07
593.517	30749.67
593.876	30999.38
594.235	31146.5
594.593	31372.71
594.952	31616.32
595.311	31808.63
595.67	32155.28
596.029	32369.52
596.387	32548.49
596.746	32821.48
597.104	32829.84
597.463	32959.11
597.822	33258.08
598.18	33376.27
598.538	33554.8
598.897	33891.74
599.255	33802.02
599.613	34589.12
599.972	34349.8
600.33	34578.95
600.688	34667.53
601.046	34940.07
601.404	35091.7
601.762	35202.21
602.12	35543.9
602.478	35673.84
602.836	35858.92
603.194	35794.28
603.552	35951.79
603.91	35912.93
604.268	36544.55
604.625	36491.22
604.983	36608.5
605.341	36683.53
605.698	37012.33
606.056	37341.81
606.413	37288.03
606.771	37554.69
607.128	37661.81
607.485	37614.58
607.843	37833.33
608.2	37992.19
608.557	38204.84
608.914	38155.8
609.272	38558.28
609.629	38638.05
609.986	38778.61
610.343	38770.03
610.7	38997.82
611.057	39072.39
611.414	39076.01
611.771	39275.1
612.127	39440.29
612.484	39516.45
612.841	39682.09
613.198	39727.97
613.554	39900.84
613.911	40150.1
614.267	40172.7
614.624	40297.22
614.98	40386.71
615.337	40554.16
615.693	40649.98
616.05	40667.83
616.406	40854.94
616.762	40838.45
617.118	40961.83
617.475	41117.76
617.831	41246.34
618.187	41178.32
618.543	41296.51
618.899	41572.21
619.255	41491.76
619.611	41625.77
619.967	41724.52
620.323	41769.49
620.678	41818.76
621.034	41712.1
621.39	41932.65
621.746	42033.89
622.101	42291.74
622.457	42048.58
622.812	42082.71
623.168	42306.66
623.523	42262.59
623.879	42463.94
624.234	42330.84
624.589	42494.22
624.945	42529.7
625.3	42667.55
625.655	42662.13
626.01	42785.29
626.365	42788.68
626.72	42698.06
627.075	42766.98
627.43	42781.9
627.785	42730.15
628.14	42795.46
628.495	42795.23
628.85	42893.53
629.205	42717.49
629.559	43123.81
629.914	42788.23
630.269	42926.98
630.623	42896.92
630.978	42782.12
631.332	43138.95
631.687	43032.29
632.041	42909.8
632.396	42920.2
632.75	42976.69
633.104	43063.25
633.459	42854.21
633.813	42866.42
634.167	42870.71
634.521	42802.24
634.875	42906.19
635.229	42920.43
635.583	42802.01
635.937	42683.14
636.291	42790.49
636.645	42900.76
636.999	42605.18
637.352	42723.37
637.706	42651.96
638.06	42955.45
638.413	42680.88
638.767	42551.4
639.121	42710.26
639.474	42384.62
639.828	42526.54
640.181	42576.48
640.534	42676.82
640.888	42555.46
641.241	42165.19
641.594	42425.07
641.947	42504.62
642.301	42460.32
642.654	42496.48
643.007	42419.2
643.36	42367.45
643.713	42356.6
644.066	42422.13
644.419	42318.18
644.771	41960.68
645.124	41608.14
645.477	41618.99
645.83	41433.01
646.182	41288.38
646.535	41130.87
646.888	41170.64
647.24	41043.64
647.593	41339.45
647.945	41122.96
648.298	40855.62
648.65	40939.01
649.002	40910.99
649.355	41028.05
649.707	40937.43
650.059	41103.07
650.411	41611.53
650.763	41640.91
651.115	41965.2
651.467	41924.07
651.819	41810.17
652.171	41791.42
652.523	41676.16
652.875	41876.38
653.227	41527.02
653.578	41844.52
653.93	41950.28
654.282	41654.02
654.633	41547.58
654.985	41509.16
655.337	41612.21
655.688	41533.57
656.039	41658.99
656.391	41383.74
656.742	41480.91
657.094	41549.39
657.445	41746.44
657.796	41590.29
658.147	41442.05
658.498	41472.55
658.849	41455.38
659.2	41421.93
659.551	41331.09
659.902	41480.69
660.253	41502.84
660.604	41589.61
660.955	41213.35
661.306	41489.28
661.656	41371.77
662.007	41497.19
662.358	41445.66
662.708	41399.56
663.059	41320.24
663.409	41222.84
663.76	41398.88
664.11	41397.08
664.461	41424.19
664.811	41352.33
665.161	41470.75
665.511	41258.55
665.862	41159.79
666.212	41317.3
666.562	41283.63
666.912	41248.83
667.262	41161.83
667.612	41221.03
667.962	41195.27
668.312	41146.91
668.662	41324.31
669.011	41269.4
669.361	41246.34
669.711	41222.84
670.06	41189.62
670.41	41143.52
670.76	41054.49
671.109	41181.26
671.459	41172
671.808	41060.59
672.157	41223.07
672.507	40841.84
672.856	40994.15
673.205	40965.45
673.554	41234.59
673.904	41090.64
674.253	41233.46
674.602	41061.94
674.951	40540.83
675.3	40332.24
675.649	41053.13
675.998	40990.98
676.346	40913.02
676.695	41111.21
677.044	40625.8
677.393	40856.52
677.741	40806.36
678.09	40740.82
678.438	40597.55
678.787	40783.76
679.135	40780.82
679.484	40493.6
679.832	40641.84
680.181	40360.72
680.529	40498.34
680.877	40506.48
681.225	40228.07
681.573	40557.32
681.922	40224.45
682.27	40261.96
682.618	40239.59
682.966	40051.35
683.314	40201.63
683.661	40053.61
684.009	39932.93
684.357	39817.46
684.705	39813.16
685.053	39931.13
685.4	39784.46
685.748	39587.41
686.095	39514.41
686.443	39424.47
686.79	39364.59
687.138	39340.41
687.485	39390.57
687.832	39251.14
688.18	39310.8
688.527	39059.51
688.874	39092.5
689.221	39001.21
689.568	38914.2
689.915	38680.08
690.262	38951.26
690.609	38677.37
690.956	38538.39
691.303	38634.21
691.65	38517.38
691.997	38439.64
692.344	38118.29
692.69	38158.06
693.037	38223.6
693.383	37838.75
693.73	38048.69
694.077	37775.02
694.423	37804.63
694.769	37767.11
695.116	37671.3
695.462	37448.93
695.808	37582.94
696.155	37476.73
696.501	37158.32
696.847	37278.09
697.193	36914.48
697.539	37117.41
697.885	36934.82
698.231	36754.26
698.577	36722.85
698.923	36685.79
699.269	36467.71
699.614	36388.85
699.96	36285.35
700.306	36225.91
700.651	36296.87
700.997	36105.01
701.342	36033.83
701.688	35938.69
702.033	35822.08
702.379	35820.5
702.724	35594.29
703.069	35818.69
703.415	35371.02
703.76	35403.11
704.105	35367.63
704.45	35318.59
704.795	35110.01
705.14	35034.3
705.485	34977.81
705.83	34823.69
706.175	34966.28
706.52	34829.34
706.865	34781.88
707.209	34747.98
707.554	34537.82
707.899	34529.69
708.243	34474.77
708.588	34330.82
708.932	34066.87
709.277	34147.55
709.621	34188.9
709.966	33839.53
710.31	34116.59
710.654	33798.63
710.998	33917.05
711.342	33847.22
711.687	33687.67
712.031	33608.13
712.375	33488.58
712.719	33534.68
713.063	33565.19
713.407	33611.97
713.75	33338.53
714.094	33338.98
714.438	33068.25
714.782	33189.16
715.125	32970.4
715.469	33060.8
715.812	32805.66
716.156	32788.26
716.499	32758.88
716.843	32740.35
717.186	32620.13
717.53	32570.41
717.873	32751.88
718.216	32457.2
718.559	32453.13
718.902	32229.63
719.246	32321.61
719.589	32105.12
719.932	32036.42
720.275	32187.37
720.617	32123.42
720.96	31945.35
721.303	32036.19
721.646	32045.46
721.989	31794.39
722.331	31937.44
722.674	31772.02
723.016	31897.21
723.359	31863.31
723.701	31926.36
724.044	31568.41
724.386	31420.84
724.729	31641.63
725.071	31460.39
725.413	31466.94
725.755	31494.06
726.097	31320.05
726.439	31109.89
726.782	31112.83
727.124	31296.78
727.465	31126.61
727.807	31149.44
728.149	31034.41
728.491	30920.06
728.833	31054.3
729.175	30827.41
729.516	30780.18
729.858	30874.87
730.199	30708.32
730.541	30596
730.882	30759.84
731.224	30741.99
731.565	30493.86
731.906	30450.7
732.248	30544.71
732.589	30349
732.93	30312.85
733.271	30374.54
733.612	30245.73
733.953	30390.13
734.294	30224.94
734.635	30094.32
734.976	30147.43
735.317	29980.2
735.658	30023.36
735.999	30029.46
736.339	29933.87
736.68	29916.02
737.021	29865.18
737.361	29786.31
737.702	29854.33
738.042	29757.61
738.383	29699.76
738.723	29753.09
739.063	29468.58
739.404	29667.44
739.744	29532.53
740.084	29445.3
740.424	29431.06
740.764	29441.23
741.104	29532.08
741.444	29406.2
741.784	29279.65
742.124	29210.05
742.464	29232.2
742.804	29165.98
743.143	29240.78
743.483	29308.58
743.823	29020.9
744.162	28962.15
744.502	28958.53
744.841	28922.38
745.181	28969.38
745.52	28769.84
745.86	28967.57
746.199	28853.45
746.538	28874.47
746.877	28808.48
747.216	28795.6
747.556	28761.02
747.895	28610.29
748.234	28582.27
748.573	28599.45
748.911	28420.02
749.25	28557.19
749.589	28418.89
749.928	28464.76
750.267	28338.44
750.605	28282.62
750.944	28260.47
751.283	28081.95
751.621	28243.07
751.96	28052.79
752.298	28151.1
752.636	28000.59
752.975	28019.35
753.313	27850.99
753.651	28018.9
753.989	27722.86
754.327	27709.53
754.666	27708.62
755.004	27582.07
755.342	27732.8
755.679	27691
756.017	27396.99
756.355	27557.21
756.693	27381.17
