Data from hue_34_FLMS001491_00008.txt Node
Date: Tue Feb 07 17:25:08 GMT 2017
User: dcchb
Spectrometer: FLMS00149
Trigger mode: 0
Integration Time (sec): 2.000000E-2
Scans to average: 10
Electric dark correction enabled: true
Nonlinearity correction enabled: false
Boxcar width: 0
XAxis mode: Wavelengths
Number of Pixels in Spectrum: 2048
>>>>>Begin Spectral Data<<<<<
341.393	-23.32
341.776	-23.32
342.16	-23.32
342.543	-55.41
342.927	-71.23
343.31	-72.36
343.693	-74.62
344.077	-59.48
344.46	-61.28
344.843	-50.89
345.226	-37.33
345.61	-30.78
345.993	-20.15
346.376	-16.09
346.759	-18.35
347.142	24.82
347.525	44.25
347.908	66.17
348.291	74.53
348.674	119.5
349.057	112.05
349.44	134.19
349.823	128.54
350.206	152.04
350.588	191.14
350.971	205.38
351.354	223.23
351.737	239.5
352.119	248.54
352.502	270.01
352.884	295.54
353.267	286.05
353.65	306.62
354.032	299.61
354.414	317.46
354.797	334.64
355.179	300.51
355.562	338.03
355.944	328.54
356.326	345.49
356.709	336.9
357.091	333.06
357.473	359.27
357.855	354.52
358.238	312.49
358.62	347.52
359.002	359.5
359.384	342.77
359.766	352.04
360.148	344.13
360.53	331.7
360.912	347.52
361.294	322.44
361.676	325.6
362.057	333.28
362.439	328.76
362.821	347.97
363.203	335.09
363.584	337.8
363.966	333.96
364.348	319.05
364.729	319.05
365.111	326.28
365.493	336.9
365.874	312.72
366.256	312.04
366.637	321.76
367.019	317.46
367.4	326.05
367.781	332.83
368.163	326.5
368.544	316.11
368.925	320.85
369.306	337.35
369.688	326.05
370.069	308.65
370.45	325.37
370.831	311.59
371.212	318.59
371.593	318.82
371.974	313.4
372.355	305.71
372.736	331.25
373.117	341.19
373.498	309.78
373.879	319.95
374.26	323.34
374.641	310.91
375.021	317.24
375.402	311.36
375.783	331.93
376.163	353.85
376.544	352.26
376.925	313.85
377.305	327.63
377.686	329.67
378.066	348.65
378.447	334.64
378.827	318.14
379.208	329.21
379.588	328.76
379.968	354.3
380.349	343.68
380.729	339.84
381.109	333.51
381.489	345.71
381.87	335.54
382.25	353.17
382.63	340.74
383.01	341.19
383.39	359.95
383.77	346.16
384.15	352.49
384.53	358.59
384.91	355.65
385.29	356.33
385.67	374.86
386.049	362.66
386.429	339.61
386.809	356.56
387.189	336.67
387.568	356.78
387.948	364.02
388.328	350.91
388.707	372.15
389.087	345.26
389.466	381.19
389.846	358.82
390.225	368.31
390.605	375.09
390.984	378.93
391.363	373.73
391.743	371.25
392.122	377.57
392.501	370.34
392.881	373.06
393.26	372.6
393.639	392.72
394.018	367.18
394.397	404.92
394.776	390.68
395.155	383.68
395.534	385.94
395.913	413.73
396.292	404.01
396.671	387.74
397.05	378.03
397.429	383.22
397.808	364.47
398.186	374.64
398.565	395.2
398.944	391.81
399.323	404.01
399.701	402.88
400.08	415.31
400.458	401.53
400.837	411.25
401.215	387.07
401.594	403.79
401.972	416.67
402.351	415.54
402.729	436.1
403.107	416.22
403.486	403.56
403.864	421.87
404.242	416.44
404.62	433.62
404.999	414.64
405.377	409.66
405.755	442.21
406.133	406.73
406.511	426.61
406.889	439.72
407.267	427.97
407.645	428.65
408.023	436.33
408.401	443.11
408.779	470
409.156	445.6
409.534	453.73
409.912	458.93
410.29	467.52
410.667	429.1
411.045	444.24
411.422	482.43
411.8	473.62
412.178	495.76
412.555	474.07
412.933	475.88
413.31	484.69
413.687	481.98
414.065	472.04
414.442	494.86
414.819	491.24
415.197	489.89
415.574	489.66
415.951	477.23
416.328	512.03
416.705	511.58
417.082	522.88
417.46	535.99
417.837	517.01
418.214	515.65
418.591	537.34
418.967	511.58
419.344	517.91
419.721	495.09
420.098	535.99
420.475	527.18
420.852	518.81
421.228	525.82
421.605	532.82
421.982	540.96
422.358	557.68
422.735	540.96
423.111	554.97
423.488	565.82
423.864	583.9
424.241	562.43
424.617	560.62
424.994	593.84
425.37	554.75
425.746	576.89
426.123	563.78
426.499	585.03
426.875	570.56
427.251	598.13
427.627	612.14
428.003	584.35
428.379	608.08
428.756	609.21
429.132	635.87
429.507	603.78
429.883	631.81
430.259	616.66
430.635	619.15
431.011	644.23
431.387	637.91
431.763	660.51
432.138	667.28
432.514	686.49
432.89	662.09
433.265	666.83
433.641	693.95
434.016	701.18
434.392	686.95
434.767	688.98
435.143	701.63
435.518	684.01
435.894	676.32
436.269	693.27
436.644	725.59
437.02	732.14
437.395	732.82
437.77	734.4
438.145	742.31
438.52	766.04
438.895	764.46
439.271	737.57
439.646	782.54
440.021	777.79
440.395	762.65
440.77	770.56
441.145	775.53
441.52	795.19
441.895	795.87
442.27	789.54
442.645	788.19
443.019	784.34
443.394	803.78
443.769	829.77
444.143	830.9
444.518	819.37
444.892	825.47
445.267	816.66
445.641	828.86
446.016	841.07
446.39	840.61
446.764	835.19
447.139	854.62
447.513	841.97
447.887	855.98
448.262	831.57
448.636	892.59
449.01	887.62
449.384	883.32
449.758	900.5
450.132	879.71
450.506	894.62
450.88	925.13
451.254	909.31
451.628	917.9
452.002	893.72
452.376	940.72
452.75	915.19
453.123	931.46
453.497	935.53
453.871	949.31
454.244	961.74
454.618	958.8
454.992	1012.13
455.365	1004
455.739	1000.38
456.112	1028.41
456.486	1034.73
456.859	1044.22
457.232	1021.63
457.606	1054.39
457.979	1073.83
458.352	1097.78
458.725	1094.84
459.099	1075.64
459.472	1122.19
459.845	1155.18
460.218	1136.2
460.591	1166.93
460.964	1153.15
461.337	1175.97
461.71	1204.45
462.083	1203.54
462.456	1208.74
462.829	1223.43
463.201	1231.34
463.574	1241.96
463.947	1253.48
464.32	1267.04
464.692	1300.04
465.065	1286.93
465.438	1331.67
465.81	1330.54
466.183	1360.37
466.555	1365.35
466.928	1386.59
467.3	1394.5
467.672	1384.1
468.045	1453.48
468.417	1446.47
468.789	1465
469.161	1470.65
469.534	1515.62
469.906	1516.53
470.278	1548.39
470.65	1568.28
471.022	1591.1
471.394	1621.61
471.766	1659.58
472.138	1683.08
472.51	1722.17
472.882	1742.28
473.253	1739.8
473.625	1777.31
473.997	1845.33
474.369	1838.55
474.74	1876.97
475.112	1903.41
475.484	1970.08
475.855	1992.67
476.227	2025.44
476.598	2104.99
476.97	2132.56
477.341	2192.67
477.713	2232.89
478.084	2256.85
478.455	2326.45
478.827	2370.06
479.198	2418.2
479.569	2464.3
479.94	2528.03
480.311	2559.44
480.682	2625.88
481.053	2735.03
481.424	2784.52
481.795	2819.54
482.166	2855.25
482.537	2921.91
482.908	3039.88
483.279	3079.65
483.65	3152.19
484.021	3196.48
484.391	3285.97
484.762	3322.81
485.133	3383.37
485.503	3494.78
485.874	3570.26
486.244	3630.82
486.615	3746.53
486.985	3786.98
487.356	3908.33
487.726	3969.8
488.097	4112.39
488.467	4115.1
488.837	4240.3
489.207	4291.14
489.578	4418.6
489.948	4465.38
490.318	4586.73
490.688	4623.79
491.058	4748.76
491.428	4885.25
491.798	4928.64
492.168	5036.21
492.538	5058.36
492.908	5172.25
493.278	5344
493.648	5318.46
494.017	5431.23
494.387	5522.98
494.757	5605.01
495.126	5637.78
495.496	5743.76
495.866	5838.67
496.235	5910.08
496.605	6008.84
496.974	6004.77
497.344	6105.56
497.713	6185.56
498.082	6203.86
498.452	6348.49
498.821	6409.05
499.19	6447.02
499.559	6532.67
499.928	6636.17
500.298	6677.07
500.667	6742.61
501.036	6814.02
501.405	6886.78
501.774	6946.22
502.143	6982.6
502.512	7061.24
502.88	7121.8
503.249	7236.6
503.618	7235.93
503.987	7325.64
504.356	7399.09
504.724	7399.09
505.093	7492.64
505.462	7574.45
505.83	7624.84
506.199	7708.68
506.567	7781.9
506.936	7852.86
507.304	7933.99
507.672	7925.17
508.041	7963.14
508.409	8104.38
508.777	8132.17
509.145	8217.14
509.514	8207.88
509.882	8315.67
510.25	8352.96
510.618	8366.07
510.986	8437.7
511.354	8573.52
511.722	8597.7
512.09	8714.53
512.458	8662.33
512.826	8730.35
513.193	8803.79
513.561	8895.32
513.929	8907.29
514.297	8953.17
514.664	9031.36
515.032	9079.94
515.4	9126.95
515.767	9177.8
516.135	9271.8
516.502	9150.23
516.869	9356.32
517.237	9336.89
517.604	9419.6
517.972	9497.34
518.339	9551.8
518.706	9585.02
519.073	9608.97
519.44	9690.78
519.808	9763.77
520.175	9742.53
520.542	9846.93
520.909	9901.17
521.276	9910.66
521.643	9960.37
522.009	10122.18
522.376	10128.5
522.743	10135.96
523.11	10312.23
523.477	10363.98
523.843	10337.54
524.21	10510.42
524.577	10606.23
524.943	10629.51
525.31	10672.45
525.676	10757.87
526.043	10777.3
526.409	10744.53
526.776	10922.83
527.142	10943.62
527.508	11107.91
527.874	11145.88
528.241	11136.39
528.607	11208.7
528.973	11355.82
529.339	11329.15
529.705	11386.55
530.071	11452.09
530.437	11526.21
530.803	11647.11
531.169	11684.62
531.535	11684.85
531.901	11684.85
532.267	11736.15
532.632	11864.28
532.998	11863.83
533.364	11969.36
533.73	12042.13
534.095	12118.74
534.461	12204.38
534.826	12238.96
535.192	12213.65
535.557	12375
535.923	12281.67
536.288	12430.82
536.653	12454.55
537.019	12490.93
537.384	12538.39
537.749	12569.12
538.114	12537.71
538.479	12638.5
538.845	12724.59
539.21	12794.65
539.575	12773.18
539.94	12861.54
540.305	12949
540.67	12972.05
541.034	13040.74
541.399	13086.85
541.764	13084.36
542.129	13116.22
542.494	13281.19
542.858	13231.25
543.223	13255.88
543.587	13333.39
543.952	13408.42
544.316	13447.74
544.681	13414.52
545.045	13559.15
545.41	13709.2
545.774	13784.91
546.138	13642.54
546.503	13807.96
546.867	13764.79
547.231	13945.35
547.595	13918.91
547.959	13963.66
548.324	13984.22
548.688	13993.94
549.052	14099.93
549.416	14110.1
549.779	14135.18
550.143	14202.3
550.507	14281.39
550.871	14368.17
551.235	14368.17
551.599	14492.23
551.962	14461.72
552.326	14581.72
552.689	14593.47
553.053	14513.47
553.417	14565.9
553.78	14823.97
554.143	14682.51
554.507	14810.87
554.87	14850.64
555.234	14932.22
555.597	14962.28
555.96	14893.8
556.323	14986
556.686	15125.21
557.05	15171.99
557.413	15187.81
557.776	15198.2
558.139	15294.02
558.502	15344.41
558.865	15336.96
559.228	15469.16
559.59	15586.89
559.953	15580.34
560.316	15698.08
560.679	15630.51
561.041	15707.57
561.404	15875.47
561.767	15938.3
562.129	15940.56
562.492	16089.7
562.854	16085.64
563.217	16052.87
563.579	16129.93
563.941	16269.36
564.304	16198.18
564.666	16333.54
565.028	16388.23
565.39	16371.96
565.753	16497.6
566.115	16638.84
566.477	16622.35
566.839	16690.82
567.201	16793.64
567.563	16834.77
567.925	16920.64
568.287	16960.87
568.648	16943.69
569.01	17017.82
569.372	17203.57
569.734	17274.76
570.095	17423.68
570.457	17360.18
570.819	17415.32
571.18	17488.76
571.542	17588.42
571.903	17594.98
572.265	17712.94
572.626	17688.08
572.987	17742.09
573.349	17903.22
573.71	18076.54
574.071	18065.02
574.432	18152.02
574.794	18243.09
575.155	18428.4
575.516	18350.44
575.877	18502.97
576.238	18675.4
576.599	18819.12
576.96	18825.9
577.32	18942.06
577.681	19128.04
578.042	19224.08
578.403	19367.58
578.763	19435.15
579.124	19603.28
579.485	19755.6
579.845	19912.2
580.206	19980.68
580.566	20163.95
580.927	20316.71
581.287	20519.87
581.648	20571.17
582.008	20805.29
582.368	20917.37
582.728	21141.1
583.089	21246.63
583.449	21416.57
583.809	21618.15
584.169	21880.06
584.529	21982.43
584.889	22465.36
585.249	22475.07
585.609	22532.25
585.969	22993.93
586.329	23071.89
586.688	23378.33
587.048	23472.56
587.408	23700.58
587.768	23872.32
588.127	24079.55
588.487	24352.31
588.846	24693.32
589.206	24896.25
589.565	25135.79
589.925	25419.18
590.284	25619.17
590.643	25827.75
591.003	26188.2
591.362	26537.11
591.721	26618.01
592.08	26863.43
592.44	27173.25
592.799	27423.87
593.158	27652.56
593.517	27971.65
593.876	28142.49
594.235	28320.12
594.593	28629.49
594.952	28900.21
595.311	29071.96
595.67	29382.91
596.029	29813.64
596.387	29941.09
596.746	30218.82
597.104	30417.46
597.463	30541.53
597.822	30956.21
598.18	31068.97
598.538	31423.99
598.897	31693.14
599.255	31681.16
599.613	32348.94
599.972	32285.44
600.33	32574.02
600.688	32759.1
601.046	33131.97
601.404	33373.09
601.762	33528.34
602.12	33879.07
602.478	34040.19
602.836	34145.5
603.194	34211.94
603.552	34505.04
603.91	34542.1
604.268	34846.72
604.625	35067.51
604.983	35331.68
605.341	35246.49
605.698	35704.78
606.056	35952.01
606.413	35996.3
606.771	36304.09
607.128	36430.19
607.485	36554.48
607.843	36692.33
608.2	37143.84
608.557	37207.11
608.914	37078.98
609.272	37557.16
609.629	37799.87
609.986	38048
610.343	37899.75
610.7	38274.66
611.057	38363.69
611.414	38417.48
611.771	38556.23
612.127	38829.67
612.484	38950.35
612.841	39120.51
613.198	39109.44
613.554	39270.11
613.911	39574.96
614.267	39632.14
614.624	39742.87
614.98	40006.36
615.337	40180.82
615.693	40174.95
616.05	40323.19
616.406	40488.61
616.762	40434.6
617.118	40669.62
617.475	40709.85
617.831	40927.92
618.187	40996.62
618.543	41092.21
618.899	41342.6
619.255	41367.91
619.611	41367.68
619.967	41539.43
620.323	41685.42
620.678	41571.75
621.034	41530.39
621.39	41639.54
621.746	41689.26
622.101	42231.62
622.457	41868.46
622.812	41955.46
623.168	42085.86
623.523	42147.78
623.879	42355.23
624.234	42132.41
624.589	42439.52
624.945	42402.46
625.3	42554.77
625.655	42631.15
626.01	42669.12
626.365	42813.97
626.72	42612.17
627.075	42839.06
627.43	42668.67
627.785	42729.23
628.14	42771.26
628.495	43023.46
628.85	42947.75
629.205	42740.08
629.559	43211.25
629.914	42850.36
630.269	42981.43
630.623	42865.95
630.978	42768.55
631.332	43036.34
631.687	43145.94
632.041	43066.17
632.396	43041.99
632.75	42923.57
633.104	43004.93
633.459	42918.38
633.813	42912.5
634.167	42950.69
634.521	42821.2
634.875	43086.06
635.229	42864.82
635.583	42869.56
635.937	42856.46
636.291	42883.12
636.645	42831.83
636.999	42874.54
637.352	43118.82
637.706	42739.17
638.06	42904.82
638.413	42877.25
638.767	42699.63
639.121	42785.27
639.474	42633.41
639.828	42809.68
640.181	42774.43
640.534	42785.95
640.888	42637.48
641.241	42537.14
641.594	42463.02
641.947	42646.29
642.301	42667.08
642.654	42676.12
643.007	42570.36
643.36	42577.14
643.713	42319.52
644.066	42698.04
644.419	42493.3
644.771	42130.6
645.124	41781.46
645.477	41759.09
645.83	41549.83
646.182	41490.39
646.535	41341.7
646.888	41431.18
647.24	41243.62
647.593	41574.46
647.945	41220.34
648.298	41069.16
648.65	41087.92
649.002	40934.25
649.355	41284.75
649.707	41348.47
650.059	41468.7
650.411	41889.03
650.763	41751.4
651.115	42131.96
651.467	42007.21
651.819	42108.68
652.171	41984.84
652.523	41930.83
652.875	41965.18
653.227	41802.25
653.578	42042.47
653.93	41900.1
654.282	41779.65
654.633	41761.12
654.985	41834.11
655.337	41827.33
655.688	41838.41
656.039	42049.25
656.391	41708.69
656.742	41723.38
657.094	41793.43
657.445	41956.37
657.796	41799.08
658.147	41689.03
658.498	41603.38
658.849	41803.6
659.2	41554.12
659.551	41536.04
659.902	41659.88
660.253	41620.33
660.604	41695.58
660.955	41502.82
661.306	41656.49
661.656	41515.93
662.007	41626.21
662.358	41546.89
662.708	41668.69
663.059	41686.09
663.409	41407.46
663.76	41636.6
664.11	41597.96
664.461	41575.81
664.811	41630.28
665.161	41545.76
665.511	41535.59
665.862	41496.95
666.212	41536.72
666.562	41630.28
666.912	41508.47
667.262	41448.13
667.612	41514.12
667.962	41355.71
668.312	41524.52
668.662	41565.87
669.011	41507.34
669.361	41424.41
669.711	41413.33
670.06	41399.55
670.41	41200
670.76	41212.43
671.109	41477.74
671.459	41366.78
671.808	41317.97
672.157	41440.22
672.507	41068.03
672.856	41181.7
673.205	41158.88
673.554	41272.32
673.904	41178.31
674.253	41326.78
674.602	41276.16
674.951	40637.76
675.3	40402.29
675.649	41081.59
675.998	41069.39
676.346	41119.33
676.695	41214.69
677.044	40896.96
677.393	41023.96
677.741	40952.55
678.09	40922.72
678.438	40893.8
678.787	40966.79
679.135	40823.07
679.484	40610.87
679.832	40710.07
680.181	40533.36
680.529	40717.98
680.877	40606.35
681.225	40631.88
681.573	40886.11
681.922	40603.64
682.27	40329.74
682.618	40399.12
682.966	40211.78
683.314	40401.16
683.661	40390.99
684.009	40151.67
684.357	39998.91
684.705	40100.15
685.053	40133.82
685.4	40103.99
685.748	39832.36
686.095	39748.29
686.443	39629.65
686.79	39685.69
687.138	39863.09
687.485	39854.5
687.832	39510.56
688.18	39473.04
688.527	39446.6
688.874	39514.62
689.221	39303.1
689.568	39135.43
689.915	39049.33
690.262	39113.96
690.609	38979.05
690.956	38885.49
691.303	38805.94
691.65	38644.59
691.997	38637.81
692.344	38433.75
692.69	38329.8
693.037	38330.25
693.383	38043.7
693.73	38128.9
694.077	37872.41
694.423	37919.41
694.769	37794.9
695.116	37639.19
695.462	37760.32
695.808	37635.35
696.155	37612.08
696.501	37422.48
696.847	37464.51
697.193	37254.12
697.539	37252.31
697.885	36999.21
698.231	37054.58
698.577	36938.65
698.923	37054.35
699.269	36683.96
699.614	36593.57
699.96	36540.01
700.306	36659.33
700.651	36408.04
700.997	36213.02
701.342	36257.08
701.688	36158.33
702.033	36038.11
702.379	35961.72
702.724	35794.95
703.069	35881.73
703.415	35562.64
703.76	35477.67
704.105	35609.87
704.45	35537.78
704.795	35341.18
705.14	35162.42
705.485	35228.86
705.83	35026.83
706.175	35079.04
706.52	34973.73
706.865	34993.16
707.209	34814.86
707.554	34754.07
707.899	34792.26
708.243	34597.92
708.588	34578.48
708.932	34301.65
709.277	34383.23
709.621	34310.69
709.966	34164.03
710.31	34279.96
710.654	33905.73
710.998	33921.1
711.342	33983.47
711.687	33812.4
712.031	33631.39
712.375	33686.98
712.719	33531.96
713.063	33684.04
713.407	33520.88
713.75	33467.55
714.094	33331.06
714.438	33246.99
714.782	33383.49
715.125	33139.2
715.469	33317.05
715.812	32982.82
716.156	32785.99
716.499	32931.07
716.843	32943.95
717.186	32870.51
717.53	32935.59
717.873	32835.7
718.216	32689.49
718.559	32606.11
718.902	32325.21
719.246	32434.81
719.589	32487.01
719.932	32321.14
720.275	32312.78
720.617	32352.55
720.96	32279.33
721.303	32226
721.646	32196.85
721.989	31968.61
722.331	31978.55
722.674	31972.9
723.016	31916.18
723.359	32052.9
723.701	31824.66
724.044	31725.45
724.386	31566.36
724.729	31565.91
725.071	31625.57
725.413	31620.82
725.755	31716.64
726.097	31421.73
726.439	31266.48
726.782	31332.92
727.124	31476.19
727.465	31294.73
727.807	31238.23
728.149	31246.14
728.491	31094.73
728.833	31201.17
729.175	30939.71
729.516	30992.59
729.858	30952.36
730.199	30875.98
730.541	30906.04
730.882	30862.42
731.224	30898.81
731.565	30719.83
731.906	30692.48
732.248	30706.49
732.589	30544.47
732.93	30525.71
733.271	30439.38
733.612	30504.69
733.953	30508.76
734.294	30375.43
734.635	30249.56
734.976	30367.52
735.317	30152.39
735.658	30172.95
735.999	30187.64
736.339	30038.26
736.68	30170.24
737.021	30040.98
737.361	29900.19
737.702	30060.86
738.042	29826.07
738.383	29872.39
738.723	29968.89
739.063	29806.86
739.404	29853.86
739.744	29675.56
740.084	29575
740.424	29690.7
740.764	29571.38
741.104	29687.09
741.444	29364.61
741.784	29448.67
742.124	29434.21
742.464	29500.2
742.804	29306.31
743.143	29334.33
743.483	29231.05
743.823	29108.8
744.162	29179.98
744.502	29258.4
744.841	29068.12
745.181	29083.71
745.52	29048.23
745.86	29138.17
746.199	29056.82
746.538	28937.95
746.877	29009.14
747.216	28948.12
747.556	28842.82
747.895	28850.5
748.234	28760.78
748.573	28726.66
748.911	28598.08
749.25	28722.82
749.589	28542.94
749.928	28627.23
750.267	28514.24
750.605	28359.21
750.944	28349.49
751.283	28344.3
751.621	28398.31
751.96	28226.11
752.298	28187.01
752.636	28149.95
752.975	28052.33
753.313	27914.48
753.651	28165.54
753.989	27923.07
754.327	27907.02
754.666	27785.89
755.004	27849.62
755.342	27687.59
755.679	27690.53
756.017	27542.51
756.355	27701.38
756.693	27486.92
757.031	27610.53
757.368	27356.07
