Data from hue_310_FLMS001491_30.txt Node
Date: Mon Feb 06 15:49:20 GMT 2017
User: dcchb
Spectrometer: FLMS00149
Trigger mode: 0
Integration Time (sec): 2.000000E-2
Scans to average: 10
Electric dark correction enabled: true
Nonlinearity correction enabled: false
Boxcar width: 0
XAxis mode: Wavelengths
Number of Pixels in Spectrum: 2048
>>>>>Begin Spectral Data<<<<<
341.393	-6.98
341.776	-6.98
342.16	-6.98
342.543	-48.33
342.927	-77.48
343.31	-74.55
343.693	-70.7
344.077	-60.99
344.46	-71.38
344.843	-62.57
345.226	-41.1
345.61	-23.7
345.993	-27.09
346.376	-0.88
346.759	-2.23
347.142	14.04
347.525	46.35
347.908	70.76
348.291	87.03
348.674	109.18
349.057	107.82
349.44	126.35
349.823	151.21
350.206	161.38
350.588	194.6
350.971	208.38
351.354	214.26
351.737	261.26
352.119	235.95
352.502	257.65
352.884	272.34
353.267	288.16
353.65	311.66
354.032	313.69
354.414	319.12
354.797	317.53
355.179	325.9
355.562	332
355.944	319.57
356.326	327.25
356.709	338.1
357.091	331.09
357.473	336.06
357.855	330.64
358.238	317.08
358.62	348.49
359.002	341.94
359.384	346.23
359.766	337.42
360.148	333.13
360.53	339.23
360.912	326.57
361.294	338.1
361.676	340.36
362.057	349.4
362.439	336.74
362.821	356.18
363.203	326.12
363.584	329.29
363.966	339.45
364.348	316.4
364.729	338.32
365.111	322.73
365.493	310.08
365.874	324.54
366.256	325.44
366.637	341.04
367.019	309.17
367.4	332.9
367.781	294.71
368.163	336.74
368.544	305.1
368.925	329.06
369.306	327.93
369.688	323.86
370.069	313.24
370.45	315.95
370.831	325.67
371.212	301.72
371.593	313.24
371.974	326.35
372.355	308.04
372.736	297.42
373.117	336.52
373.498	316.18
373.879	320.7
374.26	282.96
374.641	307.59
375.021	337.19
375.402	308.04
375.783	320.47
376.163	333.13
376.544	317.99
376.925	307.82
377.305	299.46
377.686	334.48
378.066	329.96
378.447	342.39
378.827	337.19
379.208	333.35
379.588	355.27
379.968	331.09
380.349	327.7
380.729	343.3
381.109	338.32
381.489	352.11
381.87	328.83
382.25	331.77
382.63	320.92
383.01	364.54
383.39	317.31
383.77	347.59
384.15	349.85
384.53	330.64
384.91	342.84
385.29	335.61
385.67	330.42
386.049	367.48
386.429	315.73
386.809	346.91
387.189	355.5
387.568	368.83
387.948	357.53
388.328	341.71
388.707	366.12
389.087	373.35
389.466	373.58
389.846	350.98
390.225	363.18
390.605	350.75
390.984	365.44
391.363	364.54
391.743	388.04
392.122	371.77
392.501	391.88
392.881	370.19
393.26	390.07
393.639	370.64
394.018	393.24
394.397	370.64
394.776	387.14
395.155	404.09
395.534	392.33
395.913	378.78
396.292	397.76
396.671	375.16
397.05	393.92
397.429	408.38
397.808	402.73
398.186	412.67
398.565	404.99
398.944	396.4
399.323	389.4
399.701	412.9
400.08	406.8
400.458	389.85
400.837	415.84
401.215	419.45
401.594	404.09
401.972	423.29
402.351	445.44
402.729	419.23
403.107	400.92
403.486	412.45
403.864	441.82
404.242	423.52
404.62	421.49
404.999	406.57
405.377	431.2
405.755	446.57
406.133	438.21
406.511	450.64
406.889	454.71
407.267	453.12
407.645	444.31
408.023	432.56
408.401	448.6
408.779	489.73
409.156	464.2
409.534	487.47
409.912	463.74
410.29	497.19
410.667	515.27
411.045	496.74
411.422	498.09
411.8	529.05
412.178	512.33
412.555	514.14
412.933	520.01
413.31	541.71
413.687	541.71
414.065	563.18
414.442	559.34
414.819	549.39
415.197	581.93
415.574	590.07
415.951	595.94
416.328	597.3
416.705	592.33
417.082	612.44
417.46	619
417.837	617.19
418.214	614.25
418.591	643.4
418.967	626.45
419.344	621.25
419.721	652.89
420.098	655.38
420.475	689.28
420.852	693.8
421.228	702.16
421.605	696.73
421.982	715.26
422.358	695.15
422.735	730.63
423.111	717.98
423.488	735.38
423.864	748.26
424.241	759.56
424.617	760.91
424.994	750.52
425.37	755.71
425.746	768.6
426.123	785.32
426.499	796.62
426.875	783.51
427.251	779.22
427.627	823.06
428.003	857.63
428.379	829.16
428.756	860.57
429.132	854.7
429.507	873.23
429.883	847.01
430.259	871.42
430.635	884.07
431.011	892.43
431.387	915.03
431.763	929.95
432.138	895.6
432.514	910.06
432.89	974.01
433.265	975.6
433.641	998.42
434.016	991.87
434.392	985.54
434.767	986.22
435.143	1008.59
435.518	1021.92
435.894	1035.93
436.269	1036.16
436.644	1064.86
437.02	1049.27
437.395	1057.63
437.77	1039.1
438.145	1080
438.52	1078.64
438.895	1094.46
439.271	1119.55
439.646	1110.51
440.021	1163.84
440.395	1140.56
440.77	1121.13
441.145	1162.03
441.52	1177.62
441.895	1163.39
442.27	1168.81
442.645	1197.06
443.019	1191.18
443.394	1174.01
443.769	1211.75
444.143	1211.52
444.518	1197.96
444.892	1196.61
445.267	1189.15
445.641	1234.35
446.016	1217.4
446.39	1240
446.764	1222.59
447.139	1211.3
447.513	1216.27
447.887	1261.01
448.262	1253.78
448.636	1247.91
449.01	1284.06
449.384	1270.73
449.758	1283.38
450.132	1278.64
450.506	1282.03
450.88	1295.14
451.254	1280.9
451.628	1293.55
452.002	1332.42
452.376	1334
452.75	1322.71
453.123	1365.42
453.497	1365.87
453.871	1345.98
454.244	1359.77
454.618	1363.61
454.992	1371.07
455.365	1371.29
455.739	1422.82
456.112	1432.98
456.486	1421.23
456.859	1459.65
457.232	1463.72
457.606	1455.81
457.979	1469.37
458.352	1497.16
458.725	1512.98
459.099	1493.1
459.472	1522.47
459.845	1517.73
460.218	1543.94
460.591	1524.06
460.964	1543.04
461.337	1567.67
461.71	1586.88
462.083	1605.86
462.456	1610.83
462.829	1613.77
463.201	1632.08
463.574	1613.09
463.947	1627.33
464.32	1640.44
464.692	1665.07
465.065	1721.11
465.438	1699.19
465.81	1722.47
466.183	1707.55
466.555	1731.28
466.928	1751.85
467.3	1737.84
467.672	1749.81
468.045	1758.63
468.417	1792.52
468.789	1810.15
469.161	1818.06
469.534	1853.99
469.906	1865.52
470.278	1898.51
470.65	1853.99
471.022	1906.42
471.394	1955.46
471.766	1944.16
472.138	1995.23
472.51	1991.39
472.882	2026.42
473.253	2034.33
473.625	2045.85
473.997	2090.59
474.369	2087.88
474.74	2103.7
475.112	2137.6
475.484	2175.56
475.855	2175.11
476.227	2191.38
476.598	2218.05
476.97	2226.86
477.341	2254.88
477.713	2277.71
478.084	2299.18
478.455	2373.53
478.827	2373.98
479.198	2385.05
479.569	2411.49
479.94	2478.61
480.311	2483.58
480.682	2519.28
481.053	2543.46
481.424	2564.93
481.795	2555.44
482.166	2591.37
482.537	2645.83
482.908	2674.99
483.279	2698.49
483.65	2699.39
484.021	2799.28
484.391	2778.49
484.762	2799.73
485.133	2823.46
485.503	2847.41
485.874	2881.99
486.244	2897.35
486.615	2952.72
486.985	2935.77
487.356	3008.54
487.726	3028.88
488.097	3073.85
488.467	3051.47
488.837	3096.9
489.207	3133.96
489.578	3200.62
489.948	3223.67
490.318	3231.36
490.688	3211.02
491.058	3285.37
491.428	3300.05
491.798	3298.47
492.168	3404.01
492.538	3383.22
492.908	3410.79
493.278	3431.8
493.648	3433.61
494.017	3477.68
494.387	3550.22
494.757	3554.06
495.126	3562.65
495.496	3573.95
495.866	3591.35
496.235	3603.55
496.605	3644
496.974	3637.45
497.344	3650.78
497.713	3652.59
498.082	3646.03
498.452	3765.35
498.821	3752.92
499.19	3749.53
499.559	3764.68
499.928	3772.58
500.298	3801.96
500.667	3832.47
501.036	3827.27
501.405	3827.72
501.774	3814.62
502.143	3849.64
502.512	3893.94
502.88	3908.17
503.249	3915.63
503.618	3922.19
503.987	3934.84
504.356	3960.6
504.724	4014.61
505.093	4011
505.462	3988.62
505.83	4029.07
506.199	4068.4
506.567	4039.24
506.936	4086.02
507.304	4074.72
507.672	4078.57
508.041	4131.45
508.409	4110.88
508.777	4119.02
509.145	4187.26
509.514	4165.57
509.882	4190.2
510.25	4218.67
510.618	4252.57
510.986	4190.88
511.354	4235.62
511.722	4257.09
512.09	4291.67
512.458	4304.55
512.826	4287.83
513.193	4294.15
513.561	4335.96
513.929	4352.23
514.297	4395.62
514.664	4396.52
515.032	4383.42
515.4	4385.22
515.767	4405.11
516.135	4431.55
516.502	4396.52
516.869	4483.98
517.237	4498.44
517.604	4446.69
517.972	4482.17
518.339	4503.41
518.706	4478.55
519.073	4544.99
519.44	4526.01
519.808	4524.43
520.175	4549.29
520.542	4601.04
520.909	4576.41
521.276	4601.49
521.643	4609.17
522.009	4613.69
522.376	4686.46
522.743	4665.44
523.11	4736.85
523.477	4749.06
523.843	4724.2
524.21	4757.87
524.577	4810.98
524.943	4804.87
525.31	4774.37
525.676	4836.74
526.043	4858.43
526.409	4923.51
526.776	4923.29
527.142	4914.93
527.508	4928.94
527.874	5004.19
528.241	5026.34
528.607	5012.55
528.973	5075.38
529.339	5032.21
529.705	5084.41
530.071	5181.36
530.437	5145.43
530.803	5165.09
531.169	5188.14
531.535	5227.91
531.901	5234.92
532.267	5239.66
532.632	5321.7
532.998	5322.83
533.364	5320.57
533.73	5342.49
534.095	5373.9
534.461	5361.47
534.826	5456.61
535.192	5434.24
535.557	5480.34
535.923	5496.61
536.288	5523.5
536.653	5588.36
537.019	5491.86
537.384	5568.02
537.749	5550.39
538.114	5603.04
538.479	5555.14
538.845	5625.64
539.21	5605.08
539.575	5672.65
539.94	5685.75
540.305	5736.15
540.67	5699.31
541.034	5711.52
541.399	5784.06
541.764	5847.33
542.129	5791.74
542.494	5833.55
542.858	5871.96
543.223	5879.65
543.587	5926.43
543.952	5897.73
544.316	5958.74
544.681	5983.37
545.045	6035.12
545.41	6052.75
545.774	6062.47
546.138	6029.47
546.503	6121.9
546.867	6118.29
547.231	6178.4
547.595	6154.67
547.959	6218.85
548.324	6183.59
548.688	6221.11
549.052	6265.4
549.416	6276.25
549.779	6328
550.143	6280.99
550.507	6368.22
550.871	6320.31
551.235	6383.14
551.599	6400.31
551.962	6431.27
552.326	6448.45
552.689	6455.68
553.053	6464.72
553.417	6494.55
553.78	6503.59
554.143	6539.07
554.507	6560.53
554.87	6582
555.234	6567.99
555.597	6610.02
555.96	6622.23
556.323	6643.47
556.686	6668.55
557.05	6691.15
557.413	6673.98
557.776	6738.38
558.139	6770.02
558.502	6727.53
558.865	6736.35
559.228	6787.87
559.59	6832.16
559.953	6808.89
560.316	6852.28
560.679	6855.44
561.041	6891.37
561.404	6946.51
561.767	7034.65
562.129	6961.65
562.492	6988.55
562.854	7059.73
563.217	7041.88
563.579	7086.4
563.941	7049.56
564.304	7103.8
564.666	7160.97
565.028	7187.64
565.39	7210.69
565.753	7195.77
566.115	7245.04
566.477	7212.04
566.839	7255.43
567.201	7317.8
567.563	7352.15
567.925	7364.81
568.287	7346.28
568.648	7415.43
569.01	7375.2
569.372	7470.57
569.734	7495.88
570.095	7597.12
570.457	7572.03
570.819	7604.35
571.18	7556.89
571.542	7648.19
571.903	7715.53
572.265	7704.46
572.626	7815.64
572.987	7779.26
573.349	7877.79
573.71	7928.18
574.071	7949.42
574.432	7963.89
574.794	8092.7
575.155	8128.85
575.516	8131.57
575.877	8217.89
576.238	8318.68
576.599	8343.09
576.96	8465.12
577.32	8533.36
577.681	8559.58
578.042	8674.83
578.403	8786.69
578.763	8896.29
579.124	8938.32
579.485	9028.94
579.845	9218.54
580.206	9237.3
580.566	9344.42
580.927	9478.42
581.287	9638.64
581.648	9664.18
582.008	9886.77
582.368	9921.58
582.728	10133.77
583.089	10283.37
583.449	10432.07
583.809	10581.67
584.169	10806.75
584.529	11011.94
584.889	11132.62
585.249	11307.98
585.609	11444.93
585.969	11795.2
586.329	11831.58
586.688	12131.91
587.048	12406.71
587.408	12580.71
587.768	12760.6
588.127	12961.95
588.487	13220.25
588.846	13453.01
589.206	13676.73
589.565	13934.58
589.925	14188.13
590.284	14404.4
590.643	14785.4
591.003	15027.43
591.362	15329.79
591.721	15580.41
592.08	15767.52
592.44	16074.41
592.799	16297.68
593.158	16686.37
593.517	17002.29
593.876	17238.22
594.235	17488.83
594.593	17901.25
594.952	18190.96
595.311	18313.22
595.67	18624.85
596.029	19051.28
596.387	19411.72
596.746	19660.75
597.104	19848.55
597.463	20164.92
597.822	20546.83
598.18	20696.66
598.538	20944.11
598.897	21432.46
599.255	21488.73
599.613	22101.37
599.972	22179.78
600.33	22514.69
600.688	22674.91
601.046	22995.81
601.404	23416.14
601.762	23622.68
602.12	23926.18
602.478	24354.87
602.836	24447.52
603.194	24694.75
603.552	24960.95
603.91	25189.42
604.268	25513.03
604.625	25625.34
604.983	25965.67
605.341	26044.54
605.698	26483.85
606.056	26811.53
606.413	26889.49
606.771	27332.19
607.128	27514.33
607.485	27641.34
607.843	27886.75
608.2	28183.92
608.557	28476.79
608.914	28634.76
609.272	28895.99
609.629	29106.38
609.986	29487.61
610.343	29515.41
610.7	29890.09
611.057	30010.99
611.414	30115.62
611.771	30326.91
612.127	30658.21
612.484	30877.18
612.841	31060.45
613.198	31184.97
613.554	31328.47
613.911	31643.94
614.267	31755.13
614.624	31956.48
614.98	32064.5
615.337	32369.35
615.693	32417.93
616.05	32584.48
616.406	32850.24
616.762	32920.07
617.118	33006.17
617.475	33094.98
617.831	33254.07
618.187	33401.18
618.543	33714.17
618.899	34007.95
619.255	34111.45
619.611	34038.46
619.967	34257.88
620.323	34412.91
620.678	34550.31
621.034	34572.68
621.39	34601.6
621.746	34727.48
622.101	35085.66
622.457	34837.53
622.812	35230.74
623.168	35267.12
623.523	35389.15
623.879	35541.69
624.234	35395.03
624.589	35598.41
624.945	35625.98
625.3	35799.31
625.655	35814.91
626.01	36071.62
626.365	36029.14
626.72	35948.69
627.075	36119.3
627.43	36247.66
627.785	36152.98
628.14	36350.94
628.495	36350.26
628.85	36319.07
629.205	36380.99
629.559	36728.78
629.914	36541.21
630.269	36593.19
630.623	36479.97
630.978	36654.88
631.332	36792.73
631.687	36929
632.041	36704.83
632.396	36847.65
632.75	36761.1
633.104	36860.08
633.459	36743.69
633.813	36812.39
634.167	36801.77
634.521	36859.4
634.875	37038.6
635.229	36996.12
635.583	36848.55
635.937	36854.2
636.291	36921.32
636.645	36927.42
636.999	36887.19
637.352	36913.41
637.706	36815.78
638.06	36990.24
638.413	36756.12
638.767	36824.82
639.121	37042.22
639.474	36857.36
639.828	36851.94
640.181	36791.83
640.534	37031.82
640.888	36780.08
641.241	36567.88
641.594	36758.84
641.947	36872.51
642.301	36830.02
642.654	36840.64
643.007	36841.77
643.36	36833.18
643.713	36676.8
644.066	36865.05
644.419	36678.39
644.771	36368.11
645.124	36067.33
645.477	36127.21
645.83	35930.16
646.182	35814.91
646.535	35724.96
646.888	35773.32
647.24	35608.36
647.593	35765.64
647.945	35687.45
648.298	35426.67
648.65	35466.89
649.002	35526.33
649.355	35612.43
649.707	35598.64
650.059	35758.86
650.411	36241.56
650.763	36302.12
651.115	36604.49
651.467	36446.98
651.819	36509.8
652.171	36495.34
652.523	36389.81
652.875	36463.48
653.227	36207.89
653.578	36500.54
653.93	36408.11
654.282	36239.75
654.633	36210.38
654.985	36179.64
655.337	36239.75
655.688	36272.29
656.039	36368.56
656.391	36043.6
656.742	36107.1
657.094	36154.78
657.445	36289.7
657.796	36118.4
658.147	36142.58
658.498	36199.75
658.849	36243.82
659.2	36133.32
659.551	36097.61
659.902	36189.81
660.253	36168.57
660.604	36313.2
660.955	36002.47
661.306	36246.98
661.656	36213.31
662.007	36122.02
662.358	36099.19
662.708	36056.93
663.059	36094.22
663.409	35844.74
663.76	36168.34
664.11	35941
664.461	36092.64
664.811	36032.75
665.161	36038.85
665.511	35892.19
665.862	35993.88
666.212	36020.55
666.562	36057.39
666.912	35995.92
667.262	35941
667.612	35934.9
667.962	35960.44
668.312	36043.6
668.662	36136.48
669.011	35935.35
669.361	35918.41
669.711	35915.02
670.06	35883.15
670.41	35720.9
670.76	35858.52
671.109	35956.82
671.459	35839.09
671.808	35733.55
672.157	35835.47
672.507	35630.5
672.856	35739.2
673.205	35780.33
673.554	35894
673.904	35703.95
674.253	35880.21
674.602	35810.61
674.951	35223.73
675.3	35177.18
675.649	35788.92
675.998	35613.33
676.346	35724.96
676.695	35790.27
677.044	35519.77
677.393	35633.67
677.741	35674.12
678.09	35518.42
678.438	35471.86
678.787	35602.93
679.135	35654.68
679.484	35348.7
679.832	35463.95
680.181	35201.81
680.529	35385.76
680.877	35321.36
681.225	35239.1
681.573	35394.13
681.922	35227.8
682.27	35072.1
682.618	35169.27
682.966	35012.89
683.314	35070.07
683.661	34990.97
684.009	34809.28
684.357	34675.95
684.705	34752.79
685.053	34769.51
685.4	34660.59
685.748	34450.42
686.095	34470.31
686.443	34371.55
686.79	34378.79
687.138	34406.81
687.485	34301.5
687.832	34247.94
688.18	34258.79
688.527	34234.16
688.874	34189.86
689.221	34063.31
689.568	33993.48
689.915	33900.15
690.262	33833.26
690.609	33835.07
690.956	33646.6
691.303	33696.77
691.65	33620.39
691.997	33573.61
692.344	33279.38
692.69	33372.48
693.037	33405.48
693.383	33131.13
693.73	33330
694.077	32953.29
694.423	33149.89
694.769	32930.24
695.116	32873.06
695.462	32749
695.808	32693.41
696.155	32810.69
696.501	32468.78
696.847	32542.45
697.193	32248.22
697.539	32491.15
697.885	32196.02
698.231	32073.31
698.577	32059.52
698.923	32019.75
699.269	31933.43
699.614	31858.17
699.96	31756.93
700.306	31706.77
700.651	31448.92
700.997	31547.9
701.342	31405.08
701.688	31442.37
702.033	31290.05
702.379	31329.83
702.724	31268.81
703.069	31158.31
703.415	30819.78
703.76	30934.58
704.105	30844.64
704.45	30830.63
704.795	30698.43
705.14	30594.93
705.485	30534.82
705.83	30450.08
706.175	30528.72
706.52	30419.34
706.865	30251.44
707.209	30181.83
707.554	30210.76
707.899	30294.37
708.243	30150.65
708.588	29958.11
708.932	29839.24
709.277	29838.79
709.621	29780.04
709.966	29649.42
710.31	29652.36
710.654	29361.97
710.998	29455.98
711.342	29542.75
711.687	29396.54
712.031	29347.73
712.375	29229.54
712.719	29181.63
713.063	29112.94
713.407	29222.31
713.75	29133.27
714.094	29113.84
714.438	28975.09
714.782	28929.44
715.125	28797.01
715.469	28873.17
715.812	28663.91
716.156	28563.12
716.499	28654.42
716.843	28669.33
717.186	28451.94
717.53	28584.81
717.873	28514.98
718.216	28434.31
718.559	28427.08
718.902	28245.16
719.246	28260.53
719.589	28113.19
719.932	28057.37
720.275	28046.3
720.617	28050.82
720.96	27980.54
721.303	27849.47
721.646	27924.49
721.989	27778.05
722.331	27887.88
722.674	27774.44
723.016	27799.98
723.359	27647.66
723.701	27658.51
724.044	27537.61
724.386	27502.36
724.729	27495.12
725.071	27436.82
725.413	27347.56
725.755	27390.72
726.097	27300.78
726.439	27072.54
726.782	27164.51
727.124	27297.39
727.465	27094.01
727.807	27134
728.149	27056.27
728.491	26974.91
728.833	27047.9
729.175	26798.42
729.516	26729.95
729.858	26749.38
730.199	26799.55
730.541	26734.69
730.882	26684.07
731.224	26814.24
731.565	26599.1
731.906	26684.98
732.248	26576.96
732.589	26559.1
732.93	26454.47
733.271	26490.41
733.612	26544.64
733.953	26489.73
734.294	26303.97
734.635	26306.23
734.976	26293.57
735.317	26190.07
735.658	26157.98
735.999	26132.67
736.339	26026.46
736.68	26270.52
737.021	26107.14
737.361	26000.25
737.702	26108.27
738.042	26024.65
738.383	25935.17
738.723	25936.97
739.063	25813.36
739.404	25934.49
739.744	25740.59
740.084	25676.19
740.424	25746.47
740.764	25697.88
741.104	25775.85
741.444	25553.48
741.784	25460.6
742.124	25517.55
742.464	25511.45
742.804	25357.78
743.143	25345.58
743.483	25393.48
743.823	25228.97
744.162	25259.25
744.502	25264.9
744.841	25117.79
745.181	25176.99
745.52	25171.34
745.86	25082.98
746.199	25066.26
746.538	25024.91
746.877	25099.48
747.216	25067.39
747.556	24994.17
747.895	24997.56
748.234	24834.63
748.573	24886.61
748.911	24810.45
749.25	24754.86
749.589	24672.83
749.928	24711.02
750.267	24698.14
750.605	24658.81
750.944	24446.17
751.283	24488.2
751.621	24565.03
751.96	24429.22
752.298	24370.69
752.636	24264.93
752.975	24323.68
753.313	24114.42
753.651	24190.35
753.989	24144.25
754.327	24087.98
754.666	23969.12
755.004	24064.25
755.342	24086.63
755.679	23972.96
756.017	23772.74
756.355	23967.08
756.693	23793.3
757.031	23783.58
757.368	23609.12
757.706	23499.98
758.044	23558.5
758.381	23481.22
758.719	23508.56
759.056	23419.98
759.394	23304.27
759.731	23120.55
