Data from hue_210_FLMS001491_00068.txt Node
Date: Tue Feb 07 16:41:33 GMT 2017
User: dcchb
Spectrometer: FLMS00149
Trigger mode: 0
Integration Time (sec): 2.000000E-2
Scans to average: 10
Electric dark correction enabled: true
Nonlinearity correction enabled: false
Boxcar width: 0
XAxis mode: Wavelengths
Number of Pixels in Spectrum: 2048
>>>>>Begin Spectral Data<<<<<
341.393	-30.24
341.776	-30.24
342.16	-30.24
342.543	-70.01
342.927	-94.87
343.31	-92.38
343.693	-81.31
344.077	-79.5
344.46	-69.56
344.843	-58.49
345.226	-39.5
345.61	-19.17
345.993	-6.96
346.376	12.47
346.759	14.51
347.142	45.46
347.525	49.08
347.908	47.05
348.291	92.24
348.674	85.69
349.057	100.38
349.44	125.91
349.823	132.69
350.206	145.35
350.588	187.38
350.971	186.93
351.354	202.07
351.737	235.29
352.119	245.69
352.502	250.21
352.884	266.25
353.267	267.61
353.65	290.66
354.032	278.91
354.414	314.84
354.797	310.77
355.179	314.16
355.562	301.73
355.944	314.38
356.326	314.84
356.709	325.91
357.091	322.07
357.473	318
357.855	309.64
358.238	320.71
358.62	319.58
359.002	307.15
359.384	326.14
359.766	334.95
360.148	330.2
360.53	344.67
360.912	306.47
361.294	327.72
361.676	309.19
362.057	310.99
362.439	310.77
362.821	308.28
363.203	306.93
363.584	300.83
363.966	323.42
364.348	310.32
364.729	303.76
365.111	315.06
365.493	332.01
365.874	327.49
366.256	320.26
366.637	308.51
367.019	295.63
367.4	315.51
367.781	301.28
368.163	300.37
368.544	301.28
368.925	320.26
369.306	294.95
369.688	296.98
370.069	297.89
370.45	309.41
370.831	314.61
371.212	294.95
371.593	317.1
371.974	299.47
372.355	313.25
372.736	312.8
373.117	317.32
373.498	310.99
373.879	300.37
374.26	298.79
374.641	328.62
375.021	287.72
375.402	286.14
375.783	326.36
376.163	306.7
376.544	315.06
376.925	293.37
377.305	298.11
377.686	310.32
378.066	321.84
378.447	321.84
378.827	316.19
379.208	303.54
379.588	314.61
379.968	306.25
380.349	330.88
380.729	341.28
381.109	316.42
381.489	315.51
381.87	335.17
382.25	313.71
382.63	318.45
383.01	341.5
383.39	358.68
383.77	341.05
384.15	355.06
384.53	341.95
384.91	336.53
385.29	348.28
385.67	327.49
386.049	348.06
386.429	363.65
386.809	341.28
387.189	343.76
387.568	343.08
387.948	361.39
388.328	346.02
388.707	356.64
389.087	350.09
389.466	345.8
389.846	359.13
390.225	363.87
390.605	351.45
390.984	336.76
391.363	360.03
391.743	359.35
392.122	367.26
392.501	368.62
392.881	383.99
393.26	360.03
393.639	345.12
394.018	361.39
394.397	390.54
394.776	377.66
395.155	369.75
395.534	390.99
395.913	364.33
396.292	379.24
396.671	386.25
397.05	415.17
397.429	398.45
397.808	404.55
398.186	401.84
398.565	380.6
398.944	408.17
399.323	404.55
399.701	392.35
400.08	396.87
400.458	406.36
400.837	399.35
401.215	394.61
401.594	402.07
401.972	415.17
402.351	419.24
402.729	419.92
403.107	440.03
403.486	422.63
403.864	408.39
404.242	442.97
404.62	434.16
404.999	445.23
405.377	455.17
405.755	441.61
406.133	456.08
406.511	453.82
406.889	454.72
407.267	475.28
407.645	482.06
408.023	459.47
408.401	467.15
408.779	495.17
409.156	481.39
409.534	519.58
409.912	526.58
410.29	515.51
410.667	534.72
411.045	519.35
411.422	543.08
411.8	554.15
412.178	560.03
412.555	554.15
412.933	568.61
413.31	587.15
413.687	568.84
414.065	595.73
414.442	620.37
414.819	634.83
415.197	616.75
415.574	635.96
415.951	652.68
416.328	644.09
416.705	657.88
417.082	677.76
417.46	681.15
417.837	685
418.214	684.32
418.591	700.59
418.967	701.94
419.344	691.78
419.721	718.44
420.098	731.55
420.475	732.9
420.852	767.93
421.228	802.96
421.605	770.87
421.982	815.39
422.358	801.15
422.735	809.51
423.111	849.51
423.488	842.51
423.864	862.84
424.241	862.84
424.617	892.67
424.994	903.07
425.37	908.95
425.746	897.87
426.123	947.14
426.499	936.06
426.875	964.31
427.251	990.75
427.627	1002.95
428.003	1016.96
428.379	1014.7
428.756	1015.83
429.132	1073.46
429.507	1036.17
429.883	1091.77
430.259	1096.74
430.635	1109.84
431.011	1099.67
431.387	1112.78
431.763	1159.33
432.138	1162.27
432.514	1167.47
432.89	1161.82
433.265	1197.98
433.641	1244.08
434.016	1234.81
434.392	1266.45
434.767	1311.87
435.143	1343.96
435.518	1331.53
435.894	1371.08
436.269	1408.37
436.644	1427.12
437.02	1441.81
437.395	1414.02
437.77	1489.27
438.145	1529.72
438.52	1522.71
438.895	1532.43
439.271	1528.59
439.646	1616.27
440.021	1618.08
440.395	1648.81
440.77	1637.74
441.145	1652.88
441.52	1676.61
441.895	1708.92
442.27	1740.56
442.645	1761.35
443.019	1752.54
443.394	1787.11
443.769	1797.74
444.143	1801.8
444.518	1836.83
444.892	1826.89
445.267	1853.55
445.641	1891.07
446.016	1887
446.39	1905.53
446.764	1948.01
447.139	1914.57
447.513	1937.62
447.887	1969.03
448.262	1964.74
448.636	1993.44
449.01	2015.36
449.384	2013.32
449.758	2057.39
450.132	2085.86
450.506	2053.1
450.88	2083.6
451.254	2111.17
451.628	2143.94
452.002	2179.87
452.376	2150.27
452.75	2180.55
453.123	2206.99
453.497	2273.88
453.871	2254.22
454.244	2287.21
454.618	2325.18
454.992	2343.71
455.365	2345.07
455.739	2407.44
456.112	2447.44
456.486	2427.32
456.859	2437.49
457.232	2505.29
457.606	2479.53
457.979	2550.03
458.352	2590.03
458.725	2593.19
459.099	2629.8
459.472	2668.22
459.845	2728.33
460.218	2746.41
460.591	2744.38
460.964	2729.24
461.337	2833.19
461.71	2861.89
462.083	2930.81
462.456	2945.05
462.829	2931.49
463.201	2982.34
463.574	2964.71
463.947	2977.82
464.32	3080.64
464.692	3093.52
465.065	3164.7
465.438	3174.42
465.81	3227.98
466.183	3305.04
466.555	3341.88
466.928	3313.4
467.3	3317.47
467.672	3357.92
468.045	3447.86
468.417	3470.91
468.789	3501.87
469.161	3511.14
469.534	3597.91
469.906	3653.96
470.278	3688.76
470.65	3663.67
471.022	3760.62
471.394	3865.48
471.766	3876.55
472.138	3880.17
472.51	3990.9
472.882	4004.68
473.253	4066.83
473.625	4089.88
473.997	4233.15
474.369	4202.42
474.74	4271.12
475.112	4300.72
475.484	4378.23
475.855	4479.92
476.227	4512.01
476.598	4644.44
476.97	4614.16
477.341	4704.33
477.713	4810.09
478.084	4821.61
478.455	4969.63
478.827	4977.99
479.198	5091.66
479.569	5048.27
479.94	5193.35
480.311	5249.62
480.682	5396.06
481.053	5458.88
481.424	5544.08
481.795	5558.99
482.166	5669.5
482.537	5732.55
482.908	5832.43
483.279	5901.36
483.65	5978.87
484.021	6054.35
484.391	6110.16
484.762	6198.98
485.133	6234.23
485.503	6314.9
485.874	6379.54
486.244	6480.1
486.615	6514
486.985	6642.58
487.356	6732.07
487.726	6755.8
488.097	6864.04
488.467	6920.54
488.837	7033.08
489.207	7057.94
489.578	7133.87
489.948	7253.64
490.318	7278.72
490.688	7299.06
491.058	7416.12
491.428	7497.02
491.798	7580.63
492.168	7758.26
492.538	7766.84
492.908	7794.87
493.278	7880.29
493.648	7920.06
494.017	7965.48
494.387	8067.4
494.757	8108.76
495.126	8206.61
495.496	8144.91
495.866	8201.63
496.235	8259.94
496.605	8337.22
496.974	8283.21
497.344	8402.31
497.713	8471.01
498.082	8536.54
498.452	8564.34
498.821	8573.83
499.19	8631.68
499.559	8695.18
499.928	8699.7
500.298	8753.03
500.667	8807.72
501.036	8741.28
501.405	8902.18
501.774	8871.9
502.143	8913.71
502.512	8933.37
502.88	8957.55
503.249	8927.72
503.618	9017.66
503.987	9045.23
504.356	9139.46
504.724	9064.66
505.093	9086.81
505.462	9176.07
505.83	9184.21
506.199	9253.13
506.567	9301.49
506.936	9327.25
507.304	9333.13
507.672	9368.38
508.041	9385.56
508.409	9478.21
508.777	9473.92
509.145	9514.59
509.514	9523.18
509.882	9492
510.25	9532.45
510.618	9539.9
510.986	9569.96
511.354	9625.33
511.722	9681.6
512.09	9672.78
512.458	9679.34
512.826	9730.63
513.193	9717.53
513.561	9720.69
513.929	9738.09
514.297	9841.37
514.664	9818.09
515.032	9807.24
515.4	9890.18
515.767	9882.95
516.135	9916.39
516.502	9790.75
516.869	9946
517.237	9918.88
517.604	9918.43
517.972	9922.72
518.339	10000.23
518.706	9931.31
519.073	9982.6
519.44	10011.98
519.808	10025.54
520.175	10033.22
520.542	10124.52
520.909	10073.45
521.276	10039.33
521.643	10122.26
522.009	10182.83
522.376	10181.7
522.743	10205.42
523.11	10182.15
523.477	10214.24
523.843	10256.04
524.21	10327.91
524.577	10225.54
524.943	10326.1
525.31	10241.58
525.676	10338.75
526.043	10415.59
526.409	10394.12
526.776	10415.14
527.142	10325.65
527.508	10386.44
527.874	10410.62
528.241	10344.86
528.607	10362.48
528.973	10418.53
529.339	10360.45
529.705	10498.52
530.071	10569.48
530.437	10458.3
530.803	10456.94
531.169	10452.65
531.535	10392.31
531.901	10441.58
532.267	10374.46
532.632	10400.45
532.998	10389.6
533.364	10458.75
533.73	10417.85
534.095	10353.89
534.461	10378.07
534.826	10404.97
535.192	10323.16
535.557	10363.39
535.923	10332.65
536.288	10309.83
536.653	10309.15
537.019	10248.81
537.384	10251.07
537.749	10182.15
538.114	10194.8
538.479	10147.57
538.845	10145.09
539.21	10050.4
539.575	10178.98
539.94	10160.45
540.305	10132.43
540.67	10023.96
541.034	10004.98
541.399	9988.93
541.764	9961.81
542.129	9923.62
542.494	9881.36
542.858	9883.17
543.223	9867.58
543.587	9869.61
543.952	9796.17
544.316	9804.53
544.681	9730.63
545.045	9727.24
545.41	9738.32
545.774	9699.45
546.138	9655.83
546.503	9653.8
546.867	9696.28
547.231	9663.52
547.595	9597.98
547.959	9566.12
548.324	9558.21
548.688	9529.06
549.052	9503.75
549.416	9480.92
549.779	9505.33
550.143	9455.39
550.507	9453.13
550.871	9412.9
551.235	9314.83
551.599	9352.34
551.962	9356.63
552.326	9296.52
552.689	9302.4
553.053	9184.43
553.417	9252.23
553.78	9246.13
554.143	9243.42
554.507	9224.43
554.87	9207.71
555.234	9209.07
555.597	9099.46
555.96	9160.71
556.323	9147.15
556.686	9091.33
557.05	9182.4
557.413	9048.62
557.776	9051.56
558.139	9066.24
558.502	9100.37
558.865	9066.92
559.228	9106.47
559.59	9120.03
559.953	9048.84
560.316	9082.74
560.679	9085
561.041	9053.59
561.404	9101.05
561.767	9093.59
562.129	9035.74
562.492	9074.61
562.854	9073.48
563.217	9053.59
563.579	9102.18
563.941	9117.32
564.304	9107.83
564.666	9095.62
565.028	9185.11
565.39	9129.07
565.753	9112.8
566.115	9213.13
566.477	9192.57
566.839	9153.93
567.201	9205.45
567.563	9177.2
567.925	9216.3
568.287	9162.74
568.648	9182.17
569.01	9183.53
569.372	9237.31
569.734	9178.33
570.095	9299.68
570.457	9306.46
570.819	9250.87
571.18	9351.21
571.542	9287.26
571.903	9266.47
572.265	9240.7
572.626	9401.38
572.987	9354.6
573.349	9371.32
573.71	9379
574.071	9372.68
574.432	9389.63
574.794	9462.62
575.155	9431.88
575.516	9388.95
575.877	9458.1
576.238	9454.26
576.599	9499.23
576.96	9440.7
577.32	9434.6
577.681	9490.41
578.042	9529.06
578.403	9524.09
578.763	9533.35
579.124	9557.08
579.485	9573.12
579.845	9579
580.206	9591.65
580.566	9609.28
580.927	9566.12
581.287	9638.43
581.648	9597.53
582.008	9640.69
582.368	9606.12
582.728	9646.57
583.089	9631.65
583.449	9578.55
583.809	9601.37
584.169	9728.6
584.529	9601.37
584.889	9657.19
585.249	9668.04
585.609	9618.77
585.969	9669.84
586.329	9647.02
586.688	9652.9
587.048	9713.91
587.408	9701.93
587.768	9681.82
588.127	9616.06
588.487	9686.79
588.846	9732.22
589.206	9675.27
589.565	9727.92
589.925	9694.02
590.284	9706.45
590.643	9723.18
591.003	9784.42
591.362	9830.52
591.721	9754.14
592.08	9760.24
592.44	9799.56
592.799	9760.24
593.158	9752.33
593.517	9816.73
593.876	9802.95
594.235	9705.55
594.593	9741.71
594.952	9785.1
595.311	9707.36
595.67	9794.36
596.029	9878.2
596.387	9825.77
596.746	9828.94
597.104	9813.34
597.463	9752.78
597.822	9854.7
598.18	9799.78
598.538	9791.88
598.897	9789.84
599.255	9743.97
599.613	9860.12
599.972	9835.72
600.33	9737.64
600.688	9733.12
601.046	9804.98
601.404	9837.3
601.762	9786
602.12	9832.1
602.478	9864.42
602.836	9872.78
603.194	9737.87
603.552	9833.46
603.91	9803.85
604.268	9899.22
604.625	9804.08
604.983	9830.29
605.341	9846.11
605.698	9882.49
606.056	9865.77
606.413	9810.86
606.771	9834.36
607.128	9878.65
607.485	9855.83
607.843	9765.66
608.2	9845.43
608.557	9933.57
608.914	9857.64
609.272	9932.89
609.629	9940.35
609.986	9994.58
610.343	9957.52
610.7	10060.12
611.057	9964.07
611.414	9902.15
611.771	9969.95
612.127	10015.82
612.484	10042.49
612.841	9949.16
613.198	9992.55
613.554	10028.71
613.911	10068.03
614.267	10014.47
614.624	10119.55
614.98	10116.84
615.337	10101.02
615.693	10048.82
616.05	10084.75
616.406	10025.32
616.762	10061.25
617.118	10040
617.475	10071.87
617.831	10057.86
618.187	10113.22
618.543	10117.97
618.899	10107.8
619.255	10133.56
619.611	10112.32
619.967	10160.68
620.323	10218.53
620.678	10131.08
621.034	10111.87
621.39	10125.43
621.746	10106.67
622.101	10243.84
622.457	10158.19
622.812	10156.39
623.168	10172.88
623.523	10171.53
623.879	10183.5
624.234	10141.24
624.589	10162.94
624.945	10197.06
625.3	10177.63
625.655	10188.7
626.01	10171.75
626.365	10141.02
626.72	10181.02
627.075	10121.58
627.43	10107.8
627.785	10102.6
628.14	10136.05
628.495	10130.4
628.85	10164.52
629.205	10080.91
629.559	10162.26
629.914	10050.63
630.269	9999.33
630.623	10048.82
630.978	10006.78
631.332	10048.59
631.687	10136.5
632.041	10054.24
632.396	10069.16
632.75	9899.22
633.104	10027.8
633.459	9969.27
633.813	9872.55
634.167	9902.83
634.521	9957.07
634.875	10002.27
635.229	9974.02
635.583	9927.46
635.937	9909.16
636.291	9878.88
636.645	9870.74
636.999	9831.42
637.352	9958.65
637.706	9870.74
638.06	9893.57
638.413	9816.96
638.767	9793.91
639.121	9833.68
639.474	9736.96
639.828	9760.46
640.181	9787.36
640.534	9774.47
640.888	9763.4
641.241	9717.53
641.594	9782.16
641.947	9757.53
642.301	9730.18
642.654	9705.32
643.007	9777.41
643.36	9708.71
643.713	9669.62
644.066	9681.6
644.419	9641.37
644.771	9515.95
645.124	9487.7
645.477	9472.56
645.83	9447.93
646.182	9395.05
646.535	9397.99
646.888	9424.88
647.24	9347.37
647.593	9349.18
647.945	9369.29
648.298	9303.98
648.65	9327.71
649.002	9336.29
649.355	9350.53
649.707	9383.98
650.059	9419.23
650.411	9523.63
650.763	9534.93
651.115	9637.3
651.467	9555.27
651.819	9549.4
652.171	9609.06
652.523	9553.46
652.875	9545.78
653.227	9535.16
653.578	9578.55
653.93	9606.34
654.282	9538.55
654.633	9473.47
654.985	9559.57
655.337	9513.24
655.688	9555.27
656.039	9560.24
656.391	9498.1
656.742	9567.02
657.094	9506.91
657.445	9556.85
657.796	9560.92
658.147	9527.25
658.498	9617.19
658.849	9651.77
659.2	9582.84
659.551	9531.77
659.902	9576.29
660.253	9517.31
660.604	9616.74
660.955	9587.59
661.306	9518.89
661.656	9539.9
662.007	9588.49
662.358	9578.55
662.708	9537.87
663.059	9510.98
663.409	9535.84
663.76	9630.07
664.11	9545.1
664.461	9541.71
664.811	9627.59
665.161	9596.85
665.511	9562.73
665.862	9576.97
666.212	9532.45
666.562	9597.3
666.912	9597.76
667.262	9530.41
667.612	9609.96
667.962	9627.59
668.312	9552.11
668.662	9590.98
669.011	9606.57
669.361	9630.75
669.711	9571.09
670.06	9567.47
670.41	9490.87
670.76	9498.55
671.109	9483.63
671.459	9524.09
671.808	9528.83
672.157	9566.12
672.507	9487.7
672.856	9485.44
673.205	9467.36
673.554	9510.07
673.904	9499.45
674.253	9549.62
674.602	9468.04
674.951	9412.68
675.3	9314.83
675.649	9452.68
675.998	9418.33
676.346	9402.06
676.695	9439.79
677.044	9320.7
677.393	9410.64
677.741	9405.44
678.09	9400.47
678.438	9349.4
678.787	9406.35
679.135	9306.92
679.484	9271.44
679.832	9293.36
680.181	9250.42
680.529	9280.02
680.877	9227.82
681.225	9296.07
681.573	9285.45
681.922	9224.43
682.27	9194.15
682.618	9201.83
682.966	9109.86
683.314	9222.62
683.661	9200.7
684.009	9126.81
684.357	9092.23
684.705	9085.68
685.053	9037.32
685.4	9002.97
685.748	8984.66
686.095	9004.1
686.443	8974.95
686.79	8974.95
687.138	8976.08
687.485	8984.44
687.832	8883.2
688.18	8909.41
688.527	8839.81
688.874	8892.69
689.221	8873.26
689.568	8812.47
689.915	8752.81
690.262	8761.62
690.609	8753.71
690.956	8656.76
691.303	8680.94
691.65	8635.3
691.997	8559.82
692.344	8563.43
692.69	8551.91
693.037	8592.36
693.383	8491.12
693.73	8459.93
694.077	8478.69
694.423	8428.75
694.769	8362.99
695.116	8417.22
695.462	8344.46
695.808	8327.51
696.155	8412.7
696.501	8226.04
696.847	8344
697.193	8152.14
697.539	8215.87
697.885	8159.15
698.231	8148.3
698.577	8094.74
698.923	8057.68
699.269	8069.21
699.614	8025.59
699.96	7987.85
700.306	7934.3
700.651	7868.08
700.997	7903.34
701.342	7885.94
701.688	7829.44
702.033	7823.34
702.379	7760.29
702.724	7787.63
703.069	7780.18
703.415	7630.12
703.76	7674.64
704.105	7668.32
704.45	7638.71
704.795	7673.96
705.14	7567.75
705.485	7564.82
705.83	7523.91
706.175	7533.63
706.52	7499.05
706.865	7449.56
707.209	7393.07
707.554	7388.77
707.899	7433.97
708.243	7343.13
708.588	7350.13
708.932	7298.61
709.277	7340.87
709.621	7339.74
709.966	7186.97
710.31	7243.24
710.654	7186.29
710.998	7210.47
711.342	7232.62
711.687	7155.11
712.031	7132.74
712.375	7123.92
712.719	7163.24
713.063	7125.73
713.407	7135.45
713.75	7096.35
714.094	7078.73
714.438	7033.98
714.782	7061.33
715.125	7020.65
715.469	7037.15
715.812	6995.56
716.156	6933.19
716.499	6929.13
716.843	6972.74
717.186	6943.81
717.53	6993.98
717.873	6970.48
718.216	6954.44
718.559	6920.31
718.902	6876.25
719.246	6884.61
719.589	6893.65
719.932	6835.12
720.275	6878.28
720.617	6860.88
720.96	6875.79
721.303	6870.14
721.646	6841.67
721.989	6801.67
722.331	6831.5
722.674	6783.14
723.016	6795.12
723.359	6767.77
723.701	6779.53
724.044	6784.27
724.386	6761.45
724.729	6808
725.071	6760.99
725.413	6758.96
725.755	6756.93
726.097	6787.89
726.439	6734.33
726.782	6749.7
727.124	6716.02
727.465	6673.09
727.807	6727.78
728.149	6665.63
728.491	6662.69
728.833	6688
729.175	6697.27
729.516	6641.45
729.858	6693.2
730.199	6617.72
730.541	6662.01
730.882	6672.64
731.224	6658.17
731.565	6640.55
731.906	6685.74
732.248	6701.11
732.589	6620.43
732.93	6686.87
733.271	6641
733.612	6662.01
733.953	6682.8
734.294	6669.02
734.635	6647.33
734.976	6666.99
735.317	6659.75
735.658	6650.71
735.999	6666.31
736.339	6679.41
736.68	6706.08
737.021	6733.2
737.361	6685.06
737.702	6726.42
738.042	6718.51
738.383	6628.57
738.723	6710.37
739.063	6723.48
739.404	6747.66
739.744	6700.66
740.084	6745.63
740.424	6780.88
740.764	6732.29
741.104	6773.88
741.444	6758.06
741.784	6786.08
742.124	6828.79
742.464	6839.41
742.804	6816.13
743.143	6798.96
743.483	6842.8
743.823	6817.04
744.162	6900.65
744.502	6919.41
744.841	6906.98
745.181	6955.11
745.52	6926.41
745.86	6977.71
746.199	6983.81
746.538	7095.22
746.877	7113.53
747.216	7200.76
747.556	7170.25
747.895	7212.51
748.234	7205.95
748.573	7260.87
748.911	7361.2
749.25	7375.44
749.589	7411.82
749.928	7506.96
750.267	7620.18
750.605	7709.9
750.944	7711.48
751.283	7753.28
751.621	7845.94
751.96	7907.18
752.298	7982.88
752.636	8109.21
752.975	8119.6
753.313	8266.04
753.651	8393.95
753.989	8426.49
754.327	8474.85
754.666	8620.61
755.004	8806.36
755.342	8912.58
755.679	8961.61
756.017	9102.63
756.355	9257.88
756.693	9336.07
757.031	9521.37
757.368	9685.21
757.706	9742.16
758.044	9899.9
758.381	10062.15
758.719	10214.92
759.056	10393.22
759.394	10547.34
759.731	10640.89
760.068	10802.47
760.405	10970.38
760.743	11020.32
761.08	11284.94
761.417	11439.06
761.754	11588.66
762.091	11757.02
762.428	11965.83
762.765	12022.78
763.102	12230.23
763.438	12434.52
763.775	12542.76
764.112	12854.85
764.449	12965.13
764.785	13113.82
765.122	13202.41
765.458	13249.86
765.795	13558.78
766.131	13726.01
766.467	13845.1
