Data from hue_300_FLMS001491_00039.txt Node
Date: Tue Feb 07 15:50:40 GMT 2017
User: dcchb
Spectrometer: FLMS00149
Trigger mode: 0
Integration Time (sec): 2.000000E-2
Scans to average: 10
Electric dark correction enabled: true
Nonlinearity correction enabled: false
Boxcar width: 0
XAxis mode: Wavelengths
Number of Pixels in Spectrum: 2048
>>>>>Begin Spectral Data<<<<<
341.393	-37.3
341.776	-37.3
342.16	-37.3
342.543	-55.15
342.927	-63.06
343.31	-59
343.693	-53.12
344.077	-82.95
344.46	-67.81
344.843	-33.01
345.226	-39.79
345.61	-32.78
345.993	-21.26
346.376	6.31
346.759	-7.7
347.142	35.01
347.525	42.02
347.908	45.63
348.291	78.4
348.674	86.76
349.057	103.26
349.44	126.76
349.823	138.51
350.206	138.74
350.588	179.42
350.971	196.59
351.354	213.54
351.737	224.39
352.119	263.48
352.502	248.79
352.884	261.67
353.267	263.48
353.65	293.76
354.032	305.51
354.414	304.84
354.797	303.93
355.179	300.09
355.562	317.27
355.944	331.05
356.326	321.56
356.709	328.79
357.091	302.12
357.473	319.98
357.855	340.54
358.238	338.51
358.62	303.25
359.002	329.02
359.384	319.98
359.766	336.7
360.148	332.18
360.53	325.18
360.912	345.97
361.294	324.95
361.676	329.69
362.057	338.06
362.439	326.98
362.821	324.95
363.203	322.24
363.584	334.67
363.966	310.94
364.348	323.82
364.729	331.73
365.111	317.72
365.493	307.1
365.874	314.55
366.256	298.06
366.637	296.48
367.019	301.22
367.4	300.99
367.781	315.68
368.163	291.28
368.544	307.1
368.925	313.65
369.306	327.66
369.688	300.32
370.069	311.62
370.45	307.32
370.831	300.09
371.212	319.07
371.593	303.03
371.974	305.74
372.355	317.49
372.736	287.44
373.117	291.96
373.498	321.11
373.879	303.93
374.26	304.38
374.641	334.44
375.021	303.25
375.402	317.27
375.783	331.28
376.163	315.01
376.544	311.16
376.925	310.03
377.305	329.02
377.686	321.33
378.066	323.37
378.447	305.06
378.827	330.15
379.208	325.4
379.588	331.73
379.968	323.59
380.349	317.72
380.729	333.99
381.109	341.22
381.489	316.81
381.87	332.86
382.25	324.5
382.63	337.15
383.01	338.96
383.39	326.3
383.77	316.36
384.15	331.95
384.53	340.09
384.91	339.41
385.29	330.6
385.67	324.27
386.049	322.24
386.429	324.95
386.809	355.46
387.189	343.48
387.568	357.94
387.948	355.91
388.328	354.78
388.707	366.76
389.087	334.67
389.466	380.31
389.846	346.42
390.225	347.1
390.605	350.49
390.984	350.03
391.363	354.33
391.743	376.7
392.122	373.99
392.501	338.96
392.881	355.23
393.26	370.37
393.639	353.65
394.018	355
394.397	375.8
394.776	369.69
395.155	380.31
395.534	373.99
395.913	359.07
396.292	387.55
396.671	366.76
397.05	402.24
397.429	378.06
397.808	385.06
398.186	385.74
398.565	398.62
398.944	389.81
399.323	396.59
399.701	380.31
400.08	394.33
400.458	403.82
400.837	413.76
401.215	399.52
401.594	410.6
401.972	409.47
402.351	411.27
402.729	411.5
403.107	409.47
403.486	423.7
403.864	412.4
404.242	424.38
404.62	428.22
404.999	429.13
405.377	418.05
405.755	428.22
406.133	434.78
406.511	444.72
406.889	434.32
407.267	456.92
407.645	463.48
408.023	444.27
408.401	468
408.779	466.64
409.156	482.01
409.534	487.2
409.912	487.43
410.29	492.18
410.667	493.31
411.045	491.95
411.422	512.74
411.8	517.49
412.178	540.76
412.555	531.72
412.933	545.73
413.31	547.09
413.687	550.25
414.065	559.75
414.442	549.58
414.819	586.86
415.197	569.91
415.574	610.37
415.951	605.62
416.328	626.18
416.705	602.46
417.082	642.91
417.46	638.16
417.837	644.49
418.214	642.45
418.591	651.72
418.967	643.58
419.344	672.28
419.721	700.53
420.098	671.15
420.475	700.76
420.852	731.94
421.228	706.86
421.605	723.81
421.982	741.89
422.358	753.19
422.735	745.73
423.111	761.77
423.488	744.83
423.864	792.28
424.241	798.61
424.617	788.67
424.994	799.06
425.37	790.47
425.746	826.18
426.123	844.48
426.499	822.79
426.875	845.39
427.251	853.97
427.627	849.46
428.003	884.26
428.379	874.77
428.756	895.1
429.132	912.05
429.507	913.18
429.883	904.14
430.259	923.58
430.635	939.62
431.011	961.77
431.387	961.54
431.763	975.78
432.138	982.33
432.514	1020.07
432.89	1013.07
433.265	1017.59
433.641	1017.13
434.016	1030.69
434.392	1065.27
434.767	1067.98
435.143	1091.03
435.518	1059.62
435.894	1120.18
436.269	1125.61
436.644	1128.32
437.02	1112.05
437.395	1147.07
437.77	1143.68
438.145	1178.49
438.52	1163.8
438.895	1185.49
439.271	1179.16
439.646	1223.68
440.021	1236.79
440.395	1215.32
440.77	1198.15
441.145	1233.4
441.52	1234.53
441.895	1243.79
442.27	1236.34
442.645	1263.68
443.019	1277.69
443.394	1290.8
443.769	1263.68
444.143	1271.82
444.518	1293.51
444.892	1289.67
445.267	1290.12
445.641	1272.27
446.016	1310.01
446.39	1304.13
446.764	1323.11
447.139	1299.84
447.513	1347.75
447.887	1358.59
448.262	1303.91
448.636	1318.6
449.01	1355.88
449.384	1342.32
449.758	1373.51
450.132	1334.41
450.506	1359.95
450.88	1341.87
451.254	1369.22
451.628	1372.61
452.002	1395.43
452.376	1381.42
452.75	1411.25
453.123	1420.97
453.497	1413.73
453.871	1433.85
454.244	1460.51
454.618	1471.36
454.992	1471.59
455.365	1488.76
455.739	1507.29
456.112	1491.02
456.486	1498.93
456.859	1486.05
457.232	1556.33
457.606	1538.25
457.979	1571.47
458.352	1566.5
458.725	1597.46
459.099	1617.8
459.472	1604.24
459.845	1622.77
460.218	1620.73
460.591	1626.38
460.964	1645.14
461.337	1688.53
461.71	1668.19
462.083	1697.79
462.456	1660.96
462.829	1674.52
463.201	1716.1
463.574	1722.88
463.947	1714.74
464.32	1735.31
464.692	1769.43
465.065	1792.71
465.438	1756.78
465.81	1795.42
466.183	1832.93
466.555	1850.78
466.928	1833.38
467.3	1835.87
467.672	1843.1
468.045	1893.95
468.417	1884.23
468.789	1907.96
469.161	1924
469.534	1921.97
469.906	1955.19
470.278	1989.09
470.65	1975.75
471.022	2007.39
471.394	2018.92
471.766	2059.37
472.138	2095.52
472.51	2079.93
472.882	2115.86
473.253	2108.86
473.625	2152.25
473.997	2170.78
474.369	2196.31
474.74	2256.88
475.112	2241.96
475.484	2242.19
475.855	2258.23
476.227	2297.1
476.598	2344.11
476.97	2337.55
477.341	2355.63
477.713	2415.29
478.084	2408.51
478.455	2440.37
478.827	2457.55
479.198	2482.18
479.569	2485.12
479.94	2565.12
480.311	2534.38
480.682	2611.22
481.053	2635.62
481.424	2657.09
481.795	2670.42
482.166	2704.1
482.537	2729.86
482.908	2781.38
483.279	2785
483.65	2821.15
484.021	2851.21
484.391	2857.99
484.762	2862.74
485.133	2920.59
485.503	2951.77
485.874	2975.73
486.244	2964.65
486.615	3021.38
486.985	3032.67
487.356	3105.67
487.726	3095.27
488.097	3163.07
488.467	3148.83
488.837	3230.86
489.207	3225.44
489.578	3288.04
489.948	3235.83
490.318	3309.28
490.688	3311.31
491.058	3369.84
491.428	3380.91
491.798	3422.49
492.168	3465.21
492.538	3430.4
492.908	3485.32
493.278	3524.41
493.648	3479.22
494.017	3524.19
494.387	3592.21
494.757	3546.79
495.126	3598.31
495.496	3617.29
495.866	3645.99
496.235	3635.14
496.605	3641.02
496.974	3671.08
497.344	3699.55
497.713	3698.65
498.082	3723.96
498.452	3721.47
498.821	3740.9
499.19	3759.89
499.559	3775.25
499.928	3824.29
500.298	3838.3
500.667	3832.2
501.036	3862.26
501.405	3863.61
501.774	3886.21
502.143	3899.32
502.512	3905.19
502.88	3908.13
503.249	3928.24
503.618	3962.82
503.987	3948.36
504.356	3979.09
504.724	3950.62
505.093	3995.81
505.462	3989.49
505.83	4034.23
506.199	4046.21
506.567	4089.37
506.936	4101.12
507.304	4149.48
507.672	4141.57
508.041	4077.62
508.409	4130.5
508.777	4160.1
509.145	4179.99
509.514	4222.93
509.882	4201.91
510.25	4192.19
510.618	4250.04
510.986	4201.01
511.354	4252.76
511.722	4251.63
512.09	4283.49
512.458	4268.35
512.826	4295.69
513.193	4293.88
513.561	4288.91
513.929	4351.28
514.297	4356.03
514.664	4399.64
515.032	4401.9
515.4	4383.15
515.767	4428.34
516.135	4372.07
516.502	4365.75
516.869	4417.72
517.237	4504.27
517.604	4444.61
517.972	4433.32
518.339	4466.54
518.706	4465.18
519.073	4496.82
519.44	4546.53
519.808	4544.95
520.175	4539.53
520.542	4539.98
520.909	4603.71
521.276	4583.14
521.643	4592.86
522.009	4587.21
522.376	4605.06
522.743	4676.7
523.11	4669.02
523.477	4711.5
523.843	4732.06
524.21	4758.5
524.577	4771.84
524.943	4812.97
525.31	4794.44
525.676	4843.7
526.043	4868.56
526.409	4840.99
526.776	4922.34
527.142	4927.31
527.508	4920.31
527.874	4947.2
528.241	4978.39
528.607	5005.05
528.973	5021.1
529.339	5021.77
529.705	5031.49
530.071	5110.36
530.437	5115.78
530.803	5095.9
531.169	5181.09
531.535	5181.77
531.901	5160.98
532.267	5224.93
532.632	5184.93
532.998	5259.73
533.364	5253.18
533.73	5263.8
534.095	5347.87
534.461	5337.92
534.826	5371.82
535.192	5374.53
535.557	5419.96
535.923	5377.25
536.288	5483.01
536.653	5446.62
537.019	5440.29
537.384	5450.92
537.749	5453.85
538.114	5543.34
538.479	5533.63
538.845	5584.92
539.21	5540.18
539.575	5589.67
539.94	5609.56
540.305	5628.09
540.67	5613.17
541.034	5722.77
541.399	5683.45
541.764	5687.97
542.129	5741.98
542.494	5732.26
542.858	5755.99
543.223	5799.38
543.587	5859.72
543.952	5886.16
544.316	5902.88
544.681	5877.12
545.045	5890.9
545.41	5905.59
545.774	6006.83
546.138	5990.11
546.503	6002.77
546.867	6038.47
547.231	6053.39
547.595	6059.26
547.959	6098.81
548.324	6098.81
548.688	6162.76
549.052	6146.26
549.416	6198.69
549.779	6177
550.143	6152.14
550.507	6213.38
550.871	6272.82
551.235	6212.03
551.599	6288.86
551.962	6325.47
552.326	6364.34
552.689	6322.08
553.053	6322.53
553.417	6339.03
553.78	6443.43
554.143	6346.94
554.507	6489.98
554.87	6440.72
555.234	6526.59
555.597	6447.95
555.96	6504.22
556.323	6507.39
556.686	6463.77
557.05	6479.59
557.413	6550.55
557.776	6604.11
558.139	6640.94
558.502	6665.57
558.865	6654.95
559.228	6718.91
559.59	6666.25
559.953	6743.31
560.316	6748.06
560.679	6839.58
561.041	6792.12
561.404	6859.24
561.767	6887.04
562.129	6826.7
562.492	6917.09
562.854	6880.03
563.217	6877.09
563.579	6904.89
563.941	6969.29
564.304	6958.45
564.666	6988.5
565.028	6976.53
565.39	7081.38
565.753	7044.77
566.115	7060.82
566.477	7097.2
566.839	7099.91
567.201	7193.02
567.563	7199.34
567.925	7193.92
568.287	7195.73
568.648	7278.89
569.01	7290.42
569.372	7267.82
569.734	7337.87
570.095	7425.33
570.457	7485.66
570.819	7480.47
571.18	7408.15
571.542	7499.68
571.903	7560.92
572.265	7604.53
572.626	7651.54
572.987	7644.76
573.349	7675.04
573.71	7828.48
574.071	7862.38
574.432	7892.43
574.794	7934.01
575.155	7950.51
575.516	8003.62
575.877	8099.43
576.238	8135.14
576.599	8184.4
576.96	8245.64
577.32	8363.16
577.681	8418.75
578.042	8473.89
578.403	8620.1
578.763	8677.72
579.124	8827.1
579.485	8873.2
579.845	8893.09
580.206	9093.53
580.566	9163.36
580.927	9296.01
581.287	9439.06
581.648	9550.02
582.008	9748.43
582.368	9892.83
582.728	10010.12
583.089	10135.54
583.449	10305.03
583.809	10566.26
584.169	10647.39
584.529	10773.26
584.889	11060.49
585.249	11186.58
585.609	11355.17
585.969	11601.71
586.329	11787.7
586.688	11974.13
587.048	12212.55
587.408	12412.09
587.768	12684.4
588.127	12882.81
588.487	13112.18
588.846	13401.67
589.206	13557.6
589.565	13774.99
589.925	14134.53
590.284	14294.53
590.643	14653.39
591.003	14875.07
591.362	15245.46
591.721	15415.17
592.08	15653.36
592.44	16099.22
592.799	16368.37
593.158	16645.65
593.517	16851.07
593.876	17215.8
594.235	17293.77
594.593	17702.12
594.952	17959.74
595.311	18223.24
595.67	18583.45
596.029	19065.47
596.387	19260.72
596.746	19653.48
597.104	19735.29
597.463	20093.47
597.822	20402.16
598.18	20662.95
598.538	20883.05
598.897	21311.52
599.255	21359.65
599.613	22026.98
599.972	22080.99
600.33	22456.57
600.688	22562.33
601.046	23123.9
601.404	23312.37
601.762	23535.86
602.12	23868.51
602.478	24140.14
602.836	24340.81
603.194	24604.08
603.552	24866
603.91	25072.32
604.268	25371.07
604.625	25588.01
604.983	25923.6
605.341	26023.26
605.698	26345.06
606.056	26692.62
606.413	26783.24
606.771	27039.95
607.128	27412.15
607.485	27378.02
607.843	27742.99
608.2	27994.96
608.557	28317.43
608.914	28379.8
609.272	28590.87
609.629	28898.44
609.986	29258.43
610.343	29232.66
610.7	29690.28
611.057	29812.99
611.414	30015.24
611.771	30120.32
612.127	30357.38
612.484	30483.25
612.841	30750.82
613.198	30770.93
613.554	30993.3
613.911	31223.57
614.267	31380.4
614.624	31602.77
614.98	31701.07
615.337	31958.24
615.693	32118.92
616.05	32154.17
616.406	32532.01
616.762	32581.05
617.118	32661.27
617.475	32753.47
617.831	33052.45
618.187	32998.67
618.543	33215.16
618.899	33404.98
619.255	33560.69
619.611	33799.78
619.967	33908.25
620.323	34010.39
620.678	33906.66
621.034	34084.29
621.39	34169.03
621.746	34232.53
622.101	34720.43
622.457	34542.35
622.812	34507.1
623.168	34798.17
623.523	34896.02
623.879	35095.56
624.234	34850.14
624.589	35140.76
624.945	35162.68
625.3	35284.71
625.655	35255.33
626.01	35425.95
626.365	35550.24
626.72	35374.2
627.075	35661.87
627.43	35618.48
627.785	35512.27
628.14	35814.41
628.495	35814.64
628.85	35891.92
629.205	35757.46
629.559	36088.75
629.914	35899.15
630.269	35964.01
630.623	35981.41
630.978	35977.12
631.332	36206.94
631.687	36138.92
632.041	35964.46
632.396	36200.62
632.75	36084.91
633.104	36170.33
633.459	36039.26
633.813	35990
634.167	36081.75
634.521	36205.81
634.875	36125.82
635.229	36130.79
635.583	36108.87
635.937	36093.05
636.291	36162.88
636.645	36204.01
636.999	35963.56
637.352	36167.62
637.706	36003.33
638.06	36242.87
638.413	36163.55
638.767	36142.76
639.121	36183.89
639.474	35988.64
639.828	36101.41
640.181	36058.47
640.534	36189.77
640.888	36102.09
641.241	36036.78
641.594	35965.82
641.947	36171.01
642.301	36118.36
642.654	36134.63
643.007	36201.07
643.36	36076.78
643.713	36109.77
644.066	36172.37
644.419	36049.21
644.771	35692.15
645.124	35316.57
645.477	35412.16
645.83	35215.11
646.182	35049.69
646.535	34985.73
646.888	35096.01
647.24	34893.76
647.593	35125.39
647.945	35030.93
648.298	34963.36
648.65	34878.62
649.002	34780.31
649.355	34953.19
649.707	34887.66
650.059	35135.33
650.411	35659.61
650.763	35592.72
651.115	35900.28
651.467	35790.46
651.819	35848.99
652.171	35647.18
652.523	35711.36
652.875	35623.91
653.227	35502.33
653.578	35806.5
653.93	35698.03
654.282	35538.49
654.633	35401.09
654.985	35538.26
655.337	35536
655.688	35665.26
656.039	35784.13
656.391	35441.09
656.742	35550.69
657.094	35529
657.445	35641.31
657.796	35464.82
658.147	35587.98
658.498	35585.72
658.849	35689.44
659.2	35542.55
659.551	35477.7
659.902	35633.63
660.253	35462.33
660.604	35660.29
660.955	35391.6
661.306	35544.81
661.656	35477.25
662.007	35394.54
662.358	35569.45
662.708	35446.29
663.059	35436.79
663.409	35248.78
663.76	35481.31
664.11	35498.49
664.461	35459.84
664.811	35413.74
665.161	35574.42
665.511	35389.11
665.862	35376.23
666.212	35554.98
666.562	35501.65
666.912	35434.53
667.262	35488.54
667.612	35493.74
667.962	35358.6
668.312	35280.19
668.662	35483.8
669.011	35347.76
669.361	35410.35
669.711	35278.61
670.06	35302.11
670.41	35238.38
670.76	35214.43
671.109	35362.22
671.459	35251.04
671.808	35185.05
672.157	35296.91
672.507	35005.17
672.856	35019.86
673.205	35117.25
673.554	35419.39
673.904	34984.6
674.253	35260.75
674.602	35181.21
674.951	34720.65
675.3	34548.23
675.649	35180.76
675.998	35044.71
676.346	35107.99
676.695	35175.33
677.044	34924.04
677.393	34910.93
677.741	35146.41
678.09	34873.65
678.438	34795.23
678.787	34972.4
679.135	34818.73
679.484	34584.61
679.832	34898.05
680.181	34665.97
680.529	34624.61
680.877	34624.16
681.225	34530.15
681.573	34709.81
681.922	34517.5
682.27	34423.71
682.618	34512.75
682.966	34328.57
683.314	34458.51
683.661	34251.51
684.009	34165.87
684.357	34197.73
684.705	34194.57
685.053	34076.6
685.4	34110.5
685.748	33909.15
686.095	33796.39
686.443	33860.11
686.79	33780.79
687.138	33853.33
687.485	33845.88
687.832	33646.33
688.18	33761.81
688.527	33523.85
688.874	33411.08
689.221	33362.72
689.568	33353.91
689.915	33193.69
690.262	33272.56
690.609	33155.95
690.956	33018.1
691.303	33065.56
691.65	32840.03
691.997	32809.74
692.344	32658.34
692.69	32775.62
693.037	32767.26
693.383	32410.89
693.73	32515.97
694.077	32363.2
694.423	32445.46
694.769	32148.52
695.116	32149.65
695.462	32176.77
695.808	32024
696.155	32039.37
696.501	31880.73
696.847	31848.41
697.193	31629.66
697.539	31927.96
697.885	31483
698.231	31455.2
698.577	31481.64
698.923	31470.12
699.269	31264.02
699.614	31105.38
699.96	30988.78
700.306	31007.98
700.651	30888.89
700.997	30918.04
701.342	30890.47
701.688	30739.29
702.033	30675.34
702.379	30740.19
702.724	30593.53
703.069	30534.32
703.415	30288
703.76	30281.45
704.105	30272.41
704.45	30253.65
704.795	29938.63
705.14	29892.08
705.485	29855.92
705.83	29741.35
706.175	29814.34
706.52	29632.65
706.865	29660.45
707.209	29577.06
707.554	29568.25
707.899	29515.59
708.243	29316.5
708.588	29292.77
708.932	29136.62
709.277	29004.65
709.621	29134.36
709.966	29083.51
710.31	29051.43
710.654	28704.09
710.998	28933.01
711.342	28891.88
711.687	28679.91
712.031	28614.15
712.375	28473.36
712.719	28599.46
713.063	28448.73
713.407	28592.23
713.75	28383.65
714.094	28448.28
714.438	28297.32
714.782	28342.97
715.125	28254.16
715.469	28319.69
715.812	28109.53
716.156	27982.53
716.499	27981.17
716.843	27944.79
717.186	27811.23
717.53	27913.38
717.873	27917.44
718.216	27867.95
718.559	27658.24
718.902	27585.93
719.246	27583.89
719.589	27449.21
719.932	27397.46
720.275	27330.57
720.617	27342.77
720.96	27366.72
721.303	27287.86
721.646	27255.09
721.989	27101.65
722.331	27265.03
722.674	27214.64
723.016	27115.21
723.359	27056.45
723.701	27115.43
724.044	26856.45
724.386	26805.16
724.729	26948.66
725.071	26856.45
725.413	26787.53
725.755	26805.61
726.097	26707.53
726.439	26599.51
726.782	26518.16
727.124	26663.24
727.465	26495.33
727.807	26490.59
728.149	26431.38
728.491	26476.8
728.833	26556.58
729.175	26408.56
729.516	26198.62
729.858	26384.83
730.199	26282.23
730.541	26236.36
730.882	26206.3
731.224	26319.29
731.565	26067.55
731.906	26143.71
732.248	26182.12
732.589	25869.36
732.93	25883.83
733.271	25943.26
733.612	25994.33
733.953	25965.63
734.294	25806.54
734.635	25777.61
734.976	25829.82
735.317	25674.57
735.658	25712.98
735.999	25797.95
736.339	25532.65
736.68	25596.15
737.021	25527
737.361	25428.24
737.702	25586.21
738.042	25516.15
738.383	25453.1
738.723	25532.2
739.063	25430.73
739.404	25434.8
739.744	25305.99
740.084	25101.25
740.424	25238.87
740.764	25182.6
741.104	25258.98
741.444	25086.56
741.784	25066.45
742.124	25126.56
742.464	25117.97
742.804	25051.76
743.143	24935.15
743.483	24986.45
743.823	24848.82
744.162	24887.02
744.502	24934.47
744.841	24696.51
745.181	24903.96
745.52	24898.09
745.86	24850.18
746.199	24875.72
746.538	24712.33
746.877	24761.37
747.216	24710.75
747.556	24655.83
747.895	24650.64
748.234	24552.33
748.573	24574.48
748.911	24524.76
749.25	24525.67
749.589	24454.26
749.928	24497.87
750.267	24548.49
750.605	24389.85
750.944	24411.32
751.283	24379.68
751.621	24488.83
751.96	24274.38
752.298	24123.42
752.636	24251.1
752.975	24127.26
753.313	24094.95
753.651	24152.57
753.989	23965.68
754.327	24020.6
754.666	23955.29
755.004	23980.6
755.342	23998.22
755.679	23841.17
756.017	23775.41
756.355	23792.81
756.693	23778.12
757.031	23870.32
757.368	23657.22
757.706	23635.97
758.044	23601.17
758.381	23695.63
758.719	23584.45
759.056	23562.08
759.394	23407.51
