Data from hue_24_FLMS001491_00095.txt Node
Date: Tue Feb 07 17:13:01 GMT 2017
User: dcchb
Spectrometer: FLMS00149
Trigger mode: 0
Integration Time (sec): 2.000000E-2
Scans to average: 10
Electric dark correction enabled: true
Nonlinearity correction enabled: false
Boxcar width: 0
XAxis mode: Wavelengths
Number of Pixels in Spectrum: 2048
>>>>>Begin Spectral Data<<<<<
341.393	-8.63
341.776	-8.63
342.16	-8.63
342.543	-34.62
342.927	-53.6
343.31	-63.32
343.693	-72.13
344.077	-46.14
344.46	-66.03
344.843	-71.45
345.226	-44.79
345.61	-18.57
345.993	-17.67
346.376	-17.9
346.759	4.25
347.142	5.61
347.525	60.97
347.908	52.84
348.291	91.03
348.674	101.42
349.057	101.88
349.44	136.23
349.823	145.94
350.206	179.84
350.588	193.4
350.971	215.55
351.354	226.62
351.737	234.75
352.119	258.26
352.502	262.1
352.884	275.43
353.267	282.44
353.65	302.1
354.032	304.36
354.414	319.72
354.797	328.99
355.179	336.22
355.562	337.12
355.944	341.64
356.326	357.46
356.709	336.9
357.091	339.38
357.473	330.8
357.855	368.54
358.238	346.16
358.62	365.15
359.002	351.59
359.384	340.51
359.766	345.71
360.148	347.97
360.53	366.5
360.912	346.16
361.294	342.77
361.676	345.26
362.057	357.01
362.439	336.45
362.821	320.85
363.203	339.84
363.584	331.25
363.966	331.7
364.348	343.23
364.729	353.62
365.111	334.41
365.493	339.16
365.874	356.33
366.256	326.5
366.637	314.75
367.019	341.42
367.4	339.38
367.781	347.52
368.163	345.94
368.544	314.75
368.925	327.63
369.306	350
369.688	338.93
370.069	355.43
370.45	337.35
370.831	355.43
371.212	344.58
371.593	330.12
371.974	327.18
372.355	358.14
372.736	344.81
373.117	330.34
373.498	364.47
373.879	350.91
374.26	326.5
374.641	333.51
375.021	338.25
375.402	333.73
375.783	331.25
376.163	371.93
376.544	353.17
376.925	343.45
377.305	359.95
377.686	342.32
378.066	345.71
378.447	344.36
378.827	353.62
379.208	334.86
379.588	352.72
379.968	345.94
380.349	372.38
380.729	354.07
381.109	367.86
381.489	355.43
381.87	353.62
382.25	366.95
382.63	362.43
383.01	356.56
383.39	382.09
383.77	349.1
384.15	367.18
384.53	372.83
384.91	373.06
385.29	364.02
385.67	371.47
386.049	378.48
386.429	383
386.809	388.2
387.189	387.52
387.568	371.25
387.948	374.64
388.328	381.64
388.707	384.81
389.087	402.43
389.466	401.75
389.846	383.68
390.225	412.38
390.605	406.05
390.984	409.89
391.363	429.32
391.743	413.96
392.122	383.22
392.501	399.04
392.881	410.79
393.26	404.69
393.639	419.61
394.018	407.4
394.397	415.09
394.776	444.92
395.155	425.48
395.534	431.36
395.913	447.63
396.292	430
396.671	428.19
397.05	431.81
397.429	424.81
397.808	453.28
398.186	426.61
398.565	443.56
398.944	442.88
399.323	440.85
399.701	434.3
400.08	441.98
400.458	444.92
400.837	448.53
401.215	452.15
401.594	454.63
401.972	454.63
402.351	463.22
402.729	467.97
403.107	451.7
403.486	474.3
403.864	476.1
404.242	467.06
404.62	488.31
404.999	478.82
405.377	492.83
405.755	475.43
406.133	483.56
406.511	494.86
406.889	483.56
407.267	491.92
407.645	479.95
408.023	494.41
408.401	515.42
408.779	495.09
409.156	507.97
409.534	507.06
409.912	526.05
410.29	523.33
410.667	510.68
411.045	517.46
411.422	531.47
411.8	526.95
412.178	559.26
412.555	544.35
412.933	560.17
413.31	530.79
413.687	554.29
414.065	555.42
414.442	567.17
414.819	587.06
415.197	575.08
415.574	565.82
415.951	589.09
416.328	598.13
416.705	566.95
417.082	588.42
417.46	603.56
417.837	589.32
418.214	592.48
418.591	611.24
418.967	590.45
419.344	615.76
419.721	614.86
420.098	620.73
420.475	617.79
420.852	628.64
421.228	641.3
421.605	648.3
421.982	641.07
422.358	646.27
422.735	643.1
423.111	648.98
423.488	667.06
423.864	654.63
424.241	674.29
424.617	677.23
424.994	662.99
425.37	677.45
425.746	675.87
426.123	665.25
426.499	682.65
426.875	717.45
427.251	691.01
427.627	723.1
428.003	706.15
428.379	700.28
428.756	708.19
429.132	751.58
429.507	757
429.883	747.96
430.259	749.32
430.635	745.02
431.011	742.99
431.387	750.22
431.763	789.77
432.138	785.93
432.514	788.41
432.89	805.36
433.265	821.63
433.641	843.55
434.016	847.17
434.392	839.03
434.767	863.66
435.143	845.81
435.518	871.57
435.894	867.28
436.269	907.28
436.644	855.53
437.02	875.64
437.395	901.63
437.77	878.58
438.145	926.71
438.52	907.28
438.895	900.27
439.271	949.76
439.646	951.12
440.021	946.15
440.395	969.65
440.77	961.74
441.145	954.96
441.52	975.53
441.895	963.32
442.27	973.04
442.645	974.85
443.019	1000.61
443.394	982.76
443.769	1006.71
444.143	1011.68
444.518	1018.91
444.892	1011
445.267	1042.64
445.641	1025.47
446.016	1030.21
446.39	1036.99
446.764	1056.2
447.139	1051.46
447.513	1079.03
447.887	1076.31
448.262	1064.79
448.636	1060.49
449.01	1087.39
449.384	1081.06
449.758	1093.04
450.132	1137.55
450.506	1117.44
450.88	1133.04
451.254	1151.11
451.628	1147.5
452.002	1142.07
452.376	1165.58
452.75	1165.8
453.123	1181.85
453.497	1211.23
453.871	1216.2
454.244	1245.57
454.618	1222.07
454.992	1238.12
455.365	1258.91
455.739	1276.53
456.112	1295.74
456.486	1294.39
456.859	1314.05
457.232	1323.76
457.606	1321.73
457.979	1341.17
458.352	1353.37
458.725	1373.48
459.099	1416.42
459.472	1433.37
459.845	1415.06
460.218	1457.32
460.591	1446.93
460.964	1458.9
461.337	1460.03
461.71	1511.1
462.083	1511.33
462.456	1524.21
462.829	1554.49
463.201	1565.11
463.574	1562.85
463.947	1595.4
464.32	1618.45
464.692	1647.82
465.065	1655.73
465.438	1695.51
465.81	1697.54
466.183	1737.09
466.555	1737.31
466.928	1766.69
467.3	1752.68
467.672	1805.33
468.045	1811.21
468.417	1868.84
468.789	1831.55
469.161	1835.16
469.534	1904.31
469.906	1923.75
470.278	1944.54
470.65	2008.72
471.022	2019.11
471.394	2039.45
471.766	2077.64
472.138	2110.18
472.51	2117.19
472.882	2180.01
473.253	2186.11
473.625	2230.41
473.997	2278.99
474.369	2277.19
474.74	2331.65
475.112	2381.14
475.484	2431.08
475.855	2452.77
476.227	2475.82
476.598	2543.85
476.97	2570.96
477.341	2644.18
477.713	2647.12
478.084	2678.98
478.455	2791.97
478.827	2805.08
479.198	2896.38
479.569	2856.15
479.94	2978.86
480.311	3015.47
480.682	3116.49
481.053	3152.87
481.424	3200.1
481.795	3270.83
482.166	3309.93
482.537	3337.72
482.908	3430.15
483.279	3424.73
483.65	3528.9
484.021	3609.13
484.391	3682.57
484.762	3703.82
485.133	3775.68
485.503	3822.23
485.874	3898.16
486.244	3995.56
486.615	4044.37
486.985	4080.75
487.356	4137.02
487.726	4170.47
488.097	4318.04
488.467	4313.06
488.837	4448.88
489.207	4456.56
489.578	4539.5
489.948	4604.58
490.318	4693.17
490.688	4717.12
491.058	4789.89
491.428	4866.5
491.798	4883.22
492.168	4989.88
492.538	5037.11
492.908	5134.06
493.278	5173.15
493.648	5207.28
494.017	5236.66
494.387	5294.73
494.757	5396.88
495.126	5446.82
495.496	5444.56
495.866	5540.38
496.235	5584.67
496.605	5640.04
496.974	5699.92
497.344	5715.51
497.713	5795.74
498.082	5839.8
498.452	5838.9
498.821	5887.94
499.19	5946.69
499.559	6026.92
499.928	6065.79
500.298	6055.39
500.667	6174.26
501.036	6130.64
501.405	6233.92
501.774	6175.61
502.143	6305.1
502.512	6320.02
502.88	6429.17
503.249	6433.91
503.618	6459.9
503.987	6541.25
504.356	6546.45
504.724	6565.66
505.093	6578.99
505.462	6667.35
505.83	6692.21
506.199	6766.79
506.567	6819.89
506.936	6753
507.304	6879.78
507.672	6862.38
508.041	6959.32
508.409	6995.03
508.777	7046.33
509.145	7088.58
509.514	7076.16
509.882	7111.41
510.25	7144.85
510.618	7184.85
510.986	7192.31
511.354	7272.31
511.722	7293.78
512.09	7364.06
512.458	7340.1
512.826	7477.95
513.193	7482.7
513.561	7464.62
513.929	7534
514.297	7656.25
514.664	7628.68
515.032	7658.51
515.4	7717.04
515.767	7755.01
516.135	7821.67
516.502	7723.37
516.869	7846.76
517.237	7963.82
517.604	7911.61
517.972	7883.37
518.339	8026.41
518.706	7978.5
519.073	8051.95
519.44	8143.7
519.808	8182.57
520.175	8114.32
520.542	8249.46
520.909	8248.33
521.276	8306.18
521.643	8385.73
522.009	8387.76
522.376	8483.58
522.743	8521.99
523.11	8623.91
523.477	8624.36
523.843	8732.84
524.21	8841.53
524.577	8781.87
524.943	8890.35
525.31	8896.45
525.676	8975.99
526.043	9062.54
526.409	9015.77
526.776	9093.73
527.142	9280.84
527.508	9231.35
527.874	9288.3
528.241	9299.37
528.607	9315.64
528.973	9397.22
529.339	9470.44
529.705	9548.63
530.071	9618.69
530.437	9603.32
530.803	9674.73
531.169	9709.98
531.535	9743.43
531.901	9825.69
532.267	9779.14
532.632	9869.98
532.998	9841.05
533.364	9979.81
533.73	10074.27
534.095	10128.28
534.461	10116.98
534.826	10189.07
535.192	10209.63
535.557	10310.42
535.923	10302.96
536.288	10319.46
536.653	10419.57
537.019	10356.52
537.384	10454.82
537.749	10459.8
538.114	10517.42
538.479	10446.01
538.845	10622.28
539.21	10604.2
539.575	10685.55
539.94	10728.04
540.305	10800.8
540.67	10771.88
541.034	10830.18
541.399	10880.8
541.764	10907.47
542.129	10947.47
542.494	11012.1
542.858	11087.35
543.223	11104.52
543.587	11223.84
543.952	11129.83
544.316	11286.67
544.681	11208.25
545.045	11286.44
545.41	11431.07
545.774	11432.65
546.138	11448.47
546.503	11482.14
546.867	11512.42
547.231	11654.57
547.595	11626.54
547.959	11691.18
548.324	11638.75
548.688	11638.75
549.052	11703.38
549.416	11776.6
549.779	11871.96
550.143	11887.55
550.507	11925.52
550.871	11946.08
551.235	12077.83
551.599	12121.67
551.962	12141.79
552.326	12092.97
552.689	12151.5
553.053	12184.5
553.417	12238.28
553.78	12400.54
554.143	12275.34
554.507	12360.08
554.87	12455.68
555.234	12500.19
555.597	12483.25
555.96	12542.9
556.323	12633.98
556.686	12680.98
557.05	12689.57
557.413	12630.36
557.776	12797.14
558.139	12800.53
558.502	12853.4
558.865	12906.96
559.228	13006.4
559.59	13053.4
559.953	13050.24
560.316	13160.74
560.679	13233.28
561.041	13200.06
561.404	13359.15
561.767	13418.59
562.129	13324.58
562.492	13514.18
562.854	13441.19
563.217	13508.3
563.579	13565.25
563.941	13612.48
564.304	13673.04
564.666	13841.4
565.028	13731.57
565.39	13806.37
565.753	13895.86
566.115	13996.43
566.477	14048.4
566.839	14001.17
567.201	14140.6
567.563	14068.74
567.925	14216.76
568.287	14179.47
568.648	14299.47
569.01	14341.28
569.372	14477.09
569.734	14373.14
570.095	14583.98
570.457	14523.19
570.819	14587.37
571.18	14601.61
571.542	14732.9
571.903	14765.45
572.265	14897.19
572.626	14980.13
572.987	15036.85
573.349	15103.97
573.71	15077.08
574.071	15139.67
574.432	15286.34
574.794	15375.15
575.155	15370.17
575.516	15509.83
575.877	15534.24
576.238	15607
576.599	15768.13
576.96	15751.41
577.32	15838.19
577.681	15992.08
578.042	16137.16
578.403	16187.33
578.763	16325.18
579.124	16441.79
579.485	16619.41
579.845	16695.79
580.206	16735.56
580.566	16936.69
580.927	17018.72
581.287	17317.02
581.648	17391.59
582.008	17555.2
582.368	17674.52
582.728	17867.06
583.089	18047.62
583.449	18170.33
583.809	18350.89
584.169	18586.36
584.529	18774.15
584.889	19100.47
585.249	19075.61
585.609	19263.63
585.969	19673.56
586.329	19794.69
586.688	19978.87
587.048	20354.9
587.408	20474.22
587.768	20797.38
588.127	21017.03
588.487	21264.26
588.846	21586.28
589.206	21745.37
589.565	22104.69
589.925	22392.82
590.284	22601.62
590.643	22988.05
591.003	23364.77
591.362	23790.74
591.721	24174.24
592.08	24323.16
592.44	24672.08
592.799	24906.87
593.158	25227.77
593.517	25642.45
593.876	26009.44
594.235	26274.75
594.593	26588.64
594.952	27047.83
595.311	27273.36
595.67	27741.38
596.029	28176.62
596.387	28559.43
596.746	28929.82
597.104	29053.66
597.463	29314.89
597.822	29841.43
598.18	30066.06
598.538	30546.95
598.897	31068.52
599.255	31136.99
599.613	31763.64
599.972	31904.2
600.33	32522.72
600.688	32642.94
601.046	33148.92
601.404	33451.51
601.762	33699.86
602.12	34273.86
602.478	34532.38
602.836	34795.43
603.194	34945.03
603.552	35433.6
603.91	35577.33
604.268	36111.55
604.625	36413.01
604.983	36711.76
605.341	36913.79
605.698	37260.67
606.056	37718.06
606.413	37977.49
606.771	38376.58
607.128	38587.87
607.485	38763.46
607.843	39059.95
608.2	39511.91
608.557	39885.46
608.914	39998.23
609.272	40398.67
609.629	40617.65
609.986	41053.12
610.343	41077.75
610.7	41520.45
611.057	41663.72
611.414	41869.37
611.771	42084.95
612.127	42465.96
612.484	42637.25
612.841	43001.54
613.198	42941.88
613.554	43175.32
613.911	43644.46
614.267	43787.28
614.624	43837.68
614.98	44187.27
615.337	44536.41
615.693	44626.35
616.05	44787.03
616.406	45169.39
616.762	45091.88
617.118	45169.62
617.475	45458.42
617.831	45672.66
618.187	45902.48
618.543	46151.96
618.899	46405.74
619.255	46307.89
619.611	46487.55
619.967	46793.08
620.323	46964.82
620.678	46854.09
621.034	46916.46
621.39	47119.17
621.746	47124.14
622.101	47749.66
622.457	47530.46
622.812	47698.36
623.168	47843.22
623.523	47848.42
623.879	48131.8
624.234	47908.75
624.589	48164.34
624.945	48285.69
625.3	48470.55
625.655	48369.99
626.01	48501.73
626.365	48613.37
626.72	48618.57
627.075	48578.79
627.43	48781.95
627.785	48778.11
628.14	48937.88
628.495	48908.73
628.85	48950.31
629.205	48978.56
629.559	49153.02
629.914	49059.01
630.269	49164.99
630.623	49133.13
630.978	49100.36
631.332	49174.26
631.687	49348.04
632.041	49256.74
632.396	49383.74
632.75	49264.2
633.104	49265.33
633.459	49240.02
633.813	49142.85
634.167	49353.91
634.521	49384.65
634.875	49484.76
635.229	49409.05
635.583	49293.35
635.937	49413.8
636.291	49281.83
636.645	49377.87
636.999	49198.89
637.352	49460.35
637.706	49279.57
638.06	49337.87
638.413	49245.44
638.767	49124.09
639.121	49346
639.474	49154.37
639.828	49272.11
640.181	49254.26
640.534	49252.9
640.888	49209.74
641.241	48947.6
641.594	48992.57
641.947	49301.94
642.301	49196.63
642.654	49166.12
643.007	49294.25
643.36	49154.6
643.713	49146.91
644.066	49242.05
644.419	49014.49
644.771	48819.46
645.124	48514.61
645.477	48296.99
645.83	48286.15
646.182	48146.49
646.535	48050.9
646.888	48182.42
647.24	47936.78
647.593	48115.3
647.945	47969.09
648.298	47951.01
648.65	47908.08
649.002	47840.96
649.355	47824.46
649.707	47934.74
650.059	48018.81
650.411	48525.01
650.763	48560.26
651.115	48976.97
651.467	48788.73
651.819	48846.13
652.171	48726.59
652.523	48676.19
652.875	48763.87
653.227	48525.69
653.578	48779.47
653.93	48744.44
654.282	48550.55
654.633	48487.72
654.985	48548.51
655.337	48633.26
655.688	48606.36
656.039	48796.87
656.391	48454.28
656.742	48627.38
657.094	48471.23
657.445	48703.54
657.796	48508.51
658.147	48512.81
658.498	48487.5
658.849	48445.01
659.2	48442.98
659.551	48362.98
659.902	48534.05
660.253	48492.92
660.604	48454.5
660.955	48163.66
661.306	48487.27
661.656	48412.02
662.007	48406.14
662.358	48380.15
662.708	48464.22
663.059	48391.23
663.409	48171.8
663.76	48432.13
664.11	48385.8
664.461	48414.5
664.811	48277.56
665.161	48325.01
665.511	48264.23
665.862	48403.88
666.212	48369.99
666.562	48389.19
666.912	48185.36
667.262	48208.86
667.612	48267.39
667.962	48369.31
668.312	48419.02
668.662	48503.54
669.011	48305.58
669.361	48158.01
669.711	48169.54
670.06	48204.57
670.41	48101.29
670.76	48125.02
671.109	48198.24
671.459	48088.41
671.808	48180.61
672.157	48308.52
672.507	47908.53
672.856	47936.78
673.205	48144.68
673.554	48315.98
673.904	47944.01
674.253	48310.55
674.602	48080.5
674.951	47501.99
675.3	47413.4
675.649	47988.07
675.998	47836.21
676.346	47912.37
676.695	48099.26
677.044	47666.05
677.393	47900.85
677.741	47894.74
678.09	47819.27
678.438	47719.38
678.787	47720.51
679.135	47824.24
679.484	47485.49
679.832	47617.91
680.181	47473.74
680.529	47496.56
680.877	47445.04
681.225	47408.43
681.573	47598.93
681.922	47306.06
682.27	47133.86
682.618	47289.79
682.966	47130.7
683.314	47104.71
683.661	47143.58
684.009	46979.74
684.357	46760.99
684.705	46715.11
685.053	46991.26
685.4	46773.87
685.748	46591.95
686.095	46682.57
686.443	46456.59
686.79	46408
687.138	46497.27
687.485	46499.3
687.832	46313.32
688.18	46415.01
688.527	46106.77
688.874	46065.19
689.221	46150.61
689.568	46073.77
689.915	45857.73
690.262	45899.54
690.609	45780.22
690.956	45798.53
691.303	45538.65
691.65	45500.46
691.997	45377.75
692.344	45243.29
692.69	45144.53
693.037	45155.83
693.383	44759.01
693.73	44958.1
694.077	44643.98
694.423	44680.59
694.769	44643.53
695.116	44395.17
695.462	44384.33
695.808	44208.29
696.155	44395.17
696.501	44062.3
696.847	43937.11
697.193	43776.21
697.539	43911.35
697.885	43573.5
698.231	43450.57
698.577	43503.67
698.923	43520.17
699.269	43339.61
699.614	43214.41
699.96	43126.96
700.306	42991.37
700.651	42918.38
700.997	42880.64
701.342	42804.26
701.688	42646.07
702.033	42660.08
702.379	42495.79
702.724	42415.11
703.069	42399.29
703.415	41919.08
703.76	42173.09
704.105	42214.89
704.45	41966.54
704.795	41788.69
705.14	41695.81
705.485	41699.2
705.83	41433.9
706.175	41525.42
706.52	41523.16
706.865	41198.42
707.209	41210.85
707.554	41105.54
707.899	41186.67
708.243	40963.17
708.588	40872.78
708.932	40655.39
709.277	40570.64
709.621	40676.63
709.966	40338.78
710.31	40526.12
710.654	39991.45
710.998	40257.66
711.342	40255.62
711.687	40165
712.031	39872.13
712.375	39918.91
712.719	39885.91
713.063	39811.34
713.407	39848.63
713.75	39686.82
714.094	39639.14
714.438	39361.86
714.782	39455.42
715.125	39303.56
715.469	39501.97
715.812	39153.5
716.156	38999.84
716.499	39000.06
716.843	39070.57
717.186	38732.27
717.53	39029.89
717.873	39029.44
718.216	38848.88
718.559	38727.07
718.902	38434.2
719.246	38561.43
719.589	38339.06
719.932	38275.79
720.275	38249.35
720.617	38291.83
720.96	38062.69
721.303	38217.71
721.646	38169.58
721.989	37988.79
722.331	38143.81
722.674	37880.54
723.016	37897.94
723.359	37795.8
723.701	37782.69
724.044	37528.46
724.386	37376.15
724.729	37664.28
725.071	37403.95
725.413	37514.23
725.755	37381.8
726.097	37190.17
726.439	37008.93
726.782	37079.89
727.124	37272.65
727.465	37006.44
727.807	36921.47
728.149	36777.75
728.491	36856.84
728.833	36873.34
729.175	36808.48
729.516	36733
729.858	36682.83
730.199	36711.31
730.541	36671.76
730.882	36538.88
731.224	36690.52
731.565	36300.47
731.906	36523.74
732.248	36300.25
732.589	36110.65
732.93	36040.14
733.271	36129.4
733.612	36078.33
733.953	36293.47
734.294	36024.1
734.635	35820.03
734.976	35965.11
735.317	35713.82
735.658	35813.93
735.999	35713.59
736.339	35597.67
736.68	35771.45
737.021	35659.36
737.361	35552.47
737.702	35657.1
738.042	35477.89
738.383	35263.66
738.723	35476.76
739.063	35445.81
739.404	35424.11
739.744	35300.72
740.084	35205.13
740.424	35309.99
740.764	35279.71
741.104	35190.9
741.444	35047.17
741.784	34781.19
742.124	34967.63
742.464	35043.1
742.804	34878.14
743.143	34693.73
743.483	34749.78
743.823	34677.24
744.162	34716.11
744.502	34621.65
744.841	34416.45
745.181	34502.78
745.52	34364.7
745.86	34313.86
746.199	34356.79
746.538	34242.45
746.877	34349.56
747.216	34368.77
747.556	34321.77
747.895	34305.04
748.234	34087.65
748.573	33968.78
748.911	33995.9
749.25	33978.95
749.589	33867.77
749.928	33912.51
750.267	34003.13
750.605	33656.25
750.944	33851.5
751.283	33596.36
751.621	33700.77
751.96	33525.4
752.298	33469.59
752.636	33534.22
752.975	33359.53
753.313	33222.81
753.651	33268.01
753.989	33034.12
754.327	33024.4
754.666	32970.39
755.004	33017.85
755.342	32945.08
755.679	32858.98
756.017	32651.08
756.355	32883.39
756.693	32644.97
757.031	32560.46
757.368	32456.51
757.706	32361.59
