Data from hue_350_FLMS001491_14.txt Node
Date: Mon Feb 06 15:37:39 GMT 2017
User: dcchb
Spectrometer: FLMS00149
Trigger mode: 0
Integration Time (sec): 2.000000E-2
Scans to average: 10
Electric dark correction enabled: true
Nonlinearity correction enabled: false
Boxcar width: 0
XAxis mode: Wavelengths
Number of Pixels in Spectrum: 2048
>>>>>Begin Spectral Data<<<<<
341.393	-10.47
341.776	-10.47
342.16	-10.47
342.543	-76
342.927	-71.03
343.31	-71.93
343.693	-78.26
344.077	-42.1
344.46	-72.84
344.843	-56.79
345.226	-42.33
345.61	-33.06
345.993	-31.93
346.376	5.58
346.759	-3.91
347.142	47.61
347.525	40.15
347.908	69.98
348.291	74.28
348.674	83.32
349.057	112.24
349.44	132.81
349.823	138.91
350.206	163.54
350.588	195.18
350.971	217.32
351.354	214.61
351.737	246.25
352.119	264.78
352.502	242.63
352.884	279.7
353.267	288.51
353.65	298.45
354.032	298.23
354.414	313.14
354.797	319.02
355.179	311.11
355.562	318.11
355.944	322.41
356.326	339.58
356.709	328.06
357.091	312.92
357.473	350.43
357.855	326.47
358.238	349.3
358.62	331.45
359.002	327.15
359.384	347.26
359.766	349.75
360.148	350.2
360.53	339.36
360.912	349.75
361.294	330.77
361.676	343.2
362.057	302.07
362.439	338.9
362.821	333.71
363.203	327.38
363.584	337.77
363.966	330.77
364.348	322.41
364.729	323.54
365.111	321.73
365.493	320.82
365.874	322.18
366.256	335.51
366.637	302.07
367.019	325.8
367.4	305.23
367.781	306.59
368.163	329.64
368.544	333.48
368.925	334.61
369.306	305.46
369.688	319.47
370.069	298
370.45	288.51
370.831	320.37
371.212	314.5
371.593	315.85
371.974	325.12
372.355	324.67
372.736	330.32
373.117	307.49
373.498	304.1
373.879	324.67
374.26	310.88
374.641	317.89
375.021	322.86
375.402	323.08
375.783	316.76
376.163	318.11
376.544	342.75
376.925	327.38
377.305	310.43
377.686	328.73
378.066	325.34
378.447	326.25
378.827	335.06
379.208	305.46
379.588	341.39
379.968	334.16
380.349	321.95
380.729	298.9
381.109	312.24
381.489	334.38
381.87	347.26
382.25	324.67
382.63	326.47
383.01	341.84
383.39	334.84
383.77	358.79
384.15	340.03
384.53	329.19
384.91	340.03
385.29	332.8
385.67	349.3
386.049	340.26
386.429	349.07
386.809	357.43
387.189	350.2
387.568	360.15
387.948	354.95
388.328	368.73
388.707	355.85
389.087	372.8
389.466	360.37
389.846	365.34
390.225	364.67
390.605	368.51
390.984	357.21
391.363	361.95
391.743	366.25
392.122	362.63
392.501	361.05
392.881	381.16
393.26	372.12
393.639	367.83
394.018	370.32
394.397	383.87
394.776	384.55
395.155	385.46
395.534	377.77
395.913	379.81
396.292	390.65
396.671	394.95
397.05	373.93
397.429	380.71
397.808	397.43
398.186	398.11
398.565	396.3
398.944	372.8
399.323	402.18
399.701	394.5
400.08	403.53
400.458	393.59
400.837	403.08
401.215	402.63
401.594	406.7
401.972	386.36
402.351	391.33
402.729	397.21
403.107	395.4
403.486	401.05
403.864	411.9
404.242	407.83
404.62	415.51
404.999	422.52
405.377	407.6
405.755	440.14
406.133	423.65
406.511	435.85
406.889	426.36
407.267	440.82
407.645	419.81
408.023	475.4
408.401	431.1
408.779	446.02
409.156	433.82
409.534	444.21
409.912	459.58
410.29	439.24
410.667	463.19
411.045	441.95
411.422	448.73
411.8	466.58
412.178	478.33
412.555	474.27
412.933	486.7
413.31	467.94
413.687	472.46
414.065	483.31
414.442	469.3
414.819	482.4
415.197	481.95
415.574	502.97
415.951	511.33
416.328	488.28
416.705	487.83
417.082	507.03
417.46	504.77
417.837	526.47
418.214	506.13
418.591	513.36
418.967	514.72
419.344	495.28
419.721	521.05
420.098	543.42
420.475	532.12
420.852	547.94
421.228	517.66
421.605	539.12
421.982	566.69
422.358	562.85
422.735	559.91
423.111	553.14
423.488	556.75
423.864	566.92
424.241	578.9
424.617	579.35
424.994	588.16
425.37	588.61
425.746	564.66
426.123	580.48
426.499	590.2
426.875	634.04
427.251	600.59
427.627	599.24
428.003	607.37
428.379	606.69
428.756	637.88
429.132	631.55
429.507	625
429.883	635.17
430.259	629.74
430.635	641.27
431.011	644.43
431.387	674.71
431.763	654.6
432.138	667.26
432.514	667.93
432.89	697.31
433.265	693.7
433.641	679.91
434.016	685.34
434.392	698.22
434.767	727.82
435.143	714.26
435.518	710.65
435.894	721.72
436.269	740.25
436.644	726.01
437.02	744.09
437.395	731.44
437.77	745.45
438.145	749.29
438.52	757.88
438.895	769.17
439.271	760.81
439.646	768.95
440.021	785.67
440.395	795.61
440.77	785.45
441.145	788.84
441.52	780.25
441.895	815.95
442.27	807.82
442.645	821.6
443.019	818.44
443.394	811.21
443.769	799.68
444.143	807.37
444.518	838.1
444.892	841.94
445.267	819.57
445.641	841.26
446.016	843.75
446.39	861.15
446.764	883.3
447.139	881.94
447.513	858.44
447.887	867.48
448.262	854.82
448.636	864.09
449.01	883.75
449.384	878.55
449.758	878.55
450.132	889.62
450.506	918.78
450.88	895.5
451.254	899.57
451.628	914.48
452.002	924.88
452.376	936.18
452.75	972.33
453.123	952.9
453.497	957.19
453.871	954.48
454.244	954.93
454.618	958.1
454.992	974.82
455.365	981.37
455.739	998.32
456.112	988.83
456.486	1001.48
456.859	1009.39
457.232	1030.86
457.606	1062.73
457.979	1054.36
458.352	1054.36
458.725	1069.73
459.099	1104.76
459.472	1101.82
459.845	1123.29
460.218	1129.39
460.591	1113.57
460.964	1117.64
461.337	1165.55
461.71	1162.16
462.083	1162.61
462.456	1199.67
462.829	1197.64
463.201	1207.58
463.574	1196.51
463.947	1214.81
464.32	1226.11
464.692	1217.3
465.065	1245.77
465.438	1258.2
465.81	1264.75
466.183	1290.97
466.555	1291.19
466.928	1324.41
467.3	1314.92
467.672	1322.83
468.045	1370.97
468.417	1351.08
468.789	1375.26
469.161	1382.72
469.534	1393.34
469.906	1456.39
470.278	1434.24
470.65	1441.93
471.022	1507.46
471.394	1512.88
471.766	1512.21
472.138	1544.75
472.51	1583.16
472.882	1593.56
473.253	1606.44
473.625	1655.03
473.997	1681.69
474.369	1681.69
474.74	1701.58
475.112	1750.39
475.484	1744.52
475.855	1805.08
476.227	1828.13
476.598	1852.08
476.97	1862.03
477.341	1903.16
477.713	1927.34
478.084	1955.81
478.455	2022.48
478.827	2057.05
479.198	2055.47
479.569	2070.38
479.94	2120.78
480.311	2136.6
480.682	2186.76
481.053	2234.9
481.424	2272.64
481.795	2289.13
482.166	2323.48
482.537	2353.54
482.908	2401.67
483.279	2449.58
483.65	2474.44
484.021	2522.8
484.391	2559.86
484.762	2594.21
485.133	2629.46
485.503	2646.64
485.874	2706.52
486.244	2743.59
486.615	2778.61
486.985	2857.71
487.356	2846.63
487.726	2960.3
488.097	2956.24
488.467	2983.58
488.837	3047.31
489.207	3098.83
489.578	3131.15
489.948	3167.08
490.318	3177.25
490.688	3222.9
491.058	3255.44
491.428	3335.43
491.798	3350.12
492.168	3402.78
492.538	3430.8
492.908	3426.73
493.278	3512.61
493.648	3484.58
494.017	3550.34
494.387	3540.4
494.757	3620.63
495.126	3678.7
495.496	3696.56
495.866	3696.56
496.235	3752.6
496.605	3789.66
496.974	3808.87
497.344	3834.63
497.713	3897.91
498.082	3875.53
498.452	3959.37
498.821	3984.01
499.19	3980.16
499.559	4002.08
499.928	3988.75
500.298	4050.9
500.667	4096.54
501.036	4126.6
501.405	4129.09
501.774	4125.47
502.143	4194.85
502.512	4155.53
502.88	4235.3
503.249	4256.54
503.618	4286.14
503.987	4308.97
504.356	4330.44
504.724	4316.65
505.093	4370.21
505.462	4355.75
505.83	4352.58
506.199	4429.87
506.567	4450.43
506.936	4460.6
507.304	4482.75
507.672	4490.43
508.041	4524.33
508.409	4523.43
508.777	4560.71
509.145	4591.9
509.514	4631.22
509.882	4672.35
510.25	4599.13
510.618	4669.86
510.986	4673.25
511.354	4687.94
511.722	4736.08
512.09	4752.8
512.458	4730.88
512.826	4770.2
513.193	4815.85
513.561	4833.25
513.929	4807.26
514.297	4888.39
514.664	4907.6
515.032	4887.03
515.4	4954.83
515.767	4980.82
516.135	4950.76
516.502	4945.79
516.869	5040.93
517.237	5012
517.604	4999.35
517.972	5087.71
518.339	5083.64
518.706	5113.69
519.073	5086.35
519.44	5125.44
519.808	5144.88
520.175	5190.75
520.542	5185.78
520.909	5277.76
521.276	5247.93
521.643	5267.81
522.009	5282.95
522.376	5298.55
522.743	5352.33
523.11	5408.83
523.477	5417.64
523.843	5433.01
524.21	5446.11
524.577	5530.63
524.943	5489.95
525.31	5560.69
525.676	5614.47
526.043	5566.56
526.409	5634.81
526.776	5690.63
527.142	5660.35
527.508	5738.31
527.874	5771.98
528.241	5781.02
528.607	5830.51
528.973	5873.67
529.339	5813.79
529.705	5931.3
530.071	5902.37
530.437	5954.12
530.803	5992.99
531.169	6013.1
531.535	6009.94
531.901	6004.52
532.267	6070.96
532.632	6156.6
532.998	6114.12
533.364	6141.91
533.73	6221.91
534.095	6210.16
534.461	6256.04
534.826	6252.19
535.192	6321.35
535.557	6295.81
535.923	6359.99
536.288	6321.12
536.653	6389.82
537.019	6394.79
537.384	6431.62
537.749	6450.83
538.114	6508.46
538.479	6452.87
538.845	6517.95
539.21	6554.79
539.575	6569.93
539.94	6622.35
540.305	6651.51
540.67	6615.57
541.034	6677.04
541.399	6731.05
541.764	6699.64
542.129	6725.85
542.494	6732.18
542.858	6785.74
543.223	6799.3
543.587	6878.39
543.952	6846.53
544.316	6954.55
544.681	6965.62
545.045	6967.88
545.41	7056.69
545.774	7056.02
546.138	7028.22
546.503	7064.15
546.867	7114.54
547.231	7101.44
547.595	7119.74
547.959	7155.9
548.324	7181.66
548.688	7211.04
549.052	7247.2
549.416	7300.08
549.779	7318.16
550.143	7292.84
550.507	7315.67
550.871	7387.53
551.235	7372.16
551.599	7444.48
551.962	7469.79
552.326	7433.18
552.689	7455.1
553.053	7495.1
553.417	7506.17
553.78	7626.85
554.143	7585.94
554.507	7609.9
554.87	7601.31
555.234	7712.27
555.597	7665.72
555.96	7666.85
556.323	7746.84
556.686	7772.38
557.05	7783.68
557.413	7757.47
557.776	7850.12
558.139	7828.88
558.502	7903.68
558.865	7836.33
559.228	7962.88
559.59	8011.92
559.953	7985.71
560.316	8023.67
560.679	8089.43
561.041	8053.5
561.404	8149.55
561.767	8223.89
562.129	8171.01
562.492	8223.22
562.854	8192.48
563.217	8244.91
563.579	8227.28
563.941	8366.72
564.304	8314.06
564.666	8409.65
565.028	8389.54
565.39	8422.98
565.753	8442.19
566.115	8465.24
566.477	8525.58
566.839	8535.07
567.201	8579.36
567.563	8633.6
567.925	8672.92
568.287	8727.16
568.648	8633.6
569.01	8787.04
569.372	8816.65
569.734	8777.33
570.095	8828.62
570.457	8835.4
570.819	8879.92
571.18	8918.79
571.542	8999.47
571.903	8950.43
572.265	9021.61
572.626	9079.69
572.987	9118.11
573.349	9193.36
573.71	9274.26
574.071	9297.54
574.432	9320.81
574.794	9431.32
575.155	9385.67
575.516	9550.41
575.877	9535.05
576.238	9600.13
576.599	9673.8
576.96	9713.8
577.32	9775.94
577.681	9904.3
578.042	9990.18
578.403	10050.06
578.763	10156.5
579.124	10169.38
579.485	10315.59
579.845	10409.6
580.206	10589.71
580.566	10642.59
580.927	10754.45
581.287	10913.99
581.648	11003.26
582.008	11132.74
582.368	11254.77
582.728	11382.91
583.089	11511.94
583.449	11656.57
583.809	11865.15
584.169	11993.96
584.529	12142.43
584.889	12364.12
585.249	12431.24
585.609	12645.92
585.969	12912.36
586.329	12968.4
586.688	13222.18
587.048	13506.69
587.408	13605.22
587.768	13903.29
588.127	14096.28
588.487	14294.47
588.846	14611.97
589.206	14800.67
589.565	15009.7
589.925	15390.71
590.284	15544.83
590.643	15785.73
591.003	16054.2
591.362	16353.85
591.721	16598.36
592.08	16877.45
592.44	17160.16
592.799	17384.33
593.158	17715.4
593.517	17875.62
593.876	18326.68
594.235	18517.18
594.593	18825.65
594.952	19107.68
595.311	19311.96
595.67	19683.03
596.029	20167.76
596.387	20335.67
596.746	20625.38
597.104	20810.46
597.463	21119.6
597.822	21498.57
598.18	21650.66
598.538	21999.8
598.897	22400.24
599.255	22414.71
599.613	23022.6
599.972	23065.76
600.33	23448.35
600.688	23648.57
601.046	24185.51
601.404	24438.61
601.762	24643.35
602.12	24867.52
602.478	25201.53
602.836	25510.67
603.194	25597.22
603.552	25904.78
603.91	26040.6
604.268	26557.88
604.625	26572.79
604.983	26933.91
605.341	27167.8
605.698	27487.57
606.056	27800.33
606.413	28047.78
606.771	28419.52
607.128	28589.23
607.485	28714.65
607.843	28897.93
608.2	29325.71
608.557	29506.5
608.914	29701.07
609.272	29890.67
609.629	30323.65
609.986	30517.55
610.343	30451.56
610.7	30974.93
611.057	31156.4
611.414	31338.31
611.771	31467.35
612.127	31902.59
612.484	32009.48
612.841	32271.85
613.198	32179.65
613.554	32496.25
613.911	32813.53
614.267	32871.38
614.624	32994.77
614.98	33228.66
615.337	33534.64
615.693	33628.2
616.05	33754.3
616.406	34084.46
616.762	33991.35
617.118	34209.2
617.475	34433.83
617.831	34642.86
618.187	34693.25
618.543	34927.37
618.899	35256.18
619.255	35227.48
619.611	35318.55
619.967	35589.95
620.323	35568.26
620.678	35652.78
621.034	35642.83
621.39	35773.45
621.746	35934.13
622.101	36426.77
622.457	36172.09
622.812	36244.63
623.168	36605.75
623.523	36504.51
623.879	36719.42
624.234	36626.99
624.589	36890.03
624.945	36943.82
625.3	37082.8
625.655	37064.94
626.01	37158.27
626.365	37402.79
626.72	37272.62
627.075	37490.02
627.43	37434.2
627.785	37453.63
628.14	37565.5
628.495	37692.72
628.85	37632.84
629.205	37715.1
629.559	37957.58
629.914	37723.46
630.269	37833.06
630.623	37813.62
630.978	37857.47
631.332	37917.8
631.687	38066.95
632.041	38053.17
632.396	38151.69
632.75	37930.46
633.104	38020.85
633.459	38026.95
633.813	37950.8
634.167	38067.63
634.521	38076.89
634.875	38236.21
635.229	38130.23
635.583	37921.42
635.937	38069.89
636.291	38139.94
636.645	38107.18
636.999	37877.35
637.352	38154.86
637.706	38083.67
638.06	38229.43
638.413	38210.68
638.767	38081.41
639.121	38028.99
639.474	37847.75
639.828	37881.42
640.181	38000.06
640.534	37993.51
640.888	37901.53
641.241	37780.18
641.594	37924.81
641.947	38043.9
642.301	37963.9
642.654	37916.9
643.007	37940.4
643.36	37958.25
643.713	37901.31
644.066	37971.59
644.419	37778.37
644.771	37648.66
645.124	37372.05
645.477	37166.86
645.83	36968.9
646.182	36849.81
646.535	36733.43
646.888	36939.3
647.24	36814.33
647.593	37007.09
647.945	36952.18
648.298	36710.15
648.65	36688
649.002	36679.87
649.355	36737.49
649.707	36618.63
650.059	36929.81
650.411	37256.12
650.763	37366.18
651.115	37751.03
651.467	37672.39
651.819	37531.15
652.171	37508.1
652.523	37457.02
652.875	37427.42
653.227	37330.02
653.578	37558.26
653.93	37529.11
654.282	37393.3
654.633	37324.37
654.985	37536.34
655.337	37360.53
655.688	37379.96
656.039	37506.51
656.391	37140.65
656.742	37261.55
657.094	37205.96
657.445	37336.12
657.796	37276.24
658.147	37296.8
658.498	37062.01
658.849	37385.61
659.2	37183.58
659.551	37191.27
659.902	37358.72
660.253	37276.01
660.604	37253.87
660.955	37023.14
661.306	37319.63
661.656	37145.17
662.007	37187.65
662.358	37113.3
662.708	37213.41
663.059	37254.32
663.409	36878.51
663.76	37173.64
664.11	37111.04
664.461	37107.2
664.811	37169.12
665.161	37247.09
665.511	36997.15
665.862	37101.33
666.212	37135.9
666.562	37173.64
666.912	37012.52
667.262	37034.44
667.612	37046.41
667.962	37022.46
668.312	36959.64
668.662	37261.1
669.011	37115.56
669.361	37044.61
669.711	37064.27
670.06	36868.79
670.41	36855.91
670.76	36948.79
671.109	37110.14
671.459	36945.85
671.808	36904.72
672.157	37026.3
672.507	36855.91
672.856	36767.32
673.205	36837.15
673.554	36988.79
673.904	36792.63
674.253	37039.63
674.602	36769.36
674.951	36315.58
675.3	36241.46
675.649	36721.22
675.998	36750.83
676.346	36600.55
676.695	36774.1
677.044	36510.61
677.393	36632.41
677.741	36652.52
678.09	36599.42
678.438	36439.42
678.787	36517.84
679.135	36562.13
679.484	36379.76
679.832	36391.51
680.181	36191.07
680.529	36439.65
680.877	36321.01
681.225	36122.82
681.573	36476.71
681.922	36220.45
682.27	36105.87
682.618	36085.53
682.966	36039.66
683.314	36156.49
683.661	35900
684.009	35781.81
684.357	35628.37
684.705	35698.65
685.053	35642.61
685.4	35673.12
685.748	35552.21
686.095	35510.41
686.443	35351.32
686.79	35369.62
687.138	35401.03
687.485	35470.41
687.832	35147.48
688.18	35309.51
688.527	35068.39
688.874	35115.84
689.221	35082.4
689.568	35045.11
689.915	34845.79
690.262	34770.31
690.609	34830.2
690.956	34740.71
691.303	34631.11
691.65	34512.24
691.997	34508.17
692.344	34330.55
692.69	34399.93
693.037	34349.31
693.383	33956.1
693.73	34142.08
694.077	33843.11
694.423	33940.73
694.769	33745.48
695.116	33612.83
695.462	33702.32
695.808	33590.23
696.155	33624.58
696.501	33441.76
696.847	33352.05
697.193	33173.97
697.539	33255.78
697.885	33041.09
698.231	32979.63
698.577	32919.52
698.923	32901.21
699.269	32843.59
699.614	32593.65
699.96	32605.17
700.306	32549.36
700.651	32517.72
700.997	32362.69
701.342	32373.09
701.688	32202.47
702.033	32201.57
702.379	32082.02
702.724	31971.29
703.069	32056.71
703.415	31589.38
703.76	31708.47
704.105	31723.62
704.45	31681.81
704.795	31373.57
705.14	31389.16
705.485	31390.74
705.83	31233.01
706.175	31402.04
706.52	31221.93
706.865	30954.14
707.209	30972.67
707.554	30881.83
707.899	30951.88
708.243	30783.75
708.588	30810.19
708.932	30570.43
709.277	30515.51
709.621	30482.52
709.966	30428.96
710.31	30478
710.654	30122.3
710.998	30152.36
711.342	30324.78
711.687	30080.04
712.031	30011.12
712.375	29975.64
712.719	30033.49
713.063	29890.67
713.407	29948.07
713.75	29903.1
714.094	29736.77
714.438	29657.91
714.782	29789.43
715.125	29512.6
715.469	29647.96
715.812	29534.07
716.156	29291.14
716.499	29258.82
716.843	29363.45
717.186	29313.51
717.53	29271.93
717.873	29362.32
718.216	29165.26
718.559	29221.31
718.902	29003.91
719.246	28991.94
719.589	28930.02
719.932	28802.56
720.275	28779.74
720.617	28776.35
720.96	28626.97
721.303	28618.61
721.646	28610.02
721.989	28495.9
722.331	28573.87
722.674	28536.13
723.016	28501.78
723.359	28489.58
723.701	28429.92
724.044	28142.47
724.386	28036.93
724.729	28229.02
725.071	28214.33
725.413	28072.64
725.755	28114.9
726.097	27905.18
726.439	27846.43
726.782	27813.66
727.124	27982.24
727.465	27700.22
727.807	27770.72
728.149	27792.64
728.491	27617.96
728.833	27686.21
729.175	27619.54
729.516	27450.96
729.858	27535.48
730.199	27490.96
730.541	27295.03
730.882	27426.78
731.224	27519.21
731.565	27229.5
731.906	27377.51
732.248	27425.42
732.589	27179.78
732.93	27053.68
733.271	27155.15
733.612	27204.64
733.953	27157.41
734.294	27101.36
734.635	26926.45
734.976	26991.08
735.317	26937.98
735.658	26891.65
735.999	26880.13
736.339	26771.65
736.68	26842.61
737.021	26661.15
737.361	26610.08
737.702	26798.55
738.042	26610.3
738.383	26517.88
738.723	26653.47
739.063	26549.74
739.404	26457.09
739.744	26383.19
740.084	26331.89
740.424	26457.31
740.764	26228.84
741.104	26319.24
741.444	26216.42
741.784	26101.84
742.124	26233.14
742.464	26189.07
742.804	25999.02
743.143	26007.83
743.483	26021.62
743.823	25929.64
744.162	25950.66
744.502	26001.73
744.841	25817.78
745.181	25839.02
745.52	25737.78
745.86	25822.08
746.199	25867.72
746.538	25712.7
746.877	25737.33
747.216	25647.62
747.556	25631.35
747.895	25699.82
748.234	25500.95
748.573	25457.79
748.911	25460.5
749.25	25380.05
749.589	25258.7
749.928	25259.15
750.267	25424.57
750.605	25171.02
750.944	25224.8
751.283	25124.92
751.621	25188.65
751.96	25065.94
752.298	24989.33
752.636	25075.43
752.975	24832.72
753.313	24872.27
753.651	24919.27
753.989	24870.46
754.327	24772.39
754.666	24565.61
755.004	24593.63
755.342	24661.43
755.679	24655.33
756.017	24426.86
756.355	24442.45
756.693	24355.67
757.031	24458.72
757.368	24283.36
757.706	24197.03
758.044	24153.87
758.381	24158.39
758.719	24000.2
759.056	24119.07
759.394	24004.5
759.731	23809.92
760.068	23651.51
760.405	23815.8
760.743	23671.17
