Data from hue_140_FLMS001491_00003.txt Node
Date: Tue Feb 07 16:55:17 GMT 2017
User: dcchb
Spectrometer: FLMS00149
Trigger mode: 0
Integration Time (sec): 2.000000E-2
Scans to average: 10
Electric dark correction enabled: true
Nonlinearity correction enabled: false
Boxcar width: 0
XAxis mode: Wavelengths
Number of Pixels in Spectrum: 2048
>>>>>Begin Spectral Data<<<<<
341.393	5.17
341.776	5.17
342.16	5.17
342.543	-62.17
342.927	-53.81
343.31	-75.51
343.693	-73.92
344.077	-72.57
344.46	-65.79
344.843	-38.9
345.226	-22.4
345.61	-15.85
345.993	-1.61
346.376	-11.55
346.759	10.14
347.142	3.81
347.525	50.14
347.908	37.94
348.291	72.06
348.674	88.33
349.057	115.67
349.44	123.36
349.823	133.53
350.206	157.93
350.588	194.32
350.971	210.14
351.354	218.27
351.737	233.19
352.119	256.24
352.502	251.94
352.884	251.49
353.267	291.26
353.65	269.8
354.032	289
354.414	312.51
354.797	302.79
355.179	314.31
355.562	338.49
355.944	299.85
356.326	326.06
356.709	340.3
357.091	328.78
357.473	339.4
357.855	341.88
358.238	328.1
358.62	355.44
359.002	361.09
359.384	331.04
359.766	354.09
360.148	335.33
360.53	324.48
360.912	323.35
361.294	329.23
361.676	317.48
362.057	330.58
362.439	333.97
362.821	333.52
363.203	320.42
363.584	323.13
363.966	309.34
364.348	311.6
364.729	315.9
365.111	324.03
365.493	315.44
365.874	319.74
366.256	326.06
366.637	310.7
367.019	324.26
367.4	320.19
367.781	322
368.163	317.7
368.544	305.5
368.925	307.99
369.306	330.81
369.688	304.37
370.069	304.82
370.45	311.38
370.831	300.3
371.212	295.33
371.593	292.62
371.974	311.83
372.355	336.01
372.736	324.26
373.117	313.64
373.498	317.48
373.879	317.03
374.26	303.92
374.641	317.93
375.021	296.24
375.402	306.86
375.783	319.96
376.163	308.21
376.544	318.38
376.925	317.48
377.305	318.61
377.686	320.87
378.066	331.94
378.447	319.06
378.827	342.56
379.208	330.81
379.588	339.85
379.968	339.17
380.349	354.99
380.729	346.63
381.109	340.3
381.489	345.73
381.87	363.8
382.25	347.08
382.63	326.52
383.01	328.1
383.39	362.45
383.77	351.37
384.15	318.38
384.53	325.61
384.91	353.63
385.29	332.84
385.67	336.23
386.049	349.57
386.429	366.52
386.809	352.96
387.189	357.93
387.568	350.47
387.948	348.89
388.328	343.24
388.707	360.41
389.087	357.02
389.466	377.14
389.846	368.1
390.225	371.49
390.605	367.42
390.984	355.44
391.363	357.93
391.743	358.83
392.122	346.18
392.501	388.89
392.881	364.93
393.26	364.71
393.639	383.69
394.018	365.84
394.397	386.85
394.776	389.79
395.155	400.41
395.534	386.18
395.913	355.44
396.292	405.38
396.671	387.08
397.05	393.63
397.429	360.64
397.808	373.75
398.186	382.33
398.565	417.59
398.944	391.6
399.323	395.44
399.701	387.76
400.08	410.36
400.458	370.81
400.837	409.23
401.215	390.24
401.594	395.89
401.972	405.61
402.351	407.19
402.729	411.26
403.107	406.51
403.486	419.17
403.864	415.1
404.242	425.27
404.62	414.88
404.999	404.48
405.377	422.33
405.755	420.3
406.133	418.27
406.511	440.64
406.889	433.86
407.267	447.64
407.645	449.23
408.023	454.2
408.401	450.36
408.779	458.49
409.156	440.41
409.534	463.46
409.912	455.78
410.29	479.96
410.667	469.34
411.045	498.94
411.422	468.21
411.8	459.85
412.178	474.31
412.555	477.02
412.933	479.73
413.31	477.47
413.687	472.95
414.065	484.93
414.442	472.5
414.819	490.58
415.197	489
415.574	507.98
415.951	499.85
416.328	512.95
416.705	493.52
417.082	498.72
417.46	515.89
417.837	522.44
418.214	527.42
418.591	523.12
418.967	497.59
419.344	526.29
419.721	544.14
420.098	524.7
420.475	555.21
420.852	524.03
421.228	539.17
421.605	527.42
421.982	559.05
422.358	538.94
422.735	557.7
423.111	542.33
423.488	559.05
423.864	552.95
424.241	578.71
424.617	563.57
424.994	589.79
425.37	594.98
425.746	573.74
426.123	582.56
426.499	576.45
426.875	601.99
427.251	627.3
427.627	603.12
428.003	611.71
428.379	627.75
428.756	631.82
429.132	623.01
429.507	618.26
429.883	641.99
430.259	629.33
430.635	647.86
431.011	643.12
431.387	634.98
431.763	676.34
432.138	681.76
432.514	678.6
432.89	690.58
433.265	693.96
433.641	700.97
434.016	678.15
434.392	713.63
434.767	707.3
435.143	723.79
435.518	721.76
435.894	743.46
436.269	731.93
436.644	728.99
437.02	741.87
437.395	737.13
437.77	755.66
438.145	760.86
438.52	768.31
438.895	761.76
439.271	767.18
439.646	790.23
440.021	787.75
440.395	783
440.77	811.02
441.145	794.3
441.52	837.46
441.895	792.49
442.27	819.61
442.645	816
443.019	823
443.394	819.84
443.769	845.6
444.143	839.72
444.518	843.34
444.892	853.73
445.267	849.89
445.641	839.5
446.016	868.2
446.39	877.69
446.764	878.59
447.139	908.65
447.513	884.92
447.887	894.64
448.262	900.06
448.636	910.68
449.01	921.98
449.384	937.57
449.758	939.38
450.132	925.6
450.506	911.13
450.88	948.87
451.254	953.39
451.628	958.82
452.002	962.88
452.376	990.23
452.75	966.73
453.123	990.68
453.497	986.84
453.871	989.1
454.244	1022.32
454.618	1027.97
454.992	1057.8
455.365	1047.4
455.739	1084.24
456.112	1103.45
456.486	1072.94
456.859	1089.66
457.232	1103.45
457.606	1125.37
457.979	1127.4
458.352	1160.62
458.725	1188.42
459.099	1169.66
459.472	1200.62
459.845	1187.96
460.218	1203.1
460.591	1243.55
460.964	1249.88
461.337	1258.47
461.71	1248.98
462.083	1312.25
462.456	1297.56
462.829	1317.45
463.201	1335.98
463.574	1341.18
463.947	1333.95
464.32	1372.59
464.692	1391.8
465.065	1446.26
465.438	1429.54
465.81	1483.32
466.183	1500.27
466.555	1536.43
466.928	1541.85
467.3	1540.5
467.672	1556.32
468.045	1584.56
468.417	1618.91
468.789	1608.07
469.161	1646.48
469.534	1695.97
469.906	1727.84
470.278	1736.88
470.65	1754.28
471.022	1804.44
471.394	1844.22
471.766	1869.08
472.138	1893.03
472.51	1938.45
472.882	1981.84
473.253	2026.81
473.625	2085.34
473.997	2115.4
474.369	2140.25
474.74	2179.12
475.112	2239.69
475.484	2306.8
475.855	2320.81
476.227	2367.14
476.598	2523.07
476.97	2512.67
477.341	2596.06
477.713	2646.46
478.084	2676.51
478.455	2790.86
478.827	2815.72
479.198	2963.74
479.569	2938.43
479.94	3114.01
480.311	3140.68
480.682	3217.29
481.053	3351.97
481.424	3448.92
481.795	3503.16
482.166	3656.6
482.537	3669.03
482.908	3792.64
483.279	3889.59
483.65	4015.01
484.021	4161.9
484.391	4209.13
484.762	4281.67
485.133	4370.25
485.503	4511.27
485.874	4666.52
486.244	4767.53
486.615	4925.49
486.985	5043.68
487.356	5153.96
487.726	5337.01
488.097	5484.12
488.467	5438.7
488.837	5657.68
489.207	5811.57
489.578	5942.41
489.948	6088.63
490.318	6238.45
490.688	6287.26
491.058	6507.6
491.428	6638.67
491.798	6766.12
492.168	6987.36
492.538	7067.36
492.908	7165.89
493.278	7374.69
493.648	7441.81
494.017	7589.6
494.387	7812.65
494.757	7844.96
495.126	8023.04
495.496	8109.14
495.866	8243.6
496.235	8395.46
496.605	8600.42
496.974	8693.3
497.344	8775.56
497.713	8889
498.082	9011.49
498.452	9158.83
498.821	9251.71
499.19	9358.82
499.559	9576.9
499.928	9679.94
500.298	9683.11
500.667	9825.93
501.036	9827.28
501.405	10076.09
501.774	10101.18
502.143	10273.37
502.512	10283.09
502.88	10404.22
503.249	10485.57
503.618	10600.37
503.987	10705.68
504.356	10799.24
504.724	10864.32
505.093	10949.29
505.462	10990.42
505.83	11062.96
506.199	11195.16
506.567	11372.78
506.936	11457.52
507.304	11537.07
507.672	11657.97
508.041	11608.48
508.409	11764.86
508.777	11859.09
509.145	11993.33
509.514	11938.87
509.882	12022.71
510.25	12127.56
510.618	12170.05
510.986	12152.19
511.354	12342.47
511.722	12450.27
512.09	12519.42
512.458	12485.07
512.826	12559.64
513.193	12589.02
513.561	12674.89
513.929	12733.87
514.297	12810.03
514.664	12831.27
515.032	12902.23
515.4	12958.5
515.767	12994.43
516.135	13164.82
516.502	12923.93
516.869	13175.67
517.237	13199.85
517.604	13097.03
517.972	13282.79
518.339	13299.06
518.706	13339.51
519.073	13328.21
519.44	13362.11
519.808	13504.25
520.175	13429.45
520.542	13639.16
520.909	13574.3
521.276	13563.91
521.643	13695.88
522.009	13784.24
522.376	13812.94
522.743	13742.89
523.11	13824.47
523.477	13875.54
523.843	13926.39
524.21	14015.42
524.577	14075.76
524.943	14078.7
525.31	14131.35
525.676	14144.23
526.043	14171.8
526.409	14175.64
526.776	14300.84
527.142	14243.89
527.508	14214.06
527.874	14381.74
528.241	14331.8
528.607	14268.07
528.973	14413.6
529.339	14319.37
529.705	14452.7
530.071	14481.62
530.437	14488.63
530.803	14396.88
531.169	14482.75
531.535	14383.1
531.901	14440.72
532.267	14396.2
532.632	14456.09
532.998	14481.85
533.364	14482.53
533.73	14455.41
534.095	14500.83
534.461	14404.56
534.826	14415.19
535.192	14449.54
535.557	14570.44
535.923	14310.1
536.288	14368.18
536.653	14293.61
537.019	14243.44
537.384	14277.79
537.749	14280.95
538.114	14267.39
538.479	14186.04
538.845	14233.95
539.21	14076.21
539.575	14162.99
539.94	14108.98
540.305	14142.2
540.67	14045.03
541.034	13972.94
541.399	14029.43
541.764	13950.57
542.129	13987.85
542.494	13927.06
542.858	13921.41
543.223	13843.9
543.587	13867.18
543.952	13767.52
544.316	13796.22
544.681	13712.38
545.045	13726.39
545.41	13708.99
545.774	13681.87
546.138	13564.81
546.503	13571.14
546.867	13501.54
547.231	13625.83
547.595	13536.79
547.959	13498.6
548.324	13417.92
548.688	13440.97
549.052	13361.88
549.416	13348.1
549.779	13285.95
550.143	13283.69
550.507	13320.07
550.871	13317.81
551.235	13191.72
551.599	13230.13
551.962	13182.68
552.326	13262.67
552.689	13232.84
553.053	13062.68
553.417	13022.45
553.78	13151.49
554.143	13117.59
554.507	13045.96
554.87	13040.08
555.234	13129.57
555.597	12940.65
555.96	12997.37
556.323	12996.24
556.686	12931.61
557.05	13027.2
557.413	12955.34
557.776	12910.37
558.139	12954.21
558.502	12958.73
558.865	12858.16
559.228	12992.85
559.59	12919.41
559.953	12909.91
560.316	13043.7
560.679	12923.93
561.041	12974.32
561.404	13037.6
561.767	13025.62
562.129	12926.41
562.492	13106.97
562.854	12891.16
563.217	12969.8
563.579	12953.76
563.941	13019.97
564.304	13106.07
564.666	13079.4
565.028	13024.71
565.39	13001.89
565.753	13115.56
566.115	13056.58
566.477	13056.13
566.839	13091.38
567.201	13179.96
567.563	13144.48
567.925	13224.26
568.287	13160.98
568.648	13129.12
569.01	13237.82
569.372	13273.97
569.734	13219.96
570.095	13252.96
570.457	13292.96
570.819	13267.19
571.18	13247.98
571.542	13297.7
571.903	13383.12
572.265	13296.57
572.626	13330.24
572.987	13360.3
573.349	13311.03
573.71	13321.66
574.071	13394.65
574.432	13349.23
574.794	13504.93
575.155	13366.85
575.516	13337.25
575.877	13448.21
576.238	13375.89
576.599	13374.08
576.96	13461.76
577.32	13464.93
577.681	13505.61
578.042	13540.63
578.403	13392.61
578.763	13478.26
579.124	13488.88
579.485	13429
579.845	13513.97
580.206	13476.45
580.566	13429.22
580.927	13443.91
581.287	13458.6
581.648	13461.31
582.008	13500.18
582.368	13515.77
582.728	13408.66
583.089	13394.2
583.449	13444.36
583.809	13520.29
584.169	13411.14
584.529	13457.47
584.889	13504.7
585.249	13446.4
585.609	13429.22
585.969	13349
586.329	13319.85
586.688	13363.01
587.048	13342.22
587.408	13392.39
587.768	13337.47
588.127	13364.82
588.487	13261.32
588.846	13317.59
589.206	13263.13
589.565	13279.17
589.925	13409.56
590.284	13287.98
590.643	13320.53
591.003	13354.87
591.362	13353.29
591.721	13278.72
592.08	13257.7
592.44	13331.15
592.799	13302.45
593.158	13252.5
593.517	13197.59
593.876	13239.62
594.235	13233.97
594.593	13226.97
594.952	13238.95
595.311	13243.24
595.67	13186.74
596.029	13319.85
596.387	13297.7
596.746	13253.86
597.104	13213.18
597.463	13219.29
597.822	13241.43
598.18	13216.35
598.538	13132.06
598.897	13233.97
599.255	13052.51
599.613	13260.41
599.972	13264.26
600.33	13301.77
600.688	13220.64
601.046	13198.04
601.404	13282.11
601.762	13257.93
602.12	13280.53
602.478	13261.54
602.836	13224.26
603.194	13204.37
603.552	13236.69
603.91	13170.7
604.268	13259.51
604.625	13194.88
604.983	13214.09
605.341	13070.14
605.698	13290.7
606.056	13230.81
606.413	13186.52
606.771	13254.99
607.128	13232.84
607.485	13187.42
607.843	13178.83
608.2	13217.03
608.557	13324.37
608.914	13164.6
609.272	13276.68
609.629	13159.17
609.986	13295.22
610.343	13320.53
610.7	13382.9
611.057	13396.91
611.414	13351.94
611.771	13345.38
612.127	13360.98
612.484	13403.69
612.841	13369.56
613.198	13406.17
613.554	13326.63
613.911	13371.37
614.267	13409.56
614.624	13419.28
614.98	13388.77
615.337	13544.47
615.693	13449.34
616.05	13452.27
616.406	13550.8
616.762	13458.83
617.118	13452.73
617.475	13495.44
617.831	13600.07
618.187	13581.54
618.543	13650.69
618.899	13574.3
619.255	13638.71
619.611	13647.97
619.967	13580.86
620.323	13610.24
620.678	13568.2
621.034	13564.81
621.39	13611.59
621.746	13534.53
622.101	13759.84
622.457	13568.88
622.812	13518.94
623.168	13563.68
623.523	13565.94
623.879	13617.92
624.234	13583.34
624.589	13651.14
624.945	13576.56
625.3	13502.22
625.655	13635.09
626.01	13643.45
626.365	13562.33
626.72	13547.64
627.075	13558.26
627.43	13571.59
627.785	13549.67
628.14	13533.63
628.495	13584.93
628.85	13600.74
629.205	13537.24
629.559	13495.44
629.914	13493.63
630.269	13466.96
630.623	13458.37
630.978	13480.75
631.332	13500.86
631.687	13613.17
632.041	13508.54
632.396	13510.8
632.75	13459.28
633.104	13434.42
633.459	13443.91
633.813	13393.07
634.167	13395.33
634.521	13385.61
634.875	13428.55
635.229	13322.33
635.583	13310.13
635.937	13316.01
636.291	13282.56
636.645	13214.54
636.999	13283.24
637.352	13282.79
637.706	13184.26
638.06	13275.33
638.413	13254.31
638.767	13173.64
639.121	13189.68
639.474	13098.16
639.828	13146.97
640.181	13174.77
640.534	13097.25
640.888	13055
641.241	13010.25
641.594	13002.79
641.947	13122.11
642.301	13054.54
642.654	13117.59
643.007	13124.82
643.36	13121.89
643.713	13098.38
644.066	13091.6
644.419	12963.92
644.771	12957.6
645.124	12781.33
645.477	12878.73
645.83	12690.03
646.182	12652.29
646.535	12532.75
646.888	12695.91
647.24	12596.48
647.593	12641.45
647.945	12579.53
648.298	12535.69
648.65	12639.41
649.002	12505.41
649.355	12554.22
649.707	12542.24
650.059	12609.81
650.411	12748.11
650.763	12813.19
651.115	12986.3
651.467	12851.39
651.819	12855.9
652.171	12866.3
652.523	12871.27
652.875	12863.59
653.227	12765.96
653.578	12849.8
653.93	12853.19
654.282	12856.81
654.633	12765.29
654.985	12804.38
655.337	12872.63
655.688	12834.21
656.039	12839.18
656.391	12855
656.742	12761.67
657.094	12886.41
657.445	12874.66
657.796	12803.7
658.147	12844.83
658.498	12825.62
658.849	12855.23
659.2	12893.42
659.551	12859.07
659.902	12855.45
660.253	12815.91
660.604	12923.47
660.955	12833.53
661.306	12837.83
661.656	12823.59
662.007	12935.22
662.358	12899.52
662.708	12846.64
663.059	12844.38
663.409	12825.62
663.76	12942.46
664.11	12884.15
664.461	12866.3
664.811	12878.5
665.161	12919.18
665.511	12901.33
665.862	12857.94
666.212	12986.52
666.562	12907.2
666.912	12903.81
667.262	12824.49
667.612	12899.75
667.962	12881.67
668.312	12945.85
668.662	13055.67
669.011	12820.65
669.361	12832.18
669.711	12828.56
670.06	12867.2
670.41	12850.26
670.76	12817.71
671.109	12878.5
671.459	12774.78
671.808	12777.49
672.157	12865.17
672.507	12800.31
672.856	12723.93
673.205	12717.6
673.554	12793.99
673.904	12745.4
674.253	12812.29
674.602	12733.42
674.951	12649.36
675.3	12539.08
675.649	12791.5
675.998	12695.46
676.346	12691.62
676.695	12822.69
677.044	12582.92
677.393	12636.7
677.741	12646.87
678.09	12604.84
678.438	12610.26
678.787	12589.47
679.135	12620.2
679.484	12539.3
679.832	12504.28
680.181	12506.08
680.529	12549.92
680.877	12464.95
681.225	12458.85
681.573	12538.63
681.922	12414.33
682.27	12430.38
682.618	12352.42
682.966	12383.6
683.314	12338.4
683.661	12322.81
684.009	12314.45
684.357	12283.04
684.705	12211.63
685.053	12227.22
685.4	12149.71
685.748	12126.88
686.095	12195.58
686.443	12139.77
686.79	12036.27
687.138	12049.82
687.485	12102.93
687.832	12003.95
688.18	11979.09
688.527	11916.04
688.874	11852.99
689.221	11918.75
689.568	11822.94
689.915	11874.91
690.262	11921.01
690.609	11788.14
690.956	11731.41
691.303	11743.62
691.65	11700.91
691.997	11712.88
692.344	11599.67
692.69	11572.1
693.037	11545.43
693.383	11471.99
693.73	11468.14
694.077	11396.73
694.423	11377.53
694.769	11396.96
695.116	11284.87
695.462	11335.49
695.808	11235.16
696.155	11255.95
696.501	11178.43
696.847	11142.96
697.193	11003.07
697.539	11075.16
697.885	11010.76
698.231	10921.27
698.577	10937.76
698.923	10907.93
699.269	10834.49
699.614	10834.04
699.96	10851.89
700.306	10791.55
700.651	10703.65
700.997	10642.18
701.342	10634.27
701.688	10597.21
702.033	10585
702.379	10489.87
702.724	10506.14
703.069	10593.14
703.415	10413.26
703.76	10409.64
704.105	10371
704.45	10358.12
704.795	10328.06
705.14	10302.3
705.485	10249.87
705.83	10211.68
706.175	10207.16
706.52	10174.39
706.865	10171
707.209	10173.94
707.554	10154.73
707.899	10077.9
708.243	10011.69
708.588	9991.57
708.932	9940.05
709.277	9890.56
709.621	9973.27
709.966	9843.1
710.31	9863.44
710.654	9757.91
710.998	9858.02
711.342	9798.81
711.687	9728.3
712.031	9714.52
712.375	9706.16
712.719	9685.14
713.063	9730.56
713.407	9690.79
713.75	9641.98
714.094	9610.11
714.438	9594.75
714.782	9627.97
715.125	9611.24
715.469	9610.57
715.812	9565.37
716.156	9484.47
716.499	9475.43
716.843	9547.74
717.186	9472.49
717.53	9475.65
717.873	9423
718.216	9450.34
718.559	9478.59
718.902	9354.75
719.246	9339.61
719.589	9362.21
719.932	9335.32
720.275	9278.15
720.617	9308.88
720.96	9277.02
721.303	9271.82
721.646	9307.52
721.989	9237.47
722.331	9264.81
722.674	9251.93
723.016	9247.64
723.359	9266.39
723.701	9166.06
724.044	9213.29
724.386	9192.05
724.729	9229.33
725.071	9171.48
725.413	9118.38
725.755	9164.93
726.097	9078.38
726.439	9107.53
726.782	9115.66
727.124	9201.31
727.465	9086.29
727.807	9021.66
728.149	9026.63
728.491	9041.99
728.833	9079.06
729.175	9077.7
729.516	9071.15
729.858	9101.88
730.199	9102.11
730.541	9026.4
730.882	9025.5
731.224	9059.17
731.565	8999.51
731.906	9033.63
732.248	9105.27
732.589	8972.62
732.93	8947.53
733.271	9022.79
733.612	9026.63
733.953	9054.65
734.294	8973.75
734.635	9058.72
734.976	9012.62
735.317	8950.7
735.658	8969.91
735.999	9002.67
736.339	8997.25
736.68	9045.61
737.021	9068.89
737.361	9071.6
737.702	9024.82
738.042	9037.47
738.383	8986.4
738.723	9038.83
739.063	9043.58
739.404	9115.66
739.744	9070.47
740.084	9039.96
740.424	9106.85
740.764	9167.41
741.104	9199.05
741.444	9092.16
741.784	9140.75
742.124	9205.61
742.464	9150.47
742.804	9144.14
743.143	9220.75
743.483	9247.19
743.823	9221.42
744.162	9288.54
744.502	9272.72
744.841	9347.75
745.181	9324.92
745.52	9396.56
745.86	9425.49
746.199	9432.94
746.538	9436.79
746.877	9466.84
747.216	9532.38
747.556	9627.29
747.895	9630.23
748.234	9678.59
748.573	9750.68
748.911	9814.63
749.25	9871.8
749.589	9855.31
749.928	9957.22
750.267	10008.97
750.605	10111.57
750.944	10161.06
751.283	10292.58
751.621	10297.55
751.96	10433.37
752.298	10487.61
752.636	10542.29
752.975	10692.12
753.313	10740.48
753.651	10914.04
753.989	10999
754.327	11127.14
754.666	11171.66
755.004	11291.2
755.342	11386.57
755.679	11608.48
756.017	11656.61
756.355	11839.66
756.693	12016.6
757.031	12111.52
757.368	12255.24
757.706	12437.84
758.044	12548.34
758.381	12736.36
758.719	12912.85
759.056	13051.61
759.394	13177.25
