Data from hue_150_FLMS001491_00064.txt Node
Date: Tue Feb 07 16:54:21 GMT 2017
User: dcchb
Spectrometer: FLMS00149
Trigger mode: 0
Integration Time (sec): 2.000000E-2
Scans to average: 10
Electric dark correction enabled: true
Nonlinearity correction enabled: false
Boxcar width: 0
XAxis mode: Wavelengths
Number of Pixels in Spectrum: 2048
>>>>>Begin Spectral Data<<<<<
341.393	-31.78
341.776	-31.78
342.16	-31.78
342.543	-45.56
342.927	-58.67
343.31	-70.87
343.693	-69.74
344.077	-61.38
344.46	-70.42
344.843	-59.57
345.226	-53.7
345.61	-31.55
345.993	-14.38
346.376	-0.82
346.759	18.39
347.142	37.82
347.525	49.12
347.908	57.03
348.291	55.9
348.674	101.33
349.057	112.85
349.44	113.08
349.823	122.79
350.206	164.37
350.588	219.29
350.971	196.46
351.354	215.67
351.737	214.77
352.119	243.92
352.502	264.48
352.884	287.08
353.267	290.47
353.65	302.45
354.032	303.35
354.414	304.71
354.797	331.83
355.179	323.92
355.562	316.69
355.944	342.9
356.326	353.75
356.709	326.4
357.091	359.62
357.473	337.93
357.855	338.83
358.238	327.99
358.62	349.45
359.002	341.77
359.384	347.65
359.766	331.6
360.148	352.62
360.53	330.92
360.912	335.9
361.294	333.18
361.676	343.13
362.057	342.22
362.439	335.9
362.821	329.34
363.203	333.18
363.584	346.06
363.966	323.01
364.348	332.96
364.729	337.7
365.111	309.46
365.493	343.58
365.874	320.98
366.256	343.35
366.637	330.47
367.019	329.34
367.4	320.3
367.781	317.59
368.163	335.22
368.544	328.66
368.925	298.38
369.306	311.26
369.688	311.04
370.069	307.42
370.45	305.16
370.831	311.94
371.212	332.05
371.593	314.65
371.974	317.14
372.355	342.67
372.736	321.66
373.117	309.46
373.498	317.36
373.879	321.66
374.26	305.16
374.641	319.17
375.021	302.45
375.402	340.19
375.783	313.75
376.163	351.04
376.544	319.17
376.925	318.95
377.305	337.48
377.686	334.54
378.066	342.22
378.447	323.69
378.827	350.13
379.208	342.22
379.588	335.22
379.968	339.51
380.349	362.34
380.729	330.7
381.109	355.1
381.489	355.78
381.87	348.1
382.25	347.19
382.63	335.67
383.01	361.66
383.39	364.59
383.77	367.76
384.15	364.37
384.53	342.9
384.91	366.85
385.29	349.23
385.67	356.69
386.049	377.93
386.429	353.3
386.809	369.11
387.189	380.87
387.568	378.83
387.948	374.09
388.328	361.88
388.707	349.68
389.087	366.18
389.466	373.18
389.846	389.91
390.225	378.15
390.605	382.22
390.984	346.06
391.363	379.28
391.743	359.17
392.122	371.6
392.501	387.87
392.881	392.39
393.26	393.75
393.639	410.24
394.018	386.29
394.397	385.84
394.776	379.74
395.155	385.84
395.534	417.47
395.913	384.93
396.292	407.31
396.671	414.54
397.05	407.98
397.429	408.89
397.808	400.98
398.186	414.09
398.565	395.78
398.944	397.36
399.323	425.38
399.701	427.87
400.08	415.89
400.458	432.84
400.837	427.64
401.215	431.49
401.594	427.19
401.972	428.77
402.351	426.51
402.729	431.49
403.107	407.08
403.486	422.67
403.864	423.58
404.242	426.06
404.62	428.77
404.999	449.56
405.377	442.11
405.755	444.14
406.133	455.67
406.511	477.59
406.889	430.36
407.267	447.53
407.645	447.53
408.023	485.5
408.401	466.51
408.779	471.26
409.156	478.49
409.534	453.63
409.912	464.03
410.29	489.79
410.667	496.79
411.045	489.34
411.422	507.19
411.8	488.43
412.178	510.13
412.555	476
412.933	508.77
413.31	501.99
413.687	522.33
414.065	506.29
414.442	520.98
414.819	548.09
415.197	538.6
415.574	513.52
415.951	531.82
416.328	542.44
416.705	544.25
417.082	538.6
417.46	549
417.837	567.53
418.214	571.82
418.591	578.6
418.967	567.53
419.344	576.34
419.721	574.31
420.098	562.56
420.475	569.11
420.852	587.19
421.228	606.17
421.605	584.93
421.982	554.87
422.358	620.86
422.735	610.24
423.111	594.42
423.488	596.91
423.864	652.05
424.241	632.84
424.617	630.35
424.994	634.19
425.37	617.92
425.746	622.22
426.123	627.64
426.499	653.4
426.875	632.16
427.251	640.97
427.627	673.51
428.003	684.13
428.379	661.76
428.756	663.12
429.132	693.63
429.507	696.34
429.883	716
430.259	709.9
430.635	704.02
431.011	709.67
431.387	718.03
431.763	734.08
432.138	770.91
432.514	710.57
432.89	774.3
433.265	744.7
433.641	782.44
434.016	776.56
434.392	815.2
434.767	807.07
435.143	800.52
435.518	805.71
435.894	783.12
436.269	813.62
436.644	817.24
437.02	838.48
437.395	836.67
437.77	864.02
438.145	848.42
438.52	844.36
438.895	861.98
439.271	890
439.646	915.31
440.021	907.41
440.395	876.22
440.77	893.39
441.145	907.63
441.52	917.57
441.895	917.57
442.27	950.57
442.645	933.39
443.019	930.91
443.394	949.21
443.769	986.27
444.143	952.83
444.518	973.17
444.892	989.21
445.267	979.72
445.641	990.34
446.016	985.6
446.39	997.57
446.764	995.76
447.139	1004.58
447.513	1025.14
447.887	1018.36
448.262	1018.59
448.636	1021.75
449.01	1040.28
449.384	1025.82
449.758	1038.02
450.132	1088.19
450.506	1073.5
450.88	1095.65
451.254	1086.38
451.628	1097.46
452.002	1105.14
452.376	1128.42
452.75	1139.49
453.123	1137.46
453.497	1127.06
453.871	1173.84
454.244	1183.33
454.618	1188.08
454.992	1199.15
455.365	1210.45
455.739	1269.2
456.112	1244.35
456.486	1259.26
456.859	1268.98
457.232	1277.11
457.606	1299.49
457.979	1312.14
458.352	1337.45
458.725	1319.15
459.099	1352.14
459.472	1386.26
459.845	1393.95
460.218	1451.8
460.591	1402.53
460.964	1429.65
461.337	1450.67
461.71	1491.57
462.083	1527.28
462.456	1501.29
462.829	1493.38
463.201	1552.13
463.574	1558.46
463.947	1609.76
464.32	1620.83
464.692	1646.6
465.065	1656.76
465.438	1671.68
465.81	1695.41
466.183	1709.64
466.555	1765.69
466.928	1791
467.3	1760.72
467.672	1832.8
468.045	1852.47
468.417	1873.26
468.789	1916.42
469.161	1932.24
469.534	1982.18
469.906	2005.46
470.278	2039.81
470.65	2071.44
471.022	2103.53
471.394	2175.85
471.766	2198.67
472.138	2237.54
472.51	2298.33
472.882	2343.98
473.253	2370.64
473.625	2412.9
473.997	2471.88
474.369	2518.89
474.74	2523.86
475.112	2566.12
475.484	2642.73
475.855	2751.88
476.227	2796.4
476.598	2872.33
476.97	2922.49
477.341	3004.53
477.713	3047.69
478.084	3123.17
478.455	3211.3
478.827	3264.41
479.198	3398.41
479.569	3458.98
479.94	3520.22
480.311	3647.67
480.682	3750.95
481.053	3801.79
481.424	3943.71
481.795	4022.8
482.166	4136.93
482.537	4184.38
482.908	4336.02
483.279	4399.74
483.65	4530.59
484.021	4666.4
484.391	4798.83
484.762	4851.93
485.133	4955.66
485.503	5055.09
485.874	5230.23
486.244	5305.71
486.615	5502.99
486.985	5627.28
487.356	5748.18
487.726	5858.46
488.097	6004.9
488.467	6100.94
488.837	6292.35
489.207	6400.82
489.578	6596.52
489.948	6676.75
490.318	6798.32
490.688	6918.55
491.058	7020.92
491.428	7255.71
491.798	7353.11
492.168	7554.24
492.538	7714.68
492.908	7816.83
493.278	8016.15
493.648	8082.13
494.017	8200.55
494.387	8367.55
494.757	8455.46
495.126	8648.22
495.496	8737.93
495.866	8804.15
496.235	8984.93
496.605	9090.24
496.974	9234.64
497.344	9337.69
497.713	9477.58
498.082	9559.83
498.452	9654.29
498.821	9854.06
499.19	9876.21
499.559	10012.48
499.928	10122.98
500.298	10283.2
500.667	10396.42
501.036	10451.79
501.405	10578.34
501.774	10601.39
502.143	10698.11
502.512	10805.45
502.88	10953.02
503.249	10967.25
503.618	11109.62
503.987	11147.14
504.356	11321.82
504.724	11340.13
505.093	11407.47
505.462	11432.78
505.83	11567.24
506.199	11667.35
506.567	11819.21
506.936	11863.73
507.304	11941.47
507.672	12042.03
508.041	12054.91
508.409	12175.81
508.777	12288.8
509.145	12338.52
509.514	12418.29
509.882	12415.8
510.25	12477.95
510.618	12634.55
510.986	12595.46
511.354	12698.73
511.722	12745.06
512.09	12889.01
512.458	12885.4
512.826	12948.44
513.193	13035.67
513.561	13047.65
513.929	13112.28
514.297	13226.86
514.664	13244.03
515.032	13270.24
515.4	13361.32
515.767	13343.46
516.135	13496.68
516.502	13434.53
516.869	13576.22
517.237	13623.46
517.604	13583.68
517.972	13713.62
518.339	13727.41
518.706	13778.03
519.073	13698.03
519.44	13763.11
519.808	13957.01
520.175	13871.58
520.542	13972.6
520.909	13982.99
521.276	14000.39
521.643	14191.8
522.009	14166.72
522.376	14166.94
522.743	14291.01
523.11	14404.45
523.477	14373.72
523.843	14431.34
524.21	14501.4
524.577	14537.1
524.943	14533.04
525.31	14564.9
525.676	14758.11
526.043	14718.34
526.409	14695.74
526.776	14823.65
527.142	14778.23
527.508	14865.68
527.874	14918.11
528.241	14876.98
528.607	14869.98
528.973	15025
529.339	14916.3
529.705	14999.46
530.071	15154.26
530.437	15139.35
530.803	15095.06
531.169	15115.17
531.535	14946.81
531.901	15020.03
532.267	14992.01
532.632	15127.14
532.998	15085.34
533.364	15182.28
533.73	15019.35
534.095	15141.83
534.461	15007.83
534.826	15158.56
535.192	15118.11
535.557	15154.94
535.923	15105.22
536.288	15052.57
536.653	15072
537.019	15019.12
537.384	15077.2
537.749	15114.49
538.114	14963.76
538.479	15031.78
538.845	14918.34
539.21	14880.37
539.575	14996.3
539.94	14930.31
540.305	14933.7
540.67	14901.84
541.034	14898.9
541.399	14853.03
541.764	14794.05
542.129	14813.25
542.494	14729.19
542.858	14776.19
543.223	14631.34
543.587	14680.6
543.952	14675.41
544.316	14580.94
544.681	14590.21
545.045	14614.16
545.41	14564.45
545.774	14594.5
546.138	14508.86
546.503	14554.96
546.867	14390.21
547.231	14426.15
547.595	14469.08
547.959	14471.79
548.324	14384.79
548.688	14360.39
549.052	14347.96
549.416	14272.48
549.779	14308.18
550.143	14314.51
550.507	14261.86
550.871	14270.67
551.235	14214.17
551.599	14295.98
551.962	14261.86
552.326	14227.28
552.689	14234.74
553.053	14145.48
553.417	14141.86
553.78	14239.48
554.143	13992.94
554.507	14083.78
554.87	14060.73
555.234	14107.74
555.597	14041.3
555.96	13998.59
556.323	14046.04
556.686	13989.55
557.05	13969.89
557.413	14069.55
557.776	13961.98
558.139	14053.05
558.502	14066.38
558.865	14009.21
559.228	14122.2
559.59	14098.92
559.953	14008.08
560.316	14195.87
560.679	14166.72
561.041	14085.82
561.404	14138.92
561.767	14176.66
562.129	14088.98
562.492	14282.87
562.854	14133.27
563.217	14107.28
563.579	14228.86
563.941	14172.59
564.304	14207.39
564.666	14241.74
565.028	14201.07
565.39	14287.62
565.753	14320.16
566.115	14386.15
566.477	14390.67
566.839	14308.64
567.201	14442.19
567.563	14428.63
567.925	14432.02
568.287	14429.99
568.648	14450.78
569.01	14437.22
569.372	14545.24
569.734	14399.25
570.095	14503.66
570.457	14578.91
570.819	14543.88
571.18	14557.22
571.542	14612.81
571.903	14665.46
572.265	14653.94
572.626	14654.39
572.987	14654.61
573.349	14725.8
573.71	14726.25
574.071	14767.83
574.432	14722.41
574.794	14752.01
575.155	14794.72
575.516	14757.21
575.877	14833.59
576.238	14786.14
576.599	14862.97
576.96	14827.94
577.32	14791.11
577.681	14831.79
578.042	14814.61
578.403	14870.43
578.763	14834.5
579.124	14913.36
579.485	14869.75
579.845	14942.52
580.206	14915.4
580.566	14864.78
580.927	14904.1
581.287	14909.98
581.648	14794.72
582.008	14984.78
582.368	14807.15
582.728	14847.15
583.089	14795.85
583.449	14836.3
583.809	14889.86
584.169	14784.33
584.529	14807.83
584.889	14914.27
585.249	14842.63
585.609	14763.09
585.969	14799.47
586.329	14846.47
586.688	14811.9
587.048	14815.74
587.408	14716.31
587.768	14785.68
588.127	14691
588.487	14785.68
588.846	14849.41
589.206	14742.75
589.565	14767.15
589.925	14850.09
590.284	14752.47
590.643	14712.92
591.003	14801.5
591.362	14781.39
591.721	14733.48
592.08	14757.44
592.44	14802.86
592.799	14757.66
593.158	14670.89
593.517	14724.22
593.876	14735.06
594.235	14719.47
594.593	14752.69
594.952	14717.44
595.311	14752.24
595.67	14717.89
596.029	14707.49
596.387	14760.15
596.746	14692.58
597.104	14682.41
597.463	14680.83
597.822	14776.42
598.18	14710.88
598.538	14580.49
598.897	14639.47
599.255	14587.72
599.613	14762.86
599.972	14629.98
600.33	14710.88
600.688	14664.33
601.046	14736.19
601.404	14745.46
601.762	14707.49
602.12	14739.81
602.478	14686.25
602.836	14709.3
603.194	14654.84
603.552	14736.42
603.91	14656.42
604.268	14723.09
604.625	14685.8
604.983	14723.99
605.341	14647.61
605.698	14768.74
606.056	14750.88
606.413	14760.37
606.771	14748.17
607.128	14777.32
607.485	14716.76
607.843	14663.2
608.2	14803.54
608.557	14754.05
608.914	14738.23
609.272	14835.63
609.629	14809.41
609.986	14834.5
610.343	14755.85
610.7	14888.73
611.057	14822.29
611.414	14866.59
611.771	14839.92
612.127	14923.08
612.484	14845.34
612.841	14992.46
613.198	14830.43
613.554	14892.57
613.911	14883.08
614.267	14901.16
614.624	14947.26
614.98	14911.56
615.337	15008.73
615.693	14969.18
616.05	14933.03
616.406	15116.75
616.762	15045.56
617.118	14985.45
617.475	15015.06
617.831	15020.25
618.187	15081.5
618.543	15089.18
618.899	15017.99
619.255	15112.46
619.611	15082.63
619.967	15141.83
620.323	15184.32
620.678	15133.92
621.034	15075.39
621.39	15052.57
621.746	15065
622.101	15157.88
622.457	15093.47
622.812	15104.32
623.168	15118.78
623.523	15072.46
623.879	15055.73
624.234	14987.71
624.589	15086.69
624.945	15204.2
625.3	15125.56
625.655	15159.01
626.01	15166.47
626.365	15199.23
626.72	15111.55
627.075	15101.38
627.43	15111.78
627.785	15142.74
628.14	15224.54
628.495	15153.81
628.85	15152.23
629.205	15103.19
629.559	15102.74
629.914	15147.03
630.269	15092.34
630.623	15046.02
630.978	15050.76
631.332	15071.1
631.687	15156.07
632.041	15035.62
632.396	15028.16
632.75	15031.33
633.104	14950.65
633.459	14913.59
633.813	14898.9
634.167	14928.51
634.521	15008.5
634.875	14833.14
635.229	14889.86
635.583	14813.71
635.937	14814.84
636.291	14810.09
636.645	14752.69
636.999	14704.56
637.352	14790.66
637.706	14726.25
638.06	14782.07
638.413	14671.56
638.767	14662.75
639.121	14695.29
639.474	14601.96
639.828	14597.44
640.181	14578.68
640.534	14603.99
640.888	14541.62
641.241	14520.61
641.594	14497.78
641.947	14527.61
642.301	14453.49
642.654	14534.62
643.007	14554.96
643.36	14529.87
643.713	14529.19
644.066	14503.43
644.419	14431.8
644.771	14332.82
645.124	14279.03
645.477	14174.85
645.83	14157.68
646.182	14108.87
646.535	14035.65
646.888	14175.08
647.24	13940.96
647.593	14103.89
647.945	13973.05
648.298	13979.15
648.65	13957.46
649.002	13836.78
649.355	13950.45
649.707	13973.5
650.059	13981.41
650.411	14182.54
650.763	14158.58
651.115	14324.23
651.467	14304.79
651.819	14242.42
652.171	14260.05
652.523	14213.72
652.875	14156.32
653.227	14122.43
653.578	14314.51
653.93	14263.44
654.282	14132.14
654.633	14149.09
654.985	14184.8
655.337	14284.91
655.688	14248.75
656.039	14272.93
656.391	14186.83
656.742	14215.08
657.094	14158.58
657.445	14207.85
657.796	14289.88
658.147	14276.55
658.498	14208.3
658.849	14252.14
659.2	14209.2
659.551	14173.05
659.902	14241.07
660.253	14140.96
660.604	14239.94
660.955	14241.29
661.306	14222.54
661.656	14211.69
662.007	14289.65
662.358	14259.6
662.708	14284.45
663.059	14288.52
663.409	14139.15
663.76	14330.1
664.11	14300.27
664.461	14311.35
664.811	14308.41
665.161	14229.99
665.511	14254.4
665.862	14243.33
666.212	14334.62
666.562	14230.9
666.912	14277.68
667.262	14237.9
667.612	14288.75
667.962	14271.8
668.312	14202.65
668.662	14386.37
669.011	14247.62
669.361	14171.24
669.711	14238.35
670.06	14223.44
670.41	14156.55
670.76	14102.54
671.109	14317.22
671.459	14219.82
671.808	14162.42
672.157	14209.43
672.507	14033.16
672.856	14067.29
673.205	14144.8
673.554	14183.67
673.904	14082.2
674.253	14165.59
674.602	14178.69
674.951	13867.29
675.3	13805.37
675.649	14005.14
675.998	13992.49
676.346	14021.41
676.695	14058.25
677.044	13986.38
677.393	13999.04
677.741	14010.79
678.09	14000.39
678.438	13900.51
678.787	13965.14
679.135	13930.11
679.484	13888.76
679.832	13947.51
680.181	13790.91
680.529	13793.39
680.877	13882.66
681.225	13694.64
681.573	13841.98
681.922	13735.32
682.27	13678.82
682.618	13668.65
682.966	13706.84
683.314	13659.84
683.661	13630.01
684.009	13490.35
684.357	13602.66
684.705	13499.62
685.053	13505.04
685.4	13451.48
685.748	13443.35
686.095	13366.51
686.443	13398.15
686.79	13394.31
687.138	13338.49
687.485	13403.12
687.832	13285.61
688.18	13289.23
688.527	13231.15
688.874	13238.61
689.221	13186.86
689.568	13169.91
689.915	13080.87
690.262	13086.52
690.609	13060.53
690.956	12992.29
691.303	13038.61
691.65	12879.29
691.997	12862.8
692.344	12861.44
692.69	12689.69
693.037	12762.46
693.383	12647.66
693.73	12671.16
694.077	12540.77
694.423	12586.19
694.769	12612.63
695.116	12497.38
695.462	12470.94
695.808	12478.85
696.155	12494.45
696.501	12315.24
696.847	12366.09
697.193	12206.54
697.539	12295.81
697.885	12127.68
698.231	12196.83
698.577	12112.76
698.923	12070.28
699.269	12038.19
699.614	11954.8
699.96	12008.81
700.306	12017.62
700.651	11808.59
700.997	11804.07
701.342	11819.43
701.688	11705.77
702.033	11630.51
702.379	11691.3
702.724	11661.7
703.069	11634.58
703.415	11446.11
703.76	11585.09
704.105	11456.73
704.45	11466.22
704.795	11412.21
705.14	11340.8
705.485	11333.35
705.83	11340.13
706.175	11322.72
706.52	11296.06
706.865	11242.28
707.209	11229.39
707.554	11139.23
707.899	11160.7
708.243	11042.73
708.588	11075.5
708.932	11032.34
709.277	11054.03
709.621	11015.39
709.966	10930.19
710.31	10902.62
710.654	10928.16
710.998	10848.39
711.342	10852.45
711.687	10787.82
712.031	10759.8
712.375	10712.8
712.719	10800.93
713.063	10756.41
713.407	10719.58
713.75	10643.87
714.094	10642.74
714.438	10610.65
714.782	10630.54
715.125	10554.84
715.469	10589.86
715.812	10570.2
716.156	10476.19
716.499	10492.01
716.843	10524.55
717.186	10431.45
717.53	10449.08
717.873	10422.86
718.216	10394.39
718.559	10401.17
718.902	10313.94
719.246	10326.37
719.589	10290.89
719.932	10275.97
720.275	10268.29
720.617	10312.36
720.96	10239.82
721.303	10311.9
721.646	10220.16
721.989	10209.99
722.331	10283.43
722.674	10169.08
723.016	10165.69
723.359	10211.12
723.701	10160.72
724.044	10099.03
724.386	10076.2
724.729	10077.56
725.071	10075.75
725.413	10087.5
725.755	10049.99
726.097	10108.75
726.439	10004.79
726.782	10043.44
727.124	10019.26
727.465	10026.94
727.807	9994.62
728.149	9988.3
728.491	9954.17
728.833	9909.65
729.175	9912.59
729.516	10041.85
729.858	9956.89
730.199	10015.19
730.541	9974.06
730.882	10030.56
731.224	9965.7
731.565	9979.71
731.906	9904.68
732.248	9970.44
732.589	9938.58
732.93	9861.07
733.271	9875.98
733.612	9938.35
733.953	9866.04
734.294	9891.58
734.635	9830.79
734.976	9904.46
735.317	9803.67
735.658	9834.18
735.999	9937
736.339	9829.88
736.68	9904.23
737.021	9947.85
737.361	9791.69
737.702	9915.3
738.042	9910.78
738.383	9874.63
738.723	9894.74
739.063	9847.74
739.404	9897
739.744	9937.22
740.084	9809.54
740.424	9907.39
740.764	9919.37
741.104	9939.03
741.444	9853.38
741.784	9898.36
742.124	9944.68
742.464	9898.58
742.804	9947.62
743.143	10010.44
743.483	9965.92
743.823	9997.56
744.162	10042.76
744.502	10080.72
744.841	10027.62
745.181	10114.85
745.52	10103.77
745.86	10165.47
746.199	10246.37
746.538	10298.8
746.877	10341.73
747.216	10407.49
747.556	10377.89
747.895	10405.69
748.234	10424.9
748.573	10436.19
748.911	10609.75
749.25	10625.57
749.589	10679.8
749.928	10678.22
750.267	10803.42
750.605	10772.91
750.944	10793.47
751.283	10885.9
751.621	11034.14
751.96	11044.31
752.298	11236.17
752.636	11252.9
752.975	11343.97
753.313	11414.47
753.651	11555.49
753.989	11558.42
754.327	11646.78
754.666	11748.7
755.004	11866.44
755.342	12061.46
755.679	12143.27
756.017	12308.01
756.355	12398.18
756.693	12506.42
