Data from hue_280_FLMS001491_00053.txt Node
Date: Tue Feb 07 15:55:27 GMT 2017
User: dcchb
Spectrometer: FLMS00149
Trigger mode: 0
Integration Time (sec): 2.000000E-2
Scans to average: 10
Electric dark correction enabled: true
Nonlinearity correction enabled: false
Boxcar width: 0
XAxis mode: Wavelengths
Number of Pixels in Spectrum: 2048
>>>>>Begin Spectral Data<<<<<
341.393	-28.42
341.776	-28.42
342.16	-28.42
342.543	-55.99
342.927	-65.25
343.31	-82.43
343.693	-70.9
344.077	-64.35
344.46	-60.96
344.843	-56.21
345.226	-36.55
345.61	-20.73
345.993	-16.89
346.376	3.45
346.759	10.9
347.142	21.52
347.525	37.57
347.908	75.99
348.291	83.44
348.674	83.22
349.057	92.94
349.44	122.77
349.823	135.42
350.206	155.53
350.588	196.89
350.971	211.8
351.354	210.67
351.737	233.27
352.119	252.03
352.502	233.95
352.884	245.47
353.267	252.71
353.65	282.08
354.032	279.15
354.414	285.92
354.797	302.87
355.179	313.49
355.562	322.08
355.944	325.47
356.326	319.82
356.709	319.82
357.091	322.08
357.473	325.02
357.855	322.99
358.238	336.77
358.62	330.9
359.002	343.32
359.384	317.56
359.766	335.64
360.148	356.21
360.53	337.45
360.912	322.31
361.294	331.12
361.676	322.76
362.057	343.55
362.439	346.71
362.821	311.46
363.203	295.87
363.584	318.01
363.966	340.61
364.348	323.89
364.729	322.08
365.111	313.04
365.493	316.43
365.874	328.64
366.256	303.55
366.637	308.75
367.019	312.14
367.4	330.67
367.781	305.59
368.163	302.42
368.544	333.16
368.925	296.77
369.306	314.17
369.688	299.71
370.069	290.67
370.45	303.1
370.831	334.51
371.212	294.06
371.593	323.66
371.974	318.24
372.355	320.95
372.736	312.59
373.117	312.14
373.498	291.8
373.879	308.75
374.26	299.71
374.641	331.12
375.021	297.68
375.402	316.88
375.783	325.25
376.163	315.3
376.544	300.16
376.925	317.34
377.305	309.65
377.686	327.96
378.066	322.99
378.447	345.81
378.827	337.67
379.208	312.14
379.588	324.57
379.968	346.71
380.349	348.75
380.729	340.84
381.109	331.8
381.489	332.25
381.87	345.36
382.25	325.92
382.63	344
383.01	365.92
383.39	353.49
383.77	336.54
384.15	326.15
384.53	350.56
384.91	331.57
385.29	349.88
385.67	357.11
386.049	366.15
386.429	357.11
386.809	370.44
387.189	352.59
387.568	357.34
387.948	393.49
388.328	365.92
388.707	367.73
389.087	347.84
389.466	362.31
389.846	362.98
390.225	366.83
390.605	351.91
390.984	370.44
391.363	386.94
391.743	387.62
392.122	383.32
392.501	390.33
392.881	395.98
393.26	372.25
393.639	393.27
394.018	375.64
394.397	379.26
394.776	377.67
395.155	387.39
395.534	419.25
395.913	418.58
396.292	402.98
396.671	417.67
397.05	404.79
397.429	418.35
397.808	411.57
398.186	428.07
398.565	407.96
398.944	396.2
399.323	396.88
399.701	405.92
400.08	419.71
400.458	428.52
400.837	453.38
401.215	435.3
401.594	438.01
401.972	431.23
402.351	438.24
402.729	428.52
403.107	453.83
403.486	437.33
403.864	457.9
404.242	443.43
404.62	472.81
404.999	454.28
405.377	452.02
405.755	472.59
406.133	481.4
406.511	482.76
406.889	474.39
407.267	485.24
407.645	499.25
408.023	487.73
408.401	503.32
408.779	517.78
409.156	520.04
409.534	510.33
409.912	516.88
410.29	513.26
410.667	553.26
411.045	507.84
411.422	562.08
411.8	581.06
412.178	567.5
412.555	564.34
412.933	579.02
413.31	616.31
413.687	592.36
414.065	610.21
414.442	593.26
414.819	628.51
415.197	626.25
415.574	622.41
415.951	631.9
416.328	623.77
416.705	639.36
417.082	654.28
417.46	640.04
417.837	667.61
418.214	647.05
418.591	701.73
418.967	713.48
419.344	694.05
419.721	716.65
420.098	711
420.475	722.52
420.852	732.01
421.228	742.64
421.605	743.77
421.982	755.06
422.358	773.6
422.735	795.74
423.111	775.86
423.488	776.08
423.864	794.61
424.241	819.47
424.617	808.62
424.994	844.78
425.37	857.44
425.746	860.37
426.123	862.86
426.499	873.93
426.875	899.47
427.251	929.3
427.627	920.48
428.003	914.16
428.379	925.68
428.756	939.01
429.132	951.22
429.507	959.81
429.883	958.45
430.259	1023.53
430.635	1015.17
431.011	1009.97
431.387	1011.33
431.763	1035.51
432.138	1044.1
432.514	1081.61
432.89	1059.24
433.265	1090.88
433.641	1103.98
434.016	1127.26
434.392	1117.09
434.767	1137.65
435.143	1161.16
435.518	1184.88
435.894	1197.09
436.269	1196.41
436.644	1232.79
437.02	1237.76
437.395	1242.74
437.77	1253.81
438.145	1285.22
438.52	1328.16
438.895	1323.41
439.271	1310.53
439.646	1330.87
440.021	1370.64
440.395	1382.17
440.77	1380.81
441.145	1386.23
441.52	1412.45
441.895	1388.49
442.27	1395.27
442.645	1428.49
443.019	1431.43
443.394	1426.23
443.769	1457.87
444.143	1464.88
444.518	1473.24
444.892	1489.96
445.267	1474.14
445.641	1488.38
446.016	1470.3
446.39	1499.45
446.764	1494.48
447.139	1521.6
447.513	1534.71
447.887	1544.2
448.262	1532.22
448.636	1542.16
449.01	1545.33
449.384	1601.82
449.758	1608.83
450.132	1585.78
450.506	1597.08
450.88	1631.2
451.254	1632.78
451.628	1666.45
452.002	1651.76
452.376	1695.61
452.75	1670.75
453.123	1680.69
453.497	1734.25
453.871	1703.06
454.244	1746
454.618	1757.07
454.992	1790.74
455.365	1753.68
455.739	1827.13
456.112	1817.64
456.486	1816.05
456.859	1848.14
457.232	1865.77
457.606	1878.65
457.979	1884.75
458.352	1947.58
458.725	1953.9
459.099	1963.85
459.472	1969.95
459.845	1983.28
460.218	1966.11
460.591	1997.97
460.964	2011.76
461.337	2064.41
461.71	2096.27
462.083	2114.35
462.456	2092.2
462.829	2122.49
463.201	2129.94
463.574	2161.58
463.947	2230.73
464.32	2230.96
464.692	2224.86
465.065	2247.68
465.438	2237.29
465.81	2281.58
466.183	2276.38
466.555	2353.21
466.928	2368.36
467.3	2366.77
467.672	2425.76
468.045	2448.58
468.417	2445.87
468.789	2437.28
469.161	2481.57
469.534	2491.29
469.906	2566.32
470.278	2563.38
470.65	2567.22
471.022	2651.96
471.394	2681.57
471.766	2727.67
472.138	2672.08
472.51	2741.23
472.882	2808.8
473.253	2826.65
473.625	2813.77
473.997	2869.59
474.369	2880.43
474.74	2943.71
475.112	2948
475.484	2979.64
475.855	3052.18
476.227	3075.23
476.598	3148.22
476.97	3158.39
477.341	3210.59
477.713	3270.93
478.084	3263.7
478.455	3297.37
478.827	3374.21
479.198	3435.45
479.569	3417.82
479.94	3509.79
480.311	3532.62
480.682	3596.57
481.053	3653.75
481.424	3695.1
481.795	3695.78
482.166	3788.43
482.537	3799.5
482.908	3897.81
483.279	3925.83
483.65	3947.98
484.021	4050.8
484.391	4068.65
484.762	4102.77
485.133	4072.49
485.503	4110.23
485.874	4209.66
486.244	4264.58
486.615	4314.75
486.985	4341.19
487.356	4416.44
487.726	4443.78
488.097	4502.31
488.467	4519.03
488.837	4623.21
489.207	4646.26
489.578	4671.12
489.948	4738.01
490.318	4814.62
490.688	4791.12
491.058	4842.64
491.428	4880.61
491.798	4932.36
492.168	4990.66
492.538	5027.04
492.908	5059.81
493.278	5116.53
493.648	5114.27
494.017	5206.7
494.387	5210.54
494.757	5208.96
495.126	5309.52
495.496	5294.61
495.866	5302.06
496.235	5348.16
496.605	5424.32
496.974	5423.87
497.344	5518.56
497.713	5498.22
498.082	5493.92
498.452	5563.75
498.821	5575.05
499.19	5557.88
499.559	5655.28
499.928	5695.27
500.298	5695.73
500.667	5767.36
501.036	5719
501.405	5799.23
501.774	5758.32
502.143	5817.98
502.512	5825.21
502.88	5895.49
503.249	5902.27
503.618	5923.74
503.987	5940.92
504.356	5976.85
504.724	5961.26
505.093	5976.4
505.462	6020.92
505.83	5996.73
506.199	6067.92
506.567	6101.36
506.936	6116.73
507.304	6177.07
507.672	6183.85
508.041	6239.67
508.409	6235.6
508.777	6252.32
509.145	6290.51
509.514	6356.27
509.882	6364.86
510.25	6379.32
510.618	6464.97
510.986	6384.52
511.354	6408.02
511.722	6458.42
512.09	6581.13
512.458	6570.51
512.826	6565.08
513.193	6599.66
513.561	6551.3
513.929	6634.91
514.297	6636.27
514.664	6666.77
515.032	6695.93
515.4	6789.48
515.767	6748.35
516.135	6785.64
516.502	6723.95
516.869	6855.02
517.237	6803.04
517.604	6836.71
517.972	6851.18
518.339	6910.61
518.706	6906.09
519.073	6878.97
519.44	6943.6
519.808	6982.92
520.175	6953.77
520.542	7058.4
520.909	7098.4
521.276	7027.89
521.643	7056.14
522.009	7181.79
522.376	7149.02
522.743	7163.71
523.11	7211.84
523.477	7282.8
523.843	7343.14
524.21	7388.79
524.577	7440.99
524.943	7443.25
525.31	7399.64
525.676	7515.79
526.043	7525.28
526.409	7632.62
526.776	7636.01
527.142	7620.2
527.508	7699.52
527.874	7688.22
528.241	7716.01
528.607	7781.32
528.973	7820.42
529.339	7861.77
529.705	7782.22
530.071	7929.34
530.437	7952.16
530.803	7984.25
531.169	7990.35
531.535	7934.09
531.901	7970.24
532.267	7996.23
532.632	8088.66
532.998	8076.23
533.364	8252.72
533.73	8134.53
534.095	8172.95
534.461	8182.44
534.826	8233.29
535.192	8242.78
535.557	8361.19
535.923	8307.18
536.288	8332.27
536.653	8399.16
537.019	8321.65
537.384	8392.6
537.749	8439.83
538.114	8463.79
538.479	8393.28
538.845	8427.63
539.21	8447.97
539.575	8407.29
539.94	8531.58
540.305	8524.8
540.67	8515.76
541.034	8554.41
541.399	8622.65
541.764	8572.03
542.129	8626.5
542.494	8685.48
542.858	8673.73
543.223	8624.01
543.587	8717.12
543.952	8697.23
544.316	8825.36
544.681	8726.83
545.045	8767.51
545.41	8779.03
545.774	8811.35
546.138	8824.23
546.503	8906.94
546.867	8826.72
547.231	8907.62
547.595	8908.52
547.959	8876.89
548.324	8956.88
548.688	8933.83
549.052	9041.17
549.416	8946.71
549.779	8978.35
550.143	9006.37
550.507	9064
550.871	9105.58
551.235	9102.64
551.599	9230.32
551.962	9231.68
552.326	9182.19
552.689	9226.03
553.053	9231.9
553.417	9212.47
553.78	9257.89
554.143	9221.06
554.507	9301.28
554.87	9287.72
555.234	9424.44
555.597	9380.6
555.96	9382.63
556.323	9448.17
556.686	9393.48
557.05	9529.3
557.413	9468.28
557.776	9496.76
558.139	9543.08
558.502	9505.8
558.865	9588.5
559.228	9613.14
559.59	9692.68
559.953	9667.37
560.316	9791.66
560.679	9693.36
561.041	9776.97
561.404	9837.76
561.767	9882.28
562.129	9799.35
562.492	9949.17
562.854	9942.62
563.217	9927.71
563.579	9917.08
563.941	9978.78
564.304	10020.58
564.666	10119.11
565.028	10111.43
565.39	10162.5
565.753	10150.75
566.115	10243.85
566.477	10291.54
566.839	10288.37
567.201	10407.69
567.563	10344.19
567.925	10463.51
568.287	10345.77
568.648	10413.79
569.01	10426
569.372	10581.7
569.734	10515.26
570.095	10574.69
570.457	10662.83
570.819	10634.81
571.18	10665.76
571.542	10723.62
571.903	10755.25
572.265	10786.21
572.626	10889.94
572.987	10859.88
573.349	10914.35
573.71	10923.39
574.071	10951.41
574.432	11003.61
574.794	11172.19
575.155	11061.01
575.516	11090.39
575.877	11169.48
576.238	11251.06
576.599	11261.46
576.96	11275.47
577.32	11298.52
577.681	11356.14
578.042	11418.29
578.403	11433.43
578.763	11446.54
579.124	11571.28
579.485	11640.88
579.845	11673.87
580.206	11678.85
580.566	11693.53
580.927	11734.44
581.287	11764.27
581.648	11839.07
582.008	12003.36
582.368	11947.31
582.728	12000.19
583.089	12019.63
583.449	12062.34
583.809	12241.32
584.169	12237.93
584.529	12253.75
584.889	12402.89
585.249	12371.03
585.609	12392.95
585.969	12494.87
586.329	12478.37
586.688	12642.66
587.048	12652.38
587.408	12629.55
587.768	12750.68
588.127	12827.52
588.487	12835.43
588.846	13011.92
589.206	13036.78
589.565	13038.58
589.925	13182.76
590.284	13177.79
590.643	13252.14
591.003	13286.71
591.362	13444.22
591.721	13455.97
592.08	13528.51
592.44	13646.25
592.799	13610.09
593.158	13772.35
593.517	13753.59
593.876	13842.86
594.235	13794.5
594.593	13967.15
594.952	14066.58
595.311	13987.49
595.67	14064.09
596.029	14188.16
596.387	14337.31
596.746	14406.68
597.104	14308.61
597.463	14437.19
597.822	14484.42
598.18	14483.52
598.538	14491.43
598.897	14713.12
599.255	14528.94
599.613	14809.38
599.972	14807.12
600.33	14982.04
600.688	14925.54
601.046	14876.5
601.404	15062.26
601.762	15090.96
602.12	15078.3
602.478	15187.45
602.836	15212.54
603.194	15153.33
603.552	15317.62
603.91	15220.22
604.268	15338.64
604.625	15303.38
604.983	15371.86
605.341	15356.71
605.698	15463.83
606.056	15627.44
606.413	15538.4
606.771	15613.43
607.128	15643.49
607.485	15523.72
607.843	15690.27
608.2	15845.97
608.557	15917.15
608.914	15759.19
609.272	15873.09
609.629	15848.91
609.986	16049.35
610.343	15887.77
610.7	16064.94
611.057	16049.13
611.414	16056.81
611.771	16126.41
612.127	16231.27
612.484	16253.19
612.841	16206.64
613.198	16190.59
613.554	16270.59
613.911	16385.61
614.267	16378.16
614.624	16327.54
614.98	16345.39
615.337	16496.35
615.693	16381.32
616.05	16419.29
616.406	16503.58
616.762	16504.03
617.118	16602.33
617.475	16614.99
617.831	16598.72
618.187	16511.71
618.543	16668.32
618.899	16711.48
619.255	16687.3
619.611	16665.61
619.967	16727.07
620.323	16717.81
620.678	16792.38
621.034	16717.58
621.39	16715.55
621.746	16740.63
622.101	16945.83
622.457	16779.5
622.812	16881.65
623.168	16870.12
623.523	16930.46
623.879	16939.72
624.234	16845.94
624.589	16888.2
624.945	16937.69
625.3	17006.16
625.655	17038.25
626.01	17024.24
626.365	16935.43
626.72	16999.84
627.075	16920.29
627.43	16927.75
627.785	16863.34
628.14	16908.09
628.495	16923.91
628.85	17002.77
629.205	16795.77
629.559	16961.42
629.914	16897.01
630.269	16844.81
630.623	16899.27
630.978	16834.87
631.332	16959.84
631.687	17008.87
632.041	16908.54
632.396	16921.19
632.75	16736.34
633.104	16926.62
633.459	16800.74
633.813	16794.19
634.167	16935.66
634.521	16763.68
634.875	16765.49
635.229	16819.73
635.583	16726.62
635.937	16756.45
636.291	16744.93
636.645	16686.17
636.999	16721.88
637.352	16705.38
637.706	16557.14
638.06	16633.74
638.413	16606.17
638.767	16650.47
639.121	16639.17
639.474	16493.18
639.828	16439.17
640.181	16523.01
640.534	16566.17
640.888	16409.79
641.241	16401.89
641.594	16308.1
641.947	16479.85
642.301	16412.96
642.654	16480.98
643.007	16452.51
643.36	16447.31
643.713	16438.27
644.066	16503.58
644.419	16351.72
644.771	16236.01
645.124	16131.61
645.477	16232.4
645.83	15949.69
646.182	16006.87
646.535	15904.27
646.888	15896.81
647.24	15913.54
647.593	15933.65
647.945	15809.13
648.298	15906.98
648.65	15756.25
649.002	15843.03
649.355	15895.46
649.707	15916.7
650.059	15978.39
650.411	16154.21
650.763	16133.87
651.115	16274.66
651.467	16233.75
651.819	16322.57
652.171	16131.61
652.523	16187.65
652.875	16284.15
653.227	16193.75
653.578	16273.53
653.93	16244.38
654.282	16116.92
654.633	16149.46
654.985	16202.57
655.337	16137.71
655.688	16213.64
656.039	16271.72
656.391	16137.94
656.742	16195.11
657.094	16294.32
657.445	16321.66
657.796	16217.03
658.147	16202.57
658.498	16204.83
658.849	16303.36
659.2	16260.65
659.551	16217.48
659.902	16287.09
660.253	16245.28
660.604	16247.09
660.955	16166.41
661.306	16213.19
661.656	16238.95
662.007	16225.39
662.358	16226.52
662.708	16200.76
663.059	16211.38
663.409	16238.05
663.76	16314.88
664.11	16300.64
664.461	16209.57
664.811	16312.62
665.161	16300.64
665.511	16277.59
665.862	16302.23
666.212	16324.15
666.562	16346.07
666.912	16326.41
667.262	16330.7
667.612	16306.29
667.962	16276.92
668.312	16316.46
668.662	16426.07
669.011	16234.88
669.361	16334.32
669.711	16311.94
670.06	16285.28
670.41	16201.66
670.76	16206.86
671.109	16212.06
671.459	16249.57
671.808	16273.53
672.157	16225.84
672.507	16110.14
672.856	16186.98
673.205	16170.48
673.554	16230.36
673.904	16086.19
674.253	16264.04
674.602	16129.8
674.951	15944.04
675.3	15839.87
675.649	16128.9
675.998	16056.13
676.346	16119.18
676.695	16019.75
677.044	16038.5
677.393	16024.04
677.741	16071.05
678.09	15935
678.438	15930.49
678.787	16024.27
679.135	15959.18
679.484	15803.03
679.832	15873.54
680.181	15889.81
680.529	15836.02
680.877	15786.76
681.225	15777.04
681.573	15778.4
681.922	15697.04
682.27	15626.76
682.618	15716.71
682.966	15640.32
683.314	15663.6
683.661	15674.9
684.009	15481.91
684.357	15507.45
684.705	15554.68
685.053	15550.83
685.4	15435.13
685.748	15387
686.095	15331.4
686.443	15288.24
686.79	15355.13
687.138	15230.62
687.485	15249.83
687.832	15232.2
688.18	15149.26
688.527	15170.51
688.874	15130.51
689.221	15123.27
689.568	14990.85
689.915	14918.99
690.262	14869.72
690.609	14845.77
690.956	14826.33
691.303	14862.04
691.65	14802.38
691.997	14747.69
692.344	14687.81
692.69	14591.76
693.037	14662.04
693.383	14461.37
693.73	14613.46
694.077	14470.41
694.423	14519
694.769	14386.8
695.116	14385.44
695.462	14340.24
695.808	14354.71
696.155	14302.05
696.501	14148.16
696.847	14214.82
697.193	13998.78
697.539	14122.4
697.885	14011.67
698.231	13954.27
698.577	13961.05
698.923	13922.63
699.269	13850.31
699.614	13746.81
699.96	13608.74
700.306	13624.78
700.651	13493.49
700.997	13579.59
701.342	13487.39
701.688	13475.63
702.033	13413.04
702.379	13437.44
702.724	13283.1
703.069	13360.61
703.415	13075.19
703.76	13177.56
704.105	13191.35
704.45	13203.33
704.795	13068.87
705.14	12977.12
705.485	12956.55
705.83	12923.11
706.175	12903.9
706.52	12940.06
706.865	12766.5
707.209	12697.35
707.554	12749.55
707.899	12794.07
708.243	12645.15
708.588	12601.31
708.932	12621.87
709.277	12614.87
709.621	12589.56
709.966	12544.81
710.31	12539.61
710.654	12416.23
710.998	12421.88
711.342	12395.21
711.687	12338.72
712.031	12252.39
712.375	12283.58
712.719	12348.43
713.063	12245.38
713.407	12318.83
713.75	12276.57
714.094	12258.27
714.438	12149.34
714.782	12060.53
715.125	12130.36
715.469	12104.37
715.812	12063.47
716.156	11955.22
716.499	11957.48
716.843	12002.68
717.186	11979.63
717.53	11997.03
717.873	11992.06
718.216	11887.2
718.559	11862.57
718.902	11790.48
719.246	11967.2
719.589	11815.57
719.932	11770.82
720.275	11745.74
720.617	11851.5
720.96	11747.77
721.303	11788.9
721.646	11777.37
721.989	11621.22
722.331	11687.21
722.674	11634.78
723.016	11658.51
723.359	11609.24
723.701	11682.91
724.044	11539.87
724.386	11578.96
724.729	11516.82
725.071	11551.39
725.413	11581.22
725.755	11521.11
726.097	11523.37
726.439	11470.72
726.782	11409.7
727.124	11585.97
727.465	11398.17
727.807	11474.33
728.149	11419.42
728.491	11447.67
728.833	11482.24
729.175	11364.96
729.516	11411.06
729.858	11448.57
730.199	11486.31
730.541	11430.72
730.882	11432.07
731.224	11436.59
731.565	11429.36
731.906	11391.62
732.248	11463.71
732.589	11352.98
732.93	11418.29
733.271	11344.84
733.612	11397.5
733.953	11404.05
734.294	11367.89
734.635	11344.39
734.976	11408.57
735.317	11352.3
735.658	11315.01
735.999	11338.97
736.339	11316.37
736.68	11361.57
737.021	11327.44
737.361	11304.17
737.702	11417.61
738.042	11378.29
738.383	11355.69
738.723	11486.99
739.063	11388.46
739.404	11445.63
739.744	11434.11
740.084	11404.28
740.424	11410.6
740.764	11391.17
741.104	11463.71
741.444	11441.56
741.784	11472.07
742.124	11436.14
742.464	11471.62
742.804	11463.26
743.143	11552.97
743.483	11552.52
743.823	11401.79
744.162	11498.29
744.502	11663.03
744.841	11498.29
745.181	11638.39
745.52	11700.99
745.86	11755
746.199	11701.9
746.538	11850.14
746.877	11891.95
747.216	11838.62
747.556	11953.41
747.895	12025.5
748.234	12017.59
748.573	12076.58
748.911	12062.11
749.25	12195.67
749.589	12201.09
749.928	12308.43
750.267	12411.93
750.605	12430.92
750.944	12432.05
751.283	12497.58
751.621	12616.9
751.96	12604.02
752.298	12730.12
752.636	12898.02
752.975	12991.13
753.313	13016.89
753.651	13269.76
753.989	13206.26
754.327	13420.95
754.666	13458.69
755.004	13548.17
755.342	13771.45
755.679	13787.94
756.017	13923.76
756.355	14161.72
756.693	14091.21
757.031	14410.07
757.368	14467.25
757.706	14571.42
758.044	14611.65
