Data from hue_22_FLMS001491_00043.txt Node
Date: Tue Feb 07 17:10:10 GMT 2017
User: dcchb
Spectrometer: FLMS00149
Trigger mode: 0
Integration Time (sec): 2.000000E-2
Scans to average: 10
Electric dark correction enabled: true
Nonlinearity correction enabled: false
Boxcar width: 0
XAxis mode: Wavelengths
Number of Pixels in Spectrum: 2048
>>>>>Begin Spectral Data<<<<<
341.393	-12.9
341.776	-12.9
342.16	-12.9
342.543	-65.78
342.927	-74.59
343.31	-59.22
343.693	-77.98
344.077	-47.47
344.46	-82.05
344.843	-40.92
345.226	-56.51
345.61	-34.59
345.993	-1.14
346.376	3.83
346.759	-1.82
347.142	23.04
347.525	37.05
347.908	80.89
348.291	68.68
348.674	74.56
349.057	113.66
349.44	121.11
349.823	127.21
350.206	172.86
350.588	202.47
350.971	190.49
351.354	244.73
351.737	256.93
352.119	241.11
352.502	274.1
352.884	282.01
353.267	265.52
353.65	286.31
354.032	302.58
354.414	317.04
354.797	306.42
355.179	306.42
355.562	308.68
355.944	328.56
356.326	332.86
356.709	319.75
357.091	342.35
357.473	362.46
357.855	349.13
358.238	346.19
358.62	357.72
359.002	330.6
359.384	331.95
359.766	315.68
360.148	333.54
360.53	353.2
360.912	360.88
361.294	341.67
361.676	331.95
362.057	346.42
362.439	331.73
362.821	325.63
363.203	315.46
363.584	337.6
363.966	315.91
364.348	330.15
364.729	339.41
365.111	319.07
365.493	296.93
365.874	325.4
366.256	323.37
366.637	333.99
367.019	315.46
367.4	309.36
367.781	305.51
368.163	307.55
368.544	315.46
368.925	305.74
369.306	322.92
369.688	324.27
370.069	315.68
370.45	309.36
370.831	320.2
371.212	302.58
371.593	321.33
371.974	312.07
372.355	322.69
372.736	323.59
373.117	332.41
373.498	334.67
373.879	319.07
374.26	313.88
374.641	315.46
375.021	311.16
375.402	317.49
375.783	323.37
376.163	319.3
376.544	324.5
376.925	316.36
377.305	320.88
377.686	310.71
378.066	341.22
378.447	330.6
378.827	317.49
379.208	350.49
379.588	331.95
379.968	338.96
380.349	350.49
380.729	346.19
381.109	325.63
381.489	319.3
381.87	337.15
382.25	345.97
382.63	340.99
383.01	332.63
383.39	325.85
383.77	338.73
384.15	346.64
384.53	324.72
384.91	363.37
385.29	327.21
385.67	389.13
386.049	356.59
386.429	362.24
386.809	352.97
387.189	355.46
387.568	360.2
387.948	331.05
388.328	340.77
388.707	354.55
389.087	356.13
389.466	348
389.846	370.82
390.225	367.66
390.605	359.07
390.984	369.47
391.363	355.91
391.743	380.54
392.122	381.22
392.501	367.21
392.881	372.41
393.26	368.34
393.639	369.92
394.018	373.76
394.397	381.22
394.776	354.78
395.155	392.97
395.534	360.2
395.913	371.5
396.292	385.96
396.671	394.55
397.05	395.91
397.429	389.58
397.808	379.86
398.186	391.61
398.565	404.04
398.944	399.07
399.323	394.33
399.701	403.82
400.08	376.02
400.458	380.77
400.837	392.97
401.215	400.2
401.594	384.16
401.972	413.76
402.351	412.4
402.729	411.27
403.107	382.35
403.486	398.62
403.864	404.04
404.242	399.75
404.62	402.69
404.999	394.33
405.377	402.91
405.755	389.81
406.133	403.59
406.511	420.77
406.889	432.74
407.267	424.38
407.645	447.21
408.023	420.77
408.401	425.96
408.779	412.86
409.156	458.5
409.534	451.95
409.912	434.78
410.29	451.27
410.667	452.63
411.045	435
411.422	458.73
411.8	443.82
412.178	444.49
412.555	467.77
412.933	460.76
413.31	459.18
413.687	470.71
414.065	472.74
414.442	455.12
414.819	483.59
415.197	500.09
415.574	482.01
415.951	473.65
416.328	493.53
416.705	474.1
417.082	485.17
417.46	493.98
417.837	511.61
418.214	514.32
418.591	489.69
418.967	490.37
419.344	493.08
419.721	502.12
420.098	481.78
420.475	495.11
420.852	527.66
421.228	534.21
421.605	526.53
421.982	509.35
422.358	525.62
422.735	520.88
423.111	527.88
423.488	527.43
423.864	537.37
424.241	538.05
424.617	548.67
424.994	553.64
425.37	530.59
425.746	544.38
426.123	550.71
426.499	542.34
426.875	554.55
427.251	577.37
427.627	590.48
428.003	600.2
428.379	596.81
428.756	588.44
429.132	590.7
429.507	613.98
429.883	605.17
430.259	635.9
430.635	586.41
431.011	597.48
431.387	612.63
431.763	639.74
432.138	616.47
432.514	642.68
432.89	637.48
433.265	649.69
433.641	644.04
434.016	658.05
434.392	677.48
434.767	660.08
435.143	672.51
435.518	684.49
435.894	676.13
436.269	674.54
436.644	670.93
437.02	690.59
437.395	675.45
437.77	703.92
438.145	703.02
438.52	694.88
438.895	703.02
439.271	712.96
439.646	743.02
440.021	735.56
440.395	733.75
440.77	747.54
441.145	735.56
441.52	740.76
441.895	754.99
442.27	766.07
442.645	753.41
443.019	769.68
443.394	782.56
443.769	768.33
444.143	757.03
444.518	766.97
444.892	764.94
445.267	787.99
445.641	780.76
446.016	802.45
446.39	786.41
446.764	783.47
447.139	799.74
447.513	821.43
447.887	794.54
448.262	829.57
448.636	806.97
449.01	840.87
449.384	819.17
449.758	813.98
450.132	824.37
450.506	844.71
450.88	847.2
451.254	863.69
451.628	856.91
452.002	865.73
452.376	879.28
452.75	876.8
453.123	889.45
453.497	895.33
453.871	889
454.244	912.73
454.618	921.09
454.992	942.56
455.365	908.66
455.739	952.28
456.112	953.63
456.486	959.73
456.859	947.98
457.232	960.86
457.606	973.29
457.979	992.05
458.352	988.89
458.725	1024.14
459.099	1020.07
459.472	1046.51
459.845	1050.58
460.218	1069.56
460.591	1047.19
460.964	1065.95
461.337	1078.38
461.71	1117.7
462.083	1118.37
462.456	1097.81
462.829	1127.87
463.201	1138.94
463.574	1145.94
463.947	1164.02
464.32	1203.12
464.692	1196.11
465.065	1195.43
465.438	1214.64
465.81	1212.38
466.183	1226.62
466.555	1263.91
466.928	1251.48
467.3	1260.74
467.672	1295.32
468.045	1283.12
468.417	1298.48
468.789	1343.68
469.161	1369.67
469.534	1372.15
469.906	1396.33
470.278	1412.6
470.65	1437.46
471.022	1450.8
471.394	1473.39
471.766	1478.82
472.138	1463.68
472.51	1512.04
472.882	1556.33
473.253	1568.76
473.625	1556.56
473.997	1613.73
474.369	1661.19
474.74	1659.38
475.112	1660.06
475.484	1717
475.855	1748.64
476.227	1748.41
476.598	1852.14
476.97	1805.81
477.341	1867.51
477.713	1863.21
478.084	1907.28
478.455	1933.72
478.827	1977.79
479.198	2037.45
479.569	2054.17
479.94	2079.03
480.311	2161.28
480.682	2181.17
481.053	2222.3
481.424	2266.59
481.795	2301.85
482.166	2363.54
482.537	2335.29
482.908	2407.15
483.279	2432.46
483.65	2512.46
484.021	2599.24
484.391	2583.42
484.762	2621.61
485.133	2636.75
485.503	2709.52
485.874	2747.94
486.244	2763.76
486.615	2848.72
486.985	2886.69
487.356	2952.45
487.726	2969.85
488.097	3027.93
488.467	3045.1
488.837	3084.88
489.207	3163.07
489.578	3210.07
489.948	3240.35
490.318	3310.63
490.688	3293.23
491.058	3358.32
491.428	3406
491.798	3458.2
492.168	3509.27
492.538	3553.56
492.908	3556.5
493.278	3669.27
493.648	3654.35
494.017	3685.76
494.387	3755.14
494.757	3789.94
495.126	3832.43
495.496	3859.32
495.866	3877.62
496.235	3896.83
496.605	3990.62
496.974	3989.03
497.344	4054.34
497.713	4076.04
498.082	4128.46
498.452	4135.47
498.821	4189.03
499.19	4197.16
499.559	4188.12
499.928	4229.25
500.298	4272.19
500.667	4335.69
501.036	4258.4
501.405	4391.51
501.774	4368.46
502.143	4385.18
502.512	4429.47
502.88	4479.19
503.249	4529.13
503.618	4524.16
503.987	4495.91
504.356	4544.5
504.724	4586.98
505.093	4631.73
505.462	4605.97
505.83	4637.38
506.199	4709.47
506.567	4728
506.936	4719.64
507.304	4774.32
507.672	4780.43
508.041	4820.42
508.409	4840.76
508.777	4866.75
509.145	4899.29
509.514	4885.96
509.882	4958.95
510.25	4888.9
510.618	4937.48
510.986	5006.63
511.354	4992.85
511.722	5071.49
512.09	5137.7
512.458	5112.39
512.826	5178.38
513.193	5167.31
513.561	5164.37
513.929	5144.26
514.297	5195.56
514.664	5266.97
515.032	5252.05
515.4	5333.63
515.767	5304.48
516.135	5360.07
516.502	5303.58
516.869	5391.71
517.237	5416.34
517.604	5424.25
517.972	5456.79
518.339	5472.61
518.706	5460.41
519.073	5497.24
519.44	5535.89
519.808	5550.57
520.175	5518.26
520.542	5650.91
520.909	5656.33
521.276	5668.99
521.643	5682.77
522.009	5761.19
522.376	5767.07
522.743	5792.15
523.11	5818.14
523.477	5882.32
523.843	5881.64
524.21	5925.03
524.577	5977.23
524.943	6022.65
525.31	6026.95
525.676	6102.65
526.043	6104.01
526.409	6138.13
526.776	6164.57
527.142	6156.66
527.508	6231.91
527.874	6275.08
528.241	6255.64
528.607	6271.01
528.973	6354.4
529.339	6294.51
529.705	6386.71
530.071	6430.33
530.437	6465.58
530.803	6495.86
531.169	6499.02
531.535	6448.86
531.901	6548.29
532.267	6621.73
532.632	6629.19
532.998	6638.68
533.364	6679.13
533.73	6718.45
534.095	6801.39
534.461	6792.35
534.826	6869.18
535.192	6855.85
535.557	6916.41
535.923	6896.98
536.288	6907.6
536.653	6970.65
537.019	6964.77
537.384	6964.55
537.749	7038.22
538.114	6996.19
538.479	7024.43
538.845	7030.31
539.21	7068.05
539.575	7120.02
539.94	7112.34
540.305	7192.57
540.67	7220.81
541.034	7252
541.399	7290.87
541.764	7327.25
542.129	7414.25
542.494	7371.09
542.858	7373.35
543.223	7354.37
543.587	7426.68
543.952	7451.99
544.316	7473.69
544.681	7536.74
545.045	7563.85
545.41	7591.88
545.774	7615.6
546.138	7561.37
546.503	7733.12
546.867	7625.55
547.231	7736.05
547.595	7735.38
547.959	7764.75
548.324	7769.73
548.688	7810.63
549.052	7786.22
549.416	7854.24
549.779	7936.95
550.143	7919.55
550.507	7999.32
550.871	8000.91
551.235	7997.52
551.599	8078.19
551.962	8088.13
552.326	8111.64
552.689	8146.21
553.053	8140.34
553.417	8186.44
553.78	8229.37
554.143	8241.13
554.507	8214.01
554.87	8271.63
555.234	8374.91
555.597	8292.42
555.96	8304.63
556.323	8393.89
556.686	8351.86
557.05	8486.09
557.413	8473.66
557.776	8435.47
558.139	8534.68
558.502	8501.68
558.865	8518.63
559.228	8663.71
559.59	8647.89
559.953	8660.32
560.316	8794.33
560.679	8675.92
561.041	8778.51
561.404	8774.9
561.767	8779.19
562.129	8819.87
562.492	8922.46
562.854	8915.91
563.217	8985.74
563.579	8996.81
563.941	8997.04
564.304	9076.13
564.666	9160.87
565.028	9138.73
565.39	9135.56
565.753	9147.99
566.115	9222.34
566.477	9200.42
566.839	9354.99
567.201	9333.07
567.563	9287.88
567.925	9399.51
568.287	9399.29
568.648	9482
569.01	9462.34
569.372	9556.57
569.734	9547.31
570.095	9645.38
570.457	9656.68
570.819	9689.22
571.18	9677.25
571.542	9801.76
571.903	9829.33
572.265	9840.41
572.626	9858.94
572.987	9870.91
573.349	9945.49
573.71	10017.35
574.071	10082.66
574.432	10087.4
574.794	10201.07
575.155	10212.82
575.516	10238.36
575.877	10316.55
576.238	10415.08
576.599	10481.52
576.96	10541.4
577.32	10633.15
577.681	10657.33
578.042	10743.43
578.403	10839.02
578.763	10918.79
579.124	10964.22
579.485	11191.78
579.845	11196.75
580.206	11218.45
580.566	11447.82
580.927	11465.22
581.287	11670.64
581.648	11745.67
582.008	11915.15
582.368	12054.13
582.728	12152.43
583.089	12361.92
583.449	12412.99
583.809	12596.72
584.169	12822.7
584.529	12872.64
584.889	13249.81
585.249	13254.33
585.609	13442.57
585.969	13725.95
586.329	13866.74
586.688	13952.61
587.048	14303.34
587.408	14466.95
587.768	14664.23
588.127	14902.64
588.487	15168.85
588.846	15469.64
589.206	15647.03
589.565	15933.35
589.925	16121.6
590.284	16323.62
590.643	16674.58
591.003	16898.07
591.362	17343.03
591.721	17434.33
592.08	17783.47
592.44	18043.58
592.799	18447.64
593.158	18726.95
593.517	19034.74
593.876	19236.09
594.235	19486.25
594.593	19916.75
594.952	20251.66
595.311	20503.18
595.67	20702.27
596.029	21131.41
596.387	21623.15
596.746	21935.91
597.104	22074.21
597.463	22309.91
597.822	22736.11
598.18	22911.25
598.538	23241.18
598.897	23694.96
599.255	23849.75
599.613	24514.82
599.972	24568.15
600.33	25041.81
600.688	25170.17
601.046	25505.3
601.404	25945.74
601.762	26186.87
602.12	26543.24
602.478	26884.7
602.836	27050.35
603.194	27280.4
603.552	27633.38
603.91	27848.29
604.268	28283.31
604.625	28433.14
604.983	28739.34
605.341	28946.57
605.698	29311.76
606.056	29573.67
606.413	29841.91
606.771	30215.69
607.128	30410.94
607.485	30545.85
607.843	30845.5
608.2	31181.54
608.557	31579.95
608.914	31628.08
609.272	31998.47
609.629	32290.21
609.986	32543.31
610.343	32577.66
610.7	33115.05
611.057	33299.68
611.414	33371.76
611.771	33589.61
612.127	33942.37
612.484	34030.28
612.841	34420.78
613.198	34526.99
613.554	34628.91
613.911	35034.77
614.267	35123.81
614.624	35320.41
614.98	35428.66
615.337	35771.7
615.693	35969.66
616.05	36179.6
616.406	36511.79
616.762	36319.48
617.118	36545.92
617.475	36715.4
617.831	37013.48
618.187	37202.17
618.543	37316.29
618.899	37518.55
619.255	37608.26
619.611	37872.21
619.967	37996.05
620.323	38119.89
620.678	38101.81
621.034	38237.17
621.39	38533.66
621.746	38426.55
622.101	38975.68
622.457	38862.92
622.812	38873.09
623.168	39147.88
623.523	39144.27
623.879	39421.77
624.234	39298.39
624.589	39507.87
624.945	39589
625.3	39661.77
625.655	39775.66
626.01	39776.79
626.365	39907.19
626.72	39826.74
627.075	39880.52
627.43	40156.9
627.785	40185.6
628.14	40271.7
628.495	40402.31
628.85	40315.76
629.205	40371.35
629.559	40569.31
629.914	40293.39
630.269	40591.01
630.623	40556.43
630.978	40351.69
631.332	40808.4
631.687	40778.8
632.041	40651.35
632.396	40878.01
632.75	40648.63
633.104	40804.11
633.459	40713.49
633.813	40745.58
634.167	40762.98
634.521	40812.7
634.875	40861.28
635.229	40764.56
635.583	40687.5
635.937	40762.3
636.291	40685.24
636.645	40855.18
636.999	40792.13
637.352	40890.66
637.706	40709.88
638.06	40868.74
638.413	40776.31
638.767	40702.87
639.121	40821.74
639.474	40543.33
639.828	40682.08
640.181	40798.24
640.534	40863.77
640.888	40729.08
641.241	40640.95
641.594	40657
641.947	40857.89
642.301	40705.81
642.654	40726.82
643.007	40726.15
643.36	40807.73
643.713	40678.01
644.066	40826.03
644.419	40555.53
644.771	40375.65
645.124	40014.3
645.477	40020.18
645.83	39730.92
646.182	39760.97
646.535	39611.15
646.888	39550.36
647.24	39398.27
647.593	39644.37
647.945	39567.08
648.298	39419.74
648.65	39417.03
649.002	39361.44
649.355	39530.7
649.707	39386.29
650.059	39617.02
650.411	40118.71
650.763	40093.39
651.115	40526.83
651.467	40238.7
651.819	40457.91
652.171	40287.06
652.523	40108.99
652.875	40314.18
653.227	40195.54
653.578	40323.9
653.93	40204.58
654.282	40197.57
654.633	40161.64
654.985	40174.3
655.337	40109.67
655.688	40033.06
656.039	40258.81
656.391	40024.02
656.742	39972.49
657.094	40083
657.445	40195.31
657.796	40098.82
658.147	39961.65
658.498	40077.12
658.849	40018.59
659.2	39933.85
659.551	39852.05
659.902	40039.16
660.253	39936.79
660.604	40049.78
660.955	39818.6
661.306	40038.71
661.656	39970.46
662.007	40148.53
662.358	40019.05
662.708	39847.3
663.059	39923
663.409	39770.24
663.76	40080.51
664.11	39978.6
664.461	39969.33
664.811	39977.92
665.161	39906.51
665.511	39810.92
665.862	39905.38
666.212	39950.57
666.562	39965.49
666.912	39803.23
667.262	39842.33
667.612	39896.79
667.962	39924.36
668.312	39873.74
668.662	39978.37
669.011	39818.6
669.361	39791.03
669.711	39737.92
670.06	39783.35
670.41	39735.44
670.76	39659.28
671.109	39759.84
671.459	39778.6
671.808	39770.92
672.157	39920.74
672.507	39625.38
672.856	39579.51
673.205	39627.87
673.554	39750.35
673.904	39709.68
674.253	39811.59
674.602	39699.51
674.951	39110.82
675.3	39000.77
675.649	39614.54
675.998	39457.48
676.346	39508.55
676.695	39579.74
677.044	39304.94
677.393	39461.77
677.741	39497.03
678.09	39337.03
678.438	39229.91
678.787	39376.35
679.135	39335.45
679.484	39092.52
679.832	39307.65
680.181	39066.3
680.529	39150.14
680.877	39059.07
681.225	39091.39
681.573	39223.14
681.922	39087.77
682.27	38890.71
682.618	38871.05
682.966	38728.69
683.314	38761.23
683.661	38705.18
684.009	38450.5
684.357	38524.85
684.705	38598.29
685.053	38511.52
685.4	38476.04
685.748	38324.63
686.095	38196.72
686.443	38294.35
686.79	38158.08
687.138	38201.69
687.485	38107.23
687.832	37975.03
688.18	38017.97
688.527	37737.52
688.874	37831.76
689.221	37779.33
689.568	37576.4
689.915	37552.22
690.262	37612.33
690.609	37477.42
690.956	37351.32
691.303	37309.06
691.65	37108.61
691.997	37200.14
692.344	37063.87
692.69	36772.13
693.037	36977.77
693.383	36657.55
693.73	36758.79
694.077	36560.61
694.423	36606.03
694.769	36438.58
695.116	36433.15
695.462	36290.78
695.808	36112.48
696.155	36306.15
696.501	35956.33
696.847	35925.14
697.193	35768.54
697.539	35812.38
697.885	35707.97
698.231	35491.71
698.577	35650.12
698.923	35487.19
699.269	35384.14
699.614	35104.15
699.96	35038.61
700.306	35079.74
700.651	34993.64
700.997	34777.6
701.342	34762.91
701.688	34691.73
702.033	34591.39
702.379	34566.31
702.724	34536.25
703.069	34575.8
703.415	34223.27
703.76	34300.78
704.105	34258.29
704.45	34049.26
704.795	33982.37
705.14	33895.59
705.485	33963.84
705.83	33754.13
706.175	33781.02
706.52	33713.9
706.865	33470.07
707.209	33497.18
707.554	33376.28
707.899	33483.4
708.243	33260.13
708.588	33208.6
708.932	32971.55
709.277	32953.47
709.621	32988.27
709.966	32765.45
710.31	32981.04
710.654	32645
710.998	32696.3
711.342	32567.04
711.687	32629.18
712.031	32385.35
712.375	32287.5
712.719	32417.21
713.063	32329.31
713.407	32389.42
713.75	32155.98
714.094	32141.74
714.438	32031.23
714.782	32104.68
715.125	31958.24
715.469	31980.61
715.812	31789.88
716.156	31610.23
716.499	31704.46
716.843	31756.44
717.186	31365.94
717.53	31684.8
717.873	31608.42
718.216	31486.16
718.559	31252.27
718.902	31196.23
719.246	31233.74
719.589	31137.47
719.932	31084.82
720.275	31143.35
720.617	31064.25
720.96	30999.85
721.303	30920.98
721.646	31032.16
721.989	30721.44
722.331	30763.02
722.674	30680.08
723.016	30776.8
723.359	30704.26
723.701	30744.71
724.044	30545.85
724.386	30324.84
724.729	30492.29
725.071	30403.71
725.413	30451.61
725.755	30307.21
726.097	30216.82
726.439	30145.41
726.782	30077.39
727.124	30256.59
727.465	30048.91
727.807	30012.08
728.149	29868.81
728.491	29845.3
728.833	29918.07
729.175	29814.12
729.516	29792.87
729.858	29823.83
730.199	29721.01
730.541	29638.08
730.882	29628.36
731.224	29767.11
731.565	29391.98
731.906	29568.47
732.248	29535.03
732.589	29394.02
732.93	29323.06
733.271	29303.17
733.612	29360.12
733.953	29317.18
734.294	29180.69
734.635	29081.93
734.976	29059.56
735.317	29043.74
735.658	29093.23
735.999	29048.71
736.339	28932.33
736.68	29090.52
737.021	28952.67
737.361	28796.97
737.702	28872.22
738.042	28824.99
738.383	28860.7
738.723	28785.9
739.063	28725.11
739.404	28674.49
739.744	28656.86
740.084	28622.06
740.424	28654.83
740.764	28485.79
741.104	28464.1
741.444	28326.7
741.784	28329.86
742.124	28347.26
742.464	28377.32
742.804	28193.37
743.143	28302.29
743.483	28297.32
743.823	28062.52
744.162	28181.62
744.502	28041.28
744.841	27932.36
745.181	27999.93
745.52	28042.64
745.86	27971
746.199	27908.63
746.538	27847.16
746.877	27913.15
747.216	27928.29
747.556	27833.6
747.895	27848.29
748.234	27722.19
748.573	27684.23
748.911	27698.01
749.25	27655.53
749.589	27504.35
749.928	27633.84
750.267	27680.39
750.605	27498.47
750.944	27462.99
751.283	27386.38
751.621	27309.78
751.96	27331.24
752.298	27285.37
752.636	27237.01
752.975	27182.77
753.313	27079.5
753.651	27190.91
753.989	26944.36
754.327	26905.72
754.666	26806.06
755.004	26878.15
755.342	26914.98
755.679	26811.71
756.017	26725.61
756.355	26770.36
756.693	26472.06
757.031	26658.04
757.368	26556.8
757.706	26479.06
758.044	26422.12
758.381	26468.22
758.719	26238.39
759.056	26313.42
759.394	26277.71
759.731	26091.05
760.068	26013.09
760.405	26058.51
