Data from hue_180_FLMS001491_00061.txt Node
Date: Tue Feb 07 16:47:18 GMT 2017
User: dcchb
Spectrometer: FLMS00149
Trigger mode: 0
Integration Time (sec): 2.000000E-2
Scans to average: 10
Electric dark correction enabled: true
Nonlinearity correction enabled: false
Boxcar width: 0
XAxis mode: Wavelengths
Number of Pixels in Spectrum: 2048
>>>>>Begin Spectral Data<<<<<
341.393	-10.9
341.776	-10.9
342.16	-10.9
342.543	-76.21
342.927	-72.82
343.31	-61.75
343.693	-58.59
344.077	-80.28
344.46	-61.52
344.843	-47.51
345.226	-49.32
345.61	-33.05
345.993	-26.04
346.376	-4.35
346.759	22.54
347.142	37.91
347.525	32.71
347.908	59.38
348.291	66.61
348.674	85.36
349.057	117.91
349.44	122.2
349.823	128.08
350.206	167.17
350.588	202.2
350.971	204.46
351.354	204.46
351.737	213.72
352.119	218.69
352.502	253.27
352.884	262.76
353.267	272.25
353.65	278.58
354.032	271.57
354.414	301.18
354.797	284.46
355.179	289.65
355.562	328.3
355.944	303.66
356.326	321.97
356.709	320.16
357.091	324.68
357.473	307.51
357.855	346.15
358.238	343.21
358.62	344.34
359.002	319.03
359.384	343.89
359.766	312.03
360.148	324.68
360.53	350.44
360.912	324.91
361.294	328.3
361.676	310.22
362.057	312.7
362.439	325.58
362.821	315.87
363.203	311.35
363.584	305.47
363.966	310.9
364.348	300.27
364.729	296.21
365.111	307.28
365.493	308.41
365.874	300.5
366.256	289.43
366.637	306.83
367.019	314.74
367.4	281.97
367.781	307.96
368.163	318.35
368.544	301.18
368.925	285.81
369.306	310.67
369.688	298.24
370.069	307.73
370.45	287.85
370.831	291.91
371.212	294.4
371.593	302.76
371.974	294.4
372.355	303.66
372.736	320.61
373.117	295.3
373.498	305.02
373.879	302.76
374.26	289.88
374.641	303.89
375.021	293.5
375.402	306.6
375.783	294.4
376.163	303.44
376.544	312.25
376.925	326.49
377.305	313.16
377.686	296.88
378.066	307.05
378.447	324.68
378.827	316.09
379.208	305.47
379.588	320.61
379.968	314.51
380.349	327.39
380.729	336.88
381.109	335.98
381.489	319.03
381.87	334.4
382.25	342.76
382.63	325.36
383.01	336.43
383.39	307.05
383.77	337.56
384.15	328.07
384.53	344.34
384.91	340.95
385.29	328.97
385.67	336.88
386.049	337.56
386.429	336.21
386.809	312.93
387.189	359.03
387.568	334.17
387.948	324
388.328	359.03
388.707	343.66
389.087	337.11
389.466	348.63
389.846	354.51
390.225	333.27
390.605	351.12
390.984	366.04
391.363	353.15
391.743	359.26
392.122	367.39
392.501	362.19
392.881	373.04
393.26	360.39
393.639	377.79
394.018	386.15
394.397	371.69
394.776	374.62
395.155	372.82
395.534	367.62
395.913	377.56
396.292	372.14
396.671	391.8
397.05	369.2
397.429	371.01
397.808	352.93
398.186	391.8
398.565	391.12
398.944	408.75
399.323	404.23
399.701	386.37
400.08	406.26
400.458	401.74
400.837	400.84
401.215	399.71
401.594	390.67
401.972	399.26
402.351	392.25
402.729	396.32
403.107	430.67
403.486	435.86
403.864	421.18
404.242	431.8
404.62	432.25
404.999	434.06
405.377	420.05
405.755	444.45
406.133	438.35
406.511	419.37
406.889	431.8
407.267	458.01
407.645	449.42
408.023	478.8
408.401	468.86
408.779	489.2
409.156	470.89
409.534	486.48
409.912	502.76
410.29	510.44
410.667	499.14
411.045	506.37
411.422	530.78
411.8	520.83
412.178	521.51
412.555	547.95
412.933	546.82
413.31	551.12
413.687	545.92
414.065	559.48
414.442	530.78
414.819	589.08
415.197	598.8
415.574	571.91
415.951	589.08
416.328	609.19
416.705	598.8
417.082	594.28
417.46	608.52
417.837	604.67
418.214	620.94
418.591	627.5
418.967	638.12
419.344	632.7
419.721	658.91
420.098	678.8
420.475	714.73
420.852	693.71
421.228	683.99
421.605	728.74
421.982	706.59
422.358	736.2
422.735	761.96
423.111	773.48
423.488	751.56
423.864	781.39
424.241	783.2
424.617	778.68
424.994	786.59
425.37	795.18
425.746	828.62
426.123	836.08
426.499	843.31
426.875	855.51
427.251	864.1
427.627	888.96
428.003	893.71
428.379	879.02
428.756	887.83
429.132	931.44
429.507	946.59
429.883	945
430.259	921.28
430.635	946.13
431.011	966.92
431.387	1018.67
431.763	1010.54
432.138	990.65
432.514	1033.81
432.89	1026.36
433.265	1070.42
433.641	1051.44
434.016	1082.17
434.392	1122.4
434.767	1134.15
435.143	1151.33
435.518	1176.41
435.894	1183.64
436.269	1188.84
436.644	1232
437.02	1214.15
437.395	1221.38
437.77	1259.35
438.145	1273.81
438.52	1299.12
438.895	1312
439.271	1329.85
439.646	1378.21
440.021	1354.71
440.395	1385.44
440.77	1383.64
441.145	1421.83
441.52	1446.91
441.895	1444.88
442.27	1443.3
442.645	1467.02
443.019	1496.85
443.394	1462.05
443.769	1512.45
444.143	1502.95
444.518	1525.78
444.892	1535.72
445.267	1568.04
445.641	1578.21
446.016	1581.14
446.39	1573.24
446.764	1594.03
447.139	1622.73
447.513	1632.44
447.887	1651.88
448.262	1643.06
448.636	1673.12
449.01	1674.48
449.384	1691.42
449.758	1726.9
450.132	1743.4
450.506	1767.81
450.88	1770.07
451.254	1781.59
451.628	1796.73
452.002	1831.08
452.376	1818.43
452.75	1857.07
453.123	1872.21
453.497	1895.03
453.871	1907.24
454.244	1945.43
454.618	1940.46
454.992	1968.71
455.365	1970.51
455.739	2048.7
456.112	2056.39
456.486	2058.65
456.859	2081.7
457.232	2126.89
457.606	2168.47
457.979	2160.34
458.352	2230.17
458.725	2197.4
459.099	2233.78
459.472	2277.17
459.845	2280.11
460.218	2326.66
460.591	2370.28
460.964	2375.25
461.337	2417.96
461.71	2446.21
462.083	2500.67
462.456	2516.94
462.829	2527.11
463.201	2573.89
463.574	2582.7
463.947	2602.13
464.32	2678.29
464.692	2723.49
465.065	2738.85
465.438	2761
465.81	2810.72
466.183	2841
466.555	2931.17
466.928	2894.33
467.3	2895.46
467.672	3000.54
468.045	3065.17
468.417	3049.13
468.789	3122.12
469.161	3151.27
469.534	3210.25
469.906	3268.11
470.278	3313.53
470.65	3344.49
471.022	3387.43
471.394	3476.91
471.766	3517.37
472.138	3550.58
472.51	3672.62
472.882	3705.83
473.253	3745.61
473.625	3824.48
473.997	3896.34
474.369	3910.8
474.74	3953.06
475.112	4007.97
475.484	4154.18
475.855	4220.17
476.227	4277.35
476.598	4355.08
476.97	4492.48
477.341	4552.37
477.713	4609.31
478.084	4654.28
478.455	4798.46
478.827	4837.33
479.198	4993.26
479.569	4993.03
479.94	5163.88
480.311	5234.61
480.682	5333.59
481.053	5463.75
481.424	5566.12
481.795	5622.85
482.166	5725.22
482.537	5779
482.908	5901.94
483.279	6042.72
483.65	6206.56
484.021	6289.04
484.391	6347.8
484.762	6371.53
485.133	6509.38
485.503	6621.01
485.874	6756.6
486.244	6804.28
486.615	6982.13
486.985	7072.07
487.356	7203.37
487.726	7259.64
488.097	7444.95
488.467	7467.77
488.837	7678.61
489.207	7777.14
489.578	7887.87
489.948	7932.84
490.318	8036.57
490.688	8116.79
491.058	8339.84
491.428	8322.21
491.798	8464.81
492.168	8611.92
492.538	8663.67
492.908	8805.59
493.278	8865.47
493.648	8897.56
494.017	9075.41
494.387	9121.74
494.757	9263.88
495.126	9302.3
495.496	9378.68
495.866	9370.54
496.235	9512.01
496.605	9587.94
496.974	9618.22
497.344	9729.86
497.713	9754.49
498.082	9919.91
498.452	9907.03
498.821	9998.55
499.19	10008.95
499.559	10175.5
499.928	10147.02
500.298	10235.15
500.667	10336.62
501.036	10321.93
501.405	10337.3
501.774	10362.83
502.143	10432.66
502.512	10468.37
502.88	10578.42
503.249	10573.22
503.618	10646.67
503.987	10664.97
504.356	10678.08
504.724	10779.77
505.093	10772.54
505.462	10813.22
505.83	10823.84
506.199	10884.4
506.567	11038.75
506.936	10960.56
507.304	11020.22
507.672	11163.04
508.041	11121.23
508.409	11190.84
508.777	11222.93
509.145	11285.07
509.514	11284.17
509.882	11356.03
510.25	11252.98
510.618	11411.17
510.986	11340.66
511.354	11428.34
511.722	11469.25
512.09	11521.22
512.458	11511.96
512.826	11584.95
513.193	11614.55
513.561	11586.08
513.929	11602.58
514.297	11696.59
514.664	11746.53
515.032	11666.3
515.4	11811.38
515.767	11795.34
516.135	11842.57
516.502	11735
516.869	11822.23
517.237	11906.75
517.604	11687.09
517.972	11881.89
518.339	11875.34
518.706	11898.39
519.073	11829.24
519.44	11947.2
519.808	12042.34
520.175	11930.7
520.542	12030.81
520.909	12051.15
521.276	11984.49
521.643	12047.08
522.009	12019.51
522.376	12050.93
522.743	12080.98
523.11	12135.67
523.477	12229.68
523.843	12187.19
524.21	12256.34
524.577	12276.23
524.943	12337.47
525.31	12246.4
525.676	12302.9
526.043	12304.7
526.409	12248.44
526.776	12306.29
527.142	12299.06
527.508	12333.18
527.874	12291.82
528.241	12357.36
528.607	12376.57
528.973	12346.96
529.339	12319.17
529.705	12341.31
530.071	12420.86
530.437	12323.24
530.803	12412.27
531.169	12327.3
531.535	12260.19
531.901	12315.1
532.267	12253.18
532.632	12293.41
532.998	12241.66
533.364	12182.67
533.73	12211.6
534.095	12220.87
534.461	12056.35
534.826	12091.6
535.192	12081.21
535.557	12100.19
535.923	11996.46
536.288	12010.93
536.653	12020.42
537.019	11884.83
537.384	11876.02
537.749	11855.9
538.114	11880.99
538.479	11749.24
538.845	11772.74
539.21	11741.1
539.575	11651.84
539.94	11630.37
540.305	11656.13
540.67	11600.77
541.034	11625.17
541.399	11504.27
541.764	11529.13
542.129	11450.94
542.494	11435.8
542.858	11418.63
543.223	11329.36
543.587	11299.08
543.952	11291.17
544.316	11307.44
544.681	11123.94
545.045	11259.31
545.41	11137.96
545.774	11120.1
546.138	11019.99
546.503	10978.86
546.867	10908.58
547.231	11006.43
547.595	10860.9
547.959	10838.53
548.324	10792.88
548.688	10677.18
549.052	10718.53
549.416	10659.1
549.779	10630.85
550.143	10591.08
550.507	10620.91
550.871	10568.48
551.235	10483.74
551.599	10510.18
551.962	10462.95
552.326	10447.8
552.689	10463.17
553.053	10374.13
553.417	10315.15
553.78	10397.64
554.143	10312.67
554.507	10293.91
554.87	10207.13
555.234	10285.32
555.597	10154.25
555.96	10050.75
556.323	10084.42
556.686	10055.05
557.05	10103.86
557.413	10076.97
557.776	10074.48
558.139	10077.42
558.502	10018.89
558.865	9985.67
559.228	10037.42
559.59	9983.86
559.953	9930.3
560.316	10003.97
560.679	9943.64
561.041	9986.8
561.404	9939.8
561.767	9983.41
562.129	9902.96
562.492	9923.75
562.854	9864.77
563.217	9850.76
563.579	9888.95
563.941	9923.75
564.304	9821.38
564.666	9931.21
565.028	9956.97
565.39	9867.93
565.753	9897.08
566.115	9949.74
566.477	9885.11
566.839	9901.38
567.201	10002.62
567.563	9997.65
567.925	9942.96
568.287	9961.72
568.648	9962.17
569.01	9918.33
569.372	9946.8
569.734	9906.58
570.095	9940.7
570.457	9859.8
570.819	9982.28
571.18	9968.72
571.542	10034.93
571.903	9865.22
572.265	9926.91
572.626	9958.78
572.987	9979.57
573.349	10001.49
573.71	9992.22
574.071	9959.46
574.432	9993.81
574.794	9997.65
575.155	10003.3
575.516	9957.65
575.877	9959
576.238	9950.64
576.599	10055.5
576.96	9943.86
577.32	9984.77
577.681	9959
578.042	10046.91
578.403	10013.01
578.763	9939.34
579.124	10020.02
579.485	10034.71
579.845	10006.91
580.206	9926.69
580.566	9969.62
580.927	9935.95
581.287	9977.99
581.648	9969.85
582.008	9961.94
582.368	9937.31
582.728	9975.27
583.089	9917.42
583.449	9911.55
583.809	9901.83
584.169	10002.62
584.529	9938.44
584.889	9963.3
585.249	9862.51
585.609	9884.66
585.969	9852.79
586.329	9867.03
586.688	9906.8
587.048	9844.43
587.408	9897.54
587.768	9795.62
588.127	9871.1
588.487	9787.26
588.846	9838.33
589.206	9865.22
589.565	9735.05
589.925	9849.85
590.284	9779.12
590.643	9771.89
591.003	9774.38
591.362	9833.81
591.721	9720.14
592.08	9745.45
592.44	9710.2
592.799	9752
593.158	9705.45
593.517	9747.94
593.876	9701.16
594.235	9678.79
594.593	9680.14
594.952	9706.13
595.311	9678.11
595.67	9661.61
596.029	9722.17
596.387	9686.92
596.746	9697.99
597.104	9693.25
597.463	9635.17
597.822	9619.8
598.18	9635.17
598.538	9585
598.897	9653.93
599.255	9521.5
599.613	9679.01
599.972	9610.09
600.33	9625.68
600.688	9686.24
601.046	9631.55
601.404	9683.08
601.762	9611.22
602.12	9599.24
602.478	9665.23
602.836	9682.85
603.194	9576.41
603.552	9568.05
603.91	9571.9
604.268	9645.11
604.625	9579.13
604.983	9578
605.341	9536.64
605.698	9574.83
606.056	9551.56
606.413	9618.67
606.771	9662.74
607.128	9648.73
607.485	9526.02
607.843	9596.53
608.2	9600.37
608.557	9691.44
608.914	9552.01
609.272	9648.96
609.629	9630.88
609.986	9626.13
610.343	9612.12
610.7	9695.28
611.057	9674.94
611.414	9658.9
611.771	9648.28
612.127	9635.4
612.484	9675.4
612.841	9680.37
613.198	9636.75
613.554	9635.62
613.911	9703.42
614.267	9703.87
614.624	9687.6
614.98	9695.06
615.337	9718.11
615.693	9692.57
616.05	9730.76
616.406	9803.53
616.762	9673.59
617.118	9712.46
617.475	9723.08
617.831	9765.11
618.187	9802.4
618.543	9743.19
618.899	9815.28
619.255	9765.79
619.611	9737.09
619.967	9795.62
620.323	9716.98
620.678	9777.31
621.034	9747.94
621.39	9758.78
621.746	9730.76
622.101	9867.93
622.457	9753.81
622.812	9793.81
623.168	9773.92
623.523	9765.11
623.879	9824.32
624.234	9794.94
624.589	9813.02
624.945	9796.52
625.3	9727.6
625.655	9817.31
626.01	9761.95
626.365	9821.83
626.72	9781.83
627.075	9793.13
627.43	9814.6
627.785	9745.9
628.14	9784.54
628.495	9719.46
628.85	9738.67
629.205	9734.15
629.559	9775.96
629.914	9688.95
630.269	9643.98
630.623	9710.65
630.978	9637.66
631.332	9736.64
631.687	9706.13
632.041	9662.74
632.396	9670.2
632.75	9576.41
633.104	9608.28
633.459	9582.29
633.813	9563.76
634.167	9575.51
634.521	9560.6
634.875	9577.09
635.229	9598.34
635.583	9503.65
635.937	9507.94
636.291	9526.7
636.645	9521.05
636.999	9426.81
637.352	9554.49
637.706	9475.4
638.06	9499.13
638.413	9448.51
638.767	9467.94
639.121	9412.58
639.474	9436.53
639.828	9459.81
640.181	9402.63
640.534	9425.23
640.888	9369.41
641.241	9357.66
641.594	9414.39
641.947	9360.83
642.301	9322.64
642.654	9373.03
643.007	9416.87
643.36	9319.92
643.713	9328.51
644.066	9363.09
644.419	9255.52
644.771	9239.7
645.124	9148.86
645.477	9156.31
645.83	9106.14
646.182	9115.41
646.535	9095.52
646.888	9095.98
647.24	9010.1
647.593	9041.51
647.945	9039.25
648.298	9043.77
648.65	8988.18
649.002	9025.47
649.355	9068.63
649.707	8963.78
650.059	9052.59
650.411	9195.86
650.763	9230.44
651.115	9256.2
651.467	9259.59
651.819	9194.73
652.171	9193.15
652.523	9207.16
652.875	9208.29
653.227	9133.04
653.578	9210.77
653.93	9188.85
654.282	9193.6
654.633	9132.13
654.985	9255.29
655.337	9193.15
655.688	9180.04
656.039	9270.89
656.391	9165.8
656.742	9178.23
657.094	9202.87
657.445	9256.65
657.796	9178.46
658.147	9189.98
658.498	9160.38
658.849	9280.83
659.2	9206.48
659.551	9188.85
659.902	9262.3
660.253	9313.14
660.604	9262.98
660.955	9237.67
661.306	9157.67
661.656	9228.63
662.007	9314.5
662.358	9299.13
662.708	9300.49
663.059	9235.86
663.409	9205.58
663.76	9307.95
664.11	9292.58
664.461	9286.93
664.811	9340.94
665.161	9293.26
665.511	9208.97
665.862	9289.87
666.212	9326.25
666.562	9309.3
666.912	9297.55
667.262	9236.76
667.612	9256.65
667.962	9287.83
668.312	9289.64
668.662	9341.84
669.011	9176.65
669.361	9276.08
669.711	9239.93
670.06	9215.07
670.41	9211
670.76	9229.53
671.109	9287.83
671.459	9255.97
671.808	9190.89
672.157	9251.23
672.507	9206.03
672.856	9202.64
673.205	9229.31
673.554	9262.07
673.904	9204.67
674.253	9242.19
674.602	9229.98
674.951	9047.39
675.3	9001.06
675.649	9115.86
675.998	9140.04
676.346	9156.54
676.695	9221.4
677.044	9054.62
677.393	9188.18
677.741	9181.62
678.09	9114.28
678.438	9123.32
678.787	9108.86
679.135	9040.38
679.484	9005.13
679.832	9019.82
680.181	8947.28
680.529	8933.49
680.877	8967.62
681.225	8974.17
681.573	9018.69
681.922	8940.5
682.27	8925.36
682.618	8878.81
682.966	8892.14
683.314	8855.98
683.661	8858.47
684.009	8806.49
684.357	8764.68
684.705	8752.71
685.053	8764.46
685.4	8768.53
685.748	8726.49
686.095	8714.52
686.443	8707.96
686.79	8617.8
687.138	8693.27
687.485	8696.21
687.832	8632.03
688.18	8645.82
688.527	8519.27
688.874	8526.05
689.221	8568.53
689.568	8506.39
689.915	8498.7
690.262	8457.35
690.609	8446.28
690.956	8407.63
691.303	8350.91
691.65	8378.71
691.997	8377.58
692.344	8218.03
692.69	8232.04
693.037	8271.59
693.383	8201.76
693.73	8242.21
694.077	8157.02
694.423	8170.35
694.769	8075.21
695.116	8067.98
695.462	8091.71
695.808	8006.96
696.155	8035.66
696.501	8027.98
696.847	8024.14
697.193	7888.32
697.539	7944.82
697.885	7843.35
698.231	7808.1
698.577	7825.05
698.923	7802.45
699.269	7803.81
699.614	7681.78
699.96	7679.29
700.306	7681.78
700.651	7534.89
700.997	7569.01
701.342	7542.57
701.688	7576.47
702.033	7482.46
702.379	7468.45
702.724	7492.18
703.069	7477.71
703.415	7402.23
703.76	7386.64
704.105	7386.42
704.45	7378.28
704.795	7287.89
705.14	7294.67
705.485	7265.29
705.83	7247.44
706.175	7252.63
706.52	7176.03
706.865	7151.62
707.209	7208.79
707.554	7149.81
707.899	7116.59
708.243	7122.92
708.588	7065.97
708.932	7026.65
709.277	6985.07
709.621	7030.04
709.966	6977.84
710.31	7015.58
710.654	6937.84
710.998	6947.78
711.342	6955.01
711.687	6872.98
712.031	6887.9
712.375	6818.97
712.719	6854.9
713.063	6800.67
713.407	6828.01
713.75	6793.44
714.094	6830.72
714.438	6799.76
714.782	6750.95
715.125	6744.17
715.469	6752.99
715.812	6755.47
716.156	6698.3
716.499	6682.71
716.843	6737.85
717.186	6698.75
717.53	6725.19
717.873	6680.67
718.216	6630.73
718.559	6649.94
718.902	6648.36
719.246	6597.51
719.589	6564.52
719.932	6641.12
720.275	6628.02
720.617	6619.43
720.96	6625.31
721.303	6589.15
721.646	6603.84
721.989	6523.84
722.331	6537.62
722.674	6582.6
723.016	6504.41
723.359	6544.4
723.701	6490.39
724.044	6489.49
724.386	6478.42
724.729	6521.35
725.071	6513.22
725.413	6485.42
725.755	6503.5
726.097	6449.72
726.439	6452.88
726.782	6483.16
727.124	6471.64
727.465	6440.45
727.807	6471.41
728.149	6421.7
728.491	6435.03
728.833	6449.94
729.175	6415.37
729.516	6368.82
729.858	6454.01
730.199	6430.51
730.541	6385.31
730.882	6394.35
731.224	6406.1
731.565	6393.45
731.906	6394.8
732.248	6397.74
732.589	6401.36
732.93	6398.65
733.271	6379.21
733.612	6446.1
733.953	6491.98
734.294	6415.14
734.635	6390.96
734.976	6425.76
735.317	6386.67
735.658	6421.7
735.999	6384.86
736.339	6385.54
736.68	6466.67
737.021	6418.53
737.361	6479.77
737.702	6456.95
738.042	6430.73
738.383	6465.76
738.723	6407.01
739.063	6457.63
739.404	6514.12
739.744	6510.73
740.084	6441.58
740.424	6545.99
740.764	6489.72
741.104	6559.32
741.444	6506.21
741.784	6560
742.124	6585.99
742.464	6569.94
742.804	6609.49
743.143	6678.19
743.483	6644.06
743.823	6682.48
744.162	6666.66
744.502	6713.21
744.841	6696.94
745.181	6799.99
745.52	6761.8
745.86	6845.87
746.199	6876.82
746.538	6902.59
746.877	6986.43
747.216	6994.34
747.556	7037.72
747.895	7110.49
748.234	7054.9
748.573	7113.2
748.911	7145.97
749.25	7256.48
749.589	7286.53
749.928	7322.69
750.267	7458.96
750.605	7489.01
750.944	7578.95
751.283	7629.35
751.621	7739.63
751.96	7846.06
752.298	7887.19
752.636	7975.33
752.975	8057.36
753.313	8164.02
753.651	8319.27
753.989	8328.09
754.327	8478.82
754.666	8557.91
755.004	8662.77
755.342	8819.37
755.679	8897.34
756.017	9007.62
756.355	9201.28
756.693	9292.35
757.031	9425.91
757.368	9540.94
757.706	9662.51
758.044	9847.37
758.381	9967.14
758.719	10146.12
759.056	10390.4
759.394	10453.45
759.731	10590.63
760.068	10751.07
760.405	10877.62
760.743	11002.37
761.08	11301.79
761.417	11339.76
761.754	11571.39
762.091	11680.09
762.428	11909.46
762.765	12004.37
763.102	12242.33
763.438	12331.82
763.775	12467.41
764.112	12703.34
764.449	12910.11
764.785	13065.14
765.122	13051.35
765.458	13282.08
765.795	13429.65
766.131	13591.9
