Data from hue_350_FLMS001491_55.txt Node
Date: Mon Feb 06 15:38:13 GMT 2017
User: dcchb
Spectrometer: FLMS00149
Trigger mode: 0
Integration Time (sec): 2.000000E-2
Scans to average: 10
Electric dark correction enabled: true
Nonlinearity correction enabled: false
Boxcar width: 0
XAxis mode: Wavelengths
Number of Pixels in Spectrum: 2048
>>>>>Begin Spectral Data<<<<<
341.393	-6.3
341.776	-6.3
342.16	-6.3
342.543	-39.97
342.927	-73.42
343.31	-87.2
343.693	-70.93
344.077	-73.19
344.46	-50.14
344.843	-65.51
345.226	-45.39
345.61	-26.19
345.993	-20.76
346.376	8.39
346.759	14.94
347.142	38.45
347.525	58.11
347.908	55.17
348.291	80.7
348.674	90.2
349.057	93.36
349.44	119.12
349.823	133.13
350.206	158.44
350.588	210.64
350.971	205.67
351.354	226.91
351.737	228.5
352.119	244.54
352.502	280.25
352.884	286.35
353.267	280.47
353.65	288.38
354.032	266.01
354.414	295.39
354.797	296.29
355.179	322.51
355.562	323.86
355.944	327.93
356.326	325.67
356.709	356.18
357.091	341.49
357.473	364.76
357.855	338.78
358.238	320.25
358.62	340.13
359.002	331.77
359.384	352.11
359.766	339.45
360.148	351.66
360.53	329.29
360.912	330.19
361.294	339.23
361.676	337.65
362.057	330.64
362.439	327.93
362.821	320.25
363.203	320.92
363.584	320.7
363.966	322.51
364.348	321.15
364.729	294.94
365.111	332.67
365.493	330.19
365.874	330.87
366.256	319.12
366.637	320.7
367.019	314.14
367.4	307.36
367.781	306.91
368.163	317.76
368.544	319.79
368.925	301.49
369.306	301.94
369.688	297.42
370.069	294.26
370.45	316.18
370.831	288.61
371.212	312.79
371.593	320.02
371.974	306.23
372.355	309.4
372.736	333.13
373.117	305.78
373.498	321.38
373.879	303.98
374.26	316.86
374.641	302.62
375.021	313.92
375.402	320.7
375.783	313.47
376.163	321.83
376.544	327.93
376.925	324.09
377.305	344.2
377.686	331.09
378.066	326.8
378.447	328.83
378.827	324.99
379.208	315.95
379.588	341.04
379.968	330.42
380.349	320.7
380.729	343.07
381.109	327.03
381.489	366.8
381.87	348.04
382.25	350.75
382.63	339
383.01	318.66
383.39	363.18
383.77	316.86
384.15	346.91
384.53	356.18
384.91	331.09
385.29	329.06
385.67	340.36
386.049	342.84
386.429	341.94
386.809	346.91
387.189	337.65
387.568	321.15
387.948	355.5
388.328	342.39
388.707	337.19
389.087	358.44
389.466	360.24
389.846	334.26
390.225	336.97
390.605	333.13
390.984	365.22
391.363	336.06
391.743	361.15
392.122	381.26
392.501	374.71
392.881	366.12
393.26	355.73
393.639	353.92
394.018	360.02
394.397	370.87
394.776	376.52
395.155	345.78
395.534	366.12
395.913	360.92
396.292	350.53
396.671	401.37
397.05	382.39
397.429	384.65
397.808	385.1
398.186	394.59
398.565	398.66
398.944	371.32
399.323	408.61
399.701	372.22
400.08	408.38
400.458	375.61
400.837	396.85
401.215	394.82
401.594	386.91
401.972	395.72
402.351	359.79
402.729	390.98
403.107	388.94
403.486	379.68
403.864	397.76
404.242	407.7
404.62	394.59
404.999	395.27
405.377	390.07
405.755	396.4
406.133	393.92
406.511	414.71
406.889	426.01
407.267	394.59
407.645	407.93
408.023	426.68
408.401	423.75
408.779	410.19
409.156	410.41
409.534	435.95
409.912	426.46
410.29	455.16
410.667	448.38
411.045	459.45
411.422	447.7
411.8	454.48
412.178	465.33
412.555	453.8
412.933	457.19
413.31	462.39
413.687	456.29
414.065	455.38
414.442	466.68
414.819	457.87
415.197	450.64
415.574	449.73
415.951	486.12
416.328	504.87
416.705	480.92
417.082	467.13
417.46	479.34
417.837	482.95
418.214	494.7
418.591	505.1
418.967	527.47
419.344	517.75
419.721	522.5
420.098	496.74
420.475	497.87
420.852	499
421.228	525.89
421.605	534.25
421.982	518.88
422.358	521.37
422.735	540.58
423.111	520.24
423.488	534.25
423.864	546.91
424.241	522.5
424.617	541.26
424.994	560.24
425.37	553.01
425.746	530.64
426.123	574.48
426.499	566.12
426.875	568.83
427.251	585.78
427.627	571.09
428.003	581.26
428.379	591.88
428.756	583.29
429.132	595.94
429.507	587.58
429.883	597.53
430.259	579.22
430.635	611.31
431.011	612.67
431.387	615.38
431.763	611.99
432.138	646.11
432.514	658.32
432.89	641.37
433.265	642.72
433.641	658.54
434.016	656.28
434.392	681.59
434.767	653.8
435.143	639.11
435.518	680.46
435.894	661.93
436.269	696.51
436.644	694.25
437.02	706.22
437.395	725.43
437.77	712.78
438.145	697.41
438.52	699.9
438.895	724.53
439.271	726.34
439.646	761.36
440.021	741.7
440.395	739.67
440.77	729.27
441.145	754.13
441.52	767.01
441.895	767.92
442.27	732.89
442.645	767.69
443.019	750.74
443.394	772.66
443.769	760.23
444.143	766.79
444.518	797.52
444.892	776.51
445.267	790.29
445.641	765.88
446.016	779.44
446.39	788.71
446.764	789.61
447.139	774.47
447.513	818.31
447.887	785.32
448.262	815.15
448.636	778.31
449.01	836.84
449.384	840.68
449.758	822.61
450.132	835.26
450.506	819.67
450.88	839.78
451.254	840.91
451.628	864.41
452.002	847.92
452.376	851.08
452.75	860.8
453.123	848.14
453.497	857.63
453.871	868.93
454.244	875.49
454.618	907.12
454.992	883.17
455.365	883.39
455.739	910.74
456.112	894.92
456.486	918.65
456.859	916.16
457.232	931.76
457.606	941.47
457.979	945.77
458.352	951.87
458.725	977.63
459.099	983.73
459.472	966.78
459.845	995.48
460.218	1011.3
460.591	1011.08
460.964	1017.18
461.337	1012.88
461.71	1018.31
462.083	1067.8
462.456	1067.12
462.829	1037.74
463.201	1055.37
463.574	1043.62
463.947	1092.2
464.32	1081.81
464.692	1096.72
465.065	1103.95
465.438	1102.37
465.81	1149.38
466.183	1167
466.555	1150.73
466.928	1145.53
467.3	1179.43
467.672	1186.66
468.045	1199.54
468.417	1204.74
468.789	1230.96
469.161	1212.43
469.534	1269.15
469.906	1292.42
470.278	1283.84
470.65	1258.07
471.022	1299.66
471.394	1333.78
471.766	1348.02
472.138	1364.96
472.51	1373.55
472.882	1373.55
473.253	1406.32
473.625	1444.06
473.997	1484.73
474.369	1489.71
474.74	1474.11
475.112	1502.81
475.484	1551.63
475.855	1569.7
476.227	1617.61
476.598	1587.56
476.97	1613.77
477.341	1665.52
477.713	1681.79
478.084	1691.96
478.455	1721.34
478.827	1736.03
479.198	1778.74
479.569	1777.61
479.94	1867.32
480.311	1883.82
480.682	1901.22
481.053	1920.43
481.424	1979.64
481.795	1989.35
482.166	1989.81
482.537	2021.67
482.908	2094.44
483.279	2131.72
483.65	2147.99
484.021	2169.46
484.391	2200.42
484.762	2244.49
485.133	2244.49
485.503	2301.66
485.874	2339.4
486.244	2360.87
486.615	2424.37
486.985	2399.29
487.356	2460.75
487.726	2505.27
488.097	2525.16
488.467	2539.17
488.837	2591.15
489.207	2638.15
489.578	2679.05
489.948	2683.12
490.318	2730.35
490.688	2719.73
491.058	2804.93
491.428	2862.55
491.798	2858.26
492.168	2917.69
492.538	2968.76
492.908	2949.56
493.278	2961.08
493.648	3002.21
494.017	3062.32
494.387	3060.74
494.757	3143.9
495.126	3117.23
495.496	3134.64
495.866	3147.74
496.235	3199.49
496.605	3229.77
496.974	3225.03
497.344	3276.1
497.713	3310.22
498.082	3289.89
498.452	3319.49
498.821	3357.45
499.19	3374.4
499.559	3392.48
499.928	3453.04
500.298	3446.27
500.667	3507.51
501.036	3473.16
501.405	3517.9
501.774	3515.19
502.143	3547.96
502.512	3530.78
502.88	3606.71
503.249	3615.3
503.618	3604.91
503.987	3637.9
504.356	3613.27
504.724	3659.59
505.093	3699.14
505.462	3686.26
505.83	3700.95
506.199	3726.48
506.567	3761.96
506.936	3731.91
507.304	3831.11
507.672	3810.1
508.041	3793.83
508.409	3836.99
508.777	3835.86
509.145	3850.77
509.514	3917.21
509.882	3900.72
510.25	3924.9
510.618	3947.95
510.986	3973.71
511.354	3954.5
511.722	4020.49
512.09	4025.01
512.458	4013.93
512.826	4046.25
513.193	4051
513.561	4028.85
513.929	4057.77
514.297	4122.41
514.664	4136.87
515.032	4115.63
515.4	4112.91
515.767	4144.1
516.135	4131.67
516.502	4152.91
516.869	4149.75
517.237	4170.09
517.604	4171.22
517.972	4230.88
518.339	4257.77
518.706	4245.11
519.073	4239.46
519.44	4259.8
519.808	4333.02
520.175	4305
520.542	4377.31
520.909	4330.99
521.276	4346.58
521.643	4387.48
522.009	4393.59
522.376	4396.52
522.743	4437.65
523.11	4470.19
523.477	4435.39
523.843	4491.44
524.21	4535.5
524.577	4544.99
524.943	4557.2
525.31	4607.59
525.676	4632.22
526.043	4658.44
526.409	4659.57
526.776	4700.02
527.142	4682.62
527.508	4745.67
527.874	4776.4
528.241	4778.89
528.607	4785.21
528.973	4808.04
529.339	4832.67
529.705	4830.18
530.071	4893.46
530.437	4909.28
530.803	4923.06
531.169	4941.82
531.535	4951.54
531.901	4960.12
532.267	4985.21
532.632	5033.12
532.998	5068.82
533.364	5012.33
533.73	5055.94
534.095	5080.35
534.461	5120.57
534.826	5126.45
535.192	5167.35
535.557	5221.13
535.923	5226.78
536.288	5193.79
536.653	5246.9
537.019	5258.42
537.384	5298.19
537.749	5316.05
538.114	5305.43
538.479	5324.63
538.845	5342.26
539.21	5332.09
539.575	5391.52
539.94	5437.85
540.305	5466.78
540.67	5444.86
541.034	5472.88
541.399	5516.04
541.764	5507.68
542.129	5565.98
542.494	5539.77
542.858	5593.33
543.223	5597.62
543.587	5604.4
543.952	5648.47
544.316	5627
544.681	5666.55
545.045	5723.04
545.41	5741.12
545.774	5736.15
546.138	5778.18
546.503	5776.6
546.867	5831.06
547.231	5836.48
547.595	5901.12
547.959	5891.85
548.324	5886.2
548.688	5900.66
549.052	5958.29
549.416	5961.23
549.779	5948.57
550.143	5970.72
550.507	5940.66
550.871	6054.11
551.235	6041.23
551.599	6079.64
551.962	6080.09
552.326	6109.92
552.689	6122.81
553.053	6148.79
553.417	6153.99
553.78	6214.78
554.143	6201.22
554.507	6238.51
554.87	6231.95
555.234	6302.46
555.597	6259.3
555.96	6272.86
556.323	6335.91
556.686	6352.63
557.05	6380.65
557.413	6358.05
557.776	6396.47
558.139	6389.46
558.502	6442.34
558.865	6426.07
559.228	6476.47
559.59	6500.65
559.953	6518.73
560.316	6555.56
560.679	6616.35
561.041	6589.01
561.404	6602.34
561.767	6641.21
562.129	6589.01
562.492	6775.67
562.854	6730.02
563.217	6710.59
563.579	6702.45
563.941	6759.17
564.304	6777.03
564.666	6883.92
565.028	6836.91
565.39	6915.33
565.753	6874.2
566.115	6885.72
566.477	6953.07
566.839	6880.3
567.201	6991.93
567.563	6987.64
567.925	7044.14
568.287	7088.43
568.648	7037.81
569.01	7127.98
569.372	7156.9
569.734	7111.03
570.095	7175.66
570.457	7233.74
570.819	7213.4
571.18	7328.42
571.542	7307.18
571.903	7377.01
572.265	7422.43
572.626	7437.12
572.987	7478.48
573.349	7494.75
573.71	7510.79
574.071	7604.12
574.432	7631.92
574.794	7723.67
575.155	7747.85
575.516	7788.75
575.877	7823.55
576.238	7888.63
576.599	7912.36
576.96	7946.03
577.32	8062.64
577.681	8218.34
578.042	8220.83
578.403	8230.55
578.763	8409.3
579.124	8460.14
579.485	8556.19
579.845	8729.52
580.206	8788.72
580.566	8846.35
580.927	8965.22
581.287	9134.93
581.648	9172.89
582.008	9351.87
582.368	9447.46
582.728	9560.68
583.089	9733.78
583.449	9862.59
583.809	10064.62
584.169	10227.1
584.529	10336.93
584.889	10672.97
585.249	10703.25
585.609	10885.84
585.969	11071.15
586.329	11200.19
586.688	11480.4
587.048	11582.1
587.408	11846.95
587.768	12138.47
588.127	12310.89
588.487	12535.97
588.846	12771.67
589.206	13034.04
589.565	13314.48
589.925	13562.16
590.284	13796.73
590.643	14048.25
591.003	14229.48
591.362	14659.98
591.721	14799.87
592.08	15139.52
592.44	15328.44
592.799	15677.13
593.158	15939.5
593.517	16250.9
593.876	16471.69
594.235	16717.33
594.593	17158.45
594.952	17458.1
595.311	17641.82
595.67	17983.96
596.029	18305.54
596.387	18681.57
596.746	18952.98
597.104	19145.51
597.463	19396.13
597.822	19856.46
598.18	20041.08
598.538	20284.69
598.897	20728.07
599.255	20782.98
599.613	21400.82
599.972	21591.78
600.33	21886.68
600.688	22098.2
601.046	22519.89
601.404	22827.68
601.762	23105.18
602.12	23512.4
602.478	23739.74
602.836	24027.87
603.194	24144.93
603.552	24349.67
603.91	24708.31
604.268	25024.91
604.625	25164.34
604.983	25493.14
605.341	25657.88
605.698	26160.92
606.056	26397.53
606.413	26657.18
606.771	26908.7
607.128	27161.8
607.485	27246.32
607.843	27551.62
608.2	27891.05
608.557	28095.79
608.914	28205.84
609.272	28611.48
609.629	28797.69
609.986	29172.37
610.343	29243.33
610.7	29587.5
611.057	29691.45
611.414	29847.38
611.771	30083.31
612.127	30401.71
612.484	30652.33
612.841	30729.16
613.198	30803.29
613.554	31082.83
613.911	31335.02
614.267	31604.39
614.624	31736.59
614.98	31879.19
615.337	32153.31
615.693	32233.31
616.05	32342.68
616.406	32679.39
616.762	32780.18
617.118	32898.82
617.475	33136.11
617.831	33390.34
618.187	33410.45
618.543	33446.38
618.899	33829.65
619.255	33796.2
619.611	33898.12
619.967	34295.17
620.323	34256.53
620.678	34299.01
621.034	34453.81
621.39	34507.14
621.746	34638.21
622.101	35029.62
622.457	34780.13
622.812	35129.73
623.168	35192.32
623.523	35263.51
623.879	35430.51
624.234	35216.5
624.589	35560.9
624.945	35647
625.3	35711.18
625.655	35780.1
626.01	36049.48
626.365	35858.97
626.72	35955.47
627.075	36143.26
627.43	36131.06
627.785	36177.83
628.14	36272.07
628.495	36261
628.85	36353.2
629.205	36316.81
629.559	36483.59
629.914	36364.5
630.269	36485.62
630.623	36459.63
630.978	36473.42
631.332	36595.22
631.687	36765.16
632.041	36669.35
632.396	36810.59
632.75	36603.59
633.104	36761.1
633.459	36681.32
633.813	36665.28
634.167	36574.21
634.521	36717.48
634.875	36877.7
635.229	36807.42
635.583	36740.08
635.937	36676.35
636.291	36698.27
636.645	36803.81
636.999	36718.38
637.352	36787.31
637.706	36503.25
638.06	36841.09
638.413	36793.86
638.767	36651.49
639.121	36893.52
639.474	36642.45
639.828	36628.67
640.181	36862.34
640.534	36762.9
640.888	36674.54
641.241	36443.14
641.594	36591.61
641.947	36789.57
642.301	36770.36
642.654	36710.25
643.007	36626.18
643.36	36641.1
643.713	36569.46
644.066	36845.61
644.419	36508.67
644.771	36237.49
645.124	35971.29
645.477	35952.76
645.83	35701.24
646.182	35737.85
646.535	35472.32
646.888	35590.73
647.24	35472.32
647.593	35558.42
647.945	35505.76
648.298	35468.02
648.65	35393.45
649.002	35488.36
649.355	35502.6
649.707	35352.77
650.059	35609.71
650.411	36058.74
650.763	36011.74
651.115	36449.47
651.467	36350.26
651.819	36264.84
652.171	36252.41
652.523	36117.04
652.875	36181.22
653.227	36034.56
653.578	36249.92
653.93	36160.43
654.282	35859.2
654.633	35883.38
654.985	35955.69
655.337	36098.97
655.688	35970.38
656.039	36255.8
656.391	35879.08
656.742	36004.96
657.094	35969.25
657.445	36031.85
657.796	35842.7
658.147	35876.15
658.498	35919.76
658.849	36051.74
659.2	35992.53
659.551	35851.06
659.902	36129.47
660.253	35933.32
660.604	35937.39
660.955	35758.86
661.306	36035.92
661.656	35899.88
662.007	35804.51
662.358	35810.84
662.708	35805.41
663.059	35939.42
663.409	35624.85
663.76	35768.35
664.11	35807
664.461	35832.31
664.811	35912.98
665.161	35809.03
665.511	35715.93
665.862	35891.29
666.212	35785.53
666.562	35839.54
666.912	35751.86
667.262	35792.31
667.612	35845.64
667.962	35867.33
668.312	35720.9
668.662	35885.86
669.011	35704.63
669.361	35771.07
669.711	35652.2
670.06	35533.78
670.41	35566.32
670.76	35531.75
671.109	35737.85
671.459	35738.07
671.808	35600.67
672.157	35729.48
672.507	35351.64
672.856	35475.25
673.205	35556.61
673.554	35589.83
673.904	35430.74
674.253	35729.71
674.602	35604.52
674.951	35047.02
675.3	34832.11
675.649	35397.97
675.998	35429.83
676.346	35404.97
676.695	35515.7
677.044	35238.65
677.393	35360.23
677.741	35375.14
678.09	35250.85
678.438	35027.36
678.787	35181.93
679.135	35312.32
679.484	34938.32
679.832	35228.03
680.181	34965.66
680.529	35155.71
680.877	35004.31
681.225	34868.94
681.573	35263.28
681.922	34769.51
682.27	34782.84
682.618	34739.23
682.966	34671.43
683.314	34756.4
683.661	34707.14
684.009	34588.05
684.357	34485.45
684.705	34401.16
685.053	34444.55
685.4	34340.59
685.748	34346.92
686.095	34230.54
686.443	34136.98
686.79	34068.96
687.138	34168.4
687.485	34106.93
687.832	33937.89
688.18	33967.72
688.527	33888.18
688.874	33787.39
689.221	33675.75
689.568	33624.91
689.915	33617.22
690.262	33552.14
690.609	33554.63
690.956	33488.41
691.303	33355.76
691.65	33398.02
691.997	33258.81
692.344	33088.65
692.69	33028.76
693.037	33006.17
693.383	32812.95
693.73	32867.41
694.077	32659.06
694.423	32656.12
694.769	32653.18
695.116	32508.55
695.462	32523.24
695.808	32436.46
696.155	32390.36
696.501	32239.86
696.847	32184.72
697.193	31861.34
697.539	32013.65
697.885	31769.59
698.231	31742.47
698.577	31669.48
698.923	31571.18
699.269	31456.83
699.614	31304.29
699.96	31324.63
700.306	31246.89
700.651	31191.3
700.997	31053.45
701.342	31036.73
701.688	31068.36
702.033	30940.01
702.379	30875.83
702.724	30941.36
703.069	30871.76
703.415	30490.07
703.76	30558.77
704.105	30561.71
704.45	30414.37
704.795	30243.3
705.14	30285.33
705.485	30272.23
705.83	30102.97
706.175	30065.23
706.52	29987.71
706.865	29848.96
707.209	29928.05
707.554	29853.71
707.899	29933.25
708.243	29690.77
708.588	29695.29
708.932	29506.82
709.277	29331.01
709.621	29506.37
709.966	29335.53
710.31	29384.79
710.654	29078.36
710.998	29029.77
711.342	29184.8
711.687	29082.43
712.031	28928.99
712.375	28750.23
712.719	28764.92
713.063	28782.55
713.407	28913.17
713.75	28647.64
714.094	28622.55
714.438	28545.94
714.782	28662.78
715.125	28411.48
715.469	28500.52
715.812	28329.9
716.156	28266.86
716.499	28193.19
716.843	28217.82
717.186	28118.84
717.53	28087.2
717.873	28095.79
718.216	28084.49
718.559	27922.01
718.902	27760.2
719.246	27883.81
719.589	27849.47
719.932	27554.56
720.275	27570.83
720.617	27572.86
720.96	27489.47
721.303	27553.65
721.646	27434.11
721.989	27385.07
722.331	27513.43
722.674	27358.63
723.016	27404.96
723.359	27327.67
723.701	27341.91
724.044	27107.79
724.386	26982.14
724.729	27120.67
725.071	27108.92
725.413	27117.73
725.755	27063.95
726.097	26969.71
726.439	26813.79
726.782	26745.77
727.124	26887.91
727.465	26673.9
727.807	26722.04
728.149	26672.1
728.491	26597.52
728.833	26804.07
729.175	26619.67
729.516	26414.93
729.858	26420.35
730.199	26536.05
730.541	26378.77
730.882	26410.86
731.224	26462.84
731.565	26241.6
731.906	26329.28
732.248	26090.64
732.589	26087.03
732.93	26129.28
733.271	26031.43
733.612	26177.19
733.953	26054.94
734.294	25893.36
734.635	25895.62
734.976	25944.66
735.317	25801.38
735.658	25915.28
735.999	25773.59
736.339	25839.8
736.68	25725.23
737.021	25665.12
737.361	25600.94
737.702	25746.02
738.042	25562.97
738.383	25498.34
738.723	25675.96
739.063	25409.08
739.404	25532.01
739.744	25433.94
740.084	25346.93
740.424	25356.65
740.764	25318.01
741.104	25361.62
741.444	25279.36
741.784	25150.55
742.124	25113.27
742.464	25224
742.804	25070.56
743.143	25009.09
743.483	25065.13
743.823	24835.76
744.162	24974.74
744.502	24933.38
744.841	24747.85
745.181	24921.63
745.52	24800.05
745.86	24844.35
746.199	24781.98
746.538	24729.77
746.877	24815.19
747.216	24640.28
747.556	24549.89
747.895	24611.58
748.234	24543.56
748.573	24494.75
748.911	24468.76
749.25	24498.82
749.589	24227.19
749.928	24481.64
750.267	24388.77
750.605	24352.83
750.944	24273.74
751.283	24212.27
751.621	24263.12
751.96	24183.8
752.298	24111.03
752.636	23982.67
752.975	23964.82
753.313	23878.72
753.651	24031.26
753.989	23825.84
754.327	23661.78
754.666	23649.58
755.004	23742.45
755.342	23710.14
755.679	23568.9
756.017	23522.8
756.355	23568.45
756.693	23487.55
757.031	23476.7
757.368	23325.52
757.706	23328.68
758.044	23160.78
758.381	23166.2
758.719	23194.9
759.056	23142.92
759.394	23035.58
759.731	22861.57
760.068	22860.44
760.405	22819.77
760.743	22789.26
761.08	22784.51
