Data from hue_40_FLMS001491_29.txt Node
Date: Mon Feb 06 15:07:40 GMT 2017
User: dcchb
Spectrometer: FLMS00149
Trigger mode: 0
Integration Time (sec): 2.000000E-2
Scans to average: 10
Electric dark correction enabled: true
Nonlinearity correction enabled: false
Boxcar width: 0
XAxis mode: Wavelengths
Number of Pixels in Spectrum: 2048
>>>>>Begin Spectral Data<<<<<
341.393	-13.64
341.776	-13.64
342.16	-13.64
342.543	-53.64
342.927	-74.43
343.31	-74.43
343.693	-59.97
344.077	-83.7
344.46	-74.21
344.843	-49.35
345.226	-42.8
345.61	-38.73
345.993	-6.19
346.376	5.34
346.759	5.34
347.142	25.23
347.525	39.46
347.908	80.14
348.291	60.48
348.674	86.92
349.057	126.47
349.44	140.48
349.823	144.54
350.206	141.15
350.588	198.78
350.971	220.93
351.354	236.29
351.737	223.86
352.119	253.69
352.502	253.02
352.884	267.48
353.267	260.25
353.65	276.52
354.032	290.53
354.414	304.54
354.797	314.03
355.179	310.42
355.562	325.33
355.944	331.21
356.326	334.82
356.709	331.88
357.091	337.31
357.473	342.05
357.855	348.61
358.238	335.27
358.62	361.04
359.002	344.99
359.384	340.02
359.766	332.11
360.148	335.73
360.53	342.96
360.912	346.8
361.294	340.25
361.676	327.14
362.057	340.02
362.439	346.8
362.821	337.76
363.203	319.68
363.584	341.83
363.966	334.6
364.348	342.28
364.729	319.23
365.111	310.42
365.493	338.44
365.874	307.48
366.256	324.2
366.637	295.95
367.019	323.75
367.4	323.3
367.781	328.95
368.163	329.17
368.544	314.48
368.925	303.64
369.306	333.47
369.688	334.14
370.069	297.53
370.45	314.71
370.831	301.83
371.212	333.01
371.593	321.94
371.974	301.6
372.355	322.84
372.736	324.65
373.117	327.82
373.498	319
373.879	304.54
374.26	310.19
374.641	325.78
375.021	326.01
375.402	318.32
375.783	332.79
376.163	319.23
376.544	315.61
376.925	318.55
377.305	334.14
377.686	305.9
378.066	333.47
378.447	342.05
378.827	334.82
379.208	336.63
379.588	337.99
379.968	341.83
380.349	340.25
380.729	331.21
381.109	346.35
381.489	356.74
381.87	354.26
382.25	366.01
382.63	360.81
383.01	340.47
383.39	337.53
383.77	363.97
384.15	333.47
384.53	356.74
384.91	360.36
385.29	356.97
385.67	342.28
386.049	335.27
386.429	353.13
386.809	342.05
387.189	327.82
387.568	352.22
387.948	371.2
388.328	356.97
388.707	366.23
389.087	355.39
389.466	368.95
389.846	381.37
390.225	365.78
390.605	359.23
390.984	377.53
391.363	369.17
391.743	363.97
392.122	387.02
392.501	380.47
392.881	365.56
393.26	366.23
393.639	387.02
394.018	389.28
394.397	391.32
394.776	363.3
395.155	407.59
395.534	382.28
395.913	388.38
396.292	401.26
396.671	386.35
397.05	399.23
397.429	391.54
397.808	402.16
398.186	382.73
398.565	416.85
398.944	405.78
399.323	400.81
399.701	401.71
400.08	402.62
400.458	404.2
400.837	409.17
401.215	408.49
401.594	415.95
401.972	389.96
402.351	412.56
402.729	417.53
403.107	425.21
403.486	415.72
403.864	410.07
404.242	422.05
404.62	446.68
404.999	434.48
405.377	442.16
405.755	424.76
406.133	432.22
406.511	440.58
406.889	437.64
407.267	443.97
407.645	428.15
408.023	430.64
408.401	445.33
408.779	446.91
409.156	463.63
409.534	442.16
409.912	471.54
410.29	481.71
410.667	468.38
411.045	473.58
411.422	480.58
411.8	472.45
412.178	469.51
412.555	474.71
412.933	475.38
413.31	499.56
413.687	507.92
414.065	495.27
414.442	521.71
414.819	490.3
415.197	486.23
415.574	490.98
415.951	509.28
416.328	487.13
416.705	507.7
417.082	514.25
417.46	522.16
417.837	524.87
418.214	511.54
418.591	516.74
418.967	541.6
419.344	521.94
419.721	527.36
420.098	551.54
420.475	553.35
420.852	542.05
421.228	553.57
421.605	546.34
421.982	559
422.358	587.24
422.735	592.67
423.111	588.15
423.488	550.64
423.864	566.91
424.241	562.39
424.617	588.6
424.994	582.27
425.37	570.97
425.746	580.24
426.123	576.4
426.499	594.48
426.875	588.6
427.251	612.55
427.627	614.36
428.003	599.67
428.379	636.06
428.756	601.93
429.132	608.71
429.507	620.46
429.883	629.96
430.259	650.75
430.635	667.02
431.011	650.29
431.387	661.14
431.763	665.89
432.138	662.27
432.514	660.46
432.89	676.28
433.265	713.79
433.641	714.7
434.016	700.01
434.392	703.85
434.767	711.99
435.143	724.42
435.518	686.22
435.894	717.41
436.269	745.21
436.644	744.98
437.02	726.68
437.395	750.4
437.77	774.58
438.145	763.51
438.52	775.71
438.895	753.12
439.271	781.14
439.646	783.4
440.021	801.25
440.395	806.67
440.77	769.61
441.145	786.11
441.52	800.12
441.895	803.74
442.27	810.29
442.645	810.97
443.019	831.76
443.394	831.76
443.769	818.65
444.143	829.5
444.518	822.72
444.892	845.32
445.267	864.53
445.641	859.55
446.016	841.02
446.39	842.83
446.764	863.85
447.139	872.66
447.513	873.34
447.887	863.85
448.262	876.28
448.636	881.25
449.01	891.64
449.384	898.87
449.758	899.33
450.132	897.97
450.506	915.15
450.88	906.78
451.254	922.6
451.628	938.65
452.002	951.98
452.376	942.49
452.75	947.01
453.123	951.98
453.497	979.32
453.871	984.3
454.244	993.34
454.618	994.01
454.992	1010.06
455.365	1013.9
455.739	1039.89
456.112	1028.81
456.486	1073.11
456.859	1066.55
457.232	1075.59
457.606	1088.93
457.979	1140.9
458.352	1114.24
458.725	1119.21
459.099	1139.32
459.472	1154.69
459.845	1156.27
460.218	1152.65
460.591	1185.65
460.964	1179.55
461.337	1224.97
461.71	1237.85
462.083	1204.4
462.456	1241.92
462.829	1230.17
463.201	1258.41
463.574	1286.21
463.947	1295.7
464.32	1316.94
464.692	1359.2
465.065	1323.5
465.438	1365.3
465.81	1390.39
466.183	1385.64
466.555	1424.96
466.928	1459.09
467.3	1460.22
467.672	1467
468.045	1519.65
468.417	1529.82
468.789	1538.41
469.161	1558.29
469.534	1591.51
469.906	1598.07
470.278	1622.25
470.65	1654.56
471.022	1704.96
471.394	1737.72
471.766	1771.39
472.138	1792.64
472.51	1824.5
472.882	1861.56
473.253	1869.24
473.625	1923.25
473.997	1987.89
474.369	1937.49
474.74	2009.58
475.112	2063.82
475.484	2095.91
475.855	2122.57
476.227	2179.52
476.598	2244.6
476.97	2301.1
477.341	2363.69
477.713	2382.23
478.084	2416.35
478.455	2511.49
478.827	2533.63
479.198	2634.42
479.569	2663.35
479.94	2747.87
480.311	2828.54
480.682	2887.75
481.053	2945.83
481.424	3062.89
481.795	3099.49
482.166	3163.67
482.537	3249.77
482.908	3345.14
483.279	3423.78
483.65	3503.55
484.021	3640.72
484.391	3684.11
484.762	3775.86
485.133	3837.78
485.503	3918.91
485.874	3998.91
486.244	4097.66
486.615	4233.7
486.985	4292.46
487.356	4448.16
487.726	4498.55
488.097	4630.08
488.467	4760.92
488.837	4849.05
489.207	4932.44
489.578	5079.1
489.948	5145.54
490.318	5312.54
490.688	5348.93
491.058	5470.96
491.428	5592.99
491.798	5691.07
492.168	5874.79
492.538	5943.04
492.908	6077.95
493.278	6197.49
493.648	6295.34
494.017	6398.84
494.387	6448.33
494.757	6574.66
495.126	6729.23
495.496	6861.66
495.866	6913.41
496.235	7046.74
496.605	7119.5
496.974	7172.61
497.344	7312.94
497.713	7373.05
498.082	7509.1
498.452	7722.88
498.821	7756.77
499.19	7803.78
499.559	7932.36
499.928	8043.32
500.298	8101.85
500.667	8225.69
501.036	8264.78
501.405	8390.43
501.774	8451.22
502.143	8539.58
502.512	8625.9
502.88	8707.71
503.249	8756.52
503.618	8883.3
503.987	8980.92
504.356	9094.82
504.724	9092.56
505.093	9216.85
505.462	9247.36
505.83	9401.02
506.199	9426.56
506.567	9664.97
506.936	9649.61
507.304	9762.14
507.672	9866.77
508.041	9890.5
508.409	10027.22
508.777	10068.58
509.145	10196.03
509.514	10201.23
509.882	10257.05
510.25	10353.77
510.618	10387.66
510.986	10472.86
511.354	10648
511.722	10708.79
512.09	10781.55
512.458	10809.57
512.826	10951.72
513.193	11006.86
513.561	11064.94
513.929	11086.18
514.297	11247.76
514.664	11302.89
515.032	11367.07
515.4	11471.25
515.767	11521.42
516.135	11680.29
516.502	11568.42
516.869	11807.06
517.237	11833.95
517.604	11886.38
517.972	11965.02
518.339	12034.18
518.706	12100.84
519.073	12155.53
519.44	12255.64
519.808	12424
520.175	12309.42
520.542	12588.06
520.909	12557.33
521.276	12555.52
521.643	12706.25
522.009	12781.5
522.376	12857.66
522.743	12899.01
523.11	13108.72
523.477	13171.55
523.843	13281.83
524.21	13356.63
524.577	13462.39
524.943	13540.12
525.31	13556.85
525.676	13734.24
526.043	13873.9
526.409	13886.78
526.776	14037.06
527.142	14053.78
527.508	14139.43
527.874	14251.52
528.241	14357.05
528.607	14348.46
528.973	14513.66
529.339	14563.15
529.705	14666.2
530.071	14725.63
530.437	14879.52
530.803	14873.2
531.169	14992.29
531.535	15011.05
531.901	15018.05
532.267	15113.19
532.632	15174.66
532.998	15283.13
533.364	15470.47
533.73	15423.69
534.095	15584.59
534.461	15555.44
534.826	15649.9
535.192	15793.62
535.557	15870.46
535.923	15967.41
536.288	16036.33
536.653	16076.33
537.019	16072.94
537.384	16072.49
537.749	16263.22
538.114	16192.26
538.479	16207.62
538.845	16279.04
539.21	16321.52
539.575	16447.17
539.94	16518.8
540.305	16585.24
540.67	16685.8
541.034	16615.98
541.399	16672.02
541.764	16797.89
542.129	16913.59
542.494	16975.06
542.858	17055.29
543.223	17094.61
543.587	17175.73
543.952	17130.76
544.316	17253.47
544.681	17214.83
545.045	17406.46
545.41	17427.48
545.774	17530.75
546.138	17536.4
546.503	17652.56
546.867	17565.33
547.231	17836.51
547.595	17854.14
547.959	17882.83
548.324	17871.54
548.688	17878.09
549.052	18057.52
549.416	18090.06
549.779	18059.78
550.143	18230.4
550.507	18240.79
550.871	18287.8
551.235	18338.42
551.599	18527.56
551.962	18475.14
552.326	18554
552.689	18660.67
553.053	18598.07
553.417	18739.99
553.78	19010.71
554.143	18783.15
554.507	19036.02
554.87	18977.5
555.234	19162.58
555.597	19090.71
555.96	19205.29
556.323	19233.31
556.686	19433.75
557.05	19409.57
557.413	19527.99
557.776	19679.62
558.139	19693.41
558.502	19668.55
558.865	19795.55
559.228	19897.47
559.59	19894.08
559.953	19913.06
560.316	20159.16
560.679	20098.37
561.041	20312.38
561.404	20278.7
561.767	20460.39
562.129	20420.62
562.492	20605.7
562.854	20572.93
563.217	20512.82
563.579	20748.52
563.941	20855.64
564.304	20928.63
564.666	21032.81
565.028	21071.23
565.39	21148.06
565.753	21299.92
566.115	21333.82
566.477	21430.09
566.839	21375.17
567.201	21628.27
567.563	21631.21
567.925	21781.26
568.287	21829.62
568.648	21940.36
569.01	21981.71
569.372	22134.02
569.734	22072.33
570.095	22181.93
570.457	22247.47
570.819	22377.86
571.18	22339.44
571.542	22560
571.903	22690.84
572.265	22700.11
572.626	22720.9
572.987	22845.19
573.349	22989.14
573.71	23083.38
574.071	23167.44
574.432	23246.99
574.794	23583.02
575.155	23601.55
575.516	23495.12
575.877	23666.64
576.238	23762.45
576.599	23952.05
576.96	23925.61
577.32	24093.75
577.681	24244.93
578.042	24393.17
578.403	24475.43
578.763	24480.4
579.124	24665.03
579.485	24836.78
579.845	24991.35
580.206	25085.58
580.566	25183.21
580.927	25378.23
581.287	25584.33
581.648	25589.98
582.008	25864.77
582.368	25985.67
582.728	26107.25
583.089	26187.25
583.449	26406.68
583.809	26535.49
584.169	26746.1
584.529	26914.24
584.889	27268.58
585.249	27303.83
585.609	27377.5
585.969	27678.28
586.329	27820.2
586.688	28016.13
587.048	28194.43
587.408	28207.54
587.768	28306.52
588.127	28716
588.487	28716.9
588.846	29193.05
589.206	29096.55
589.565	29291.57
589.925	29652.02
590.284	29770.66
590.643	30016.3
591.003	30236.86
591.362	30513.01
591.721	30666.23
592.08	30627.36
592.44	31039.33
592.799	31157.74
593.158	31253.1
593.517	31604.28
593.876	31825.52
594.235	31800.21
594.593	31988.9
594.952	32463.92
595.311	32372.62
595.67	32633.18
596.029	33026.62
596.387	33142.32
596.746	33210.79
597.104	33393.16
597.463	33498.7
597.822	33812.36
598.18	33844
598.538	33957.89
598.897	34335.51
599.255	34231.33
599.613	34768.04
599.972	34709.29
600.33	34936.85
600.688	34941.82
601.046	35266.78
601.404	35579.77
601.762	35467.01
602.12	35895.92
602.478	35951.29
602.836	35939.76
603.194	36151.28
603.552	36346.98
603.91	36248.23
604.268	36565.96
604.625	36527.09
604.983	36835.78
605.341	36776.8
605.698	37036
606.056	37268.99
606.413	37468.53
606.771	37494.97
607.128	37701.75
607.485	37516.67
607.843	37772.71
608.2	38062.87
608.557	38246.59
608.914	38213.15
609.272	38499.69
609.629	38661.72
609.986	38882.28
610.343	38612.91
610.7	39078.44
611.057	39051.32
611.414	39102.16
611.771	39240.01
612.127	39425.32
612.484	39393.68
612.841	39572.43
613.198	39525.66
613.554	39697.63
613.911	39900.79
614.267	39945.53
614.624	40040.44
614.98	40154.34
615.337	40355.46
615.693	40360.44
616.05	40296.48
616.406	40551.39
616.762	40670.48
617.118	40661.44
617.475	40702.12
617.831	40907.77
618.187	41059.63
618.543	41037.25
618.899	41250.13
619.255	41296.91
619.611	41322.22
619.967	41593.4
620.323	41674.53
620.678	41513.85
621.034	41411.48
621.39	41458.26
621.746	41524.25
622.101	41984.12
622.457	41705.03
622.812	41834.52
623.168	41963.78
623.523	41989.09
623.879	42208.97
624.234	41891.24
624.589	42161.29
624.945	42266.83
625.3	42123.55
625.655	42219.6
626.01	42284.23
626.365	42298.01
626.72	42336.43
627.075	42294.62
627.43	42506.82
627.785	42373.94
628.14	42509.98
628.495	42553.6
628.85	42496.42
629.205	42340.04
629.559	42454.62
629.914	42430.21
630.269	42452.36
630.623	42418.69
630.978	42412.59
631.332	42557.44
631.687	42554.73
632.041	42437.67
632.396	42601.96
632.75	42412.13
633.104	42527.84
633.459	42323.1
633.813	42375.75
634.167	42324.9
634.521	42406.03
634.875	42480.83
635.229	42344.34
635.583	42166.26
635.937	42183.66
636.291	42232.93
636.645	42284.23
636.999	42133.27
637.352	42321.74
637.706	42144.8
638.06	42284.91
638.413	42233.83
638.767	42065.02
639.121	42186.83
639.474	41982.31
639.828	41849.66
640.181	42161.07
640.534	42056.21
640.888	41949.09
641.241	41839.04
641.594	41924.24
641.947	42055.53
642.301	41942.77
642.654	41990.68
643.007	41994.07
643.36	41939.6
643.713	41773.28
644.066	41945.03
644.419	41721.08
644.771	41476.34
645.124	41121.09
645.477	41018.5
645.83	40706.64
646.182	40665.96
646.535	40481.11
646.888	40711.84
647.24	40454.44
647.593	40679.07
647.945	40485.4
648.298	40320.66
648.65	40313.21
649.002	40184.62
649.355	40406.76
649.707	40312.98
650.059	40551.62
650.411	41077.48
650.763	41004.26
651.115	41395.66
651.467	41203.58
651.819	41249
652.171	41117.48
652.523	41229.79
652.875	41218.49
653.227	40993.19
653.578	41204.93
653.93	41231.6
654.282	40958.61
654.633	40837.26
654.985	41030.47
655.337	40976.24
655.688	40950.93
656.039	41029.12
656.391	40749.13
656.742	40901.89
657.094	40873.87
657.445	41042
657.796	40711.84
658.147	40852.4
658.498	40792.97
658.849	40833.19
659.2	40891.27
659.551	40811.05
659.902	40947.09
660.253	40949.57
660.604	40822.8
660.955	40669.35
661.306	40856.92
661.656	40662.57
662.007	40653.31
662.358	40726.08
662.708	40662.12
663.059	40780.09
663.409	40381.23
663.76	40686.08
664.11	40653.31
664.461	40676.81
664.811	40565.63
665.161	40720.43
665.511	40530.83
665.862	40575.12
666.212	40723.59
666.562	40777.15
666.912	40733.99
667.262	40646.76
667.612	40649.02
667.962	40539.19
668.312	40576.7
668.662	40798.84
669.011	40543.71
669.361	40608.11
669.711	40449.93
670.06	40348.23
670.41	40419.42
670.76	40345.97
671.109	40627.32
671.459	40476.82
671.808	40372.19
672.157	40446.08
672.507	40115.92
672.856	40202.7
673.205	40330.83
673.554	40338.52
673.904	40217.84
674.253	40360.21
674.602	40245.64
674.951	39605.88
675.3	39517.97
675.649	40111.18
675.998	40236.82
676.346	40119.99
676.695	40163.15
677.044	39800.45
677.393	40064.17
677.741	40028.69
678.09	39985.3
678.438	39787.57
678.787	39997.06
679.135	39967.45
679.484	39823.27
679.832	39918.64
680.181	39698.76
680.529	39768.59
680.877	39636.16
681.225	39696.05
681.573	39842.94
681.922	39569.27
682.27	39315.04
682.618	39405.21
682.966	39263.97
683.314	39539.67
683.661	39375.38
684.009	39080.7
684.357	39133.58
684.705	38979.23
685.053	39021.26
685.4	39038.89
685.748	38829.4
686.095	38768.39
686.443	38639.13
686.79	38535.4
687.138	38701.95
687.485	38670.08
687.832	38515.96
688.18	38582.63
688.527	38334.05
688.874	38328.17
689.221	38332.92
689.568	38263.09
689.915	38081.4
690.262	37979.48
690.609	38047.28
690.956	37813.38
691.303	37779.49
691.65	37566.39
691.997	37696.55
692.344	37320.97
692.69	37450.68
693.037	37456.56
693.383	37090.01
693.73	37348.54
694.077	37063.8
694.423	37089.56
694.769	36900.87
695.116	36816.57
695.462	36774.77
695.808	36661.78
696.155	36694.54
696.501	36520.54
696.847	36540.88
697.193	36254.56
697.539	36338.62
697.885	35977.5
698.231	35959.2
698.577	35959.42
698.923	35872.87
699.269	35778.18
699.614	35602.14
699.96	35534.35
700.306	35618.19
700.651	35420.68
700.997	35396.27
701.342	35199.67
701.688	35252.55
702.033	35078.99
702.379	35100.91
702.724	34944.31
703.069	35102.27
703.415	34806.01
703.76	34642.85
704.105	34705.44
704.45	34451.44
704.795	34369.18
705.14	34231.33
705.485	34230.88
705.83	34187.04
706.175	34126.7
706.52	34035.63
706.865	34001.28
707.209	33936.2
707.554	33810.78
707.899	33995.63
708.243	33619.37
708.588	33618.92
708.932	33447.85
709.277	33517
709.621	33479.49
709.966	33226.16
710.31	33327.17
710.654	32877.69
710.998	33221.64
711.342	33061.42
711.687	33004.47
712.031	32801.76
712.375	32712.28
712.719	32734.65
713.063	32744.59
713.407	32804.25
713.75	32615.1
714.094	32674.54
714.438	32392.06
714.782	32463.69
715.125	32270.25
715.469	32263.93
715.812	32085.17
716.156	32199.75
716.499	31983.48
716.843	32060.09
717.186	31855.35
717.53	31986.42
717.873	32004.72
718.216	31947.1
718.559	31728.57
718.902	31589.82
719.246	31676.82
719.589	31526.54
719.932	31442.7
720.275	31475.02
720.617	31367.23
720.96	31289.94
721.303	31302.6
721.646	31372.88
721.989	31174.46
722.331	31277.51
722.674	31162.49
723.016	31033.68
723.359	31050.85
723.701	30976.5
724.044	30700.58
724.386	30738.54
724.729	30915.49
725.071	30705.1
725.413	30703.29
725.755	30699.45
726.097	30527.47
726.439	30386.23
726.782	30435.05
727.124	30542.16
727.465	30358.44
727.807	30234.6
728.149	30198.44
728.491	30256.97
728.833	30285.67
729.175	30044.32
729.516	30071.44
729.858	29980.6
730.199	30057.88
730.541	29882.97
730.882	29865.34
731.224	29949.41
731.565	29861.5
731.906	29710.09
732.248	29898.56
732.589	29637.33
732.93	29449.76
733.271	29517.56
733.612	29586.26
733.953	29584.22
734.294	29429.42
734.635	29351.91
734.976	29421.06
735.317	29298.58
735.658	29319.82
735.999	29170.22
736.339	29182.2
736.68	29204.8
737.021	29126.83
737.361	28939.49
737.702	29088.19
738.042	29126.16
738.383	29071.92
738.723	29041.64
739.063	28810.91
739.404	28922.54
739.744	28832.6
740.084	28686.39
740.424	28723
740.764	28577.47
741.104	28729.78
741.444	28567.3
741.784	28457.25
742.124	28542.44
742.464	28450.47
742.804	28334.99
743.143	28298.61
743.483	28390.36
743.823	28179.51
744.162	28221.09
744.502	28186.52
744.841	28061.78
745.181	28228.1
745.52	28067.88
745.86	28097.03
746.199	27984.94
746.538	28015.9
746.877	28053.41
747.216	27945.85
747.556	27920.09
747.895	27888
748.234	27771.39
748.573	27768.9
748.911	27715.34
749.25	27623.82
749.589	27534.11
749.928	27509.7
750.267	27675.12
750.605	27411.62
750.944	27494.11
751.283	27398.74
751.621	27440.1
751.96	27253.66
752.298	27203.72
752.636	27249.82
752.975	27110.16
753.313	27010.5
753.651	27145.19
753.989	26898.42
754.327	26940.68
754.666	26752.21
755.004	26789.04
755.342	26923.28
755.679	26770.96
756.017	26731.87
756.355	26701.36
756.693	26501.37
757.031	26538.88
757.368	26523.29
