Data from hue_120_FLMS001491_00014.txt Node
Date: Tue Feb 07 16:58:59 GMT 2017
User: dcchb
Spectrometer: FLMS00149
Trigger mode: 0
Integration Time (sec): 2.000000E-2
Scans to average: 10
Electric dark correction enabled: true
Nonlinearity correction enabled: false
Boxcar width: 0
XAxis mode: Wavelengths
Number of Pixels in Spectrum: 2048
>>>>>Begin Spectral Data<<<<<
341.393	-26.34
341.776	-26.34
342.16	-26.34
342.543	-51.65
342.927	-78.32
343.31	-66.57
343.693	-69.96
344.077	-71.99
344.46	-53.69
344.843	-57.07
345.226	-49.17
345.61	-20.01
345.993	-6.23
346.376	-22.27
346.759	13.43
347.142	36.26
347.525	40.32
347.908	66.31
348.291	63.37
348.674	94.56
349.057	102.7
349.44	117.16
349.823	121.45
350.206	150.6
350.588	174.78
350.971	229.7
351.354	226.99
351.737	245.06
352.119	240.77
352.502	260.88
352.884	269.7
353.267	254.78
353.65	283.71
354.032	303.14
354.414	319.41
354.797	322.58
355.179	318.73
355.562	327.32
355.944	334.78
356.326	333.65
356.709	335.91
357.091	318.28
357.473	356.93
357.855	347.66
358.238	332.07
358.62	339.07
359.002	324.84
359.384	342.46
359.766	350.82
360.148	336.14
360.53	332.97
360.912	320.99
361.294	320.32
361.676	318.28
362.057	316.25
362.439	330.03
362.821	347.66
363.203	308.34
363.584	321.67
363.966	317.15
364.348	312.86
364.729	327.32
365.111	324.16
365.493	314.89
365.874	298.62
366.256	323.25
366.637	320.32
367.019	316.7
367.4	315.34
367.781	309.24
368.163	318.28
368.544	327.77
368.925	325.06
369.306	316.02
369.688	318.28
370.069	313.08
370.45	310.37
370.831	323.48
371.212	309.24
371.593	315.8
371.974	302.24
372.355	308.11
372.736	304.27
373.117	323.93
373.498	341.56
373.879	314.44
374.26	317.6
374.641	302.92
375.021	310.15
375.402	317.83
375.783	302.24
376.163	322.12
376.544	311.73
376.925	326.19
377.305	326.87
377.686	326.87
378.066	318.73
378.447	332.52
378.827	331.16
379.208	336.14
379.588	327.55
379.968	343.59
380.349	330.94
380.729	332.52
381.109	325.74
381.489	334.1
381.87	327.32
382.25	344.72
382.63	321.45
383.01	332.97
383.39	329.81
383.77	347.43
384.15	361.45
384.53	353.31
384.91	346.08
385.29	365.29
385.67	335.23
386.049	361.45
386.429	353.31
386.809	357.83
387.189	365.06
387.568	349.69
387.948	367.09
388.328	366.42
388.707	342.91
389.087	363.03
389.466	377.72
389.846	356.7
390.225	356.93
390.605	359.86
390.984	360.32
391.363	365.96
391.743	349.02
392.122	376.36
392.501	376.13
392.881	372.97
393.26	359.86
393.639	375.91
394.018	372.97
394.397	413.65
394.776	400.77
395.155	403.7
395.534	379.75
395.913	396.02
396.292	404.83
396.671	397.83
397.05	404.61
397.429	404.16
397.808	405.51
398.186	409.35
398.565	410.71
398.944	401.67
399.323	415.91
399.701	417.72
400.08	412.74
400.458	409.81
400.837	430.14
401.215	419.97
401.594	442.35
401.972	432.4
402.351	416.81
402.729	429.47
403.107	431.73
403.486	453.87
403.864	421.33
404.242	427.88
404.62	441.44
404.999	453.42
405.377	456.58
405.755	450.48
406.133	443.03
406.511	436.92
406.889	444.61
407.267	474.89
407.645	449.13
408.023	466.3
408.401	464.04
408.779	486.19
409.156	473.53
409.534	479.18
409.912	450.71
410.29	484.15
410.667	476.47
411.045	487.09
411.422	484.83
411.8	478.73
412.178	478.28
412.555	496.58
412.933	504.72
413.31	487.32
413.687	524.6
414.065	521.67
414.442	525.28
414.819	526.41
415.197	516.24
415.574	516.47
415.951	533.87
416.328	537.94
416.705	526.64
417.082	525.73
417.46	551.5
417.837	556.69
418.214	565.28
418.591	560.76
418.967	547.88
419.344	534.1
419.721	567.54
420.098	555.56
420.475	572.51
420.852	560.54
421.228	570.71
421.605	593.98
421.982	607.54
422.358	572.97
422.735	595.34
423.111	584.04
423.488	608.44
423.864	626.75
424.241	602.79
424.617	611.61
424.994	620.87
425.37	602.57
425.746	624.26
426.123	626.3
426.499	629.46
426.875	643.02
427.251	650.7
427.627	652.74
428.003	675.34
428.379	669.46
428.756	681.66
429.132	686.41
429.507	690.93
429.883	670.59
430.259	692.96
430.635	705.17
431.011	698.84
431.387	723.24
431.763	720.76
432.138	734.32
432.514	747.88
432.89	739.51
433.265	731.38
433.641	757.82
434.016	753.07
434.392	762.11
434.767	768.21
435.143	768.21
435.518	764.82
435.894	793.07
436.269	778.16
436.644	814.77
437.02	810.93
437.395	819.74
437.77	825.61
438.145	846.4
438.52	841.43
438.895	845.05
439.271	843.69
439.646	874.65
440.021	885.27
440.395	895.22
440.77	866.29
441.145	871.26
441.52	892.5
441.895	901.77
442.27	892.28
442.645	912.62
443.019	901.77
443.394	900.19
443.769	929.34
444.143	932.96
444.518	908.1
444.892	941.77
445.267	919.62
445.641	964.59
446.016	930.7
446.39	955.78
446.764	981.77
447.139	955.55
447.513	985.38
447.887	978.83
448.262	989.45
448.636	1005.72
449.01	1015.44
449.384	1016.12
449.758	1020.64
450.132	1029.45
450.506	1026.29
450.88	1021.31
451.254	1068.55
451.628	1060.64
452.002	1062.67
452.376	1064.93
452.75	1060.64
453.123	1106.28
453.497	1123.91
453.871	1131.82
454.244	1151.03
454.618	1127.3
454.992	1150.8
455.365	1186.51
455.739	1190.35
456.112	1219.28
456.486	1195.55
456.859	1243.46
457.232	1269.22
457.606	1230.35
457.979	1261.53
458.352	1276.9
458.725	1298.82
459.099	1298.82
459.472	1358.03
459.845	1348.76
460.218	1369.78
460.591	1348.31
460.964	1397.58
461.337	1402.32
461.71	1432.6
462.083	1445.26
462.456	1467.63
462.829	1482.32
463.201	1491.13
463.574	1515.31
463.947	1544.24
464.32	1558.25
464.692	1591.47
465.065	1575.88
465.438	1643.67
465.81	1681.41
466.183	1660.62
466.555	1722.54
466.928	1719.15
467.3	1710.56
467.672	1757.11
468.045	1819.94
468.417	1825.59
468.789	1862.87
469.161	1861.74
469.534	1906.04
469.906	1934.29
470.278	1968.63
470.65	1969.54
471.022	2049.31
471.394	2073.04
471.766	2108.29
472.138	2114.85
472.51	2209.98
472.882	2262.41
473.253	2290.66
473.625	2332.24
473.997	2424.89
474.369	2435.97
474.74	2477.55
475.112	2538.56
475.484	2621.27
475.855	2684.55
476.227	2723.19
476.598	2772.23
476.97	2841.61
477.341	2942.17
477.713	2974.03
478.084	3032.34
478.455	3156.85
478.827	3228.26
479.198	3322.72
479.569	3350.07
479.94	3470.29
480.311	3531.31
480.682	3657.4
481.053	3760
481.424	3857.62
481.795	4002.03
482.166	4015.13
482.537	4128.13
482.908	4246.99
483.279	4328.35
483.65	4467.78
484.021	4585.74
484.391	4713.87
484.762	4827.99
485.133	4921.33
485.503	5038.84
485.874	5178.95
486.244	5272.28
486.615	5470.24
486.985	5536.45
487.356	5728.54
487.726	5828.42
488.097	6033.61
488.467	6095.08
488.837	6281.06
489.207	6413.49
489.578	6594.73
489.948	6676.31
490.318	6817.32
490.688	6913.59
491.058	7102.74
491.428	7254.6
491.798	7407.59
492.168	7657.07
492.538	7739.56
492.908	7864.75
493.278	8074.24
493.648	8107.91
494.017	8280.33
494.387	8424.51
494.757	8532.08
495.126	8709.47
495.496	8831.28
495.866	8904.05
496.235	9070.14
496.605	9227.43
496.974	9284.6
497.344	9506.97
497.713	9625.38
498.082	9680.97
498.452	9910.12
498.821	9982.44
499.19	10017.69
499.559	10163.67
499.928	10247.97
500.298	10367.96
500.667	10495.64
501.036	10580.84
501.405	10653.38
501.774	10799.36
502.143	10914.84
502.512	10941.73
502.88	11093.82
503.249	11196.41
503.618	11292.91
503.987	11411.32
504.356	11410.42
504.724	11560.7
505.093	11658.55
505.462	11679.57
505.83	11827.81
506.199	11872.33
506.567	12085.2
506.936	11997.52
507.304	12190.96
507.672	12246.56
508.041	12337.18
508.409	12415.14
508.777	12418.98
509.145	12575.36
509.514	12653.1
509.882	12697.17
510.25	12782.14
510.618	12829.59
510.986	12893.55
511.354	12979.19
511.722	13095.35
512.09	13143.93
512.458	13181
512.826	13237.04
513.193	13242.24
513.561	13328.34
513.929	13414.89
514.297	13487.65
514.664	13555.67
515.032	13616.69
515.4	13614.2
515.767	13718.61
516.135	13793.86
516.502	13686.97
516.869	13957.92
517.237	13963.57
517.604	13854.42
517.972	13948.88
518.339	14106.62
518.706	13931.71
519.073	14184.36
519.44	14140.74
519.808	14283.57
520.175	14301.19
520.542	14389.1
520.909	14380.51
521.276	14318.14
521.643	14415.99
522.009	14451.47
522.376	14587.29
522.743	14561.98
523.11	14667.51
523.477	14688.53
523.843	14763.33
524.21	14823.66
524.577	14940.27
524.943	14926.94
525.31	15041.74
525.676	15016.88
526.043	15059.14
526.409	15097.33
526.776	15188.4
527.142	15140.94
527.508	15186.37
527.874	15236.53
528.241	15191.79
528.607	15279.02
528.973	15310.2
529.339	15331.45
529.705	15330.09
530.071	15342.52
530.437	15404.21
530.803	15438.34
531.169	15457.32
531.535	15376.42
531.901	15345.91
532.267	15520.82
532.632	15419.35
532.998	15366.02
533.364	15491.44
533.73	15464.33
534.095	15456.19
534.461	15492.12
534.826	15450.77
535.192	15569.86
535.557	15584.77
535.923	15455.74
536.288	15457.55
536.653	15523.76
537.019	15282.41
537.384	15398.56
537.749	15445.12
538.114	15299.81
538.479	15272.01
538.845	15374.38
539.21	15253.48
539.575	15280.38
539.94	15235.18
540.305	15279.02
540.67	15171.68
541.034	15194.95
541.399	15243.54
541.764	15142.98
542.129	15180.04
542.494	15145.24
542.858	15195.18
543.223	15096.43
543.587	15075.41
543.952	15051
544.316	15015.52
544.681	14923.1
545.045	14877.67
545.41	14932.36
545.774	14919.48
546.138	14889.88
546.503	14889.2
546.867	14740.73
547.231	14832.03
547.595	14749.32
547.959	14810.56
548.324	14663.89
548.688	14754.74
549.052	14653.27
549.416	14749.77
549.779	14720.84
550.143	14557
550.507	14654.4
550.871	14688.75
551.235	14523.56
551.599	14630
551.962	14536.21
552.326	14413.73
552.689	14541.64
553.053	14417.12
553.417	14456.22
553.78	14558.36
554.143	14473.84
554.507	14392.71
554.87	14454.18
555.234	14528.53
555.597	14430.23
555.96	14348.42
556.323	14457.12
556.686	14368.99
557.05	14434.52
557.413	14397.46
557.776	14376.67
558.139	14373.51
558.502	14394.3
558.865	14349.1
559.228	14446.72
559.59	14381.64
559.953	14375.99
560.316	14475.65
560.679	14479.49
561.041	14440.17
561.404	14503.22
561.767	14492.83
562.129	14379.16
562.492	14622.31
562.854	14470.9
563.217	14414.18
563.579	14494.18
563.941	14531.69
564.304	14563.78
564.666	14608.75
565.028	14487.18
565.39	14596.33
565.753	14570.11
566.115	14532.15
566.477	14641.52
566.839	14672.26
567.201	14737.34
567.563	14699.37
567.925	14860.95
568.287	14798.81
568.648	14749.77
569.01	14787.51
569.372	14865.24
569.734	14739.37
570.095	14895.07
570.457	14879.48
570.819	14891.68
571.18	14900.72
571.542	14957.67
571.903	14976.65
572.265	14975.52
572.626	14959.48
572.987	14992.47
573.349	14954.28
573.71	14999.25
574.071	15089.65
574.432	15046.48
574.794	15018.91
575.155	15180.72
575.516	15015.75
575.877	15111.79
576.238	15057.33
576.599	15156.99
576.96	15089.19
577.32	15136.42
577.681	15118.8
578.042	15160.38
578.403	15124.45
578.763	15137.33
579.124	15206.25
579.485	15100.72
579.845	15210.09
580.206	15149.76
580.566	15196.99
580.927	15144.11
581.287	15219.59
581.648	15200.15
582.008	15197.44
582.368	15216.87
582.728	15191.79
583.089	15181.39
583.449	15215.07
583.809	15235.63
584.169	15192.47
584.529	15162.41
584.889	15315.85
585.249	15211.45
585.609	15008.29
585.969	15101.85
586.329	15085.13
586.688	15064.56
587.048	15014.17
587.408	15044.45
587.768	14961.06
588.127	15060.04
588.487	14998.12
588.846	15055.07
589.206	15040.38
589.565	14996.77
589.925	15061.85
590.284	15063.21
590.643	15000.61
591.003	15038.57
591.362	14993.6
591.721	15002.64
592.08	15032.7
592.44	15063.88
592.799	15006.48
593.158	14937.11
593.517	14897.79
593.876	14980.72
594.235	14918.35
594.593	14982.98
594.952	14925.36
595.311	14877
595.67	14891.46
596.029	14985.24
596.387	14987.5
596.746	15071.79
597.104	14879.93
597.463	14837.22
597.822	14994.96
598.18	14866.37
598.538	14848.75
598.897	14882.19
599.255	14756.77
599.613	15009.65
599.972	14877.45
600.33	14916.54
600.688	14855.08
601.046	14923.77
601.404	14905.7
601.762	14966.49
602.12	14963.1
602.478	14998.35
602.836	14987.05
603.194	14934.62
603.552	15002.42
603.91	14885.36
604.268	14979.82
604.625	14833.16
604.983	14990.89
605.341	14829.77
605.698	14984.11
606.056	14924
606.413	15013.26
606.771	14996.99
607.128	14964.9
607.485	14947.95
607.843	14959.48
608.2	14999.25
608.557	15072.24
608.914	15008.29
609.272	15131.9
609.629	15036.31
609.986	15051
610.343	15063.66
610.7	15091
611.057	15110.66
611.414	15095.3
611.771	15114.28
612.127	15181.62
612.484	15152.92
612.841	15186.82
613.198	15186.59
613.554	15075.86
613.911	15242.18
614.267	15213.26
614.624	15149.76
614.98	15173.71
615.337	15261.84
615.693	15286.48
616.05	15291.9
616.406	15239.92
616.762	15248.06
617.118	15210.32
617.475	15320.15
617.831	15428.17
618.187	15371.9
618.543	15366.47
618.899	15424.78
619.255	15447.83
619.611	15357.21
619.967	15486.7
620.323	15427.26
620.678	15380.71
621.034	15300.04
621.39	15316.08
621.746	15378.45
622.101	15517.43
622.457	15310.66
622.812	15437.66
623.168	15425.46
623.523	15383.88
623.879	15485.12
624.234	15362.63
624.589	15350.2
624.945	15440.82
625.3	15419.13
625.655	15443.08
626.01	15440.37
626.365	15362.18
626.72	15396.08
627.075	15375.97
627.43	15335.97
627.785	15314.95
628.14	15349.07
628.495	15441.95
628.85	15366.47
629.205	15349.3
629.559	15384.1
629.914	15334.84
630.269	15323.54
630.623	15253.48
630.978	15280.83
631.332	15312.24
631.687	15319.92
632.041	15219.13
632.396	15331.45
632.75	15234.5
633.104	15243.54
633.459	15172.81
633.813	15192.02
634.167	15076.31
634.521	15155.41
634.875	15057.56
635.229	15154.05
635.583	15058.91
635.937	15015.07
636.291	15056.2
636.645	15086.26
636.999	15006.48
637.352	15040.61
637.706	14970.55
638.06	15043.32
638.413	15018.46
638.767	14937.79
639.121	14981.85
639.474	14822.31
639.828	14866.83
640.181	14892.14
640.534	14876.09
640.888	14859.37
641.241	14741.41
641.594	14773.95
641.947	14836.32
642.301	14729.43
642.654	14781.41
643.007	14862.98
643.36	14738.02
643.713	14734.17
644.066	14790.9
644.419	14682.42
644.771	14638.36
645.124	14483.11
645.477	14428.65
645.83	14384.13
646.182	14353.17
646.535	14304.13
646.888	14255.54
647.24	14190.91
647.593	14251.02
647.945	14324.47
648.298	14144.36
648.65	14158.14
649.002	14144.13
649.355	14204.02
649.707	14155.66
650.059	14357.91
650.411	14477.68
650.763	14462.09
651.115	14609.43
651.467	14416.22
651.819	14535.08
652.171	14511.81
652.523	14449.44
652.875	14390.23
653.227	14396.78
653.578	14518.81
653.93	14559.04
654.282	14568.53
654.633	14428.42
654.985	14534.41
655.337	14517.91
655.688	14492.6
656.039	14604.01
656.391	14441.08
656.742	14476.55
657.094	14467.97
657.445	14518.36
657.796	14510.9
658.147	14469.55
658.498	14439.49
658.849	14548.64
659.2	14512.71
659.551	14427.06
659.902	14506.84
660.253	14564.01
660.604	14554.52
660.955	14391.36
661.306	14578.92
661.656	14568.08
662.007	14593.16
662.358	14538.02
662.708	14513.39
663.059	14562.88
663.409	14430.91
663.76	14551.58
664.11	14502.77
664.461	14598.81
664.811	14501.86
665.161	14541.64
665.511	14530.79
665.862	14469.55
666.212	14621.41
666.562	14626.83
666.912	14521.07
667.262	14517.91
667.612	14492.15
667.962	14550.9
668.312	14577.34
668.662	14605.14
669.011	14507.29
669.361	14412.38
669.711	14448.31
670.06	14507.97
670.41	14509.55
670.76	14429.55
671.109	14544.35
671.459	14470.9
671.808	14534.86
672.157	14534.63
672.507	14379.83
672.856	14383.45
673.205	14405.37
673.554	14544.58
673.904	14393.62
674.253	14519.72
674.602	14494.18
674.951	14271.81
675.3	14161.08
675.649	14379.83
675.998	14327.18
676.346	14337.8
676.695	14308.65
677.044	14186.84
677.393	14305.71
677.741	14261.19
678.09	14182.78
678.438	14234.98
678.787	14202.44
679.135	14172.61
679.484	14153.85
679.832	14120.18
680.181	14066.85
680.529	14112.72
680.877	14110.46
681.225	14135.55
681.573	14156.34
681.922	14034.53
682.27	14043.8
682.618	14030.69
682.966	13975.1
683.314	13932.39
683.661	13863.01
684.009	13866.4
684.357	13884.71
684.705	13843.12
685.053	13841.99
685.4	13700.98
685.748	13649.01
686.095	13642
686.443	13657.14
686.79	13610.36
687.138	13654.66
687.485	13657.59
687.832	13609.23
688.18	13556.35
688.527	13484.72
688.874	13452.85
689.221	13370.37
689.568	13400.88
689.915	13313.65
690.262	13401.33
690.609	13275.46
690.956	13225.74
691.303	13208.34
691.65	13115.01
691.997	13225.29
692.344	13057.83
692.69	13052.41
693.037	12964.5
693.383	12913.43
693.73	12927.44
694.077	12907.78
694.423	12858.29
694.769	12891.51
695.116	12731.06
695.462	12782.81
695.808	12666.66
696.155	12712.76
696.501	12582.82
696.847	12618.75
697.193	12451.97
697.539	12575.14
697.885	12409.94
698.231	12345.31
698.577	12369.72
698.923	12346.89
699.269	12249.27
699.614	12134.92
699.96	12181.93
700.306	12128.82
700.651	12133.57
700.997	12114.36
701.342	11901.93
701.688	11943.06
702.033	11928.37
702.379	11957.52
702.724	11869.62
703.069	11876.85
703.415	11713.92
703.76	11777.19
704.105	11777.19
704.45	11718.21
704.795	11615.61
705.14	11617.87
705.485	11553.69
705.83	11506.69
706.175	11569.29
706.52	11449.52
706.865	11398.9
707.209	11475.73
707.554	11352.57
707.899	11351.44
708.243	11309.18
708.588	11217.66
708.932	11230.09
709.277	11217.21
709.621	11107.83
709.966	11210.65
710.31	11056.31
710.654	11028.51
710.998	11066.47
711.342	11015.18
711.687	11017.44
712.031	10904.9
712.375	10918.46
712.719	10894.05
713.063	10877.55
713.407	10949.42
713.75	10814.5
714.094	10799.14
714.438	10854.73
714.782	10905.12
715.125	10760.27
715.469	10819.25
715.812	10744.45
716.156	10672.13
716.499	10679.37
716.843	10661.29
717.186	10649.31
717.53	10700.83
717.873	10679.59
718.216	10591.23
718.559	10515.08
718.902	10492.03
719.246	10554.62
719.589	10523.89
719.932	10480.73
720.275	10480.73
720.617	10428.53
720.96	10393.72
721.303	10384.91
721.646	10438.92
721.989	10400.96
722.331	10390.56
722.674	10448.64
723.016	10370.67
723.359	10378.36
723.701	10307.62
724.044	10381.07
724.386	10290.45
724.729	10404.57
725.071	10270.34
725.413	10280.28
725.755	10235.99
726.097	10300.84
726.439	10231.69
726.782	10229.43
727.124	10339.49
727.465	10233.05
727.807	10174.52
728.149	10221.75
728.491	10229.21
728.833	10235.76
729.175	10185.59
729.516	10142.21
729.858	10068.31
730.199	10179.94
730.541	10098.36
730.882	10126.39
731.224	10153.05
731.565	10140.85
731.906	10123.45
732.248	10170
732.589	10093.39
732.93	10046.61
733.271	10042.77
733.612	10143.33
733.953	10101.3
734.294	10071.02
734.635	10074.18
734.976	10141.3
735.317	10040.74
735.658	10060.63
735.999	10075.09
736.339	10107.63
736.68	10177.46
737.021	10126.16
737.361	10045.71
737.702	10173.62
738.042	10122.32
738.383	10072.83
738.723	10158.7
739.063	10063.56
739.404	10124.8
739.744	10136.1
740.084	10080.74
740.424	10130
740.764	10118.48
741.104	10153.73
741.444	10152.6
741.784	10178.59
742.124	10141.3
742.464	10216.1
742.804	10151.7
743.143	10228.08
743.483	10219.27
743.823	10214.07
744.162	10328.19
744.502	10340.17
744.841	10272.37
745.181	10434.85
745.52	10408.64
745.86	10443.67
746.199	10447.28
746.538	10473.5
746.877	10524.57
747.216	10561.63
747.556	10669.2
747.895	10703.77
748.234	10724.34
748.573	10796.88
748.911	10863.09
749.25	10898.8
749.589	10926.14
749.928	10951
750.267	11147.15
750.605	11086.36
750.944	11157.32
751.283	11239.13
751.621	11365.9
751.96	11318.9
752.298	11492.23
752.636	11594.37
752.975	11630.75
753.313	11722.73
753.651	11856.28
753.989	11901.03
754.327	11953.68
754.666	12050.86
755.004	12316.16
755.342	12317.74
755.679	12508.7
