Data from hue_170_FLMS001491_00064.txt Node
Date: Tue Feb 07 16:49:01 GMT 2017
User: dcchb
Spectrometer: FLMS00149
Trigger mode: 0
Integration Time (sec): 2.000000E-2
Scans to average: 10
Electric dark correction enabled: true
Nonlinearity correction enabled: false
Boxcar width: 0
XAxis mode: Wavelengths
Number of Pixels in Spectrum: 2048
>>>>>Begin Spectral Data<<<<<
341.393	-26.28
341.776	-26.28
342.16	-26.28
342.543	-47.98
342.927	-52.95
343.31	-65.15
343.693	-70.35
344.077	-71.93
344.46	-61.09
344.843	-57.7
345.226	-46.85
345.61	-34.87
345.993	-16.57
346.376	30.21
346.759	11
347.142	23.88
347.525	56.88
347.908	56.88
348.291	58.68
348.674	86.03
349.057	100.94
349.44	130.77
349.823	143.2
350.206	161.06
350.588	196.08
350.971	211.9
351.354	222.75
351.737	241.73
352.119	257.32
352.502	265.69
352.884	282.41
353.267	280.6
353.65	289.41
354.032	300.03
354.414	323.99
354.797	326.93
355.179	345.46
355.562	328.28
355.944	332.58
356.326	321.5
356.709	357.43
357.091	345.46
357.473	337.77
357.855	338.68
358.238	352.24
358.62	352.01
359.002	366.7
359.384	347.04
359.766	363.08
360.148	354.72
360.53	339.58
360.912	344.33
361.294	332.58
361.676	320.15
362.057	311.11
362.439	333.93
362.821	340.26
363.203	331.22
363.584	332.35
363.966	325.12
364.348	321.95
364.729	316.76
365.111	303.88
365.493	316.98
365.874	316.31
366.256	294.84
366.637	301.84
367.019	310.66
367.4	309.53
367.781	312.46
368.163	337.32
368.544	298.45
368.925	290.77
369.306	319.24
369.688	315.85
370.069	314.05
370.45	303.88
370.831	314.95
371.212	330.99
371.593	309.75
371.974	330.99
372.355	318.79
372.736	319.69
373.117	307.49
373.498	311.33
373.879	307.27
374.26	301.84
374.641	319.47
375.021	327.38
375.402	314.72
375.783	312.92
376.163	326.47
376.544	323.08
376.925	338.23
377.305	344.78
377.686	339.36
378.066	319.24
378.447	322.86
378.827	342.97
379.208	330.77
379.588	328.28
379.968	332.12
380.349	332.8
380.729	338
381.109	335.74
381.489	354.27
381.87	339.13
382.25	351.78
382.63	336.87
383.01	328.06
383.39	359.92
383.77	353.14
384.15	349.07
384.53	356.08
384.91	348.62
385.29	347.04
385.67	347.72
386.049	356.98
386.429	354.27
386.809	364.44
387.189	354.27
387.568	342.75
387.948	354.27
388.328	372.35
388.707	364.89
389.087	343.2
389.466	384.1
389.846	370.32
390.225	365.8
390.605	363.99
390.984	384.78
391.363	387.49
391.743	384.1
392.122	383.2
392.501	366.7
392.881	393.37
393.26	413.93
393.639	383.42
394.018	374.83
394.397	374.38
394.776	392.69
395.155	387.26
395.534	383.2
395.913	394.27
396.292	397.89
396.671	391.33
397.05	401.73
397.429	405.12
397.808	412.57
398.186	383.65
398.565	394.95
398.944	394.72
399.323	402.18
399.701	404.44
400.08	416.42
400.458	401.05
400.837	416.19
401.215	401.05
401.594	415.74
401.972	431.56
402.351	422.52
402.729	388.85
403.107	415.51
403.486	429.52
403.864	458.45
404.242	435.85
404.62	443.53
404.999	425.23
405.377	441.73
405.755	461.84
406.133	456.41
406.511	468.62
406.889	439.47
407.267	452.57
407.645	482.18
408.023	465
408.401	465.45
408.779	449.41
409.156	475.85
409.534	475.4
409.912	467.94
410.29	492.57
410.667	503.64
411.045	514.04
411.422	518.56
411.8	527.15
412.178	526.02
412.555	519.69
412.933	545.45
413.31	531.21
413.687	553.59
414.065	549.29
414.442	568.5
414.819	556.52
415.197	556.98
415.574	579.58
415.951	573.47
416.328	568.73
416.705	575.06
417.082	605.79
417.46	597.88
417.837	612.79
418.214	609.63
418.591	614.15
418.967	600.37
419.344	613.7
419.721	646.01
420.098	645.34
420.475	627.03
420.852	647.82
421.228	657.31
421.605	665.45
421.982	643.08
422.358	672.68
422.735	711.55
423.111	677.2
423.488	671.1
423.864	701.15
424.241	710.65
424.617	709.52
424.994	733.47
425.37	727.82
425.746	722.85
426.123	723.3
426.499	749.51
426.875	764.66
427.251	761.72
427.627	761.94
428.003	775.28
428.379	773.47
428.756	806.46
429.132	790.42
429.507	800.13
429.883	806.69
430.259	803.3
430.635	843.75
431.011	837.87
431.387	857.53
431.763	867.03
432.138	879.45
432.514	883.97
432.89	876.29
433.265	909.06
433.641	920.13
434.016	924.88
434.392	946.12
434.767	957.19
435.143	956.97
435.518	955.38
435.894	1007.59
436.269	995.84
436.644	1016.4
437.02	1017.08
437.395	1026.57
437.77	1033.57
438.145	1043.74
438.52	1061.82
438.895	1089.39
439.271	1100.01
439.646	1095.04
440.021	1130.52
440.395	1117.19
440.77	1133.23
441.145	1125.55
441.52	1150.41
441.895	1170.97
442.27	1175.72
442.645	1181.37
443.019	1197.19
443.394	1199.9
443.769	1218.65
444.143	1233.57
444.518	1266.79
444.892	1232.44
445.267	1248.71
445.641	1236.06
446.016	1276.28
446.39	1293.45
446.764	1274.47
447.139	1285.09
447.513	1290.52
447.887	1311.76
448.262	1313.79
448.636	1302.04
449.01	1323.51
449.384	1382.49
449.758	1339.33
450.132	1388.14
450.506	1392.89
450.88	1376.39
451.254	1372.1
451.628	1434.24
452.002	1445.99
452.376	1433.34
452.75	1464.3
453.123	1488.48
453.497	1501.58
453.871	1512.21
454.244	1533.9
454.618	1559.21
454.992	1574.58
455.365	1597.85
455.739	1621.36
456.112	1605.08
456.486	1673.78
456.859	1692.31
457.232	1708.81
457.606	1684.86
457.979	1712.2
458.352	1721.47
458.725	1787.9
459.099	1796.04
459.472	1812.99
459.845	1839.66
460.218	1844.4
460.591	1902.03
460.964	1882.14
461.337	1976.37
461.71	1966.43
462.083	2002.59
462.456	2003.27
462.829	2024.06
463.201	2065.41
463.574	2066.54
463.947	2127.56
464.32	2170.95
464.692	2180.21
465.065	2168.01
465.438	2261.34
465.81	2259.08
466.183	2297.72
466.555	2329.36
466.928	2362.81
467.3	2382.92
467.672	2436.7
468.045	2481.45
468.417	2539.07
468.789	2523.25
469.161	2556.7
469.534	2624.04
469.906	2692.97
470.278	2719.63
470.65	2768.44
471.022	2797.82
471.394	2905.62
471.766	2918.72
472.138	3007.31
472.51	3041.43
472.882	3091.15
473.253	3108.77
473.625	3227.42
473.997	3260.18
474.369	3286.17
474.74	3361.42
475.112	3459.05
475.484	3548.08
475.855	3612.72
476.227	3677.8
476.598	3770
476.97	3849.55
477.341	3961.18
477.713	3997.56
478.084	4045.25
478.455	4173.6
478.827	4277.56
479.198	4403.43
479.569	4468.29
479.94	4574.05
480.311	4642.75
480.682	4782.4
481.053	4937.43
481.424	5018.78
481.795	5070.3
482.166	5203.86
482.537	5282.28
482.908	5478.88
483.279	5543.29
483.65	5696.73
484.021	5806.33
484.391	5946.44
484.762	6064.85
485.133	6143.04
485.503	6292.65
485.874	6454.67
486.244	6506.42
486.615	6708.45
486.985	6802.69
487.356	6947.77
487.726	7016.24
488.097	7240.87
488.467	7307.99
488.837	7453.74
489.207	7623.23
489.578	7782.78
489.948	7827.97
490.318	8046.5
490.688	8183.67
491.058	8272.71
491.428	8463.89
491.798	8573.26
492.168	8758.8
492.538	8761.73
492.908	8909.75
493.278	9089.41
493.648	9185.68
494.017	9270.87
494.387	9435.16
494.757	9547.7
495.126	9658.43
495.496	9707.02
495.866	9806.68
496.235	9985.43
496.605	10035.37
496.974	10170.96
497.344	10282.14
497.713	10337.06
498.082	10485.53
498.452	10588.35
498.821	10581.35
499.19	10708.8
499.559	10817.05
499.928	10964.61
500.298	10940.43
500.667	11102.46
501.036	11024.95
501.405	11250.48
501.774	11296.36
502.143	11356.47
502.512	11425.17
502.88	11498.84
503.249	11518.5
503.618	11582.22
503.987	11657.02
504.356	11741.77
504.724	11772.95
505.093	11856.34
505.462	11873.29
505.83	12011.59
506.199	12025.38
506.567	12257.91
506.936	12210
507.304	12276.67
507.672	12306.95
508.041	12426.72
508.409	12512.37
508.777	12542.2
509.145	12599.15
509.514	12569.54
509.882	12677.11
510.25	12684.57
510.618	12824.22
510.986	12826.26
511.354	12966.14
511.722	12967.5
512.09	13039.13
512.458	13040.04
512.826	13158
513.193	13149.87
513.561	13192.35
513.929	13234.84
514.297	13287.72
514.664	13325.23
515.032	13365.45
515.4	13443.19
515.767	13478.67
516.135	13537.43
516.502	13473.25
516.869	13573.58
517.237	13655.39
517.604	13597.54
517.972	13620.59
518.339	13765.9
518.706	13674.82
519.073	13694.03
519.44	13733.81
519.808	13823.75
520.175	13830.07
520.542	13938.32
520.909	13922.05
521.276	13932.67
521.643	13992.33
522.009	14035.72
522.376	14026.68
522.743	14054.7
523.11	14199.33
523.477	14230.52
523.843	14179.22
524.21	14407.46
524.577	14339.21
524.943	14334.47
525.31	14451.98
525.676	14514.8
526.043	14397.74
526.409	14547.57
526.776	14483.16
527.142	14533.11
527.508	14575.37
527.874	14580.11
528.241	14615.59
528.607	14588.7
528.973	14675.48
529.339	14587.57
529.705	14634.35
530.071	14684.97
530.437	14621.92
530.803	14717.73
531.169	14766.55
531.535	14598.87
531.901	14580.56
532.267	14709.37
532.632	14646.55
532.998	14693.55
533.364	14635.25
533.73	14684.52
534.095	14710.96
534.461	14559.32
534.826	14625.99
535.192	14629.83
535.557	14582.37
535.923	14555.25
536.288	14662.37
536.653	14549.83
537.019	14462.37
537.384	14466.44
537.749	14494.46
538.114	14489.94
538.479	14448.36
538.845	14380.79
539.21	14315.26
539.575	14311.87
539.94	14294.47
540.305	14343.28
540.67	14262.38
541.034	14298.76
541.399	14193
541.764	14157.3
542.129	14096.51
542.494	14037.98
542.858	14103.74
543.223	14051.31
543.587	14062.38
543.952	13940.58
544.316	13848.6
544.681	13871.2
545.045	13837.53
545.41	13823.07
545.774	13826.68
546.138	13703.07
546.503	13712.11
546.867	13584.43
547.231	13673.02
547.595	13714.37
547.959	13633.47
548.324	13657.88
548.688	13474.6
549.052	13557.31
549.416	13526.13
549.779	13441.16
550.143	13330.43
550.507	13432.34
550.871	13409.97
551.235	13271.9
551.599	13425.11
551.962	13294.04
552.326	13226.47
552.689	13245.68
553.053	13195.97
553.417	13146.02
553.78	13216.08
554.143	13119.81
554.507	13146.48
554.87	13144.44
555.234	13159.13
555.597	13069.87
555.96	13037.55
556.323	13085.01
556.686	13110.77
557.05	13059.25
557.413	12961.62
557.776	12976.76
558.139	13039.13
558.502	12974.28
558.865	12954.17
559.228	12994.62
559.59	12962.3
559.953	12883.43
560.316	13014.95
560.679	13014.28
561.041	13038.68
561.404	12999.81
561.767	13099.47
562.129	12967.05
562.492	13071.68
562.854	12959.36
563.217	12946.93
563.579	12988.29
563.941	13040.26
564.304	13003.88
564.666	13063.77
565.028	13096.53
565.39	13049.53
565.753	13087.72
566.115	13066.03
566.477	13194.16
566.839	13093.82
567.201	13154.16
567.563	13084.11
567.925	13156.42
568.287	13026.03
568.648	13066.25
569.01	13165.46
569.372	13161.39
569.734	13138.34
570.095	13144.67
570.457	13207.72
570.819	13236.19
571.18	13185.35
571.542	13207.94
571.903	13228.51
572.265	13293.59
572.626	13223.08
572.987	13260.37
573.349	13269.64
573.71	13303.53
574.071	13311.9
574.432	13344.66
574.794	13349.86
575.155	13292.69
575.516	13287.94
575.877	13311.9
576.238	13284.33
576.599	13351.67
576.96	13345.12
577.32	13269.41
577.681	13304.21
578.042	13407.94
578.403	13376.53
578.763	13381.95
579.124	13327.49
579.485	13323.19
579.845	13411.55
580.206	13390.99
580.566	13398.22
580.927	13410.88
581.287	13436.41
581.648	13260.6
582.008	13434.6
582.368	13347.38
582.728	13429.86
583.089	13321.84
583.449	13333.14
583.809	13323.87
584.169	13328.62
584.529	13267.38
584.889	13322.29
585.249	13241.62
585.609	13239.81
585.969	13290.43
586.329	13264.21
586.688	13309.41
587.048	13239.36
587.408	13191.9
587.768	13160.04
588.127	13151
588.487	13218.56
588.846	13257.21
589.206	13111.22
589.565	13168.17
589.925	13213.37
590.284	13103.77
590.643	13154.61
591.003	13122.07
591.362	13107.61
591.721	13116.19
592.08	13105.57
592.44	13152.35
592.799	13037.55
593.158	13079.13
593.517	13101.96
593.876	13054.73
594.235	12979.48
594.593	13008.85
594.952	13080.72
595.311	12972.7
595.67	12949.42
596.029	13102.18
596.387	13105.57
596.746	13077.1
597.104	13031.45
597.463	12911
597.822	13014.73
598.18	13033.94
598.538	12898.57
598.897	13032.36
599.255	12978.35
599.613	13010.66
599.972	13008.17
600.33	13015.63
600.688	12959.14
601.046	12945.35
601.404	13025.35
601.762	12976.76
602.12	12984.67
602.478	12993.94
602.836	13038
603.194	12942.41
603.552	12968.4
603.91	12886.14
604.268	12992.58
604.625	12882.53
604.983	12954.84
605.341	12873.04
605.698	12962.3
606.056	12994.16
606.413	12889.76
606.771	13018.8
607.128	13055.86
607.485	12979.93
607.843	12998.23
608.2	13036.65
608.557	13067.16
608.914	12983.09
609.272	13034.39
609.629	13000.72
609.986	13093.82
610.343	13056.54
610.7	13082.3
611.057	13094.95
611.414	13078.68
611.771	13090.66
612.127	13132.24
612.484	13099.25
612.841	13092.01
613.198	13127.95
613.554	13114.39
613.911	13220.82
614.267	13167.49
614.624	13108.29
614.98	13168.62
615.337	13315.96
615.693	13237.32
616.05	13234.16
616.406	13309.41
616.762	13198.45
617.118	13176.53
617.475	13162.52
617.831	13297.21
618.187	13289.07
618.543	13306.92
618.899	13336.75
619.255	13335.62
619.611	13291.11
619.967	13382.85
620.323	13378.79
620.678	13340.14
621.034	13279.35
621.39	13235.06
621.746	13273.7
622.101	13433.47
622.457	13276.64
622.812	13279.81
623.168	13307.83
623.523	13308.73
623.879	13398
624.234	13207.94
624.589	13338.79
624.945	13372.91
625.3	13266.02
625.655	13315.06
626.01	13269.19
626.365	13301.05
626.72	13249.52
627.075	13300.37
627.43	13350.54
627.785	13228.51
628.14	13263.08
628.495	13236.42
628.85	13238
629.205	13223.99
629.559	13329.3
629.914	13224.89
630.269	13235.29
630.623	13197.1
630.978	13106.48
631.332	13157.55
631.687	13223.31
632.041	13102.86
632.396	13230.99
632.75	13131.56
633.104	13124.78
633.459	13064.67
633.813	13061.51
634.167	13067.83
634.521	13076.65
634.875	13120.04
635.229	13027.16
635.583	12987.84
635.937	13016.76
636.291	12947.16
636.645	12985.35
636.999	12873.94
637.352	12994.62
637.706	12879.59
638.06	13010.66
638.413	12944.9
638.767	12819.93
639.121	12886.37
639.474	12763.89
639.828	12768.41
640.181	12805.69
640.534	12843.89
640.888	12760.5
641.241	12708.75
641.594	12729.54
641.947	12814.06
642.301	12788.97
642.654	12695.41
643.007	12718.24
643.36	12777.22
643.713	12709.88
644.066	12733.15
644.419	12693.15
644.771	12532.03
645.124	12433.05
645.477	12375.2
645.83	12389.89
646.182	12250
646.535	12271.25
646.888	12348.98
647.24	12122.77
647.593	12237.35
647.945	12266.5
648.298	12245.48
648.65	12181.53
649.002	12200.06
649.355	12228.31
649.707	12270.57
650.059	12347.85
650.411	12428.76
650.763	12526.15
651.115	12590.78
651.467	12590.78
651.819	12549.66
652.171	12575.87
652.523	12484.35
652.875	12501.75
653.227	12411.58
653.578	12623.55
653.93	12565.02
654.282	12472.82
654.633	12489.32
654.985	12512.37
655.337	12555.98
655.688	12484.8
656.039	12594.17
656.391	12536.77
656.742	12554.18
657.094	12464.69
657.445	12491.35
657.796	12463.33
658.147	12514.18
658.498	12459.94
658.849	12553.95
659.2	12540.39
659.551	12512.14
659.902	12564.12
660.253	12525.93
660.604	12517.57
660.955	12531.8
661.306	12535.19
661.656	12588.52
662.007	12556.66
662.358	12595.76
662.708	12548.53
663.059	12570.45
663.409	12424.01
663.76	12612.48
664.11	12566.6
664.461	12561.18
664.811	12558.02
665.161	12536.32
665.511	12470.56
665.862	12594.17
666.212	12523.22
666.562	12577.45
666.912	12604.8
667.262	12604.12
667.612	12562.08
667.962	12543.78
668.312	12593.04
668.662	12673.27
669.011	12606.83
669.361	12529.32
669.711	12551.92
670.06	12592.14
670.41	12542.2
670.76	12563.89
671.109	12493.61
671.459	12470.34
671.808	12451.81
672.157	12479.38
672.507	12484.35
672.856	12440.28
673.205	12488.41
673.554	12488.19
673.904	12384.24
674.253	12514.63
674.602	12520.96
674.951	12290.68
675.3	12141.53
675.649	12321.87
675.998	12392.15
676.346	12358.47
676.695	12361.86
677.044	12329.1
677.393	12464.01
677.741	12417
678.09	12324.8
678.438	12296.78
678.787	12348.98
679.135	12284.8
679.484	12240.96
679.832	12337.46
680.181	12163.23
680.529	12250.23
680.877	12242.32
681.225	12168.42
681.573	12289.78
681.922	12165.49
682.27	12193.73
682.618	12147.86
682.966	12072.61
683.314	12046.39
683.661	12056.34
684.009	11941.76
684.357	12028.31
684.705	12023.79
685.053	11911.25
685.4	11958.49
685.748	11867.87
686.095	11783.12
686.443	11799.62
686.79	11812.27
687.138	11769.79
687.485	11806.85
687.832	11802.56
688.18	11778.83
688.527	11622.45
688.874	11634.65
689.221	11602.11
689.568	11558.04
689.915	11498.38
690.262	11531.38
690.609	11486.41
690.956	11494.77
691.303	11426.3
691.65	11349.01
691.997	11323.47
692.344	11168.9
692.69	11317.82
693.037	11198.96
693.383	11147.21
693.73	11152.86
694.077	11104.95
694.423	11056.81
694.769	11053.88
695.116	10965.97
695.462	10924.61
695.808	10925.29
696.155	10895.46
696.501	10803.94
696.847	10816.37
697.193	10753.32
697.539	10789.02
697.885	10672.42
698.231	10610.5
698.577	10599.42
698.923	10610.05
699.269	10601.68
699.614	10500.44
699.96	10519.65
700.306	10424.51
700.651	10423.84
700.997	10336.83
701.342	10355.36
701.688	10271.3
702.033	10243.73
702.379	10230.17
702.724	10196.05
703.069	10191.98
703.415	10052.32
703.76	10060.68
704.105	10059.33
704.45	10014.58
704.795	10031.53
705.14	10022.72
705.485	9951.53
705.83	9911.08
706.175	9896.84
706.52	9886.22
706.865	9761.71
707.209	9810.74
707.554	9766.45
707.899	9793.12
708.243	9702.95
708.588	9644.2
708.932	9599.68
709.277	9543.41
709.621	9531.88
709.966	9515.16
710.31	9551.54
710.654	9430.42
710.998	9466.57
711.342	9467.03
711.687	9443.97
712.031	9367.59
712.375	9338.21
712.719	9378.21
713.063	9315.16
713.407	9282.17
713.75	9277.2
714.094	9287.59
714.438	9207.6
714.782	9248.73
715.125	9225
715.469	9256.41
715.812	9179.58
716.156	9154.72
716.499	9183.87
716.843	9065.45
717.186	9061.16
717.53	9145.9
717.873	9111.55
718.216	9078.79
718.559	9047.15
718.902	9002.63
719.246	9047.83
719.589	8991.33
719.932	8947.49
720.275	9059.8
720.617	8985
720.96	8970.54
721.303	8926.02
721.646	8943.88
721.989	8872.46
722.331	8940.71
722.674	8968.51
723.016	8925.8
723.359	8845.35
723.701	8891.67
724.044	8905.68
724.386	8803.54
724.729	8803.77
725.071	8795.18
725.413	8795.18
725.755	8829.08
726.097	8801.73
726.439	8770.32
726.782	8783.65
727.124	8779.59
727.465	8817.32
727.807	8746.59
728.149	8754.5
728.491	8635.18
728.833	8730.55
729.175	8698.01
729.516	8733.71
729.858	8776.42
730.199	8796.31
730.541	8717.44
730.882	8723.32
731.224	8748.17
731.565	8662.53
731.906	8728.97
732.248	8693.26
732.589	8667.05
732.93	8693.71
733.271	8706.59
733.612	8721.28
733.953	8764.44
734.294	8719.93
734.635	8715.63
734.976	8670.44
735.317	8720.15
735.658	8700.49
735.999	8785.69
736.339	8699.59
736.68	8749.08
737.021	8685.8
737.361	8717.21
737.702	8772.35
738.042	8781.62
738.383	8710.89
738.723	8719.47
739.063	8726.71
739.404	8789.98
739.744	8752.47
740.084	8790.66
740.424	8802.86
740.764	8829.3
741.104	8881.5
741.444	8832.47
741.784	8746.14
742.124	8867.27
742.464	8884.67
742.804	8880.83
743.143	8912.01
743.483	8939.81
743.823	8888.06
744.162	9039.92
744.502	9014.83
744.841	9060.93
745.181	9053.02
745.52	9087.6
745.86	9124.66
746.199	9123.76
746.538	9199.46
746.877	9286.92
747.216	9257.54
747.556	9338.67
747.895	9384.32
748.234	9392.22
748.573	9497.53
748.911	9517.19
749.25	9540.92
749.589	9654.59
749.928	9753.12
750.267	9843.74
750.605	9851.87
750.944	9880.8
751.283	10045.31
751.621	10081.02
751.96	10197.18
752.298	10170.28
752.636	10395.14
752.975	10313.78
753.313	10475.59
753.651	10665.19
753.989	10734.34
754.327	10855.24
754.666	10947.44
755.004	11084.38
755.342	11211.16
755.679	11319.86
756.017	11369.8
756.355	11634.88
756.693	11711.71
757.031	11845.72
757.368	12041.65
757.706	12170.46
758.044	12216.33
