Data from hue_340_FLMS001491_85.txt Node
Date: Mon Feb 06 15:43:44 GMT 2017
User: dcchb
Spectrometer: FLMS00149
Trigger mode: 0
Integration Time (sec): 2.000000E-2
Scans to average: 10
Electric dark correction enabled: true
Nonlinearity correction enabled: false
Boxcar width: 0
XAxis mode: Wavelengths
Number of Pixels in Spectrum: 2048
>>>>>Begin Spectral Data<<<<<
341.393	-11.38
341.776	-11.38
342.16	-11.38
342.543	-62.91
342.927	-62.23
343.31	-79.18
343.693	-80.99
344.077	-64.72
344.46	-55
344.843	-33.08
345.226	-24.94
345.61	-26.07
345.993	-32.4
346.376	2.4
346.759	19.8
347.142	25.9
347.525	36.75
347.908	65.22
348.291	78.56
348.674	83.53
349.057	84.21
349.44	139.12
349.823	154.49
350.206	164.66
350.588	189.51
350.971	191.77
351.354	221.83
351.737	237.65
352.119	252.34
352.502	275.16
352.884	256.63
353.267	268.16
353.65	281.26
354.032	292.11
354.414	278.78
354.797	286.46
355.179	330.75
355.562	330.98
355.944	321.04
356.326	302.73
356.709	327.59
357.091	314.48
357.473	348.61
357.855	337.31
358.238	336.4
358.62	328.27
359.002	328.95
359.384	335.73
359.766	327.59
360.148	316.29
360.53	323.75
360.912	326.01
361.294	325.56
361.676	321.04
362.057	323.97
362.439	327.59
362.821	325.78
363.203	305.44
363.584	317.2
363.966	331.21
364.348	326.69
364.729	320.13
365.111	328.49
365.493	318.55
365.874	326.69
366.256	307.7
366.637	313.13
367.019	333.24
367.4	325.78
367.781	306.35
368.163	296.4
368.544	315.16
368.925	276.97
369.306	300.02
369.688	284.65
370.069	296.18
370.45	300.02
370.831	288.72
371.212	284.2
371.593	310.64
371.974	312
372.355	303.86
372.736	311.09
373.117	308.61
373.498	327.36
373.879	299.79
374.26	297.31
374.641	311.09
375.021	315.16
375.402	327.59
375.783	322.39
376.163	325.1
376.544	304.54
376.925	312.22
377.305	314.26
377.686	312.9
378.066	304.09
378.447	318.1
378.827	326.01
379.208	301.15
379.588	347.48
379.968	334.82
380.349	318.1
380.729	311.77
381.109	330.08
381.489	333.47
381.87	340.02
382.25	326.46
382.63	320.58
383.01	319.68
383.39	313.81
383.77	337.31
384.15	339.12
384.53	330.98
384.91	339.12
385.29	331.21
385.67	362.62
386.049	328.95
386.429	335.95
386.809	362.84
387.189	349.06
387.568	353.35
387.948	326.01
388.328	355.61
388.707	363.75
389.087	352.22
389.466	364.65
389.846	348.61
390.225	356.06
390.605	348.15
390.984	354.26
391.363	370.3
391.743	375.72
392.122	360.36
392.501	358.55
392.881	369.85
393.26	363.97
393.639	360.13
394.018	365.78
394.397	369.62
394.776	380.92
395.155	383.63
395.534	365.1
395.913	370.98
396.292	353.35
396.671	358.32
397.05	364.88
397.429	363.52
397.808	379.79
398.186	384.09
398.565	380.47
398.944	380.02
399.323	375.5
399.701	374.59
400.08	389.28
400.458	381.37
400.837	372.11
401.215	380.7
401.594	385.22
401.972	377.31
402.351	418.21
402.729	386.35
403.107	420.47
403.486	404.42
403.864	400.58
404.242	398.77
404.62	428.6
404.999	405.1
405.377	406.68
405.755	415.72
406.133	435.61
406.511	411.2
406.889	433.35
407.267	423.41
407.645	435.38
408.023	443.07
408.401	426.12
408.779	434.48
409.156	417.08
409.534	453.91
409.912	445.1
410.29	471.77
410.667	438.1
411.045	446.46
411.422	441.94
411.8	491.2
412.178	448.27
412.555	462.05
412.933	455.5
413.31	480.13
413.687	480.35
414.065	489.85
414.442	472.67
414.819	468.38
415.197	484.2
415.574	488.72
415.951	498.89
416.328	519.22
416.705	505.89
417.082	500.47
417.46	507.92
417.837	529.17
418.214	527.81
418.591	528.94
418.967	519
419.344	527.13
419.721	521.71
420.098	545.44
420.475	522.16
420.852	546.34
421.228	551.09
421.605	554.48
421.982	551.31
422.358	555.15
422.735	575.27
423.111	562.16
423.488	577.08
423.864	578.88
424.241	607.36
424.617	573.91
424.994	611.2
425.37	609.62
425.746	603.52
426.123	617.75
426.499	624.08
426.875	595.61
427.251	622.27
427.627	617.3
428.003	636.51
428.379	646.68
428.756	635.15
429.132	665.66
429.507	635.38
429.883	629.05
430.259	675.38
430.635	667.24
431.011	675.38
431.387	692.1
431.763	706.34
432.138	702.95
432.514	721.93
432.89	712.44
433.265	698.2
433.641	719.22
434.016	738.43
434.392	744.75
434.767	735.04
435.143	751.99
435.518	754.02
435.894	765.32
436.269	763.74
436.644	775.26
437.02	788.14
437.395	782.72
437.77	790.18
438.145	801.25
438.52	794.02
438.895	808.48
439.271	825.2
439.646	791.53
440.021	820.68
440.395	816.84
440.77	846.67
441.145	858.65
441.52	857.29
441.895	837.18
442.27	856.84
442.645	868.82
443.019	857.97
443.394	848.03
443.769	860.46
444.143	859.78
444.518	861.14
444.892	871.98
445.267	901.13
445.641	884.64
446.016	906.78
446.39	881.47
446.764	880.57
447.139	885.77
447.513	900.46
447.887	878.99
448.262	892.77
448.636	912.89
449.01	909.04
449.384	937.07
449.758	936.39
450.132	954.24
450.506	942.49
450.88	934.13
451.254	928.03
451.628	940.91
452.002	953.56
452.376	940.68
452.75	983.17
453.123	965.77
453.497	1010.96
453.871	977.74
454.244	986.33
454.618	987.46
454.992	992.66
455.365	1007.8
455.739	1049.61
456.112	1045.76
456.486	1039.44
456.859	1047.12
457.232	1071.98
457.606	1031.98
457.979	1079.43
458.352	1077.18
458.725	1101.13
459.099	1075.37
459.472	1133.67
459.845	1129.83
460.218	1140.45
460.591	1125.54
460.964	1133.44
461.337	1161.69
461.71	1176.38
462.083	1174.8
462.456	1186.32
462.829	1202.82
463.201	1196.04
463.574	1221.13
463.947	1217.96
464.32	1210.28
464.692	1249.37
465.065	1253.67
465.438	1293.67
465.81	1288.02
466.183	1304.74
466.555	1293.44
466.928	1333.44
467.3	1304.06
467.672	1362.82
468.045	1355.81
468.417	1370.5
468.789	1358.75
469.161	1411.18
469.534	1418.86
469.906	1438.97
470.278	1462.02
470.65	1479.2
471.022	1471.51
471.394	1528.69
471.766	1499.76
472.138	1547.9
472.51	1575.92
472.882	1560.1
473.253	1570.72
473.625	1602.13
473.997	1664.05
474.369	1647.56
474.74	1683.49
475.112	1669.02
475.484	1701.11
475.855	1711.96
476.227	1735.46
476.598	1796.7
476.97	1808.46
477.341	1865.63
477.713	1865.85
478.084	1876.48
478.455	1936.14
478.827	1933.88
479.198	1985.17
479.569	1968.68
479.94	2044.16
480.311	2073.31
480.682	2062.69
481.053	2149.92
481.424	2182.46
481.795	2179.07
482.166	2212.96
482.537	2237.82
482.908	2302.91
483.279	2301.55
483.65	2327.09
484.021	2367.54
484.391	2356.24
484.762	2423.35
485.133	2446.4
485.503	2488.66
485.874	2545.16
486.244	2549.9
486.615	2593.97
486.985	2621.77
487.356	2610.02
487.726	2634.2
488.097	2737.7
488.467	2742.67
488.837	2776.57
489.207	2768.88
489.578	2835.09
489.948	2894.3
490.318	2955.77
490.688	2913.74
491.058	2989.44
491.428	3001.19
491.798	3057.01
492.168	3082.55
492.538	3084.35
492.908	3122.32
493.278	3132.49
493.648	3182.43
494.017	3212.94
494.387	3222.2
494.757	3259.26
495.126	3297.46
495.496	3277.34
495.866	3326.16
496.235	3329.09
496.605	3363.44
496.974	3402.99
497.344	3445.47
497.713	3471.46
498.082	3454.74
498.452	3458.81
498.821	3489.77
499.19	3567.28
499.559	3555.98
499.928	3586.94
500.298	3584.68
500.667	3611.8
501.036	3627.84
501.405	3671.23
501.774	3659.71
502.143	3648.63
502.512	3723.66
502.88	3701.74
503.249	3765.01
503.618	3781.28
503.987	3795.3
504.356	3788.97
504.724	3809.08
505.093	3816.09
505.462	3824.45
505.83	3865.8
506.199	3920.26
506.567	3914.84
506.936	3917.1
507.304	3953.03
507.672	3959.36
508.041	3989.64
508.409	3998
508.777	4040.04
509.145	4059.02
509.514	4046.36
509.882	4038.91
510.25	4073.71
510.618	4097.66
510.986	4083.2
511.354	4120.03
511.722	4126.81
512.09	4158.22
512.458	4223.76
512.826	4178.34
513.193	4241.84
513.561	4179.69
513.929	4237.54
514.297	4219.01
514.664	4267.6
515.032	4261.5
515.4	4297.66
515.767	4317.99
516.135	4353.7
516.502	4293.14
516.869	4340.14
517.237	4406.13
517.604	4369.29
517.972	4352.34
518.339	4414.71
518.706	4436.41
519.073	4394.15
519.44	4459.91
519.808	4496.52
520.175	4449.29
520.542	4494.26
520.909	4511.66
521.276	4485.45
521.643	4539
522.009	4592.11
522.376	4609.51
522.743	4652.45
523.11	4655.84
523.477	4719.57
523.843	4713.46
524.21	4707.81
524.577	4734.93
524.943	4723.63
525.31	4748.49
525.676	4781.71
526.043	4766.57
526.409	4894.02
526.776	4923.63
527.142	4875.27
527.508	4957.75
527.874	4981.71
528.241	4960.46
528.607	5020.12
528.973	5009.05
529.339	5016.51
529.705	5109.61
530.071	5075.71
530.437	5127.01
530.803	5137.18
531.169	5232.55
531.535	5127.46
531.901	5234.35
532.267	5194.58
532.632	5221.25
532.998	5241.81
533.364	5318.87
533.73	5263.96
534.095	5322.94
534.461	5296.27
534.826	5339.66
535.192	5410.39
535.557	5404.74
535.923	5442.03
536.288	5440.22
536.653	5529.04
537.019	5483.61
537.384	5469.83
537.749	5522.71
538.114	5563.61
538.479	5550.5
538.845	5560.67
539.21	5552.99
539.575	5628.02
539.94	5615.81
540.305	5687.22
540.67	5707.34
541.034	5700.56
541.399	5776.26
541.764	5778.29
542.129	5775.13
542.494	5839.54
542.858	5867.78
543.223	5889.03
543.587	5877.5
543.952	5876.82
544.316	5925.86
544.681	5924.96
545.045	5978.29
545.41	5970.83
545.774	6010.83
546.138	6013.54
546.503	6084.28
546.867	6054.22
547.231	6092.41
547.595	6121.79
547.959	6188
548.324	6172.18
548.688	6159.75
549.052	6193.2
549.416	6188.45
549.779	6203.82
550.143	6255.34
550.507	6335.79
550.871	6332.63
551.235	6349.35
551.599	6377.37
551.962	6313.2
552.326	6335.57
552.689	6438.84
553.053	6392.52
553.417	6453.53
553.78	6453.76
554.143	6439.29
554.507	6511.16
554.87	6473.19
555.234	6595.45
555.597	6539.63
555.96	6548.22
556.323	6563.81
556.686	6597.03
557.05	6611.72
557.413	6624.15
557.776	6713.41
558.139	6759.96
558.502	6705.5
558.865	6705.05
559.228	6812.17
559.59	6800.87
559.953	6809
560.316	6865.72
560.679	6832.05
561.041	6917.25
561.404	6945.5
561.767	6981.2
562.129	6929.45
562.492	7030.24
562.854	6967.19
563.217	7051.93
563.579	7032.27
563.941	7088.77
564.304	7076.11
564.666	7098.71
565.028	7154.98
565.39	7108.88
565.753	7182.55
566.115	7187.3
566.477	7198.14
566.839	7269.78
567.201	7273.4
567.563	7294.86
567.925	7342.32
568.287	7353.85
568.648	7389.78
569.01	7447.86
569.372	7431.58
569.734	7458.93
570.095	7529.89
570.457	7512.49
570.819	7538.47
571.18	7635.19
571.542	7587.51
571.903	7669.09
572.265	7721.29
572.626	7731.92
572.987	7820.73
573.349	7836.09
573.71	7843.78
574.071	7881.74
574.432	7968.07
574.794	8004.9
575.155	8094.62
575.516	8052.36
575.877	8156.08
576.238	8206.48
576.599	8287.38
576.96	8341.39
577.32	8384.55
577.681	8511.56
578.042	8551.55
578.403	8624.1
578.763	8704.09
579.124	8766.92
579.485	8943.18
579.845	8952.67
580.206	9035.16
580.566	9178.88
580.927	9297.3
581.287	9375.26
581.648	9523.73
582.008	9642.83
582.368	9787.45
582.728	9956.72
583.089	10032.42
583.449	10133.43
583.809	10368.46
584.169	10489.13
584.529	10541.33
584.889	10807.09
585.249	10883.02
585.609	11111.71
585.969	11398.26
586.329	11502.21
586.688	11660.85
587.048	11987.85
587.408	12130.9
587.768	12280.95
588.127	12485.91
588.487	12664.89
588.846	12951.44
589.206	13059.46
589.565	13322.28
589.925	13574.25
590.284	13830.29
590.643	14091.52
591.003	14392.08
591.362	14623.26
591.721	14888.79
592.08	15152.06
592.44	15447.64
592.799	15745.04
593.158	15917.24
593.517	16203.11
593.876	16488.75
594.235	16748.63
594.593	17056.42
594.952	17295.73
595.311	17564.43
595.67	17923.29
596.029	18335.93
596.387	18515.59
596.746	18808.91
597.104	18975.01
597.463	19245.06
597.822	19608.21
598.18	19835.78
598.538	20189.89
598.897	20510.56
599.255	20593.72
599.613	21125.91
599.972	21424.89
600.33	21604.09
600.688	21785.56
601.046	22087.7
601.404	22472.09
601.762	22613.56
602.12	23002.7
602.478	23344.16
602.836	23477.72
603.194	23675.9
603.552	23983.69
603.91	24158.83
604.268	24574.18
604.625	24616.22
604.983	25026.38
605.341	25187.28
605.698	25377.78
606.056	25604.67
606.413	25946.8
606.771	26201.71
607.128	26486.22
607.485	26573.45
607.843	26720.79
608.2	27158.52
608.557	27370.04
608.914	27531.39
609.272	27849.58
609.629	28063.58
609.986	28273.52
610.343	28342.67
610.7	28771.81
611.057	28948.76
611.414	29064.24
611.771	29224.23
612.127	29555.75
612.484	29616.31
612.841	29843.2
613.198	29943.08
613.554	30056.75
613.911	30458.78
614.267	30518.89
614.624	30742.38
614.98	30933.79
615.337	31201.35
615.693	31262.37
616.05	31313.89
616.406	31701.23
616.762	31725.63
617.118	31919.3
617.475	32005.85
617.831	32165.62
618.187	32290.82
618.543	32392.96
618.899	32749.11
619.255	32805.83
619.611	32729.22
619.967	33148.2
620.323	33157.46
620.678	33254.18
621.034	33170.79
621.39	33434.52
621.746	33466.83
622.101	33942.75
622.457	33816.65
622.812	33896.2
623.168	34032.69
623.523	34070.43
623.879	34134.38
624.234	33966.71
624.589	34483.3
624.945	34525.56
625.3	34532.11
625.655	34620.93
626.01	34597.65
626.365	34682.85
626.72	34813.24
627.075	34766.01
627.43	34916.29
627.785	34818.21
628.14	34960.58
628.495	35029.05
628.85	35138.65
629.205	35101.59
629.559	35302.04
629.914	35153.57
630.269	35203.51
630.623	35165.32
630.978	35176.17
631.332	35406.44
631.687	35538.64
632.041	35401.24
632.396	35455.71
632.75	35423.62
633.104	35396.27
633.459	35352.66
633.813	35533.9
634.167	35343.62
634.521	35466.1
634.875	35564.63
635.229	35457.97
635.583	35455.48
635.937	35444.86
636.291	35501.81
636.645	35454.12
636.999	35448.25
637.352	35529.6
637.706	35417.97
638.06	35556.49
638.413	35532.09
638.767	35367.35
639.121	35500.22
639.474	35339.78
639.828	35461.81
640.181	35619.54
640.534	35465.65
640.888	35410.74
641.241	35314.01
641.594	35458.19
641.947	35471.98
642.301	35382.26
642.654	35351.08
643.007	35446.44
643.36	35506.78
643.713	35316.27
644.066	35466.78
644.419	35308.59
644.771	35086.9
645.124	34726.69
645.477	34770.3
645.83	34530.98
646.182	34386.81
646.535	34435.39
646.888	34244.89
647.24	34155.4
647.593	34483.3
647.945	34448.95
648.298	34126.48
648.65	34270.43
649.002	34173.71
649.355	34238.56
649.707	34206.93
650.059	34451.66
650.411	34645.56
650.763	34736.18
651.115	35090.52
651.467	35094.81
651.819	35062.27
652.171	34937.3
652.523	34967.58
652.875	34911.54
653.227	34787.48
653.578	35119.67
653.93	35062.72
654.282	34750.87
654.633	34732.34
654.985	34808.27
655.337	34810.53
655.688	34904.76
656.039	35009.84
656.391	34603.98
656.742	34782.5
657.094	34641.94
657.445	34734.37
657.796	34791.99
658.147	34605.56
658.498	34726.46
658.849	34804.88
659.2	34613.47
659.551	34686.01
659.902	34720.13
660.253	34743.41
660.604	34674.71
660.955	34478.56
661.306	34711.32
661.656	34642.17
662.007	34549.74
662.358	34584.09
662.708	34552.45
663.059	34621.6
663.409	34325.79
663.76	34714.26
664.11	34521.27
664.461	34586.12
664.811	34617.08
665.161	34623.19
665.511	34448.95
665.862	34504.32
666.212	34580.25
666.562	34658.44
666.912	34682.85
667.262	34573.47
667.612	34419.35
667.962	34555.39
668.312	34423.64
668.662	34621.83
669.011	34572.79
669.361	34476.52
669.711	34375.06
670.06	34370.99
670.41	34346.58
670.76	34206.7
671.109	34474.49
671.459	34405.56
671.808	34433.13
672.157	34390.2
672.507	34242.86
672.856	34342.97
673.205	34274.72
673.554	34424.32
673.904	34376.64
674.253	34461.38
674.602	34258.22
674.951	33927.38
675.3	33707.73
675.649	34233.82
675.998	34205.12
676.346	34256.42
676.695	34234.95
677.044	34036.76
677.393	34119.92
677.741	34140.03
678.09	34043.77
678.438	33968.29
678.787	34065.23
679.135	34168.06
679.484	33795.86
679.832	34074.05
680.181	33816.2
680.529	33988.17
680.877	33828.18
681.225	33844
681.573	34065.46
681.922	33760.61
682.27	33640.16
682.618	33659.82
682.966	33547.96
683.314	33573.04
683.661	33517.23
684.009	33304.58
684.357	33281.75
684.705	33199.49
685.053	33275.65
685.4	33214.64
685.748	33017.35
686.095	33063.9
686.443	32795.44
686.79	32957.92
687.138	32951.37
687.485	32920.63
687.832	32984.36
688.18	32812.16
688.527	32826.4
688.874	32667.53
689.221	32627.53
689.568	32536.91
689.915	32483.35
690.262	32430.25
690.609	32357.93
690.956	32302.79
691.303	32186.64
691.65	32033.88
691.997	31981
692.344	31910.26
692.69	31882.69
693.037	31899.19
693.383	31763.37
693.73	31823.71
694.077	31590.95
694.423	31564.28
694.769	31587.56
695.116	31423.04
695.462	31395.25
695.808	31334.91
696.155	31307.11
696.501	31110.74
696.847	31127.23
697.193	31055.37
697.539	30930.63
697.885	30876.84
698.231	30691.31
698.577	30706.45
698.923	30651.09
699.269	30448.15
699.614	30402.05
699.96	30301.04
700.306	30361.15
700.651	30348.27
700.997	30030.09
701.342	30109.86
701.688	30106.02
702.033	29944.44
702.379	29881.16
702.724	29917.32
703.069	30013.82
703.415	29561.4
703.76	29586.93
704.105	29595.52
704.45	29489.76
704.795	29391.46
705.14	29271.91
705.485	29190.79
705.83	29086.61
706.175	29124.8
706.52	29010.23
706.865	28926.39
707.209	28918.93
707.554	28811.36
707.899	28855.65
708.243	28744.7
708.588	28679.84
708.932	28484.36
709.277	28509.67
709.621	28488.66
709.966	28315.78
710.31	28449.34
710.654	28166.86
710.998	28254.99
711.342	28171.15
711.687	28214.77
712.031	28015.45
712.375	27981.1
712.719	28064.49
713.063	27974.77
713.407	27928.22
713.75	27737.49
714.094	27765.06
714.438	27747.43
714.782	27691.84
715.125	27579.08
715.469	27605.07
715.812	27345.18
716.156	27303.38
716.499	27272.42
716.843	27327.78
717.186	27151.07
717.53	27347.22
717.873	27344.28
718.216	27181.35
718.559	27105.19
718.902	26869.27
719.246	26994.69
719.589	26895.71
719.932	26855.25
720.275	26847.57
720.617	26768.25
720.96	26681.47
721.303	26704.3
721.646	26581.14
721.989	26519.67
722.331	26560.35
722.674	26637.86
723.016	26568.93
723.359	26384.08
723.701	26510.18
724.044	26234.03
724.386	26133.47
724.729	26273.8
725.071	26210.75
725.413	26092.34
725.755	26167.59
726.097	26047.59
726.439	25966.92
726.782	26021.6
727.124	26026.8
727.465	25859.8
727.807	25874.94
728.149	25846.69
728.491	25748.84
728.833	25788.84
729.175	25622.07
729.516	25704.78
729.858	25652.57
730.199	25612.8
730.541	25626.13
730.882	25570.09
731.224	25621.39
731.565	25354.05
731.906	25477.66
732.248	25526.25
732.589	25279.7
732.93	25241.06
733.271	25196.31
733.612	25246.94
733.953	25352.47
734.294	25203.55
734.635	25191.8
734.976	25115.41
735.317	24985.92
735.658	25034.74
735.999	25032.93
736.339	24977.34
736.68	24969.88
737.021	24915.87
737.361	24835.87
737.702	24844.91
738.042	24899.37
738.383	24780.28
738.723	24884.91
739.063	24713.62
739.404	24612.6
739.744	24651.02
740.084	24551.59
740.424	24685.37
740.764	24493.06
741.104	24508.2
741.444	24446.73
741.784	24353.4
742.124	24465.03
742.464	24448.54
742.804	24409.22
743.143	24294.42
743.483	24415.09
743.823	24187.98
744.162	24112.73
744.502	24235.44
744.841	24071.37
745.181	24163.35
745.52	24083.35
745.86	24082.67
746.199	23990.7
746.538	23888.78
746.877	24036.12
747.216	23865.05
747.556	23848.33
747.895	23836.8
748.234	23762.45
748.573	23707.99
748.911	23731.49
749.25	23612.63
749.589	23595.68
749.928	23500.99
750.267	23620.09
750.605	23446.08
750.944	23522.69
751.283	23379.64
751.621	23614.89
751.96	23364.72
752.298	23357.27
752.636	23267.78
752.975	23079.99
753.313	23105.97
753.651	23180.1
753.989	23151.85
754.327	23091.96
754.666	22934.68
755.004	23052.42
755.342	22986.66
755.679	22926.09
756.017	22835.47
756.355	22849.26
756.693	22717.06
757.031	22812.87
757.368	22607.91
757.706	22592.77
758.044	22508.02
758.381	22482.71
758.719	22447.46
759.056	22471.19
759.394	22322.49
759.731	22230.74
760.068	22109.84
760.405	22056.06
760.743	22081.37
