Data from hue_110_FLMS001491_00018.txt Node
Date: Tue Feb 07 17:00:58 GMT 2017
User: dcchb
Spectrometer: FLMS00149
Trigger mode: 0
Integration Time (sec): 2.000000E-2
Scans to average: 10
Electric dark correction enabled: true
Nonlinearity correction enabled: false
Boxcar width: 0
XAxis mode: Wavelengths
Number of Pixels in Spectrum: 2048
>>>>>Begin Spectral Data<<<<<
341.393	-1.48
341.776	-1.48
342.16	-1.48
342.543	-65.21
342.927	-63.85
343.31	-74.25
343.693	-77.41
344.077	-55.04
344.46	-63.63
344.843	-65.89
345.226	-49.62
345.61	-44.87
345.993	-19.79
346.376	2.13
346.759	12.75
347.142	47.1
347.525	56.37
347.908	61.11
348.291	55.69
348.674	82.58
349.057	132.75
349.44	131.62
349.823	144.28
350.206	153.32
350.588	193.09
350.971	201.45
351.354	225.4
351.737	231.51
352.119	257.95
352.502	243.71
352.884	280.77
353.267	263.59
353.65	303.59
354.032	314.67
354.414	304.05
354.797	313.76
355.179	323.71
355.562	308.57
355.944	338.85
356.326	340.65
356.709	322.12
357.091	335.68
357.473	337.27
357.855	351.95
358.238	346.76
358.62	342.69
359.002	358.28
359.384	330.49
359.766	340.88
360.148	347.89
360.53	336.14
360.912	344.95
361.294	349.69
361.676	319.19
362.057	340.88
362.439	324.84
362.821	328.68
363.203	323.71
363.584	320.77
363.966	311.28
364.348	337.27
364.729	324.61
365.111	323.48
365.493	302.69
365.874	324.61
366.256	309.02
366.637	337.27
367.019	315.8
367.4	332.97
367.781	318.06
368.163	307.21
368.544	336.59
368.925	300.2
369.306	318.06
369.688	313.54
370.069	318.73
370.45	299.07
370.831	301.79
371.212	305.85
371.593	309.92
371.974	310.37
372.355	305.18
372.736	300.43
373.117	335.46
373.498	326.19
373.879	315.12
374.26	312.18
374.641	315.34
375.021	306.53
375.402	317.83
375.783	306.31
376.163	306.53
376.544	339.75
376.925	322.12
377.305	332.75
377.686	328.45
378.066	322.12
378.447	319.86
378.827	311.28
379.208	342.91
379.588	333.2
379.968	344.72
380.349	336.59
380.729	358.06
381.109	331.16
381.489	320.54
381.87	353.08
382.25	339.07
382.63	340.43
383.01	340.2
383.39	345.17
383.77	353.54
384.15	349.24
384.53	357.83
384.91	360.77
385.29	349.24
385.67	329.36
386.049	356.02
386.429	339.75
386.809	351.28
387.189	361.45
387.568	344.72
387.948	360.77
388.328	342.91
388.707	344.27
389.087	359.19
389.466	368.22
389.846	362.12
390.225	363.25
390.605	373.42
390.984	393.99
391.363	356.25
391.743	368.9
392.122	368.68
392.501	387.21
392.881	375.91
393.26	374.1
393.639	389.02
394.018	377.72
394.397	379.3
394.776	383.59
395.155	380.65
395.534	382.69
395.913	366.87
396.292	390.37
396.671	388.56
397.05	421.1
397.429	404.61
397.808	391.28
398.186	372.97
398.565	386.76
398.944	386.08
399.323	394.66
399.701	401.44
400.08	406.64
400.458	401.22
400.837	402.8
401.215	403.7
401.594	404.83
401.972	413.42
402.351	424.72
402.729	395.12
403.107	396.7
403.486	418.17
403.864	400.99
404.242	402.12
404.62	399.18
404.999	420.2
405.377	445.96
405.755	435.79
406.133	398.96
406.511	427.21
406.889	433.53
407.267	437.6
407.645	441.44
408.023	447.54
408.401	426.75
408.779	412.74
409.156	440.99
409.534	435.34
409.912	449.13
410.29	442.12
410.667	467.43
411.045	467.88
411.422	460.88
411.8	481.44
412.178	464.49
412.555	472.63
412.933	469.01
413.31	462.01
413.687	483.48
414.065	465.85
414.442	472.63
414.819	509.46
415.197	486.19
415.574	518.05
415.951	513.08
416.328	507.43
416.705	496.13
417.082	490.03
417.46	524.83
417.837	516.92
418.214	495.91
418.591	508.56
418.967	520.99
419.344	530.25
419.721	532.06
420.098	502.46
420.475	533.42
420.852	530.03
421.228	533.42
421.605	542.46
421.982	539.52
422.358	550.37
422.735	543.36
423.111	547.43
423.488	536.36
423.864	537.03
424.241	571.16
424.617	581.1
424.994	565.96
425.37	584.26
425.746	572.29
426.123	594.66
426.499	574.32
426.875	577.48
427.251	572.97
427.627	583.81
428.003	589.69
428.379	609.57
428.756	598.28
429.132	631.49
429.507	608.9
429.883	643.02
430.259	615
430.635	622.91
431.011	641.66
431.387	614.77
431.763	648.9
432.138	666.52
432.514	630.59
432.89	661.1
433.265	685.96
433.641	661.1
434.016	677.14
434.392	697.03
434.767	695
435.143	692.51
435.518	709.46
435.894	699.97
436.269	714.88
436.644	730.7
437.02	743.81
437.395	707.42
437.77	749.46
438.145	749.23
438.52	767.54
438.895	726.18
439.271	742.45
439.646	770.25
440.021	762.56
440.395	769.12
440.77	782.68
441.145	792.17
441.52	800.3
441.895	798.27
442.27	806.41
442.645	809.12
443.019	807.54
443.394	819.74
443.769	820.87
444.143	793.52
444.518	824.03
444.892	820.19
445.267	815.67
445.641	849.79
446.016	863.35
446.39	870.81
446.764	839.62
447.139	851.15
447.513	862.22
447.887	870.36
448.262	886.86
448.636	852.73
449.01	857.03
449.384	857.93
449.758	886.63
450.132	916.23
450.506	938.83
450.88	932.05
451.254	905.39
451.628	963.69
452.002	967.98
452.376	963.01
452.75	977.25
453.123	965.5
453.497	970.69
453.871	979.73
454.244	1004.37
454.618	996.46
454.992	1013.86
455.365	1015.89
455.739	1033.52
456.112	1051.14
456.486	1027.64
456.859	1062.9
457.232	1076.68
457.606	1105.83
457.979	1102.67
458.352	1109.9
458.725	1137.47
459.099	1125.49
459.472	1186.73
459.845	1180.41
460.218	1194.19
460.591	1193.74
460.964	1157.36
461.337	1222.21
461.71	1264.02
462.083	1252.04
462.456	1249.11
462.829	1253.17
463.201	1279.61
463.574	1336.11
463.947	1325.94
464.32	1344.24
464.692	1300.63
465.065	1388.76
465.438	1390.8
465.81	1406.84
466.183	1434.41
466.555	1446.84
466.928	1463.34
467.3	1437.35
467.672	1524.35
468.045	1557.8
468.417	1538.82
468.789	1547.18
469.161	1598.47
469.534	1609.32
469.906	1659.26
470.278	1699.49
470.65	1718.02
471.022	1770.67
471.394	1760.28
471.766	1836.89
472.138	1849.32
472.51	1892.25
472.882	1913.27
473.253	1946.04
473.625	2014.28
473.997	2045.92
474.369	2081.63
474.74	2093.38
475.112	2206.82
475.484	2227.84
475.855	2267.61
476.227	2335.63
476.598	2381.05
476.97	2418.57
477.341	2500.15
477.713	2591.9
478.084	2584.21
478.455	2679.35
478.827	2712.8
479.198	2824.88
479.569	2894.94
479.94	2958.44
480.311	3023.97
480.682	3161.82
481.053	3249.5
481.424	3320.92
481.795	3414.02
482.166	3488.82
482.537	3600.23
482.908	3688.36
483.279	3724.07
483.65	3839.55
484.021	3999.99
484.391	4070.27
484.762	4192.31
485.133	4262.36
485.503	4400.66
485.874	4528.79
486.244	4584.39
486.615	4785.06
486.985	4864.6
487.356	4974.88
487.726	5093.07
488.097	5280.86
488.467	5291.26
488.837	5499.62
489.207	5626.84
489.578	5769.21
489.948	5841.98
490.318	6022.54
490.688	6087.85
491.058	6269.99
491.428	6442.87
491.798	6540.04
492.168	6736.64
492.538	6821.84
492.908	6942.29
493.278	7078.78
493.648	7220.93
494.017	7288.49
494.387	7509.51
494.757	7646.9
495.126	7761.93
495.496	7831.08
495.866	7956.5
496.235	8092.77
496.605	8244.18
496.974	8300.9
497.344	8475.81
497.713	8569.37
498.082	8723.49
498.452	8868.11
498.821	8930.26
499.19	9045.06
499.559	9190.14
499.928	9260.42
500.298	9351.72
500.667	9568.21
501.036	9584.71
501.405	9614.54
501.774	9738.83
502.143	9824.25
502.512	10003.23
502.88	10100.62
503.249	10074.41
503.618	10224.46
503.987	10219.72
504.356	10441.63
504.724	10494.96
505.093	10516.66
505.462	10599.59
505.83	10653.83
506.199	10791
506.567	10972.24
506.936	10998.68
507.304	11100.37
507.672	11188.51
508.041	11247.71
508.409	11358.9
508.777	11353.47
509.145	11446.58
509.514	11488.61
509.882	11597.08
510.25	11606.35
510.618	11717.08
510.986	11691.54
511.354	11828.04
511.722	11913.91
512.09	12020.57
512.458	11944.19
512.826	12043.62
513.193	12126.56
513.561	12124.53
513.929	12276.39
514.297	12358.42
514.664	12341.02
515.032	12389.15
515.4	12512.31
515.767	12531.29
516.135	12562.25
516.502	12470.96
516.869	12679.31
517.237	12738.07
517.604	12693.32
517.972	12860.55
518.339	12810.61
518.706	12810.61
519.073	12856.03
519.44	12917.73
519.808	13006.76
520.175	12962.7
520.542	13089.7
520.909	13171.05
521.276	13086.31
521.643	13234.33
522.009	13182.8
522.376	13273.2
522.743	13312.52
523.11	13422.57
523.477	13453.3
523.843	13437.71
524.21	13581.44
524.577	13582.11
524.943	13649.01
525.31	13632.51
525.676	13740.53
526.043	13664.15
526.409	13675.22
526.776	13858.27
527.142	13853.97
527.508	13851.26
527.874	13917.25
528.241	13888.77
528.607	13886.29
528.973	13998.37
529.339	13915.21
529.705	14006.28
530.071	14042.44
530.437	13996.12
530.803	14051.48
531.169	14043.57
531.535	13980.3
531.901	14013.97
532.267	14078.82
532.632	14099.84
532.998	13987.98
533.364	14093.51
533.73	14102.78
534.095	14097.36
534.461	13968.09
534.826	14137.13
535.192	14004.02
535.557	14075.21
535.923	13959.51
536.288	14072.72
536.653	14073.4
537.019	13865.05
537.384	13940.98
537.749	14022.33
538.114	13972.16
538.479	13872.5
538.845	13930.81
539.21	13776.46
539.575	13868.89
539.94	13817.81
540.305	13846.74
540.67	13799.06
541.034	13793.18
541.399	13717.25
541.764	13767.42
542.129	13716.12
542.494	13636.8
542.858	13634.32
543.223	13622.34
543.587	13708.44
543.952	13525.84
544.316	13604.94
544.681	13538.5
545.045	13582.79
545.41	13529.23
545.774	13523.13
546.138	13471.16
546.503	13380.54
546.867	13432.51
547.231	13358.17
547.595	13338.28
547.959	13319.75
548.324	13287.43
548.688	13280.2
549.052	13281.56
549.416	13330.82
549.779	13191.84
550.143	13161.33
550.507	13227.55
550.871	13114.33
551.235	13085.4
551.599	13126.99
551.962	13091.96
552.326	13012.64
552.689	13104.61
553.053	12962.7
553.417	12992.3
553.78	13072.52
554.143	12996.14
554.507	12976.25
554.87	12927.22
555.234	13057.16
555.597	12840.44
555.96	12931.74
556.323	12950.72
556.686	12879.31
557.05	12967.44
557.413	12856.48
557.776	12950.27
558.139	12947.33
558.502	12872.98
558.865	12966.54
559.228	12943.26
559.59	12959.76
559.953	12957.95
560.316	12998.4
560.679	12929.48
561.041	13004.28
561.404	12997.05
561.767	13002.47
562.129	12895.35
562.492	13017.16
562.854	12903.71
563.217	12870.49
563.579	12968.8
563.941	13004.73
564.304	13075.01
564.666	13019.19
565.028	13038.17
565.39	13064.16
565.753	13148.45
566.115	13094.44
566.477	13177.61
566.839	13101.45
567.201	13195.01
567.563	13172.41
567.925	13218.96
568.287	13186.87
568.648	13219.41
569.01	13317.26
569.372	13212.63
569.734	13241.78
570.095	13327.43
570.457	13246.76
570.819	13279.3
571.18	13249.69
571.542	13334.66
571.903	13301.44
572.265	13329.01
572.626	13365.17
572.987	13299.86
573.349	13398.84
573.71	13336.02
574.071	13432.06
574.432	13391.16
574.794	13419.18
575.155	13462.34
575.516	13304.61
575.877	13443.59
576.238	13432.29
576.599	13522.23
576.96	13363.82
577.32	13436.81
577.681	13528.33
578.042	13462.8
578.403	13454.21
578.763	13433.64
579.124	13511.38
579.485	13547.31
579.845	13516.81
580.206	13466.41
580.566	13472.74
580.927	13499.86
581.287	13602
581.648	13456.92
582.008	13518.39
582.368	13499.18
582.728	13480.65
583.089	13548.44
583.449	13512.96
583.809	13423.7
584.169	13558.61
584.529	13506.64
584.889	13564.94
585.249	13508.22
585.609	13307.77
585.969	13410.59
586.329	13373.31
586.688	13284.72
587.048	13458.73
587.408	13335.57
587.768	13391.61
588.127	13369.24
588.487	13419.18
588.846	13419.41
589.206	13346.87
589.565	13267.77
589.925	13429.12
590.284	13404.49
590.643	13325.85
591.003	13286.08
591.362	13423.93
591.721	13330.14
592.08	13333.99
592.44	13369.46
592.799	13325.4
593.158	13269.35
593.517	13272.74
593.876	13331.73
594.235	13239.52
594.593	13204.5
594.952	13263.93
595.311	13263.48
595.67	13289.24
596.029	13355.91
596.387	13278.62
596.746	13325.4
597.104	13220.99
597.463	13250.15
597.822	13265.29
598.18	13231.84
598.538	13237.26
598.897	13253.08
599.255	13191.39
599.613	13291.5
599.972	13220.32
600.33	13261.67
600.688	13189.36
601.046	13285.85
601.404	13312.52
601.762	13256.47
602.12	13266.42
602.478	13285.85
602.836	13255.12
603.194	13200.88
603.552	13209.24
603.91	13206.53
604.268	13221.45
604.625	13167.44
604.983	13267.55
605.341	13254.67
605.698	13342.35
606.056	13331.95
606.413	13252.63
606.771	13342.8
607.128	13390.48
607.485	13171.96
607.843	13225.51
608.2	13253.99
608.557	13342.35
608.914	13325.17
609.272	13335.79
609.629	13369.24
609.986	13419.18
610.343	13257.83
610.7	13409.24
611.057	13405.17
611.414	13318.17
611.771	13348.45
612.127	13428.45
612.484	13388.22
612.841	13515.45
613.198	13468.22
613.554	13426.86
613.911	13540.53
614.267	13509.8
614.624	13472.06
614.98	13470.03
615.337	13527.43
615.693	13513.87
616.05	13502.34
616.406	13614.43
616.762	13528.78
617.118	13587.31
617.475	13553.19
617.831	13594.09
618.187	13606.52
618.543	13576.24
618.899	13610.81
619.255	13580.31
619.611	13634.09
619.967	13652.17
620.323	13738.27
620.678	13648.55
621.034	13690.81
621.39	13633.19
621.746	13608.33
622.101	13700.76
622.457	13661.43
622.812	13613.53
623.168	13660.53
623.523	13593.87
623.879	13639.51
624.234	13649.46
624.589	13612.17
624.945	13623.02
625.3	13624.15
625.655	13559.97
626.01	13637.71
626.365	13705.28
626.72	13605.84
627.075	13633.86
627.43	13637.93
627.785	13551.38
628.14	13570.36
628.495	13611.72
628.85	13630.47
629.205	13513.87
629.559	13644.26
629.914	13584.15
630.269	13536.92
630.623	13561.32
630.978	13545.28
631.332	13519.29
631.687	13533.3
632.041	13520.2
632.396	13527.43
632.75	13520.65
633.104	13516.81
633.459	13504.38
633.813	13397.71
634.167	13432.97
634.521	13492.17
634.875	13479.52
635.229	13407.88
635.583	13362.01
635.937	13401.33
636.291	13429.58
636.645	13318.84
636.999	13306.64
637.352	13333.76
637.706	13317.71
638.06	13336.92
638.413	13282.01
638.767	13214.89
639.121	13233.88
639.474	13181.45
639.828	13189.36
640.181	13286.3
640.534	13230.71
640.888	13195.23
641.241	13125.4
641.594	13139.87
641.947	13104.39
642.301	13089.7
642.654	13117.72
643.007	13162.69
643.36	13121.34
643.713	13115.01
644.066	13183.26
644.419	13012.64
644.771	12972.87
645.124	12876.82
645.477	12767.22
645.83	12682.48
646.182	12751.4
646.535	12640.67
646.888	12713.21
647.24	12595.93
647.593	12681.35
647.945	12634.12
648.298	12559.09
648.65	12551.86
649.002	12543.27
649.355	12573.55
649.707	12574.46
650.059	12680.67
650.411	12745.75
650.763	12856.03
651.115	12934.67
651.467	12898.06
651.819	12910.95
652.171	13034.33
652.523	12902.81
652.875	12956.82
653.227	12872.75
653.578	12981
653.93	12910.49
654.282	12852.42
654.633	12947.33
654.985	12941
655.337	12845.18
655.688	12974.9
656.039	12958.4
656.391	12799.76
656.742	12932.41
657.094	12910.27
657.445	12935.58
657.796	12929.7
658.147	12955.92
658.498	12852.87
658.849	12943.71
659.2	12905.3
659.551	12868.01
659.902	12904.17
660.253	12833.21
660.604	12879.76
660.955	12883.38
661.306	13005.63
661.656	12885.18
662.007	12901.23
662.358	12980.1
662.708	12953.43
663.059	12939.19
663.409	12852.87
663.76	12926.31
664.11	12934.45
664.461	12961.34
664.811	12971.96
665.161	12896.03
665.511	12931.06
665.862	12941
666.212	12989.36
666.562	12986.2
666.912	12958.63
667.262	12977.38
667.612	12991.85
667.962	12960.66
668.312	12979.42
668.662	12975.8
669.011	13000.44
669.361	12897.16
669.711	12946.65
670.06	12866.65
670.41	12871.85
670.76	12908.91
671.109	12987.78
671.459	12891.74
671.808	12854.9
672.157	12955.46
672.507	12821.68
672.856	12906.65
673.205	12869.59
673.554	12799.31
673.904	12769.03
674.253	12959.08
674.602	12801.34
674.951	12660.1
675.3	12607.68
675.649	12744.17
675.998	12837.73
676.346	12764.06
676.695	12836.15
677.044	12733.1
677.393	12733.78
677.741	12631.86
678.09	12652.65
678.438	12668.69
678.787	12695.13
679.135	12593.44
679.484	12649.26
679.832	12658.3
680.181	12554.12
680.529	12656.94
680.877	12521.58
681.225	12542.59
681.573	12550.73
681.922	12471.41
682.27	12472.09
682.618	12367.91
682.966	12314.35
683.314	12497.85
683.661	12427.12
684.009	12266.67
684.357	12193.22
684.705	12297.63
685.053	12275.71
685.4	12271.19
685.748	12257.18
686.095	12269.38
686.443	12103.06
686.79	12117.52
687.138	12160.46
687.485	12117.29
687.832	12078.2
688.18	12142.38
688.527	12014.25
688.874	12041.36
689.221	11934.47
689.568	12033
689.915	11922.27
690.262	11949.62
690.609	11850.18
690.956	11879.33
691.303	11793.46
691.65	11745.33
691.997	11747.81
692.344	11664.42
692.69	11606.8
693.037	11567.7
693.383	11493.58
693.73	11543.52
694.077	11446.8
694.423	11362.74
694.769	11347.37
695.116	11373.81
695.462	11322.51
695.808	11247.94
696.155	11361.83
696.501	11230.54
696.847	11190.54
697.193	11161.39
697.539	11202.97
697.885	11049.75
698.231	11010.43
698.577	11026.93
698.923	10970.21
699.269	10902.19
699.614	10845.69
699.96	10850.89
700.306	10849.08
700.651	10715.75
700.997	10683.43
701.342	10740.83
701.688	10656.99
702.033	10614.96
702.379	10657.67
702.724	10509.65
703.069	10629.2
703.415	10405.47
703.76	10445.93
704.105	10481.63
704.45	10442.99
704.795	10324.8
705.14	10296.1
705.485	10291.81
705.83	10270.34
706.175	10252.48
706.52	10269.43
706.865	10142.66
707.209	10161.87
707.554	10066.95
707.899	10084.35
708.243	10053.17
708.588	10006.16
708.932	9960.51
709.277	9958.03
709.621	9930.69
709.966	9838.26
710.31	9901.99
710.654	9794.64
710.998	9809.78
711.342	9823.34
711.687	9777.92
712.031	9737.02
712.375	9718.94
712.719	9744.48
713.063	9614.76
713.407	9739.96
713.75	9626.51
714.094	9580.41
714.438	9620.64
714.782	9619.28
715.125	9595.55
715.469	9571.6
715.812	9507.65
716.156	9449.79
716.499	9492.5
716.843	9551.49
717.186	9450.02
717.53	9489.57
717.873	9448.21
718.216	9453.64
718.559	9415.67
718.902	9425.16
719.246	9417.48
719.589	9353.75
719.932	9305.39
720.275	9284.6
720.617	9337.71
720.96	9300.65
721.303	9331.6
721.646	9297.71
721.989	9235.79
722.331	9291.83
722.674	9284.37
723.016	9285.28
723.359	9265.62
723.701	9234.21
724.044	9186.52
724.386	9239.4
724.729	9221.1
725.071	9213.42
725.413	9256.35
725.755	9208.67
726.097	9175.9
726.439	9132.74
726.782	9098.84
727.124	9198.73
727.465	9122.34
727.807	9137.71
728.149	9050.26
728.491	9102.23
728.833	9085.28
729.175	9058.39
729.516	8981.56
729.858	9030.6
730.199	9082.35
730.541	9007.32
730.882	9042.8
731.224	9017.94
731.565	9057.94
731.906	9048.22
732.248	9043.25
732.589	9035.34
732.93	9027.21
733.271	9030.82
733.612	9012.97
733.953	9023.14
734.294	9069.92
734.635	9003.25
734.976	9044.15
735.317	9113.76
735.658	8986.53
735.999	9025.4
736.339	9036.92
736.68	9065.85
737.021	9061.33
737.361	9040.54
737.702	9095.23
738.042	9055.91
738.383	9046.41
738.723	9142.46
739.063	9090.26
739.404	9132.74
739.744	9093.42
740.084	9079.86
740.424	9156.92
740.764	9130.25
741.104	9139.75
741.444	9134.55
741.784	9157.82
742.124	9208.9
742.464	9167.32
742.804	9167.54
743.143	9168.45
743.483	9181.33
743.823	9234.88
744.162	9240.08
744.502	9257.71
744.841	9305.39
745.181	9391.26
745.52	9366.86
745.86	9387.65
746.199	9357.14
746.538	9416.12
746.877	9526.4
747.216	9457.93
747.556	9586.51
747.895	9638.26
748.234	9626.06
748.573	9725.94
748.911	9768.43
749.25	9854.98
749.589	9875.32
749.928	9947.86
750.267	10078.93
750.605	10171.58
750.944	10139.27
751.283	10141.08
751.621	10307.17
751.96	10352.6
752.298	10472.37
752.636	10585.13
752.975	10628.97
753.313	10732.7
753.651	10870.32
753.989	10829.42
754.327	10990.77
754.666	11116.42
755.004	11256.07
755.342	11404.54
755.679	11517.31
756.017	11547.82
756.355	11755.04
756.693	11851.99
757.031	11951.42
757.368	12087.69
757.706	12291.75
758.044	12318.87
758.381	12472.54
