Data from hue_210_FLMS001491_00029.txt Node
Date: Tue Feb 07 16:40:58 GMT 2017
User: dcchb
Spectrometer: FLMS00149
Trigger mode: 0
Integration Time (sec): 2.000000E-2
Scans to average: 10
Electric dark correction enabled: true
Nonlinearity correction enabled: false
Boxcar width: 0
XAxis mode: Wavelengths
Number of Pixels in Spectrum: 2048
>>>>>Begin Spectral Data<<<<<
341.393	-15.31
341.776	-15.31
342.16	-15.31
342.543	-58.25
342.927	-49.89
343.31	-88.75
343.693	-86.27
344.077	-76.1
344.46	-36.33
344.843	-36.55
345.226	-38.36
345.61	-22.54
345.993	-39.72
346.376	-2.43
346.759	7.97
347.142	10
347.525	32.82
347.908	66.95
348.291	87.51
348.674	106.27
349.057	115.53
349.44	122.31
349.823	126.15
350.206	178.58
350.588	193.72
350.971	216.77
351.354	227.17
351.737	229.65
352.119	247.51
352.502	248.41
352.884	259.71
353.267	261.07
353.65	291.57
354.032	310.1
354.414	299.48
354.797	301.07
355.179	327.73
355.562	334.74
355.944	303.55
356.326	321.86
356.709	334.51
357.091	330.9
357.473	317.79
357.855	320.73
358.238	345.58
358.62	331.8
359.002	339.71
359.384	348.97
359.766	325.92
360.148	323.21
360.53	355.08
360.912	338.8
361.294	329.54
361.676	319.37
362.057	335.87
362.439	332.25
362.821	330.67
363.203	327.05
363.584	327.96
363.966	327.05
364.348	327.28
364.729	339.26
365.111	327.73
365.493	305.59
365.874	310.33
366.256	324.12
366.637	315.53
367.019	308.52
367.4	310.78
367.781	328.64
368.163	311.23
368.544	296.09
368.925	313.72
369.306	319.6
369.688	310.78
370.069	325.7
370.45	293.83
370.831	291.35
371.212	311.23
371.593	327.73
371.974	312.82
372.355	300.39
372.736	303.78
373.117	308.97
373.498	299.71
373.879	308.97
374.26	316.66
374.641	317.56
375.021	325.7
375.402	307.17
375.783	316.43
376.163	326.6
376.544	315.3
376.925	326.38
377.305	325.25
377.686	323.66
378.066	329.54
378.447	332.25
378.827	305.81
379.208	329.31
379.588	319.37
379.968	330.22
380.349	329.99
380.729	310.33
381.109	328.86
381.489	337.22
381.87	328.18
382.25	323.21
382.63	328.86
383.01	352.14
383.39	330.22
383.77	341.97
384.15	340.39
384.53	353.72
384.91	329.31
385.29	337
385.67	365.92
386.049	353.04
386.429	356.43
386.809	354.4
387.189	341.74
387.568	350.78
387.948	365.7
388.328	361.85
388.707	367.96
389.087	363.66
389.466	361.4
389.846	353.27
390.225	358.47
390.605	359.82
390.984	361.18
391.363	376.77
391.743	379.26
392.122	365.92
392.501	371.35
392.881	375.87
393.26	384
393.639	353.49
394.018	384
394.397	367.96
394.776	394.4
395.155	376.54
395.534	387.16
395.913	371.12
396.292	378.13
396.671	397.33
397.05	393.49
397.429	399.59
397.808	396.2
398.186	419.48
398.565	400.5
398.944	419.48
399.323	388.29
399.701	392.81
400.08	398.46
400.458	423.1
400.837	415.64
401.215	415.86
401.594	405.7
401.972	416.32
402.351	426.03
402.729	414.96
403.107	394.17
403.486	419.93
403.864	429.42
404.242	423.1
404.62	442.98
404.999	452.02
405.377	442.98
405.755	437.11
406.133	447.05
406.511	453.38
406.889	457.67
407.267	472.36
407.645	480.72
408.023	483.43
408.401	475.52
408.779	478.01
409.156	498.57
409.534	481.85
409.912	495.41
410.29	526.6
410.667	508.07
411.045	532.92
411.422	529.99
411.8	545.13
412.178	559.36
412.555	564.79
412.933	588.74
413.31	566.14
413.687	576.09
414.065	568.4
414.442	577.89
414.819	623.09
415.197	612.02
415.574	617.67
415.951	635.97
416.328	641.62
416.705	660.6
417.082	659.25
417.46	650.89
417.837	664.22
418.214	685.69
418.591	696.31
418.967	693.6
419.344	708.96
419.721	727.72
420.098	714.39
420.475	750.32
420.852	742.86
421.228	790.09
421.605	773.6
421.982	793.48
422.358	790.77
422.735	825.57
423.111	816.53
423.488	832.58
423.864	848.17
424.241	868.73
424.617	898.11
424.994	899.69
425.37	914.83
425.746	939.24
426.123	934.5
426.499	943.31
426.875	975.85
427.251	991.89
427.627	966.36
428.003	1014.27
428.379	1028.05
428.756	1018.33
429.132	1026.02
429.507	1054.04
429.883	1061.72
430.259	1070.54
430.635	1075.28
431.011	1108.5
431.387	1099.01
431.763	1123.64
432.138	1119.35
432.514	1178.33
432.89	1186.69
433.265	1195.73
433.641	1214.71
434.016	1252.68
434.392	1256.75
434.767	1287.93
435.143	1299.23
435.518	1348.5
435.894	1369.29
436.269	1386.91
436.644	1419.91
437.02	1425.78
437.395	1459.23
437.77	1452.22
438.145	1466.91
438.52	1537.19
438.895	1516.17
439.271	1591.88
439.646	1611.54
440.021	1619.67
440.395	1613.8
440.77	1616.29
441.145	1655.61
441.52	1701.93
441.895	1691.31
442.27	1731.76
442.645	1720.01
443.019	1729.5
443.394	1789.61
443.769	1808.6
444.143	1803.17
444.518	1810.86
444.892	1805.43
445.267	1844.75
445.641	1845.21
446.016	1897.86
446.39	1886.79
446.764	1920.46
447.139	1901.48
447.513	1933.56
447.887	1932.21
448.262	1944.19
448.636	1971.53
449.01	1990.51
449.384	2000.91
449.758	2002.49
450.132	2035.03
450.506	2090.4
450.88	2054.47
451.254	2079.55
451.628	2090.62
452.002	2133.11
452.376	2139.44
452.75	2168.36
453.123	2162.03
453.497	2211.75
453.871	2248.81
454.244	2284.29
454.618	2287.23
454.992	2282.48
455.365	2336.49
455.739	2366.55
456.112	2376.27
456.486	2416.72
456.859	2438.18
457.232	2436.38
457.606	2506.66
457.979	2525.19
458.352	2569.03
458.725	2569.25
459.099	2589.59
459.472	2630.95
459.845	2649.03
460.218	2680.89
460.591	2699.65
460.964	2701.23
461.337	2791.62
461.71	2813.77
462.083	2830.49
462.456	2875.91
462.829	2856.25
463.201	2926.53
463.574	2964.5
463.947	2974.89
464.32	3040.43
464.692	3045.85
465.065	3130.37
465.438	3099.41
465.81	3178.05
466.183	3212.18
466.555	3251.5
466.928	3265.51
467.3	3224.38
467.672	3333.08
468.045	3388.89
468.417	3409.01
468.789	3447.42
469.161	3457.14
469.534	3521.55
469.906	3529.91
470.278	3631.37
470.65	3637.02
471.022	3692.39
471.394	3758.6
471.766	3792.27
472.138	3780.75
472.51	3885.83
472.882	3954.08
473.253	4025.04
473.625	4047.86
473.997	4058.71
474.369	4151.13
474.74	4174.86
475.112	4229.1
475.484	4288.98
475.855	4352.94
476.227	4421.41
476.598	4525.59
476.97	4561.97
477.341	4633.38
477.713	4664.57
478.084	4661.63
478.455	4825.69
478.827	4834.73
479.198	4978.91
479.569	5015.07
479.94	5113.14
480.311	5092.8
480.682	5246.92
481.053	5357.88
481.424	5387.49
481.795	5457.09
482.166	5484.66
482.537	5549.97
482.908	5684.2
483.279	5735.27
483.65	5773.69
484.021	5945.44
484.391	5956.51
484.762	6047.81
485.133	6096.62
485.503	6172.32
485.874	6235.82
486.244	6335.71
486.615	6351.53
486.985	6426.55
487.356	6561.92
487.726	6611.63
488.097	6728.24
488.467	6708.35
488.837	6852.98
489.207	6911.51
489.578	6994.9
489.948	7047.78
490.318	7107.21
490.688	7122.13
491.058	7264.05
491.428	7332.75
491.798	7440.54
492.168	7469.92
492.538	7437.6
492.908	7563.7
493.278	7646.86
493.648	7603.47
494.017	7760.53
494.387	7767.76
494.757	7898.61
495.126	7940.86
495.496	7990.35
495.866	7935.67
496.235	8019.28
496.605	8137.92
496.974	8193.06
497.344	8191.48
497.713	8158.71
498.082	8271.7
498.452	8378.82
498.821	8359.61
499.19	8393.51
499.559	8433.51
499.928	8396.22
500.298	8459.95
500.667	8538.82
501.036	8439.61
501.405	8567.97
501.774	8560.06
502.143	8639.83
502.512	8669.66
502.88	8682.09
503.249	8640.06
503.618	8703.56
503.987	8767.96
504.356	8793.95
504.724	8849.09
505.093	8818.81
505.462	8882.76
505.83	8937.45
506.199	8948.75
506.567	9074.17
506.936	8998.24
507.304	9098.12
507.672	9126.82
508.041	9106.48
508.409	9141.29
508.777	9180.15
509.145	9233.03
509.514	9173.37
509.882	9253.82
510.25	9230.32
510.618	9290.89
510.986	9252.47
511.354	9279.81
511.722	9365.91
512.09	9407.94
512.458	9385.57
512.826	9389.41
513.193	9435.74
513.561	9405.91
513.929	9434.38
514.297	9533.37
514.664	9532.01
515.032	9496.76
515.4	9582.18
515.767	9554.16
516.135	9505.8
516.502	9539.69
516.869	9567.49
517.237	9557.55
517.604	9538.11
517.972	9617.2
518.339	9670.99
518.706	9665.11
519.073	9553.93
519.44	9638.67
519.808	9681.84
520.175	9670.08
520.542	9727.94
520.909	9732.91
521.276	9661.72
521.643	9711.67
522.009	9750.31
522.376	9750.99
522.743	9763.64
523.11	9829.63
523.477	9784.43
523.843	9824.66
524.21	9902.39
524.577	9938.55
524.943	9878.21
525.31	9913.92
525.676	9957.76
526.043	9929.96
526.409	9933.58
526.776	9925.9
527.142	9972
527.508	9878.21
527.874	9953.47
528.241	9990.98
528.607	9979.46
528.973	9961.6
529.339	10028.72
529.705	10064.2
530.071	10048.61
530.437	9952.34
530.803	10051.09
531.169	10003.41
531.535	9934.03
531.901	9909.17
532.267	10021.26
532.632	10009.06
532.998	9958.66
533.364	10007.93
533.73	9929.29
534.095	9915.28
534.461	9926.58
534.826	9925.22
535.192	9847.71
535.557	9929.74
535.923	9838.22
536.288	9868.95
536.653	9746.47
537.019	9797.54
537.384	9765.22
537.749	9800.48
538.114	9709.63
538.479	9671.44
538.845	9682.74
539.21	9657.88
539.575	9602.52
539.94	9560.26
540.305	9602.06
540.67	9556.64
541.034	9485
541.399	9541.95
541.764	9588.96
542.129	9477.55
542.494	9389.41
542.858	9391.67
543.223	9393.26
543.587	9433.25
543.952	9297.89
544.316	9294.5
544.681	9279.81
545.045	9289.98
545.41	9295.18
545.774	9283.43
546.138	9257.21
546.503	9217.89
546.867	9132.02
547.231	9195.75
547.595	9099.48
547.959	9088.41
548.324	9047.05
548.688	9000.5
549.052	9067.84
549.416	8978.13
549.779	8920.05
550.143	8946.26
550.507	8906.04
550.871	8936.77
551.235	8865.36
551.599	8820.84
551.962	8823.78
552.326	8759.15
552.689	8847.73
553.053	8713.95
553.417	8719.83
553.78	8875.08
554.143	8737
554.507	8689.77
554.87	8675.76
555.234	8704.69
555.597	8611.58
555.96	8593.73
556.323	8598.93
556.686	8594.86
557.05	8589.21
557.413	8530.91
557.776	8573.16
558.139	8617.46
558.502	8512.83
558.865	8488.65
559.228	8568.19
559.59	8525.48
559.953	8513.96
560.316	8526.16
560.679	8538.14
561.041	8530.23
561.404	8513.05
561.767	8533.17
562.129	8481.87
562.492	8528.65
562.854	8481.42
563.217	8511.47
563.579	8536.56
563.941	8526.84
564.304	8600.28
564.666	8584.01
565.028	8538.36
565.39	8506.95
565.753	8618.36
566.115	8542.66
566.477	8544.24
566.839	8557.8
567.201	8645.48
567.563	8605.25
567.925	8595.76
568.287	8650
568.648	8620.62
569.01	8629.66
569.372	8714.18
569.734	8628.3
570.095	8652.26
570.457	8666.5
570.819	8716.21
571.18	8714.4
571.542	8715.76
571.903	8680.96
572.265	8774.97
572.626	8726.83
572.987	8788.53
573.349	8694.97
573.71	8730.45
574.071	8770.45
574.432	8781.75
574.794	8769.77
575.155	8777.23
575.516	8772.93
575.877	8823.1
576.238	8764.35
576.599	8824.01
576.96	8806.83
577.32	8882.31
577.681	8868.3
578.042	8911.69
578.403	8900.16
578.763	8901.07
579.124	8869.88
579.485	8960.95
579.845	8945.58
580.206	8969.54
580.566	8928.64
580.927	8889.54
581.287	9034.62
581.648	8994.4
582.008	9040.95
582.368	9017.9
582.728	9014.73
583.089	8970.44
583.449	8946.71
583.809	9012.02
584.169	9046.6
584.529	9034.62
584.889	9070.33
585.249	9058.12
585.609	9007.96
585.969	9046.82
586.329	8992.36
586.688	9057.9
587.048	9029.42
587.408	8964.34
587.768	9054.28
588.127	9074.17
588.487	9113.94
588.846	9148.06
589.206	9074.85
589.565	9052.47
589.925	9092.02
590.284	9003.89
590.643	9075.75
591.003	9089.31
591.362	9114.39
591.721	9055.86
592.08	9128.4
592.44	9120.27
592.799	9097.9
593.158	9163.66
593.517	9175.63
593.876	9179.7
594.235	9116.2
594.593	9088.18
594.952	9146.48
595.311	9109.2
595.67	9164.79
596.029	9192.81
596.387	9169.76
596.746	9194.84
597.104	9187.16
597.463	9156.65
597.822	9246.14
598.18	9162.98
598.538	9161.85
598.897	9178.8
599.255	9159.59
599.613	9276.87
599.972	9234.16
600.33	9168.4
600.688	9186.93
601.046	9194.17
601.404	9234.62
601.762	9242.53
602.12	9282.75
602.478	9260.38
602.836	9240.49
603.194	9224.67
603.552	9195.29
603.91	9204.33
604.268	9212.24
604.625	9204.79
604.983	9230.1
605.341	9225.35
605.698	9323.65
606.056	9257.67
606.413	9323.2
606.771	9287.72
607.128	9314.61
607.485	9285.24
607.843	9249.08
608.2	9246.37
608.557	9357.78
608.914	9243.2
609.272	9337.66
609.629	9368.17
609.986	9333.82
610.343	9358.68
610.7	9361.17
611.057	9354.84
611.414	9349.64
611.771	9342.41
612.127	9364.33
612.484	9419.7
612.841	9393.03
613.198	9393.48
613.554	9377.66
613.911	9440.03
614.267	9436.19
614.624	9431.67
614.98	9431.9
615.337	9565.23
615.693	9403.65
616.05	9434.61
616.406	9492.24
616.762	9522.74
617.118	9525
617.475	9451.33
617.831	9500.37
618.187	9486.36
618.543	9519.81
618.899	9510.77
619.255	9513.25
619.611	9489.52
619.967	9503.76
620.323	9501.95
620.678	9561.61
621.034	9500.82
621.39	9512.8
621.746	9407.49
622.101	9493.14
622.457	9448.4
622.812	9563.42
623.168	9529.75
623.523	9539.47
623.879	9632.12
624.234	9511.67
624.589	9533.37
624.945	9559.81
625.3	9569.52
625.655	9549.18
626.01	9496.3
626.365	9522.52
626.72	9491.56
627.075	9510.77
627.43	9525.91
627.785	9508.51
628.14	9504.21
628.495	9539.69
628.85	9518
629.205	9473.48
629.559	9544.89
629.914	9448.62
630.269	9461.95
630.623	9456.76
630.978	9414.72
631.332	9502.63
631.687	9538.11
632.041	9410.66
632.396	9373.82
632.75	9429.19
633.104	9374.5
633.459	9415.63
633.813	9370.66
634.167	9373.14
634.521	9289.3
634.875	9351.45
635.229	9332.69
635.583	9273.48
635.937	9329.98
636.291	9204.79
636.645	9297.21
636.999	9265.12
637.352	9229.19
637.706	9242.75
638.06	9269.87
638.413	9245.69
638.767	9220.38
639.121	9257.89
639.474	9180.61
639.828	9199.59
640.181	9193.71
640.534	9184.22
640.888	9133.15
641.241	9100.38
641.594	9152.36
641.947	9162.08
642.301	9088.63
642.654	9104.9
643.007	9141.06
643.36	9102.87
643.713	9075.07
644.066	9115.07
644.419	9056.99
644.771	9053.38
645.124	8970.44
645.477	8876.66
645.83	8917.79
646.182	8875.3
646.535	8790.33
646.888	8881.63
647.24	8746.27
647.593	8779.26
647.945	8762.09
648.298	8763.44
648.65	8698.36
649.002	8708.08
649.355	8752.37
649.707	8793.27
650.059	8831.24
650.411	8943.78
650.763	8914.62
651.115	9062.42
651.467	8988.07
651.819	9019.93
652.171	9002.31
652.523	8988.07
652.875	8975.87
653.227	8908.07
653.578	8964.11
653.93	8941.29
654.282	8959.14
654.633	8920.73
654.985	8986.49
655.337	8959.37
655.688	8977.45
656.039	8983.1
656.391	8964.11
656.742	8958.47
657.094	8909.2
657.445	8992.14
657.796	9020.38
658.147	8968.41
658.498	8969.76
658.849	9035.3
659.2	8953.27
659.551	8950.56
659.902	9047.73
660.253	8953.72
660.604	8991.46
660.955	8985.13
661.306	9024.68
661.656	9044.34
662.007	9078.01
662.358	9041.85
662.708	8990.78
663.059	9046.6
663.409	8945.81
663.76	9049.31
664.11	9087.73
664.461	9003.89
664.811	9102.64
665.161	9074.39
665.511	9055.86
665.862	9046.37
666.212	9042.98
666.562	9101.06
666.912	9064.68
667.262	9058.8
667.612	9089.54
667.962	9096.99
668.312	9071.91
668.662	9066.03
669.011	9052.7
669.361	9032.36
669.711	9073.26
670.06	9030.1
670.41	8966.6
670.76	9020.38
671.109	9037.11
671.459	9000.95
671.808	8998.01
672.157	9021.29
672.507	8946.49
672.856	8917.79
673.205	8960.5
673.554	8980.61
673.904	8914.17
674.253	9030.1
674.602	8993.27
674.951	8873.72
675.3	8840.95
675.649	8908.3
675.998	8917.11
676.346	8958.69
676.695	9003.44
677.044	8852.25
677.393	8842.99
677.741	8877.34
678.09	8838.69
678.438	8815.87
678.787	8816.1
679.135	8852.48
679.484	8793.5
679.832	8839.37
680.181	8780.84
680.529	8738.81
680.877	8765.02
681.225	8749.2
681.573	8774.29
681.922	8640.96
682.27	8640.06
682.618	8674.18
682.966	8644.35
683.314	8632.37
683.661	8679.38
684.009	8553.05
684.357	8535.43
684.705	8563.45
685.053	8587.63
685.4	8595.31
685.748	8518.02
686.095	8460.62
686.443	8422.89
686.79	8451.81
687.138	8482.55
687.485	8434.64
687.832	8396.22
688.18	8441.64
688.527	8375.88
688.874	8364.81
689.221	8323.91
689.568	8258.37
689.915	8302.66
690.262	8271.93
690.609	8266.96
690.956	8167.3
691.303	8137.24
691.65	8118.04
691.997	8118.71
692.344	8087.53
692.69	8069
693.037	8059.96
693.383	8024.25
693.73	8066.51
694.077	7950.58
694.423	7962.33
694.769	7943.35
695.116	7911.49
695.462	7886.63
695.808	7803.24
696.155	7835.56
696.501	7724.15
696.847	7711.49
697.193	7717.59
697.539	7687.54
697.885	7633.98
698.231	7610.93
698.577	7631.95
698.923	7591.04
699.269	7569.57
699.614	7549.24
699.96	7511.05
700.306	7493.19
700.651	7383.59
700.997	7488.45
701.342	7367.09
701.688	7374.1
702.033	7395.34
702.379	7355.8
702.724	7332.29
703.069	7393.76
703.415	7238.96
703.76	7205.97
704.105	7219.3
704.45	7175.24
704.795	7165.29
705.14	7090.72
705.485	7136.59
705.83	7078.97
706.175	7059.53
706.52	7044.62
706.865	7037.61
707.209	6999.87
707.554	7030.15
707.899	7023.83
708.243	6950.83
708.588	6904.96
708.932	6884.17
709.277	6836.71
709.621	6885.53
709.966	6842.14
710.31	6826.09
710.654	6770.95
710.998	6813.44
711.342	6791.29
711.687	6745.42
712.031	6726.89
712.375	6683.5
712.719	6713.1
713.063	6673.78
713.407	6716.94
713.75	6650.05
714.094	6634.91
714.438	6605.53
714.782	6575.93
715.125	6565.53
715.469	6602.37
715.812	6588.81
716.156	6614.8
716.499	6560.11
716.843	6578.41
717.186	6541.58
717.53	6579.09
717.873	6569.38
718.216	6530.05
718.559	6516.04
718.902	6463.39
719.246	6463.16
719.589	6491.64
719.932	6470.39
720.275	6470.39
720.617	6455.93
720.96	6488.25
721.303	6405.31
721.646	6426.33
721.989	6398.53
722.331	6446.21
722.674	6427.91
723.016	6436.27
723.359	6387.69
723.701	6443.05
724.044	6393.11
724.386	6289.83
724.729	6471.07
725.071	6404.63
725.413	6370.28
725.755	6350.62
726.097	6309.95
726.439	6363.28
726.782	6355.82
727.124	6357.63
727.465	6312.21
727.807	6353.11
728.149	6354.47
728.491	6328.93
728.833	6296.61
729.175	6314.01
729.516	6317.63
729.858	6292.32
730.199	6365.99
730.541	6295.48
730.882	6303.62
731.224	6351.98
731.565	6336.61
731.906	6318.99
732.248	6315.6
732.589	6237.63
732.93	6241.02
733.271	6291.87
733.612	6290.51
733.953	6318.99
734.294	6331.64
734.635	6288.7
734.976	6309.72
735.317	6301.13
735.658	6369.38
735.999	6323.28
736.339	6292.55
736.68	6328.48
737.021	6308.37
737.361	6321.25
737.702	6344.07
738.042	6326.44
738.383	6293
738.723	6352.66
739.063	6342.71
739.404	6391.53
739.744	6389.94
740.084	6406.89
740.424	6381.81
740.764	6405.76
741.104	6460.68
741.444	6413
741.784	6468.81
742.124	6496.38
742.464	6451.86
742.804	6503.39
743.143	6536.38
743.483	6519.89
743.823	6508.13
744.162	6553.1
744.502	6605.31
744.841	6592.88
745.181	6638.53
745.52	6618.41
745.86	6699.99
746.199	6736.83
746.538	6724.17
746.877	6799.2
747.216	6852.76
747.556	6859.76
747.895	6893.43
748.234	6908.58
748.573	6955.13
748.911	7058.18
749.25	7088.23
749.589	7097.95
749.928	7208.23
750.267	7269.92
750.605	7368.9
750.944	7458.39
751.283	7433.08
751.621	7596.01
751.96	7596.92
752.298	7731.38
752.636	7816.57
752.975	7859.96
753.313	7974.76
753.651	8076.68
753.989	8097.24
754.327	8231.25
754.666	8319.39
755.004	8461.08
755.342	8581.53
755.679	8691.35
756.017	8787.85
756.355	8933.61
756.693	9089.54
757.031	9192.36
757.368	9327.95
757.706	9428.28
758.044	9589.41
758.381	9679.8
758.719	9826.46
759.056	10078.44
759.394	10139.45
759.731	10297.41
760.068	10496.73
760.405	10559.55
760.743	10640.23
761.08	10971.97
761.417	11044.51
761.754	11227.78
762.091	11410.6
762.428	11540.77
762.765	11736.92
763.102	11889.24
763.438	12034.32
763.775	12078.16
764.112	12355.21
764.449	12626.39
764.785	12739.16
765.122	12903.67
765.458	12908.64
765.795	13134.17
766.131	13326.03
766.467	13457.56
766.804	13506.37
767.14	13662.3
767.476	13872.23
767.812	13950.42
768.148	14154.71
768.485	14185.45
768.821	14383.63
