Data from hue_320_FLMS001491_100.txt Node
Date: Mon Feb 06 15:48:00 GMT 2017
User: dcchb
Spectrometer: FLMS00149
Trigger mode: 0
Integration Time (sec): 2.000000E-2
Scans to average: 10
Electric dark correction enabled: true
Nonlinearity correction enabled: false
Boxcar width: 0
XAxis mode: Wavelengths
Number of Pixels in Spectrum: 2048
>>>>>Begin Spectral Data<<<<<
341.393	-8.97
341.776	-8.97
342.16	-8.97
342.543	-51.91
342.927	-70.44
343.31	-69.53
343.693	-76.09
344.077	-67.27
344.46	-54.17
344.843	-53.26
345.226	-28.4
345.61	-44.67
345.993	-20.04
346.376	3.01
346.759	-2.64
347.142	10.92
347.525	42.56
347.908	74.42
348.291	77.81
348.674	97.47
349.057	109.9
349.44	107.86
349.823	132.27
350.206	157.81
350.588	194.87
350.971	193.29
351.354	219.27
351.737	241.87
352.119	237.35
352.502	255.66
352.884	266.96
353.267	274.41
353.65	280.97
354.032	292.72
354.414	302.89
354.797	284.36
355.179	323.9
355.562	298.37
355.944	323.23
356.326	342.21
356.709	337.01
357.091	318.71
357.473	349.44
357.855	337.24
358.238	343.34
358.62	335.2
359.002	346.28
359.384	321.19
359.766	331.14
360.148	318.03
360.53	345.82
360.912	340.4
361.294	354.86
361.676	334.75
362.057	331.59
362.439	338.37
362.821	318.48
363.203	312.38
363.584	325.26
363.966	341.53
364.348	321.64
364.729	309.22
365.111	295.66
365.493	319.84
365.874	317.12
366.256	292.94
366.637	319.61
367.019	319.61
367.4	310.8
367.781	295.88
368.163	313.96
368.544	319.16
368.925	296.56
369.306	311.02
369.688	290.23
370.069	297.01
370.45	315.54
370.831	317.8
371.212	292.27
371.593	284.36
371.974	317.58
372.355	313.06
372.736	308.31
373.117	325.49
373.498	307.41
373.879	314.86
374.26	306.05
374.641	308.09
375.021	310.12
375.402	314.19
375.783	288.42
376.163	314.19
376.544	319.61
376.925	325.94
377.305	320.06
377.686	327.75
378.066	335.66
378.447	325.26
378.827	339.72
379.208	340.17
379.588	339.5
379.968	311.25
380.349	316.9
380.729	335.66
381.109	339.27
381.489	351.7
381.87	341.76
382.25	308.76
382.63	331.14
383.01	328.65
383.39	332.72
383.77	318.93
384.15	326.39
384.53	346.05
384.91	330.68
385.29	342.43
385.67	349.21
386.049	341.08
386.429	325.03
386.809	357.58
387.189	345.37
387.568	349.21
387.948	330.46
388.328	346.05
388.707	355.32
389.087	325.03
389.466	369.55
389.846	336.56
390.225	349.89
390.605	353.96
390.984	367.97
391.363	361.42
391.743	356.9
392.122	370.91
392.501	374.52
392.881	384.69
393.26	357.8
393.639	357.58
394.018	356.9
394.397	365.03
394.776	376.56
395.155	358.03
395.534	377.01
395.913	379.72
396.292	364.13
396.671	385.6
397.05	386.95
397.429	387.63
397.808	385.37
398.186	390.12
398.565	405.71
398.944	377.91
399.323	370.68
399.701	373.39
400.08	392.83
400.458	379.27
400.837	400.29
401.215	395.09
401.594	397.12
401.972	389.66
402.351	395.54
402.729	416.1
403.107	413.85
403.486	405.94
403.864	407.74
404.242	432.83
404.62	401.42
404.999	410.23
405.377	421.98
405.755	445.93
406.133	434.86
406.511	414.75
406.889	419.72
407.267	440.29
407.645	438.25
408.023	447.52
408.401	449.1
408.779	450
409.156	455.2
409.534	454.52
409.912	458.36
410.29	469.21
410.667	464.92
411.045	466.73
411.422	498.14
411.8	498.36
412.178	480.51
412.555	499.27
412.933	503.79
413.31	479.61
413.687	517.8
414.065	504.92
414.442	527.97
414.819	526.84
415.197	534.52
415.574	559.83
415.951	537.23
416.328	547.85
416.705	564.12
417.082	552.6
417.46	580.62
417.837	577.46
418.214	586.27
418.591	615.87
418.967	615.87
419.344	583.56
419.721	625.82
420.098	603.67
420.475	634.63
420.852	623.33
421.228	627.62
421.605	619.04
421.982	646.61
422.358	640.96
422.735	652.93
423.111	653.84
423.488	660.39
423.864	681.18
424.241	676.89
424.617	680.28
424.994	673.5
425.37	699.94
425.746	712.37
426.123	715.98
426.499	714.18
426.875	726.15
427.251	721.18
427.627	742.88
428.003	729.77
428.379	768.64
428.756	765.47
429.132	758.02
429.507	793.04
429.883	798.24
430.259	800.05
430.635	798.69
431.011	793.5
431.387	840.5
431.763	845.02
432.138	835.3
432.514	822.42
432.89	842.31
433.265	838.24
433.641	863.55
434.016	889.76
434.392	885.25
434.767	881.4
435.143	901.29
435.518	883.66
435.894	944.23
436.269	917.33
436.644	928.63
437.02	943.1
437.395	945.13
437.77	957.11
438.145	963.66
438.52	1015.86
438.895	960.5
439.271	983.55
439.646	1018.35
440.021	984.9
440.395	1026.48
440.77	1003.66
441.145	1021.29
441.52	1040.04
441.895	1032.59
442.27	1046.14
442.645	1052.92
443.019	1031.46
443.394	1049.08
443.769	1101.06
444.143	1077.33
444.518	1073.49
444.892	1082.53
445.267	1087.95
445.641	1092.47
446.016	1083.21
446.39	1079.36
446.764	1115.52
447.139	1067.61
447.513	1086.82
447.887	1107.84
448.262	1101.28
448.636	1097.67
449.01	1121.4
449.384	1117.33
449.758	1144.67
450.132	1120.72
450.506	1128.4
450.88	1161.62
451.254	1142.19
451.628	1153.03
452.002	1158.46
452.376	1147.16
452.75	1173.6
453.123	1187.61
453.497	1198.23
453.871	1204.78
454.244	1230.32
454.618	1213.37
454.992	1263.54
455.365	1210.89
455.739	1269.64
456.112	1278
456.486	1265.12
456.859	1255.86
457.232	1305.12
457.606	1296.31
457.979	1296.08
458.352	1308.96
458.725	1320.71
459.099	1318.45
459.472	1323.88
459.845	1350.54
460.218	1360.26
460.591	1338.11
460.964	1370.88
461.337	1381.73
461.71	1448.39
462.083	1442.52
462.456	1416.53
462.829	1453.14
463.201	1475.51
463.574	1454.72
463.947	1463.53
464.32	1492.69
464.692	1491.78
465.065	1473.48
465.438	1512.57
465.81	1489.52
466.183	1529.75
466.555	1552.12
466.928	1571.33
467.3	1559.35
467.672	1560.93
468.045	1610.65
468.417	1600.93
468.789	1603.19
469.161	1607.03
469.534	1637.99
469.906	1654.94
470.278	1699.91
470.65	1673.02
471.022	1723.42
471.394	1725
471.766	1715.73
472.138	1775.17
472.51	1820.81
472.882	1811.32
473.253	1840.25
473.625	1857.42
473.997	1843.86
474.369	1880.25
474.74	1887.48
475.112	1891.77
475.484	1902.85
475.855	1957.08
476.227	1963.18
476.598	1994.37
476.97	2029.85
477.341	2055.38
477.713	2078.89
478.084	2059.68
478.455	2108.04
478.827	2128.38
479.198	2209.73
479.569	2215.61
479.94	2223.29
480.311	2230.97
480.682	2280.01
481.053	2338.99
481.424	2326.56
481.795	2348.71
482.166	2392.1
482.537	2423.96
482.908	2463.28
483.279	2398.43
483.65	2479.33
484.021	2515.94
484.391	2545.31
484.762	2564.07
485.133	2565.65
485.503	2626.67
485.874	2629.38
486.244	2649.72
486.615	2708.7
486.985	2727.68
487.356	2766.33
487.726	2755.03
488.097	2839.54
488.467	2842.71
488.837	2879.09
489.207	2897.85
489.578	2955.47
489.948	2950.73
490.318	2964.06
490.688	2993.89
491.058	3063.04
491.428	3074.57
491.798	3106.43
492.168	3119.08
492.538	3145.52
492.908	3192.3
493.278	3232.75
493.648	3202.92
494.017	3218.97
494.387	3270.27
494.757	3323.37
495.126	3322.47
495.496	3325.41
495.866	3344.16
496.235	3387.1
496.605	3385.97
496.974	3378.51
497.344	3456.93
497.713	3446.31
498.082	3424.61
498.452	3477.49
498.821	3475.91
499.19	3512.75
499.559	3497.83
499.928	3579.86
500.298	3588
500.667	3583.93
501.036	3577.15
501.405	3546.19
501.774	3613.31
502.143	3607.89
502.512	3651.73
502.88	3693.08
503.249	3686.98
503.618	3676.13
503.987	3672.97
504.356	3748.9
504.724	3715.91
505.093	3722.68
505.462	3761.78
505.83	3760.42
506.199	3753.42
506.567	3814.66
506.936	3795.68
507.304	3873.19
507.672	3845.17
508.041	3865.05
508.409	3888.78
508.777	3888.78
509.145	3924.71
509.514	3947.99
509.882	3957.25
510.25	3932.4
510.618	3939.4
510.986	3950.25
511.354	3981.66
511.722	3997.03
512.09	4014.43
512.458	4031.38
512.826	4039.06
513.193	4044.94
513.561	4079.96
513.929	4068.66
514.297	4117.25
514.664	4128.55
515.032	4119.51
515.4	4137.59
515.767	4084.48
516.135	4152.28
516.502	4096.23
516.869	4164.93
517.237	4193.63
517.604	4191.82
517.972	4225.04
518.339	4231.15
518.706	4209.9
519.073	4218.26
519.44	4260.52
519.808	4306.85
520.175	4222.56
520.542	4273.63
520.909	4308.43
521.276	4296.91
521.643	4319.96
522.009	4373.29
522.376	4353.63
522.743	4387.3
523.11	4396.34
523.477	4407.41
523.843	4446.96
524.21	4473.17
524.577	4531.93
524.943	4551.59
525.31	4514.3
525.676	4544.58
526.043	4545.26
526.409	4577.35
526.776	4633.85
527.142	4694.41
527.508	4670.91
527.874	4658.03
528.241	4677.01
528.607	4698.03
528.973	4733.51
529.339	4766.95
529.705	4797.23
530.071	4813.96
530.437	4831.58
530.803	4848.98
531.169	4826.84
531.535	4892.37
531.901	4938.92
532.267	4929.43
532.632	4917.91
532.998	4953.16
533.364	4999.04
533.73	5002.2
534.095	5049.66
534.461	5072.48
534.826	5060.28
535.192	5055.98
535.557	5132.37
535.923	5048.53
536.288	5166.94
536.653	5141.4
537.019	5184.34
537.384	5197
537.749	5242.42
538.114	5194.28
538.479	5244.9
538.845	5284
539.21	5272.25
539.575	5316.54
539.94	5299.14
540.305	5366.03
540.67	5381.17
541.034	5388.86
541.399	5348.4
541.764	5442.64
542.129	5485.58
542.494	5441.74
542.858	5539.81
543.223	5475.41
543.587	5509.53
543.952	5531.45
544.316	5575.07
544.681	5560.38
545.045	5580.04
545.41	5706.59
545.774	5651.45
546.138	5678.34
546.503	5720.82
546.867	5731.22
547.231	5728.28
547.595	5810.09
547.959	5782.97
548.324	5851.22
548.688	5821.61
549.052	5831.33
549.416	5861.39
549.779	5903.42
550.143	5867.71
550.507	5930.31
550.871	5957.2
551.235	5972.34
551.599	6035.39
551.962	6014.38
552.326	6025.67
552.689	6071.32
553.053	6034.26
553.417	6042.17
553.78	6099.8
554.143	6103.86
554.507	6126.01
554.87	6159.46
555.234	6257.08
555.597	6153.13
555.96	6199.68
556.323	6175.05
556.686	6250.75
557.05	6276.29
557.413	6295.05
557.776	6311.09
558.139	6329.4
558.502	6380.02
558.865	6391.09
559.228	6372.33
559.59	6438.32
559.953	6362.39
560.316	6409.17
560.679	6436.96
561.041	6478.77
561.404	6547.24
561.767	6575.04
562.129	6539.79
562.492	6596.51
562.854	6550.63
563.217	6631.08
563.579	6618.88
563.941	6626.56
564.304	6673.34
564.666	6732.77
565.028	6698.65
565.39	6751.53
565.753	6797.63
566.115	6814.35
566.477	6805.54
566.839	6830.85
567.201	6853.45
567.563	6866.56
567.925	6918.31
568.287	6895.71
568.648	6895.93
569.01	6959.44
569.372	7020.9
569.734	7017.29
570.095	7057.29
570.457	7088.92
570.819	7111.97
571.18	7115.14
571.542	7232.87
571.903	7252.08
572.265	7231.97
572.626	7285.98
572.987	7280.33
573.349	7316.26
573.71	7386.09
574.071	7489.82
574.432	7498.63
574.794	7595.8
575.155	7602.58
575.516	7643.94
575.877	7749.02
576.238	7789.7
576.599	7785.85
576.96	7855.46
577.32	7948.11
577.681	8077.15
578.042	8129.12
578.403	8214.09
578.763	8266.52
579.124	8405.05
579.485	8429.68
579.845	8526.63
580.206	8627.64
580.566	8736.11
580.927	8828.31
581.287	8991.47
581.648	9062.43
582.008	9179.94
582.368	9312.37
582.728	9490.67
583.089	9639.14
583.449	9719.59
583.809	9986.47
584.169	10065.57
584.529	10254.49
584.889	10458.1
585.249	10636.63
585.609	10771.76
585.969	11021.25
586.329	11174.01
586.688	11404.29
587.048	11595.25
587.408	11863.04
587.768	12045.86
588.127	12249.24
588.487	12471.38
588.846	12707.08
589.206	12961.76
589.565	13138.03
589.925	13464.8
590.284	13566.04
590.643	13918.35
591.003	14209.64
591.362	14544.55
591.721	14698.67
592.08	15012.56
592.44	15324.41
592.799	15595.14
593.158	15841.01
593.517	16132.53
593.876	16413.88
594.235	16605.51
594.593	16940.64
594.952	17242.78
595.311	17577.91
595.67	17839.6
596.029	18200.95
596.387	18428.29
596.746	18739.69
597.104	18983.53
597.463	19204.31
597.822	19611.76
598.18	19915.25
598.538	20009.94
598.897	20502.36
599.255	20624.84
599.613	21103.7
599.972	21364.93
600.33	21656
600.688	21844.02
601.046	22150.67
601.404	22420.5
601.762	22688.29
602.12	23121.27
602.478	23236.3
602.836	23590.64
603.194	23676.74
603.552	23892.55
603.91	24193.11
604.268	24534.57
604.625	24623.15
604.983	25126.64
605.341	25164.83
605.698	25411.38
606.056	25835.32
606.413	25942.89
606.771	26218.14
607.128	26553.72
607.485	26636.43
607.843	26784.9
608.2	27219.69
608.557	27472.12
608.914	27476.41
609.272	28009.28
609.629	28084.08
609.986	28476.16
610.343	28507.12
610.7	28842.7
611.057	29038.63
611.414	29070.72
611.771	29222.13
612.127	29652.85
612.484	29704.6
612.841	29915.22
613.198	29985.72
613.554	30189.33
613.911	30494.41
614.267	30613.5
614.624	30839.71
614.98	31023.89
615.337	31267.5
615.693	31283.09
616.05	31512.46
616.406	31650.09
616.762	31723.3
617.118	31905.45
617.475	32025.67
617.831	32240.8
618.187	32357.64
618.543	32502.72
618.899	32705.65
619.255	32828.81
619.611	32915.82
619.967	33118.07
620.323	33337.5
620.678	33183.38
621.034	33356.48
621.39	33434.22
621.746	33545.86
622.101	33913.98
622.457	33791.05
622.812	33961.21
623.168	34048.21
623.523	34266.51
623.879	34347.42
624.234	34161.88
624.589	34354.2
624.945	34500.41
625.3	34690.01
625.655	34610.91
626.01	34777.91
626.365	34763.45
626.72	34820.85
627.075	34900.4
627.43	34845.03
627.785	35093.39
628.14	35008.42
628.495	35090.45
628.85	35197.34
629.205	35186.26
629.559	35404.11
629.914	35189.2
630.269	35343.32
630.623	35284.34
630.978	35302.42
631.332	35412.7
631.687	35696.31
632.041	35454.05
632.396	35613.82
632.75	35575.18
633.104	35651.11
633.459	35463.32
633.813	35452.47
634.167	35520.04
634.521	35556.2
634.875	35682.07
635.229	35543.99
635.583	35382.42
635.937	35494.96
636.291	35622.41
636.645	35489.53
636.999	35536.76
637.352	35513.49
637.706	35505.35
638.06	35692.24
638.413	35462.87
638.767	35570.66
639.121	35626.7
639.474	35524.11
639.828	35428.29
640.181	35622.86
640.534	35553.71
640.888	35424.9
641.241	35399.59
641.594	35489.31
641.947	35580.83
642.301	35543.99
642.654	35541.06
643.007	35471.91
643.36	35441.4
643.713	35507.61
644.066	35488.4
644.419	35399.14
644.771	35199.6
645.124	34856.33
645.477	34898.81
645.83	34616.79
646.182	34491.59
646.535	34400.52
646.888	34590.12
647.24	34405.49
647.593	34384.93
647.945	34405.49
648.298	34294.31
648.65	34199.85
649.002	34175.67
649.355	34327.3
649.707	34334.31
650.059	34414.98
650.411	34764.81
650.763	34846.84
651.115	35169.09
651.467	35124.8
651.819	35181.07
652.171	35009.32
652.523	34999.83
652.875	35013.39
653.227	34898.36
653.578	35073.05
653.93	35000.05
654.282	34748.99
654.633	34741.08
654.985	34831.7
655.337	34853.84
655.688	34913.05
656.039	34977.91
656.391	34759.83
656.742	34758.48
657.094	34825.14
657.445	34945.14
657.796	34749.89
658.147	34765.94
658.498	34903.33
658.849	34926.16
659.2	34920.28
659.551	34704.69
659.902	34848.87
660.253	34793.73
660.604	34920.96
660.955	34655.88
661.306	34861.75
661.656	34685.71
662.007	34715.99
662.358	34810.45
662.708	34703.34
663.059	34698.59
663.409	34547.41
663.76	34824.01
664.11	34792.15
664.461	34891.58
664.811	34817.01
665.161	34706.28
665.511	34643
665.862	34673.28
666.212	34723.68
666.562	34670.57
666.912	34589.44
667.262	34586.73
667.612	34571.59
667.962	34727.07
668.312	34546.51
668.662	34716.67
669.011	34722.32
669.361	34614.75
669.711	34513.74
670.06	34467.41
670.41	34501.54
670.76	34420.41
671.109	34563
671.459	34578.37
671.808	34533.17
672.157	34612.49
672.507	34308.32
672.856	34382.67
673.205	34456.79
673.554	34552.16
673.904	34357.59
674.253	34474.42
674.602	34469.22
674.951	33900.87
675.3	33755.34
675.649	34232.39
675.998	34219.06
676.346	34328.89
676.695	34415.44
677.044	34056.8
677.393	34313.97
677.741	34322.56
678.09	34113.07
678.438	34097.71
678.787	34180.41
679.135	34110.59
679.484	33973.87
679.832	33978.39
680.181	33756.92
680.529	34004.83
680.877	33879.41
681.225	33847.32
681.573	34034.88
681.922	33750.37
682.27	33691.39
682.618	33749.24
682.966	33579.98
683.314	33730.48
683.661	33606.64
684.009	33509.02
684.357	33518.96
684.705	33407.33
685.053	33389.7
685.4	33378.18
685.748	33142.7
686.095	33287.78
686.443	33197.84
686.79	33130.05
687.138	33091.86
687.485	33115.81
687.832	32915.36
688.18	33078.52
688.527	32895.7
688.874	32902.93
689.221	32781.13
689.568	32631.53
689.915	32492.55
690.262	32499.78
690.609	32526.9
690.956	32314.7
691.303	32380.24
691.65	32209.17
691.997	32165.33
692.344	32114.25
692.69	31970.08
693.037	31971.66
693.383	31744.77
693.73	31696.86
694.077	31623.87
694.423	31738.22
694.769	31563.08
695.116	31552.69
695.462	31522.18
695.808	31290.55
696.155	31371.22
696.501	31211
696.847	31192.7
697.193	30950.67
697.539	31027.73
697.885	30859.82
698.231	30749.09
698.577	30827.28
698.923	30796.55
699.269	30575.31
699.614	30529.89
699.96	30422.77
700.306	30506.16
700.651	30326.5
700.997	30101.43
701.342	30129.45
701.688	30167.41
702.033	29980.75
702.379	29921.32
702.724	29860.98
703.069	29961.99
703.415	29625.73
703.76	29658.5
704.105	29658.95
704.45	29599.74
704.795	29445.17
705.14	29278.85
705.485	29431.16
705.83	29223.48
706.175	29294.22
706.52	29031.85
706.865	28975.13
707.209	29055.8
707.554	28892.64
707.899	28955.47
708.243	28807.67
708.588	28781.91
708.932	28517.29
709.277	28524.29
709.621	28616.49
709.966	28421.47
710.31	28442.94
710.654	28190.52
710.998	28266.22
711.342	28259.44
711.687	28098.31
712.031	28049.05
712.375	28015.38
712.719	27987.36
713.063	28014.93
713.407	28094.7
713.75	27873.91
714.094	27872.33
714.438	27735.39
714.782	27749.4
715.125	27641.15
715.469	27607.03
715.812	27481.61
716.156	27319.35
716.499	27386.02
716.843	27298.56
717.186	27226.25
717.53	27428.28
717.873	27298.11
718.216	27358.45
718.559	27183.99
718.902	26997.55
719.246	27104.22
719.589	26911.91
719.932	26942.87
720.275	26833.26
720.617	26870.32
720.96	26864
721.303	26763.43
721.646	26787.16
721.989	26653.61
722.331	26746.03
722.674	26635.75
723.016	26501.29
723.359	26457.68
723.701	26585.36
724.044	26191.7
724.386	26229.21
724.729	26331.36
725.071	26311.7
725.413	26260.4
725.755	26196.44
726.097	26169.33
726.439	26008.65
726.782	26082.1
727.124	26222.43
727.465	25986.05
727.807	25924.81
728.149	25930.46
728.491	25776.12
728.833	25904.47
729.175	25805.27
729.516	25677.14
729.858	25796
730.199	25766.85
730.541	25653.86
730.882	25563.01
731.224	25628.78
731.565	25431.49
731.906	25478.72
732.248	25442.34
732.589	25406.86
732.93	25302.23
733.271	25297.94
733.612	25370.03
733.953	25403.92
734.294	25257.03
734.635	25057.04
734.976	25257.03
735.317	25035.12
735.658	25058.17
735.999	25074.67
736.339	25019.3
736.68	24991.73
737.021	24949.7
737.361	24843.94
737.702	24998.51
738.042	24954.89
738.383	24787.22
738.723	24853.65
739.063	24730.04
739.404	24773.2
739.744	24617.28
740.084	24619.08
740.424	24628.58
740.764	24511.06
741.104	24590.61
741.444	24402.37
741.784	24384.06
742.124	24395.36
742.464	24360.79
742.804	24332.76
743.143	24224.97
743.483	24337.96
743.823	24137.52
744.162	24122.6
744.502	24203.28
744.841	24163.73
745.181	24215.25
745.52	23964.64
745.86	24116.5
746.199	24017.97
746.538	23885.09
746.877	24079.66
747.216	23984.75
747.556	23944.3
747.895	23949.05
748.234	23751.54
748.573	23857.75
748.911	23769.39
749.25	23725.77
749.589	23619.56
749.928	23723.06
750.267	23720.12
750.605	23561.26
750.944	23431.32
751.283	23437.42
751.621	23502.28
751.96	23356.97
752.298	23337.99
752.636	23360.13
752.975	23107.03
753.313	23125.34
753.651	23119.01
753.989	23147.71
754.327	23041.27
754.666	22888.51
755.004	23050.99
755.342	22933.48
755.679	22905.01
756.017	22762.86
756.355	22797.66
756.693	22727.38
757.031	22762.18
757.368	22578.46
757.706	22534.17
758.044	22516.77
758.381	22530.1
758.719	22308.18
759.056	22456.88
759.394	22274.29
759.731	22217.11
760.068	22159.04
