Data from hue_00_FLMS001491_65.txt Node
Date: Mon Feb 06 15:30:03 GMT 2017
User: dcchb
Spectrometer: FLMS00149
Trigger mode: 0
Integration Time (sec): 2.000000E-2
Scans to average: 10
Electric dark correction enabled: true
Nonlinearity correction enabled: false
Boxcar width: 0
XAxis mode: Wavelengths
Number of Pixels in Spectrum: 2048
>>>>>Begin Spectral Data<<<<<
341.393	-20.56
341.776	-20.56
342.16	-20.56
342.543	-69.83
342.927	-75.48
343.31	-57.4
343.693	-84.74
344.077	-58.08
344.46	-67.79
344.843	-56.72
345.226	-62.82
345.61	-37.06
345.993	-23.28
346.376	-7.46
346.759	20.34
347.142	36.38
347.525	56.95
347.908	71.64
348.291	81.58
348.674	86.33
349.057	102.14
349.44	144.63
349.823	129.04
350.206	147.34
350.588	167.68
350.971	178.98
351.354	209.71
351.737	239.77
352.119	239.09
352.502	256.49
352.884	259.88
353.267	278.86
353.65	273.67
354.032	304.17
354.414	291.97
354.797	284.96
355.179	331.74
355.562	309.14
355.944	310.27
356.326	313.44
356.709	326.32
357.091	347.11
357.473	317.05
357.855	349.14
358.238	327
358.62	340.33
359.002	341.23
359.384	332.87
359.766	328.58
360.148	329.71
360.53	332.65
360.912	327.45
361.294	345.53
361.676	331.74
362.057	309.6
362.439	325.87
362.821	323.16
363.203	317.73
363.584	322.7
363.966	293.33
364.348	308.24
364.729	298.98
365.111	311.86
365.493	319.31
365.874	311.86
366.256	305.3
366.637	318.41
367.019	297.62
367.4	307.11
367.781	328.58
368.163	309.14
368.544	323.38
368.925	313.44
369.306	329.26
369.688	315.47
370.069	301.46
370.45	307.11
370.831	309.82
371.212	309.14
371.593	315.47
371.974	321.8
372.355	301.91
372.736	307.34
373.117	311.63
373.498	310.5
373.879	298.98
374.26	316.6
374.641	319.77
375.021	323.16
375.402	309.37
375.783	314.12
376.163	298.52
376.544	311.63
376.925	328.13
377.305	314.79
377.686	322.03
378.066	325.19
378.447	328.35
378.827	317.73
379.208	320.67
379.588	319.54
379.968	322.48
380.349	347.34
380.729	324.06
381.109	337.17
381.489	330.16
381.87	352.08
382.25	326.55
382.63	357.96
383.01	320.22
383.39	329.71
383.77	346.66
384.15	347.79
384.53	321.12
384.91	338.52
385.29	332.19
385.67	347.11
386.049	343.95
386.429	345.53
386.809	357.5
387.189	345.08
387.568	345.3
387.948	349.6
388.328	346.88
388.707	353.44
389.087	335.81
389.466	334.23
389.846	367.9
390.225	380.1
390.605	337.39
390.984	387.11
391.363	362.7
391.743	352.53
392.122	362.93
392.501	362.93
392.881	348.01
393.26	360.22
393.639	362.25
394.018	354.11
394.397	348.01
394.776	358.18
395.155	376.94
395.534	383.04
395.913	381.23
396.292	367.22
396.671	372.42
397.05	376.49
397.429	366.77
397.808	368.35
398.186	368.8
398.565	375.58
398.944	367.9
399.323	389.37
399.701	382.59
400.08	382.59
400.458	400.67
400.837	379.88
401.215	375.13
401.594	383.27
401.972	374
402.351	374.91
402.729	391.4
403.107	378.75
403.486	388.46
403.864	400.67
404.242	400.89
404.62	391.18
404.999	405.64
405.377	411.51
405.755	395.47
406.133	418.97
406.511	400.89
406.889	421.91
407.267	399.54
407.645	405.64
408.023	412.87
408.401	411.97
408.779	407.22
409.156	419.88
409.534	414.23
409.912	426.88
410.29	417.62
410.667	424.17
411.045	421.23
411.422	409.25
411.8	423.04
412.178	416.49
412.555	431.18
412.933	471.4
413.31	452.42
413.687	463.94
414.065	463.49
414.442	451.29
414.819	451.29
415.197	451.29
415.574	464.17
415.951	453.1
416.328	443.83
416.705	456.26
417.082	482.47
417.46	472.08
417.837	475.47
418.214	486.09
418.591	503.94
418.967	488.57
419.344	486.09
419.721	487.44
420.098	526.31
420.475	516.37
420.852	514.11
421.228	489.48
421.605	501
421.982	495.58
422.358	527.22
422.735	524.96
423.111	515.69
423.488	511.62
423.864	527.22
424.241	541
424.617	520.89
424.994	547.1
425.37	541.45
425.746	518.18
426.123	517.27
426.499	541.45
426.875	524.51
427.251	545.97
427.627	560.44
428.003	567.44
428.379	534.45
428.756	590.27
429.132	591.62
429.507	582.36
429.883	567.22
430.259	578.97
430.635	599.08
431.011	589.36
431.387	597.72
431.763	592.75
432.138	614.22
432.514	613.77
432.89	597.27
433.265	612.87
433.641	662.58
434.016	627.33
434.392	645.86
434.767	654.9
435.143	649.47
435.518	646.54
435.894	649.93
436.269	672.52
436.644	674.56
437.02	668.46
437.395	660.55
437.77	675.24
438.145	693.32
438.52	678.85
438.895	701.45
439.271	698.29
439.646	705.74
440.021	729.02
440.395	707.78
440.77	707.1
441.145	713.2
441.52	712.3
441.895	724.05
442.27	725.63
442.645	714.11
443.019	736.7
443.394	704.16
443.769	747.32
444.143	745.74
444.518	772.41
444.892	742.58
445.267	762.47
445.641	751.84
446.016	776.7
446.39	756.14
446.764	764.95
447.139	757.95
447.513	770.15
447.887	762.24
448.262	763.82
448.636	785.97
449.01	787.78
449.384	776.93
449.758	800.88
450.132	778.51
450.506	820.54
450.88	810.83
451.254	806.31
451.628	831.84
452.002	842.69
452.376	839.3
452.75	836.59
453.123	827.77
453.497	860.09
453.871	845.85
454.244	857.6
454.618	841.11
454.992	856.02
455.365	874.33
455.739	893.99
456.112	920.65
456.486	897.6
456.859	904.38
457.232	920.43
457.606	916.13
457.979	966.3
458.352	938.05
458.725	969.24
459.099	971.73
459.472	978.28
459.845	997.94
460.218	965.17
460.591	1008.79
460.964	1023.02
461.337	997.04
461.71	1017.37
462.083	1043.36
462.456	1027.32
462.829	1045.4
463.201	1054.21
463.574	1068.45
463.947	1076.58
464.32	1079.75
464.692	1106.64
465.065	1111.38
465.438	1110.71
465.81	1139.86
466.183	1133.53
466.555	1140.31
466.928	1158.61
467.3	1157.94
467.672	1216.69
468.045	1221.44
468.417	1216.01
468.789	1256.69
469.161	1238.61
469.534	1283.36
469.906	1311.6
470.278	1315.67
470.65	1303.92
471.022	1320.64
471.394	1347.31
471.766	1345.5
472.138	1398.38
472.51	1410.81
472.882	1441.09
473.253	1424.6
473.625	1463.69
473.997	1500.3
474.369	1520.41
474.74	1502.11
475.112	1528.77
475.484	1562.9
475.855	1603.57
476.227	1575.1
476.598	1649.9
476.97	1666.17
477.341	1708.88
477.713	1730.58
478.084	1738.03
478.455	1789.11
478.827	1816.68
479.198	1869.33
479.569	1874.75
479.94	1893.74
480.311	1978.25
480.682	1969.89
481.053	2025.03
481.424	2046.95
481.795	2102.54
482.166	2083.11
482.537	2131.02
482.908	2192.48
483.279	2221.41
483.65	2234.97
484.021	2285.36
484.391	2295.31
484.762	2338.24
485.133	2352.71
485.503	2408.52
485.874	2465.7
486.244	2481.29
486.615	2538.46
486.985	2533.49
487.356	2632.93
487.726	2655.98
488.097	2688.52
488.467	2697.78
488.837	2754.5
489.207	2796.99
489.578	2845.12
489.948	2882.41
490.318	2900.49
490.688	2942.3
491.058	2972.13
491.428	3037.66
491.798	3089.18
492.168	3108.39
492.538	3116.53
492.908	3121.05
493.278	3227.03
493.648	3168.05
494.017	3257.32
494.387	3255.28
494.757	3286.02
495.126	3327.37
495.496	3369.18
495.866	3415.05
496.235	3446.69
496.605	3469.97
496.974	3476.52
497.344	3523.07
497.713	3548.38
498.082	3612.11
498.452	3629.74
498.821	3593.13
499.19	3661.6
499.559	3710.41
499.928	3666.34
500.298	3729.85
500.667	3780.92
501.036	3782.73
501.405	3807.13
501.774	3846.68
502.143	3796.28
502.512	3817.98
502.88	3877.86
503.249	3905.89
503.618	3919.44
503.987	3962.61
504.356	3959.67
504.724	4000.8
505.093	4009.39
505.462	3999.44
505.83	3992.44
506.199	4043.74
506.567	4065.43
506.936	4122.83
507.304	4105.88
507.672	4118.08
508.041	4173.45
508.409	4176.61
508.777	4143.62
509.145	4204.41
509.514	4225.88
509.882	4245.54
510.25	4243.05
510.618	4281.47
510.986	4343.84
511.354	4290.28
511.722	4361.24
512.09	4385.65
512.458	4400.79
512.826	4368.7
513.193	4409.6
513.561	4461.8
513.929	4467.45
514.297	4482.59
514.664	4466.78
515.032	4536.6
515.4	4536.6
515.767	4584.06
516.135	4573.44
516.502	4547
516.869	4616.6
517.237	4573.67
517.604	4559.88
517.972	4642.36
518.339	4656.83
518.706	4623.61
519.073	4665.87
519.44	4677.17
519.808	4711.06
520.175	4754.45
520.542	4743.6
520.909	4768.01
521.276	4727.11
521.643	4817.5
522.009	4784.73
522.376	4833.09
522.743	4892.07
523.11	4933.2
523.477	4899.98
523.843	4985.41
524.21	4977.27
524.577	5048.45
524.943	5039.87
525.31	5063.6
525.676	5082.13
526.043	5117.15
526.409	5102.69
526.776	5127.1
527.142	5158.28
527.508	5200.32
527.874	5206.42
528.241	5239.64
528.607	5292.52
528.973	5336.36
529.339	5308.56
529.705	5343.36
530.071	5349.92
530.437	5375.9
530.803	5459.74
531.169	5449.57
531.535	5438.5
531.901	5450.03
532.267	5554.88
532.632	5539.06
532.998	5518.27
533.364	5635.11
533.73	5599.63
534.095	5650.02
534.461	5709
534.826	5700.42
535.192	5737.25
535.557	5787.42
535.923	5768.66
536.288	5800.98
536.653	5818.6
537.019	5793.07
537.384	5828.32
537.749	5878.04
538.114	5852.05
538.479	5887.3
538.845	5946.74
539.21	5916
539.575	5966.62
539.94	5983.8
540.305	6021.54
540.67	6039.39
541.034	6102.44
541.399	6097.24
541.764	6068.54
542.129	6125.71
542.494	6138.82
542.858	6191.02
543.223	6206.39
543.587	6273.96
543.952	6236.67
544.316	6308.99
544.681	6283.22
545.045	6332.49
545.41	6368.87
545.774	6371.58
546.138	6377.01
546.503	6388.31
546.867	6411.58
547.231	6427.18
547.595	6463.33
547.959	6492.03
548.324	6482.32
548.688	6538.13
549.052	6580.84
549.416	6604.8
549.779	6599.83
550.143	6622.88
550.507	6662.88
550.871	6703.1
551.235	6664.91
551.599	6755.08
551.962	6737.45
552.326	6785.36
552.689	6780.61
553.053	6824.68
553.417	6823.1
553.78	6899.48
554.143	6863.77
554.507	6921.85
554.87	6887.73
555.234	6943.09
555.597	6994.62
555.96	6990.1
556.323	7039.36
556.686	7050.89
557.05	7019.7
557.413	7059.7
557.776	7039.59
558.139	7146.48
558.502	7141.73
558.865	7100.6
559.228	7190.32
559.59	7230.09
559.953	7167.72
560.316	7299.47
560.679	7284.1
561.041	7277.55
561.404	7362.74
561.767	7383.31
562.129	7343.76
562.492	7431.44
562.854	7419.92
563.217	7404.78
563.579	7443.87
563.941	7488.39
564.304	7542.85
564.666	7570.2
565.028	7597.77
565.39	7587.15
565.753	7645
566.115	7644.77
566.477	7737.42
566.839	7743.07
567.201	7782.85
567.563	7869.4
567.925	7804.77
568.287	7838.21
568.648	7835.5
569.01	7897.19
569.372	7885.89
569.734	7939
570.095	8002.28
570.457	8059.45
570.819	8077.08
571.18	8086.12
571.542	8135.61
571.903	8127.02
572.265	8204.76
572.626	8252.21
572.987	8256.05
573.349	8357.29
573.71	8390.51
574.071	8430.06
574.432	8476.84
574.794	8592.32
575.155	8542.37
575.516	8594.58
575.877	8628.7
576.238	8707.79
576.599	8783.95
576.96	8867.34
577.32	8970.39
577.681	9071.85
578.042	9138.97
578.403	9110.72
578.763	9298.96
579.124	9331.05
579.485	9523.14
579.845	9500.54
580.206	9634.32
580.566	9738.05
580.927	9858.5
581.287	9925.39
581.648	10091.03
582.008	10209.45
582.368	10370.12
582.728	10480.4
583.089	10576.22
583.449	10738.47
583.809	10906.61
584.169	11053.27
584.529	11208.74
584.889	11448.29
585.249	11473.14
585.609	11692.8
585.969	11994.71
586.329	12120.13
586.688	12359.22
587.048	12543.4
587.408	12736.61
587.768	12974.57
588.127	13139.09
588.487	13351.74
588.846	13644.39
589.206	13826.53
589.565	14033.08
589.925	14342.9
590.284	14504.48
590.643	14795.32
591.003	15085.03
591.362	15419.71
591.721	15635.75
592.08	15850.2
592.44	16192.34
592.799	16351.89
593.158	16695.15
593.517	16845.66
593.876	17067.57
594.235	17396.38
594.593	17699.2
594.952	18006.76
595.311	18288.33
595.67	18462.11
596.029	19041.31
596.387	19174.19
596.746	19529.88
597.104	19719.26
597.463	19973.49
597.822	20308.84
598.18	20477.2
598.538	20837.64
598.897	21123.51
599.255	21240.57
599.613	21831.97
599.972	22048.23
600.33	22351.28
600.688	22540.2
601.046	22840.76
601.404	23088.88
601.762	23287.3
602.12	23645.25
602.478	23905.13
602.836	24064
603.194	24321.39
603.552	24741.95
603.91	24866.24
604.268	25146.01
604.625	25381.71
604.983	25559.1
605.341	25826.89
605.698	26231.85
606.056	26448.57
606.413	26604.05
606.771	26903.02
607.128	27172.62
607.485	27159.06
607.843	27419.39
608.2	27784.35
608.557	28075.65
608.914	28147.28
609.272	28486.48
609.629	28731
609.986	29047.82
610.343	29095.73
610.7	29512.67
611.057	29500.24
611.414	29689.84
611.771	29889.84
612.127	30146.33
612.484	30257.06
612.841	30478.75
613.198	30657.5
613.554	30882.8
613.911	31182.46
614.267	31353.53
614.624	31417.93
614.98	31612.73
615.337	31941.76
615.693	31989.44
616.05	32108.76
616.406	32443.44
616.762	32278.7
617.118	32515.98
617.475	32548.3
617.831	32829.19
618.187	32971.34
618.543	33076.42
618.899	33309.41
619.255	33413.13
619.611	33438.89
619.967	33636.4
620.323	33863.06
620.678	33837.3
621.034	33965.66
621.39	34002.95
621.746	33990.07
622.101	34472.77
622.457	34201.59
622.812	34359.77
623.168	34575.59
623.523	34764.96
623.879	34949.82
624.234	34725.87
624.589	34876.82
624.945	35055.8
625.3	35005.18
625.655	35176.93
626.01	35276.59
626.365	35300.99
626.72	35439.29
627.075	35435.68
627.43	35482
627.785	35531.04
628.14	35646.75
628.495	35773.3
628.85	35726.74
629.205	35649.91
629.559	35906.85
629.914	35858.49
630.269	35753.86
630.623	35812.39
630.978	35827.08
631.332	35974.42
631.687	36157.92
632.041	35941.88
632.396	36071.59
632.75	35983.91
633.104	35906.4
633.459	35976.91
633.813	35937.81
634.167	35905.27
634.521	35999.73
634.875	36119.73
635.229	35937.81
635.583	36011.26
635.937	36017.58
636.291	35878.6
636.645	36108.88
636.999	35949.79
637.352	35948.66
637.706	35861.43
638.06	36143.68
638.413	36101.2
638.767	35997.47
639.121	36115.21
639.474	35843.8
639.828	35921.77
640.181	35947.98
640.534	35992.73
640.888	35885.84
641.241	35763.81
641.594	35888.77
641.947	35896.23
642.301	35827.53
642.654	35856.46
643.007	35930.81
643.36	35787.76
643.713	35828.21
644.066	35945.72
644.419	35731.94
644.771	35392.52
645.124	35209.92
645.477	35337.6
645.83	35128.12
646.182	34792.53
646.535	34789.14
646.888	34845.64
647.24	34777.16
647.593	34931.28
647.945	34930.16
648.298	34530.84
648.65	34675.02
649.002	34505.53
649.355	34650.39
649.707	34756.6
650.059	34848.8
650.411	35169.02
650.763	35161.79
651.115	35633.41
651.467	35460.08
651.819	35488.33
652.171	35448.79
652.523	35392.52
652.875	35505.06
653.227	35237.72
653.578	35433.19
653.93	35305.06
654.282	35275.68
654.633	35244.72
654.985	35281.78
655.337	35120.21
655.688	35181.45
656.039	35496.02
656.391	35080.21
656.742	35236.36
657.094	35177.15
657.445	35207.89
657.796	35051.06
658.147	35220.99
658.498	35103.94
658.849	35190.04
659.2	35101.9
659.551	35059.19
659.902	35197.94
660.253	35149.58
660.604	35150.71
660.955	34988.91
661.306	35152.07
661.656	35067.33
662.007	34945.52
662.358	35040.89
662.708	34976.93
663.059	35111.39
663.409	34827.11
663.76	35189.58
664.11	35140.54
664.461	35023.94
664.811	34954.34
665.161	35000.89
665.511	34998.4
665.862	35061.23
666.212	35131.28
666.562	35141.45
666.912	34971.96
667.262	35010.15
667.612	34945.3
667.962	35008.57
668.312	34923.6
668.662	35170.83
669.011	35012.19
669.361	34894.68
669.711	34887.67
670.06	34795.47
670.41	34909.82
670.76	34710.95
671.109	34943.26
671.459	34767.67
671.808	34782.59
672.157	34926.77
672.507	34720.22
672.856	34676.15
673.205	34638.86
673.554	34962.92
673.904	34651.97
674.253	34934.45
674.602	34681.35
674.951	34230.06
675.3	33985.1
675.649	34705.08
675.998	34515.93
676.346	34428.93
676.695	34712.76
677.044	34494.01
677.393	34567.9
677.741	34696.26
678.09	34463.05
678.438	34396.38
678.787	34461.47
679.135	34613.55
679.484	34432.77
679.832	34362.71
680.181	34187.58
680.529	34280
680.877	34309.61
681.225	34200.68
681.573	34361.81
681.922	34195.71
682.27	33966.56
682.618	34023.29
682.966	33857.87
683.314	34041.36
683.661	33851.09
684.009	33821.48
684.357	33605.9
684.705	33640.92
685.053	33687.93
685.4	33593.02
685.748	33372.91
686.095	33419.01
686.443	33305.11
686.79	33247.49
687.138	33334.94
687.485	33262.18
687.832	33247.26
688.18	33236.19
688.527	33037.1
688.874	33029.64
689.221	32991.67
689.568	32819.93
689.915	32798.23
690.262	32821.74
690.609	32829.19
690.956	32785.35
691.303	32715.52
691.65	32371.8
691.997	32504.68
692.344	32379.26
692.69	32355.53
693.037	32332.94
693.383	32076.44
693.73	32230.11
694.077	32016.33
694.423	32005.71
694.769	31858.6
695.116	31870.8
695.462	31832.61
695.808	31579.96
696.155	31828.77
696.501	31413.19
696.847	31448.66
697.193	31177.71
697.539	31405.28
697.885	31204.15
698.231	31059.3
698.577	30981.11
698.923	30940.2
699.269	30844.39
699.614	30636.03
699.96	30595.81
700.306	30635.13
700.651	30472.87
700.997	30470.16
701.342	30420.22
701.688	30455.92
702.033	30187.45
702.379	30144.29
702.724	30100.45
703.069	30245.53
703.415	29827.24
703.76	29860.46
704.105	29869.05
704.45	29835.37
704.795	29631.54
705.14	29659.11
705.485	29642.61
705.83	29416.63
706.175	29531.65
706.52	29250.3
706.865	29316.07
707.209	29153.81
707.554	29111.1
707.899	29190.19
708.243	29014.83
708.588	28958.33
708.932	28752.01
709.277	28770.09
709.621	28822.52
709.966	28510.21
710.31	28783.2
710.654	28395.41
710.998	28510.66
711.342	28535.29
711.687	28359.03
712.031	28246.49
712.375	28212.82
712.719	28100.73
713.063	28135.08
713.407	28269.77
713.75	27956.78
714.094	28114.06
714.438	27866.16
714.782	27935.08
715.125	27777.35
715.469	27820.06
715.812	27706.16
716.156	27564.92
716.499	27586.39
716.843	27535.32
717.186	27388.43
717.53	27588.88
717.873	27599.73
718.216	27401.31
718.559	27350.69
718.902	27151.6
719.246	27251.49
719.589	27139.85
719.932	27015.11
720.275	27140.76
720.617	26999.29
720.96	27009.46
721.303	26914.77
721.646	26967.65
721.989	26878.39
722.331	26971.95
722.674	26708
723.016	26840.42
723.359	26728.11
723.701	26751.84
724.044	26644.72
724.386	26365.86
724.729	26663.48
725.071	26520.21
725.413	26436.14
725.755	26428.91
726.097	26371.74
726.439	26226.43
726.782	26191.18
727.124	26317.27
727.465	26228.01
727.807	26209.48
728.149	26184.17
728.491	26058.3
728.833	26018.75
729.175	25947.79
729.516	25915.25
729.858	25848.59
730.199	25801.13
730.541	25820.34
730.882	25690.4
731.224	25767.46
731.565	25531.53
731.906	25695.82
732.248	25554.81
732.589	25565.66
732.93	25449.5
733.271	25473.68
733.612	25608.14
733.953	25487.69
734.294	25410.41
734.635	25396.17
734.976	25275.49
735.317	25305.78
735.658	25267.36
735.999	25267.36
736.339	25270.75
736.68	25242.27
737.021	25097.42
737.361	24914.83
737.702	25204.54
738.042	25004.54
738.383	25016.74
738.723	25155.72
739.063	24940.36
739.404	25027.59
739.744	24876.86
740.084	24946.46
740.424	24858.56
740.764	24741.27
741.104	24840.93
741.444	24684.32
741.784	24661.5
742.124	24686.81
742.464	24609.3
742.804	24542.86
743.143	24581.95
743.483	24612.69
743.823	24385.12
744.162	24439.81
744.502	24435.97
744.841	24434.39
745.181	24408.62
745.52	24307.38
745.86	24287.05
746.199	24240.72
746.538	24208.63
746.877	24225.8
747.216	24128.63
747.556	24089.99
747.895	24091.57
748.234	23979.93
748.573	24047.96
748.911	23894.29
749.25	23966.15
749.589	23830.33
749.928	23922.08
750.267	23927.73
750.605	23833.5
750.944	23595.09
751.283	23650.45
751.621	23789.88
751.96	23606.61
752.298	23498.14
752.636	23517.12
752.975	23346.05
753.313	23401.87
753.651	23442.77
753.989	23308.54
754.327	23369.1
754.666	23158.26
755.004	23257.92
755.342	23259.05
755.679	23203.46
756.017	22988.32
756.355	23072.16
756.693	22991.71
757.031	22978.15
757.368	22850.25
757.706	22860.42
758.044	22698.61
758.381	22741.32
758.719	22714.66
759.056	22755.33
759.394	22631.5
759.731	22425.17
760.068	22406.87
760.405	22414.55
760.743	22198.74
761.08	22365.29
761.417	22176.14
