Data from hue_230_FLMS001491_00025.txt Node
Date: Tue Feb 07 16:37:00 GMT 2017
User: dcchb
Spectrometer: FLMS00149
Trigger mode: 0
Integration Time (sec): 2.000000E-2
Scans to average: 10
Electric dark correction enabled: true
Nonlinearity correction enabled: false
Boxcar width: 0
XAxis mode: Wavelengths
Number of Pixels in Spectrum: 2048
>>>>>Begin Spectral Data<<<<<
341.393	-0.59
341.776	-0.59
342.16	-0.59
342.543	-54.83
342.927	-75.39
343.31	-56.86
343.693	-71.78
344.077	-61.83
344.46	-59.12
344.843	-48.05
345.226	-29.74
345.61	-34.04
345.993	-32.68
346.376	-10.08
346.759	17.49
347.142	25.62
347.525	35.11
347.908	56.35
348.291	75.11
348.674	95.22
349.057	99.29
349.44	119.86
349.823	146.07
350.206	178.39
350.588	182.23
350.971	213.86
351.354	247.31
351.737	233.75
352.119	240.76
352.502	247.76
352.884	282.11
353.267	277.37
353.65	290.7
354.032	299.96
354.414	311.49
354.797	292.28
355.179	318.72
355.562	297.48
355.944	328.66
356.326	321.43
356.709	315.78
357.091	298.83
357.473	338.15
357.855	334.99
358.238	351.94
358.62	342.22
359.002	344.03
359.384	324.6
359.766	337.03
360.148	323.24
360.53	324.37
360.912	311.94
361.294	318.27
361.676	318.72
362.057	335.44
362.439	328.44
362.821	304.94
363.203	330.25
363.584	317.14
363.966	321.43
364.348	316.23
364.729	302
365.111	319.4
365.493	309.23
365.874	296.57
366.256	285.5
366.637	280.53
367.019	312.84
367.4	311.49
367.781	294.09
368.163	301.77
368.544	297.93
368.925	319.4
369.306	295.9
369.688	318.72
370.069	330.7
370.45	305.61
370.831	299.96
371.212	313.07
371.593	307.65
371.974	291.15
372.355	301.77
372.736	326.86
373.117	297.25
373.498	293.64
373.879	300.87
374.26	320.08
374.641	305.16
375.021	299.51
375.402	303.81
375.783	300.87
376.163	316.91
376.544	322.56
376.925	330.47
377.305	328.21
377.686	330.02
378.066	315.1
378.447	301.55
378.827	328.89
379.208	314.43
379.588	329.12
379.968	316.69
380.349	311.71
380.729	321.88
381.109	347.87
381.489	333.86
381.87	355.78
382.25	333.41
382.63	324.37
383.01	315.33
383.39	312.84
383.77	318.72
384.15	340.19
384.53	327.53
384.91	333.86
385.29	343.8
385.67	354.43
386.049	331.6
386.429	359.85
386.809	358.95
387.189	339.74
387.568	352.39
387.948	340.41
388.328	349.91
388.707	337.7
389.087	360.75
389.466	373.41
389.846	353.07
390.225	375.22
390.605	366.63
390.984	371.15
391.363	377.7
391.743	371.37
392.122	359.17
392.501	358.49
392.881	368.66
393.26	376.8
393.639	387.87
394.018	369.57
394.397	377.93
394.776	361.88
395.155	363.47
395.534	372.96
395.913	365.95
396.292	358.95
396.671	388.55
397.05	379.06
397.429	384.26
397.808	380.19
398.186	404.14
398.565	388.32
398.944	400.53
399.323	405.5
399.701	381.77
400.08	399.85
400.458	406.18
400.837	379.06
401.215	410.47
401.594	409.57
401.972	402.79
402.351	398.27
402.729	413.41
403.107	422.45
403.486	432.84
403.864	418.15
404.242	417.7
404.62	419.51
404.999	426.97
405.377	432.16
405.755	439.85
406.133	433.75
406.511	455.89
406.889	440.75
407.267	458.38
407.645	454.76
408.023	454.99
408.401	475.33
408.779	478.04
409.156	492.28
409.534	475.33
409.912	483.91
410.29	484.82
410.667	509.9
411.045	519.17
411.422	516
411.8	506.51
412.178	528.66
412.555	510.13
412.933	548.54
413.31	564.36
413.687	530.24
414.065	545.61
414.442	565.04
414.819	574.31
415.197	581.76
415.574	599.62
415.951	590.13
416.328	596.45
416.705	601.42
417.082	610.92
417.46	607.3
417.837	607.07
418.214	620.63
418.591	636.68
418.967	638.49
419.344	642.78
419.721	643.68
420.098	664.7
420.475	664.47
420.852	678.03
421.228	689.78
421.605	691.14
421.982	688.65
422.358	700.41
422.735	699.5
423.111	735.66
423.488	758.03
423.864	748.31
424.241	752.61
424.617	775.88
424.994	787.41
425.37	772.95
425.746	791.02
426.123	791.7
426.499	801.65
426.875	821.31
427.251	829.22
427.627	838.93
428.003	878.48
428.379	865.6
428.756	879.16
429.132	878.25
429.507	866.28
429.883	901.3
430.259	925.03
430.635	915.54
431.011	923.22
431.387	946.05
431.763	967.06
432.138	967.74
432.514	988.31
432.89	964.81
433.265	1015.43
433.641	1046.84
434.016	1031.7
434.392	1056.1
434.767	1089.1
435.143	1082.09
435.518	1113.73
435.894	1096.78
436.269	1134.74
436.644	1137.46
437.02	1159.83
437.395	1197.12
437.77	1217.45
438.145	1195.53
438.52	1235.98
438.895	1236.21
439.271	1311.46
439.646	1299.26
440.021	1311.69
440.395	1297.45
440.77	1303.78
441.145	1327.96
441.52	1357.56
441.895	1364.79
442.27	1385.81
442.645	1391.69
443.019	1390.56
443.394	1428.07
443.769	1427.17
444.143	1406.6
444.518	1438.01
444.892	1452.93
445.267	1468.75
445.641	1485.24
446.016	1481.63
446.39	1484.79
446.764	1517.78
447.139	1517.11
447.513	1503.55
447.887	1521.85
448.262	1511.91
448.636	1544.9
449.01	1566.6
449.384	1586.48
449.758	1583.32
450.132	1559.37
450.506	1588.74
450.88	1628.74
451.254	1615.86
451.628	1662.19
452.002	1643.21
452.376	1704.67
452.75	1692.7
453.123	1682.75
453.497	1720.49
453.871	1732.24
454.244	1771.56
454.618	1809.53
454.992	1790.32
455.365	1783.77
455.739	1837.1
456.112	1856.31
456.486	1856.53
456.859	1885.46
457.232	1915.06
457.606	1915.97
457.979	1936.76
458.352	1981.95
458.725	1979.69
459.099	2007.04
459.472	2036.19
459.845	2082.06
460.218	2053.82
460.591	2056.75
460.964	2060.82
461.337	2148.5
461.71	2182.17
462.083	2206.35
462.456	2211.78
462.829	2197.54
463.201	2246.58
463.574	2266.24
463.947	2254.94
464.32	2329.97
464.692	2377.42
465.065	2357.99
465.438	2373.81
465.81	2402.06
466.183	2435.95
466.555	2485.9
466.928	2491.32
467.3	2475.27
467.672	2534.71
468.045	2600.47
468.417	2585.55
468.789	2629.85
469.161	2606.57
469.534	2659.68
469.906	2707.13
470.278	2738.54
470.65	2786.45
471.022	2800.92
471.394	2858.31
471.766	2898.77
472.138	2883.17
472.51	2945.32
472.882	2970.4
473.253	3017.41
473.625	3017.86
473.997	3112.55
474.369	3130.17
474.74	3138.99
475.112	3174.92
475.484	3249.72
475.855	3318.42
476.227	3292.88
476.598	3402.03
476.97	3404.06
477.341	3494.46
477.713	3511.4
478.084	3497.85
478.455	3659.2
478.827	3641.34
479.198	3746.2
479.569	3737.39
479.94	3813.54
480.311	3857.61
480.682	3871.85
481.053	3982.58
481.424	4042.92
481.795	4102.8
482.166	4142.12
482.537	4171.5
482.908	4246.75
483.279	4307.32
483.65	4388.44
484.021	4401.78
484.391	4463.7
484.762	4499.85
485.133	4527.2
485.503	4595.22
485.874	4642.22
486.244	4707.98
486.615	4761.32
486.985	4809.68
487.356	4916.34
487.726	4885.83
488.097	4967.19
488.467	4980.07
488.837	5093.06
489.207	5166.5
489.578	5180.97
489.948	5255.09
490.318	5317.91
490.688	5361.53
491.058	5361.98
491.428	5407.17
491.798	5502.31
492.168	5570.56
492.538	5602.2
492.908	5656.66
493.278	5660.27
493.648	5688.07
494.017	5782.53
494.387	5788.86
494.757	5856.43
495.126	5884
495.496	5843.09
495.866	5901.17
496.235	5976.65
496.605	6016.65
496.974	6053.03
497.344	6146.82
497.713	6161.05
498.082	6148.4
498.452	6190.66
498.821	6239.24
499.19	6213.48
499.559	6308.85
499.928	6314.72
500.298	6316.08
500.667	6404.66
501.036	6355.4
501.405	6457.54
501.774	6475.85
502.143	6429.97
502.512	6468.84
502.88	6562.85
503.249	6533.47
503.618	6579.35
503.987	6539.12
504.356	6615.05
504.724	6642.17
505.093	6574.83
505.462	6661.83
505.83	6663.64
506.199	6713.13
506.567	6762.84
506.936	6759.23
507.304	6784.54
507.672	6829.06
508.041	6832.9
508.409	6837.42
508.777	6881.26
509.145	6964.87
509.514	6944.53
509.882	6937.53
510.25	6962.16
510.618	7015.95
510.986	6982.73
511.354	7013.69
511.722	7077.64
512.09	7108.82
512.458	7085.32
512.826	7131.65
513.193	7141.59
513.561	7115.6
513.929	7201.93
514.297	7251.87
514.664	7234.47
515.032	7229.05
515.4	7237.86
515.767	7220.46
516.135	7289.84
516.502	7217.52
516.869	7329.84
517.237	7304.75
517.604	7295.26
517.972	7356.95
518.339	7333.23
518.706	7341.81
519.073	7346.78
519.44	7380.68
519.808	7446.89
520.175	7305.2
520.542	7412.09
520.909	7439.21
521.276	7386.78
521.643	7508.14
522.009	7503.84
522.376	7508.14
522.743	7537.06
523.11	7584.07
523.477	7632.88
523.843	7603.05
524.21	7628.13
524.577	7671.75
524.943	7626.55
525.31	7682.14
525.676	7727.79
526.043	7766.66
526.409	7711.07
526.776	7783.83
527.142	7740.67
527.508	7791.52
527.874	7859.09
528.241	7772.99
528.607	7737.06
528.973	7822.25
529.339	7823.38
529.705	7829.26
530.071	7855.7
530.437	7827
530.803	7913.55
531.169	7904.28
531.535	7855.25
531.901	7874.23
532.267	7880.33
532.632	7852.99
532.998	7843.49
533.364	7873.55
533.73	7891.85
534.095	7896.83
534.461	7843.04
534.826	7929.37
535.192	7975.24
535.557	7916.26
535.923	7902.93
536.288	7872.65
536.653	7895.24
537.019	7859.99
537.384	7897.96
537.749	7883.27
538.114	7829.03
538.479	7891.4
538.845	7848.69
539.21	7803.04
539.575	7821.57
539.94	7819.99
540.305	7842.14
540.67	7797.39
541.034	7832.65
541.399	7805.98
541.764	7747.23
542.129	7754.91
542.494	7792.2
542.858	7789.71
543.223	7809.37
543.587	7809.14
543.952	7707.23
544.316	7706.1
544.681	7760.56
545.045	7763.5
545.41	7762.14
545.774	7748.81
546.138	7694.57
546.503	7730.73
546.867	7683.72
547.231	7741.12
547.595	7685.08
547.959	7695.02
548.324	7623.16
548.688	7617.74
549.052	7622.03
549.416	7617.96
549.779	7560.11
550.143	7627
550.507	7570.28
550.871	7611.64
551.235	7574.35
551.599	7629.04
551.962	7589.72
552.326	7642.14
552.689	7601.92
553.053	7552.2
553.417	7567.8
553.78	7628.36
554.143	7510.17
554.507	7562.15
554.87	7599.88
555.234	7610.73
555.597	7586.78
555.96	7532.09
556.323	7612.09
556.686	7544.29
557.05	7623.61
557.413	7614.57
557.776	7641.24
558.139	7619.77
558.502	7588.81
558.865	7567.34
559.228	7645.76
559.59	7608.02
559.953	7656.15
560.316	7744.51
560.679	7655.02
561.041	7664.97
561.404	7746.1
561.767	7692.76
562.129	7706.55
562.492	7668.36
562.854	7677.17
563.217	7713.1
563.579	7767.79
563.941	7785.19
564.304	7770.73
564.666	7864.74
565.028	7838.75
565.39	7786.32
565.753	7879.88
566.115	7881.23
566.477	7912.19
566.839	7891.18
567.201	7869.48
567.563	7920.55
567.925	7973.43
568.287	8029.93
568.648	7937.05
569.01	7975.24
569.372	8012.76
569.734	7982.47
570.095	8049.59
570.457	8032.42
570.819	8123.04
571.18	8037.16
571.542	8138.18
571.903	8152.19
572.265	8131.62
572.626	8139.31
572.987	8177.72
573.349	8222.92
573.71	8263.14
574.071	8196.03
574.432	8198.51
574.794	8350.15
575.155	8301.79
575.516	8301.11
575.877	8279.64
576.238	8308.57
576.599	8357.15
576.96	8330.71
577.32	8352.86
577.681	8446.19
578.042	8443.03
578.403	8440.31
578.763	8470.37
579.124	8485.06
579.485	8527.32
579.845	8490.93
580.206	8457.26
580.566	8524.83
580.927	8523.48
581.287	8560.76
581.648	8532.74
582.008	8584.49
582.368	8621.78
582.728	8607.54
583.089	8586.53
583.449	8584.72
583.809	8604.15
584.169	8634.43
584.529	8654.32
584.889	8738.39
585.249	8622.68
585.609	8741.1
585.969	8727.76
586.329	8703.81
586.688	8752.17
587.048	8746.97
587.408	8777.48
587.768	8730.02
588.127	8731.38
588.487	8775.67
588.846	8750.59
589.206	8782.23
589.565	8827.2
589.925	8791.27
590.284	8781.32
590.643	8817.25
591.003	8919.4
591.362	8892.05
591.721	8878.72
592.08	8886.18
592.44	8896.12
592.799	8883.47
593.158	8908.78
593.517	8895.22
593.876	8920.3
594.235	8965.05
594.593	8919.85
594.952	8886.4
595.311	9015.89
595.67	8894.31
596.029	9062.22
596.387	8975.67
596.746	9115.1
597.104	8978.15
597.463	9014.09
597.822	9035.78
598.18	8985.16
598.538	9008.21
598.897	9029.23
599.255	9026.29
599.613	9100.41
599.972	9086.63
600.33	9112.16
600.688	9092.95
601.046	9103.12
601.404	9136.12
601.762	9112.39
602.12	9155.32
602.478	9194.19
602.836	9162.33
603.194	9109.22
603.552	9170.24
603.91	9136.12
604.268	9170.92
604.625	9115.1
604.983	9208.88
605.341	9126.17
605.698	9197.36
606.056	9184.7
606.413	9204.36
606.771	9240.29
607.128	9238.71
607.485	9164.59
607.843	9204.36
608.2	9273.97
608.557	9303.12
608.914	9225.83
609.272	9239.16
609.629	9254.98
609.986	9324.36
610.343	9199.16
610.7	9345.6
611.057	9320.52
611.414	9367.97
611.771	9284.81
612.127	9366.84
612.484	9316.9
612.841	9338.6
613.198	9282.55
613.554	9345.38
613.911	9401.19
614.267	9366.62
614.624	9353.96
614.98	9363.68
615.337	9447.07
615.693	9439.16
616.05	9367.52
616.406	9440.51
616.762	9454.98
617.118	9377.92
617.475	9402.1
617.831	9425.37
618.187	9422.89
618.543	9483.45
618.899	9502.89
619.255	9488.42
619.611	9471.25
619.967	9509.67
620.323	9498.59
620.678	9457.01
621.034	9448.65
621.39	9484.13
621.746	9440.06
622.101	9606.16
622.457	9461.53
622.812	9498.59
623.168	9494.52
623.523	9471.25
623.879	9534.98
624.234	9504.24
624.589	9483.23
624.945	9526.16
625.3	9543.34
625.655	9527.29
626.01	9524.58
626.365	9507.18
626.72	9483.9
627.075	9506.28
627.43	9454.75
627.785	9485.49
628.14	9563
628.495	9501.98
628.85	9525.71
629.205	9425.83
629.559	9482.55
629.914	9387.18
630.269	9435.32
630.623	9453.62
630.978	9474.19
631.332	9428.31
631.687	9547.63
632.041	9396.22
632.396	9385.83
632.75	9337.47
633.104	9362.78
633.459	9350.57
633.813	9362.32
634.167	9336.79
634.521	9287.52
634.875	9321.65
635.229	9369.78
635.583	9235.32
635.937	9267.41
636.291	9271.93
636.645	9252.27
636.999	9229.9
637.352	9289.78
637.706	9230.8
638.06	9241.42
638.413	9190.8
638.767	9148.09
639.121	9219.96
639.474	9143.35
639.828	9160.3
640.181	9116.68
640.534	9207.07
640.888	9142.44
641.241	9088.21
641.594	9098.6
641.947	9097.92
642.301	9103.35
642.654	9156
643.007	9134.31
643.36	9072.61
643.713	8998.27
644.066	9144.93
644.419	9089.79
644.771	9011.83
645.124	8846.18
645.477	8888.21
645.83	8888.21
646.182	8849.12
646.535	8712.17
646.888	8808.21
647.24	8807.54
647.593	8760.98
647.945	8755.79
648.298	8688.67
648.65	8699.29
649.002	8681.44
649.355	8744.71
649.707	8729.12
650.059	8772.51
650.411	8916.91
650.763	8833.07
651.115	8976.57
651.467	8916.01
651.819	9028.32
652.171	8931.83
652.523	8946.74
652.875	8935.89
653.227	8886.63
653.578	8896.35
653.93	8980.87
654.282	8896.35
654.633	8870.36
654.985	8943.13
655.337	8917.36
655.688	8879.4
656.039	8930.02
656.391	8851.6
656.742	8865.61
657.094	8835.11
657.445	8964.82
657.796	8856.58
658.147	8831.94
658.498	8906.97
658.849	8956.01
659.2	8947.65
659.551	8845.5
659.902	8958.04
660.253	8906.07
660.604	8874.65
660.955	8844.6
661.306	8885.95
661.656	8966.4
662.007	8941.54
662.358	8880.08
662.708	8860.64
663.059	8884.6
663.409	8787.2
663.76	8962.11
664.11	8895.44
664.461	8962.79
664.811	8906.97
665.161	8948.78
665.511	8920.98
665.862	8875.33
666.212	8877.14
666.562	8964.37
666.912	8950.81
667.262	8936.35
667.612	8888.66
667.962	8985.61
668.312	8848.89
668.662	8978.38
669.011	8912.62
669.361	8859.06
669.711	8871.94
670.06	8903.81
670.41	8850.93
670.76	8841.89
671.109	8900.87
671.459	8847.99
671.808	8795.79
672.157	8873.3
672.507	8784.49
672.856	8802.11
673.205	8802.79
673.554	8780.87
673.904	8817.71
674.253	8867.2
674.602	8807.54
674.951	8669.24
675.3	8708.78
675.649	8765.5
675.998	8738.61
676.346	8747.65
676.695	8775.67
677.044	8721.89
677.393	8773.87
677.741	8762.57
678.09	8723.02
678.438	8697.03
678.787	8726.86
679.135	8684.38
679.484	8609.12
679.832	8665.62
680.181	8603.93
680.529	8659.29
680.877	8630.82
681.225	8633.08
681.573	8633.3
681.922	8591.72
682.27	8532.74
682.618	8635.56
682.966	8553.31
683.314	8514.66
683.661	8523.48
684.009	8493.42
684.357	8496.81
684.705	8519.63
685.053	8469.47
685.4	8460.88
685.748	8399.19
686.095	8377.72
686.443	8331.17
686.79	8347.21
687.138	8335.46
687.485	8331.84
687.832	8328.45
688.18	8263.37
688.527	8268.79
688.874	8203.48
689.221	8256.82
689.568	8263.14
689.915	8229.92
690.262	8179.76
690.609	8135.46
690.956	8107.44
691.303	8080.78
691.65	8023.6
691.997	8034.9
692.344	8050.27
692.69	8017.95
693.037	7989.71
693.383	7919.65
693.73	7932.98
694.077	7926.66
694.423	7918.52
694.769	7858.18
695.116	7848.69
695.462	7850.05
695.808	7817.96
696.155	7822.48
696.501	7704.97
696.847	7776.38
697.193	7708.58
697.539	7741.58
697.885	7589.26
698.231	7640.34
698.577	7574.57
698.923	7566.44
699.269	7550.85
699.614	7522.37
699.96	7456.39
700.306	7460.91
700.651	7406.44
700.997	7394.24
701.342	7338.2
701.688	7335.71
702.033	7324.86
702.379	7361.47
702.724	7287.8
703.069	7305.43
703.415	7220.69
703.76	7193.12
704.105	7258.65
704.45	7157.86
704.795	7190.4
705.14	7110.86
705.485	7119.9
705.83	7062.5
706.175	7078.99
706.52	7059.11
706.865	6997.87
707.209	7031.54
707.554	7017.98
707.899	7023.18
708.243	6942.05
708.588	6942.05
708.932	6917.19
709.277	6899.11
709.621	6908.15
709.966	6841.26
710.31	6862.73
710.654	6806.69
710.998	6823.63
711.342	6794.71
711.687	6786.57
712.031	6757.87
712.375	6695.05
712.719	6723.07
713.063	6708.16
713.407	6736.18
713.75	6663.19
714.094	6706.58
714.438	6667.48
714.782	6709.06
715.125	6629.51
715.469	6643.98
715.812	6631.32
716.156	6668.38
716.499	6588.61
716.843	6610.98
717.186	6562.17
717.53	6567.14
717.873	6605.33
718.216	6511.33
718.559	6541.83
718.902	6509.07
719.246	6500.03
719.589	6430.88
719.932	6453.93
720.275	6511.33
720.617	6427.49
720.96	6499.35
721.303	6441.27
721.646	6416.87
721.989	6468.62
722.331	6377.54
722.674	6445.79
723.016	6431.1
723.359	6416.64
723.701	6441.05
724.044	6431.78
724.386	6403.08
724.729	6423.42
725.071	6366.25
725.413	6410.54
725.755	6419.58
726.097	6381.39
726.439	6372.8
726.782	6328.51
727.124	6335.96
727.465	6379.58
727.807	6362.4
728.149	6332.8
728.491	6304.78
728.833	6308.17
729.175	6336.87
729.516	6326.7
729.858	6364.66
730.199	6324.89
730.541	6263.42
730.882	6243.31
731.224	6275.85
731.565	6259.13
731.906	6323.53
732.248	6379.58
732.589	6342.06
732.93	6270.43
733.271	6267.72
733.612	6265.46
733.953	6268.17
734.294	6296.19
734.635	6255.97
734.976	6295.06
735.317	6234.95
735.658	6263.42
735.999	6308.85
736.339	6276.08
736.68	6304.55
737.021	6264.55
737.361	6270.2
737.702	6318.34
738.042	6276.98
738.383	6338.22
738.723	6303.42
739.063	6310.2
739.404	6361.27
739.744	6295.74
740.084	6278.56
740.424	6276.3
740.764	6301.61
741.104	6384.78
741.444	6346.13
741.784	6316.75
742.124	6327.6
742.464	6339.13
742.804	6344.55
743.143	6381.61
743.483	6406.92
743.823	6390.88
744.162	6416.64
744.502	6464.1
744.841	6418.9
745.181	6477.43
745.52	6505
745.86	6544.77
746.199	6520.14
746.538	6574.15
746.877	6602.4
747.216	6637.65
747.556	6665.22
747.895	6724.88
748.234	6681.49
748.573	6737.53
748.911	6782.51
749.25	6744.09
749.589	6810.53
749.928	6905.89
750.267	6975.95
750.605	6949.73
750.944	7040.8
751.283	7083.06
751.621	7138.65
751.96	7135.94
752.298	7261.81
752.636	7304.98
752.975	7342.94
753.313	7363.28
753.651	7500.68
753.989	7567.8
754.327	7624.52
754.666	7736.83
755.004	7815.7
755.342	7896.37
755.679	8012.08
756.017	8061.34
756.355	8181.79
756.693	8211.17
757.031	8361.22
757.368	8455.46
757.706	8501.1
758.044	8601.44
758.381	8754.88
758.719	8877.14
759.056	8924.6
759.394	9040.98
759.731	9097.02
760.068	9223.8
760.405	9300.63
760.743	9455.88
761.08	9594.86
761.417	9696.33
761.754	9811.8
762.091	9902.42
762.428	9996.43
762.765	10117.56
763.102	10301.73
763.438	10310.1
763.775	10473.71
764.112	10643.19
764.449	10674.38
764.785	10859.69
765.122	10900.36
765.458	11031.89
765.795	11165.21
766.131	11246.34
766.467	11304.65
766.804	11415.83
767.14	11541.25
767.476	11557.75
767.812	11685.43
768.148	11797.74
768.485	11857.85
768.821	11895.14
769.157	11955.7
