Data from hue_26_FLMS001491_00037.txt Node
Date: Tue Feb 07 17:13:55 GMT 2017
User: dcchb
Spectrometer: FLMS00149
Trigger mode: 0
Integration Time (sec): 2.000000E-2
Scans to average: 10
Electric dark correction enabled: true
Nonlinearity correction enabled: false
Boxcar width: 0
XAxis mode: Wavelengths
Number of Pixels in Spectrum: 2048
>>>>>Begin Spectral Data<<<<<
341.393	-16.55
341.776	-16.55
342.16	-16.55
342.543	-58.36
342.927	-38.7
343.31	-77.12
343.693	-60.39
344.077	-72.82
344.46	-41.19
344.843	-58.13
345.226	-33.95
345.61	-20.62
345.993	-14.97
346.376	-7.29
346.759	4.46
347.142	5.82
347.525	47.17
347.908	58.93
348.291	80.85
348.674	86.04
349.057	103.22
349.44	107.51
349.823	160.39
350.206	144.8
350.588	180.96
350.971	219.15
351.354	226.15
351.737	233.16
352.119	251.24
352.502	264.34
352.884	286.04
353.267	280.84
353.65	299.37
354.032	290.56
354.414	295.08
354.797	311.12
355.179	329.43
355.562	340.05
355.944	305.92
356.326	320.39
356.709	341.4
357.091	312.48
357.473	324.23
357.855	364.91
358.238	346.15
358.62	346.83
359.002	361.52
359.384	336.43
359.766	320.16
360.148	337.56
360.53	338.24
360.912	342.53
361.294	330.1
361.676	331.23
362.057	320.84
362.439	336.88
362.821	317.22
363.203	333.72
363.584	313.83
363.966	317.22
364.348	317.68
364.729	311.12
365.111	318.81
365.493	314.06
365.874	305.47
366.256	295.75
366.637	319.03
367.019	311.12
367.4	321.74
367.781	302.76
368.163	325.58
368.544	290.33
368.925	311.57
369.306	306.83
369.688	314.06
370.069	293.72
370.45	290.78
370.831	304.79
371.212	318.81
371.593	310.44
371.974	322.87
372.355	296.21
372.736	324.45
373.117	295.75
373.498	295.98
373.879	319.71
374.26	317.22
374.641	305.25
375.021	327.84
375.402	312.25
375.783	317.68
376.163	333.72
376.544	337.79
376.925	340.73
377.305	325.36
377.686	347.05
378.066	329.88
378.447	352.02
378.827	332.14
379.208	328.97
379.588	339.82
379.968	328.07
380.349	326.94
380.729	325.58
381.109	339.6
381.489	315.19
381.87	345.25
382.25	327.62
382.63	335.3
383.01	359.26
383.39	332.36
383.77	328.3
384.15	338.47
384.53	320.16
384.91	325.36
385.29	339.6
385.67	332.14
386.049	348.86
386.429	354.96
386.809	377.11
387.189	359.93
387.568	353.61
387.948	355.41
388.328	352.25
388.707	354.28
389.087	349.76
389.466	354.28
389.846	381.18
390.225	361.52
390.605	367.84
390.984	357.45
391.363	366.26
391.743	385.02
392.122	383.66
392.501	380.27
392.881	361.74
393.26	352.02
393.639	352.02
394.018	390.89
394.397	376.2
394.776	383.89
395.155	369.2
395.534	380.5
395.913	373.49
396.292	378.92
396.671	390.22
397.05	357
397.429	371.01
397.808	403.1
398.186	388.63
398.565	390.22
398.944	389.31
399.323	355.19
399.701	389.09
400.08	383.89
400.458	410.1
400.837	406.94
401.215	391.35
401.594	384.79
401.972	379.14
402.351	407.16
402.729	409.42
403.107	396.32
403.486	398.35
403.864	407.16
404.242	414.17
404.62	436.99
404.999	421.18
405.377	431.12
405.755	408.97
406.133	428.86
406.511	442.64
406.889	425.7
407.267	443.32
407.645	427.73
408.023	431.57
408.401	424.11
408.779	437.9
409.156	451.01
409.534	446.49
409.912	456.2
410.29	466.82
410.667	460.27
411.045	439.25
411.422	457.11
411.8	459.14
412.178	461.63
412.555	492.59
412.933	446.94
413.31	460.27
413.687	465.02
414.065	456.2
414.442	472.93
414.819	474.51
415.197	483.32
415.574	472.47
415.951	496.88
416.328	487.84
416.705	510.21
417.082	498.91
417.46	491.91
417.837	489.42
418.214	493.04
418.591	514.96
418.967	498.91
419.344	513.38
419.721	524.22
420.098	512.47
420.475	520.61
420.852	517.9
421.228	527.16
421.605	550.21
421.982	535.75
422.358	531.45
422.735	552.47
423.111	528.07
423.488	565.13
423.864	540.72
424.241	552.25
424.617	552.02
424.994	544.11
425.37	546.82
425.746	536.2
426.123	589.08
426.499	556.09
426.875	558.8
427.251	601.74
427.627	579.14
428.003	591.57
428.379	605.35
428.756	602.19
429.132	583.21
429.507	620.49
429.883	623.2
430.259	610.1
430.635	625.92
431.011	627.95
431.387	622.53
431.763	672.47
432.138	654.62
432.514	655.29
432.89	646.93
433.265	670.21
433.641	660.49
434.016	644.22
434.392	660.27
434.767	662.98
435.143	683.09
435.518	700.72
435.894	690.77
436.269	701.85
436.644	700.72
437.02	733.26
437.395	739.36
437.77	706.82
438.145	731.68
438.52	742.07
438.895	744.1
439.271	735.74
439.646	761.05
440.021	764.44
440.395	755.4
440.77	752.01
441.145	763.31
441.52	766.03
441.895	777.32
442.27	773.93
442.645	806.02
443.019	779.58
443.394	772.13
443.769	802.18
444.143	788.17
444.518	799.47
444.892	806.48
445.267	813.26
445.641	807.38
446.016	815.29
446.39	828.85
446.764	835.85
447.139	819.81
447.513	841.28
447.887	834.05
448.262	849.86
448.636	848.73
449.01	836.31
449.384	839.7
449.758	863.2
450.132	883.76
450.506	867.72
450.88	868.62
451.254	891.9
451.628	890.09
452.002	929.18
452.376	886.02
452.75	920.6
453.123	912.01
453.497	926.92
453.871	953.14
454.244	971.67
454.618	966.25
454.992	929.41
455.365	966.47
455.739	1014.15
456.112	1004.89
456.486	998.79
456.859	1006.02
457.232	1017.09
457.606	1034.49
457.979	1051.44
458.352	1039.24
458.725	1063.64
459.099	1072.68
459.472	1076.75
459.845	1085.11
460.218	1115.17
460.591	1104.32
460.964	1137.99
461.337	1142.74
461.71	1149.29
462.083	1173.02
462.456	1185.22
462.829	1146.35
463.201	1208.95
463.574	1178.67
463.947	1208.73
464.32	1225
464.692	1279.01
465.065	1260.25
465.438	1262.51
465.81	1269.74
466.183	1303.41
466.555	1313.13
466.928	1317.87
467.3	1326.69
467.672	1335.73
468.045	1413.24
468.417	1407.14
468.789	1411.66
469.161	1426.12
469.534	1440.13
469.906	1463.41
470.278	1466.12
470.65	1504.31
471.022	1509.96
471.394	1555.61
471.766	1568.72
472.138	1583.4
472.51	1612.56
472.882	1654.36
473.253	1627.7
473.625	1675.61
473.997	1695.27
474.369	1730.52
474.74	1756.96
475.112	1777.98
475.484	1839.9
475.855	1872.21
476.227	1877.18
476.598	1929.61
476.97	1968.48
477.341	1989.5
477.713	2000.12
478.084	2003.51
478.455	2099.32
478.827	2103.62
479.198	2201.69
479.569	2168.7
479.94	2267.91
480.311	2306.32
480.682	2326.89
481.053	2394.46
481.424	2449.82
481.795	2481.23
482.166	2463.61
482.537	2523.72
482.908	2601.68
483.279	2655.01
483.65	2677.16
484.021	2771.17
484.391	2777.72
484.762	2828.34
485.133	2872.41
485.503	2921.45
485.874	2966.87
486.244	3022.24
486.615	3076.7
486.985	3144.49
487.356	3214.32
487.726	3232.4
488.097	3299.29
488.467	3347.2
488.837	3423.81
489.207	3502
489.578	3511.72
489.948	3536.12
490.318	3606.85
490.688	3640.98
491.058	3707.42
491.428	3784.7
491.798	3806.85
492.168	3874.87
492.538	3934.3
492.908	3981.76
493.278	4038.93
493.648	4034.87
494.017	4089.78
494.387	4150.34
494.757	4239.38
495.126	4290.68
495.496	4302.88
495.866	4334.74
496.235	4365.48
496.605	4455.65
496.974	4428.75
497.344	4481.63
497.713	4534.29
498.082	4560.28
498.452	4626.94
498.821	4633.72
499.19	4649.09
499.559	4707.16
499.928	4759.82
500.298	4775.41
500.667	4816.77
501.036	4850.21
501.405	4888.63
501.774	4913.71
502.143	4965.91
502.512	5002.75
502.88	5009.53
503.249	5076.42
503.618	5098.11
503.987	5091.11
504.356	5154.16
504.724	5169.75
505.093	5219.02
505.462	5184.67
505.83	5266.47
506.199	5287.26
506.567	5351.67
506.936	5388.95
507.304	5411.78
507.672	5469.63
508.041	5505.56
508.409	5478.22
508.777	5564.99
509.145	5561.15
509.514	5585.33
509.882	5640.47
510.25	5627.59
510.618	5641.83
510.986	5672.79
511.354	5743.97
511.722	5738.32
512.09	5799.11
512.458	5755.5
512.826	5875.95
513.193	5896.51
513.561	5907.13
513.929	5907.81
514.297	6013.12
514.664	5964.08
515.032	5985.55
515.4	6009.73
515.767	6033.91
516.135	6090.86
516.502	6073.23
516.869	6179.44
517.237	6199.33
517.604	6129.27
517.972	6176.28
518.339	6245.88
518.706	6221.93
519.073	6254.24
519.44	6299.89
519.808	6326.1
520.175	6330.17
520.542	6416.5
520.909	6381.7
521.276	6419.66
521.643	6541.69
522.009	6469.38
522.376	6570.39
522.743	6596.61
523.11	6648.58
523.477	6719.77
523.843	6705.3
524.21	6782.36
524.577	6863.04
524.943	6827.56
525.31	6870.5
525.676	6927.44
526.043	6906.65
526.409	6982.13
526.776	7012.87
527.142	7005.41
527.508	7050.15
527.874	7183.48
528.241	7146.65
528.607	7141.22
528.973	7224.39
529.339	7231.17
529.705	7295.34
530.071	7354.55
530.437	7428.45
530.803	7443.36
531.169	7492.63
531.535	7464.61
531.901	7441.1
532.267	7534.43
532.632	7555.68
532.998	7619.18
533.364	7655.11
533.73	7650.36
534.095	7707.09
534.461	7725.16
534.826	7868.89
535.192	7799.06
535.557	7869.12
535.923	7853.75
536.288	7942.33
536.653	7977.59
537.019	7970.81
537.384	7963.8
537.749	8041.09
538.114	8023.01
538.479	8036.79
538.845	8123.57
539.21	8108.66
539.575	8145.04
539.94	8195.21
540.305	8211.25
540.67	8248.77
541.034	8336.67
541.399	8347.97
541.764	8346.84
542.129	8353.17
542.494	8479.04
542.858	8529.89
543.223	8480.17
543.587	8521.3
543.952	8513.17
544.316	8557.68
544.681	8563.56
545.045	8641.75
545.41	8633.39
545.774	8705.25
546.138	8730.11
546.503	8788.41
546.867	8711.13
547.231	8851.24
547.595	8878.81
547.959	8979.14
548.324	8983.89
548.688	8905.47
549.052	9030.89
549.416	8968.3
549.779	8995.64
550.143	9028.41
550.507	9133.94
550.871	9178.23
551.235	9137.1
551.599	9201.96
551.962	9250.55
552.326	9272.02
552.689	9283.32
553.053	9266.14
553.417	9346.14
553.78	9411.67
554.143	9408.96
554.507	9444.89
554.87	9466.14
555.234	9571.9
555.597	9489.64
555.96	9571.9
556.323	9568.05
556.686	9615.74
557.05	9615.06
557.413	9656.64
557.776	9734.83
558.139	9740.7
558.502	9782.29
558.865	9824.54
559.228	9827.93
559.59	9914.71
559.953	9913.13
560.316	9978.44
560.679	9959.68
561.041	10013.69
561.404	10063.63
561.767	10109.28
562.129	10112.9
562.492	10175.95
562.854	10137.98
563.217	10220.24
563.579	10223.18
563.941	10260.69
564.304	10389.27
564.666	10483.96
565.028	10455.26
565.39	10420.69
565.753	10441.7
566.115	10521.47
566.477	10556.73
566.839	10670.85
567.201	10623.62
567.563	10642.15
567.925	10776.84
568.287	10629.04
568.648	10731.41
569.01	10848.47
569.372	10882.82
569.734	10910.62
570.095	11022.03
570.457	10998.98
570.819	11082.14
571.18	11101.12
571.542	11160.33
571.903	11182.93
572.265	11288.91
572.626	11337.72
572.987	11330.27
573.349	11346.99
573.71	11466.31
574.071	11503.82
574.432	11500.88
574.794	11730.93
575.155	11677.15
575.516	11688.9
575.877	11823.36
576.238	11866.98
576.599	11940.87
576.96	11962.57
577.32	12083.24
577.681	12135.67
578.042	12297.25
578.403	12328.88
578.763	12500.41
579.124	12628.99
579.485	12755.54
579.845	12825.14
580.206	12929.32
580.566	12991.24
580.927	13113.95
581.287	13338.8
581.648	13398.91
582.008	13648.17
582.368	13651.56
582.728	13827.83
583.089	13938.56
583.449	14174.71
583.809	14283.41
584.169	14526.79
584.529	14644.53
584.889	14900.57
585.249	15054.01
585.609	15195.25
585.969	15478.41
586.329	15658.29
586.688	15830.26
587.048	16066.64
587.408	16285.84
587.768	16507.53
588.127	16780.97
588.487	16935.09
588.846	17314.06
589.206	17439.26
589.565	17665.24
589.925	18089.64
590.284	18256.41
590.643	18564.65
591.003	18770.52
591.362	19186.33
591.721	19405.76
592.08	19689.82
592.44	19961.45
592.799	20242.12
593.158	20514.21
593.517	20847.76
593.876	21118.94
594.235	21505.14
594.593	21589.21
594.952	21995.75
595.311	22217.21
595.67	22523.65
596.029	23016.29
596.387	23238.65
596.746	23572.21
597.104	23745.76
597.463	24044.51
597.822	24402.24
598.18	24776.92
598.538	25045.39
598.897	25456
599.255	25479.95
599.613	26046.94
599.972	26219.14
600.33	26651.22
600.688	26881.5
601.046	27133.92
601.404	27450.3
601.762	27738.65
602.12	28151.07
602.478	28354
602.836	28571.62
603.194	28679.42
603.552	29049.58
603.91	29278.04
604.268	29661.76
604.625	29909.89
604.983	30155.76
605.341	30378.13
605.698	30783.77
606.056	31062.63
606.413	31335.16
606.771	31515.95
607.128	31881.59
607.485	31958.65
607.843	32205.65
608.2	32566.77
608.557	32750.72
608.914	32814.22
609.272	33182.12
609.629	33462.11
609.986	33822.78
610.343	33690.81
610.7	34287.18
611.057	34368.98
611.414	34500.05
611.771	34683.1
612.127	35196.76
612.484	35370.76
612.841	35477.65
613.198	35556.75
613.554	35755.84
613.911	36095.72
614.267	36155.38
614.624	36435.37
614.98	36636.49
615.337	36847.34
615.693	36918.97
616.05	37139.08
616.406	37523.02
616.762	37477.38
617.118	37603.93
617.475	37689.57
617.831	37891.38
618.187	37998.94
618.543	38261.08
618.899	38426.5
619.255	38486.62
619.611	38555.99
619.967	38895.19
620.323	39165.47
620.678	38974.96
621.034	39022.19
621.39	39195.98
621.746	39289.31
622.101	39776.52
622.457	39345.35
622.812	39836.64
623.168	39866.24
623.523	39981.04
623.879	40090.41
624.234	40006.35
624.589	40186.91
624.945	40316.62
625.3	40447.24
625.655	40439.33
626.01	40677.07
626.365	40680.91
626.72	40698.76
627.075	40766.56
627.43	40847.23
627.785	40853.78
628.14	41047.68
628.495	41026.44
628.85	41076.6
629.205	40929.04
629.559	41266.66
629.914	41038.19
630.269	41225.98
630.623	41188.69
630.978	41235.92
631.332	41475.92
631.687	41497.16
632.041	41335.58
632.396	41423.94
632.75	41315.02
633.104	41423.49
633.459	41449.25
633.813	41371.06
634.167	41428.23
634.521	41353.21
634.875	41485.18
635.229	41585.06
635.583	41380.32
635.937	41499.19
636.291	41396.37
636.645	41473.88
636.999	41316.37
637.352	41495.8
637.706	41320.21
638.06	41560.21
638.413	41481.34
638.767	41381.91
639.121	41473.43
639.474	41256.26
639.828	41359.31
640.181	41357.27
640.534	41496.93
640.888	41304.62
641.241	41156.15
641.594	41261.46
641.947	41456.93
642.301	41347.1
642.654	41388.69
643.007	41333.32
643.36	41277.73
643.713	41288.12
644.066	41414
644.419	41145.75
644.771	41010.39
645.124	40522.49
645.477	40573.57
645.83	40399.79
646.182	40265.78
646.535	40115.95
646.888	40160.47
647.24	40004.54
647.593	40267.59
647.945	40122.96
648.298	40022.85
648.65	40065.1
649.002	39789.41
649.355	40013.58
649.707	40083.18
650.059	40284.53
650.411	40722.49
650.763	40841.81
651.115	41043.84
651.467	40990.5
651.819	40940.34
652.171	40885.42
652.523	40878.87
652.875	40743.73
653.227	40631.42
653.578	40940.11
653.93	40880
654.282	40683.17
654.633	40570.18
654.985	40694.69
655.337	40766.78
655.688	40668.03
656.039	40860.34
656.391	40608.82
656.742	40582.61
657.094	40784.86
657.445	40747.12
657.796	40778.53
658.147	40640.23
658.498	40618.99
658.849	40747.57
659.2	40606.56
659.551	40527.92
659.902	40556.62
660.253	40564.98
660.604	40597.52
660.955	40447.47
661.306	40493.79
661.656	40518.65
662.007	40410.63
662.358	40453.57
662.708	40489.05
663.059	40483.62
663.409	40134.48
663.76	40511.87
664.11	40557.52
664.461	40442.04
664.811	40492.66
665.161	40659.44
665.511	40401.59
665.862	40392.78
666.212	40489.73
666.562	40509.16
666.912	40470.74
667.262	40556.62
667.612	40422.84
667.962	40370.18
668.312	40333.57
668.662	40436.39
669.011	40350.07
669.361	40393.91
669.711	40245.21
670.06	40173.12
670.41	40238.89
670.76	40251.54
671.109	40352.1
671.459	40304.87
671.808	40263.74
672.157	40350.52
672.507	39935.16
672.856	40076.63
673.205	40042.28
673.554	40330.86
673.904	40107.82
674.253	40313.69
674.602	40202.28
674.951	39608.62
675.3	39508.74
675.649	39936.07
675.998	40054.03
676.346	40103.07
676.695	40192.33
677.044	39838.44
677.393	40075.5
677.741	40034.15
678.09	39945.33
678.438	39798.9
678.787	39836.41
679.135	39923.19
679.484	39563.87
679.832	39774.72
680.181	39545.8
680.529	39681.84
680.877	39502.86
681.225	39478.23
681.573	39596.87
681.922	39476.42
682.27	39275.29
682.618	39371.11
682.966	39344.67
683.314	39369.98
683.661	39202.98
684.009	39078.92
684.357	39168.86
684.705	39046.37
685.053	39039.14
685.4	38956.89
685.748	38874.85
686.095	38690.68
686.443	38662.88
686.79	38602.09
687.138	38672.15
687.485	38713.05
687.832	38509.89
688.18	38540.63
688.527	38278.26
688.874	38479.38
689.221	38290.69
689.568	38135.44
689.915	38039.85
690.262	38141.31
690.609	37866.07
690.956	37747.2
691.303	37762.34
691.65	37663.36
691.997	37630.82
692.344	37350.37
692.69	37331.17
693.037	37424.72
693.383	37074.22
693.73	37184.28
694.077	37071.06
694.423	37121.68
694.769	36946.09
695.116	36869.26
695.462	36813.21
695.808	36707.45
696.155	36761.69
696.501	36535.93
696.847	36438.99
697.193	36142.95
697.539	36332.55
697.885	36162.61
698.231	36046.23
698.577	36110.18
698.923	36066.79
699.269	35755.84
699.614	35637.88
699.96	35475.17
700.306	35575.73
700.651	35448.73
700.997	35385.91
701.342	35412.12
701.688	35404.66
702.033	35128.74
702.379	35097.55
702.724	35071.56
703.069	35035.86
703.415	34662.31
703.76	34800.16
704.105	34883.09
704.45	34715.19
704.795	34517.68
705.14	34325.14
705.485	34341.64
705.83	34218.48
706.175	34176.9
706.52	34157.92
706.865	34032.49
707.209	34084.25
707.554	33904.81
707.899	33951.14
708.243	33671.83
708.588	33702.56
708.932	33466.41
709.277	33586.86
709.621	33597.48
709.966	33298.73
710.31	33424.83
710.654	33053.54
710.998	33168.56
711.342	33124.5
711.687	33015.35
712.031	32759.99
712.375	32814.67
712.719	32890.83
713.063	32782.36
713.407	32898.29
713.75	32556.6
714.094	32588.92
714.438	32562.7
714.782	32451.29
715.125	32382.59
715.469	32442.25
715.812	32241.36
716.156	32020.34
716.499	32149.61
716.843	32194.13
717.186	31906.45
717.53	32020.12
717.873	32155.48
718.216	31966.56
718.559	31857.86
718.902	31694.93
719.246	31705.78
719.589	31616.06
719.932	31473.47
720.275	31473.47
720.617	31417.42
720.96	31496.74
721.303	31407.93
721.646	31471.88
721.989	31250.2
722.331	31272.12
722.674	31187.82
723.016	31109.18
723.359	31279.12
723.701	31263.75
724.044	30957.77
724.386	30868.74
724.729	30914.61
725.071	30840.71
725.413	30826.7
725.755	30862.18
726.097	30713.03
726.439	30518.24
726.782	30657.44
727.124	30703.99
727.465	30418.35
727.807	30496.54
728.149	30368.41
728.491	30271.24
728.833	30416.54
729.175	30167.29
729.516	30252.71
729.858	30155.99
730.199	30106.27
730.541	30120.06
730.882	30101.3
731.224	30084.8
731.565	29890.46
731.906	29949.21
732.248	30028.98
732.589	29835.77
732.93	29680.29
733.271	29657.69
733.612	29695.43
733.953	29751.48
734.294	29552.39
734.635	29585.38
734.976	29683.91
735.317	29582.67
735.658	29473.52
735.999	29467.64
736.339	29390.13
736.68	29449.79
737.021	29358.95
737.361	29157.59
737.702	29403.69
738.042	29219.97
738.383	29024.49
738.723	29344.71
739.063	29133.41
739.404	29055
739.744	29002.57
740.084	29016.81
740.424	28990.14
740.764	28845.74
741.104	28989.01
741.444	28795.12
741.784	28780.88
742.124	28860.65
742.464	28695.69
742.804	28657.04
743.143	28695.69
743.483	28453.88
743.823	28403.94
744.162	28577.72
744.502	28523.49
744.841	28272.19
745.181	28484.84
745.52	28361.68
745.86	28418.18
746.199	28315.13
746.538	28302.48
746.877	28269.48
747.216	28267.9
747.556	28168.92
747.895	28275.36
748.234	28176.6
748.573	27991.98
748.911	28057.96
749.25	27964.86
749.589	27875.14
749.928	27998.98
750.267	27904.07
750.605	27697.52
750.944	27676.73
751.283	27614.36
751.621	27731.42
751.96	27587.24
752.298	27589.27
752.636	27592.89
752.975	27459.79
753.313	27357.64
753.651	27515.15
753.989	27351.31
754.327	27374.36
754.666	27093.92
755.004	27221.37
755.342	27170.98
755.679	27154.26
756.017	26981.38
756.355	27147.03
756.693	26926.24
757.031	27026.13
757.368	26756.3
757.706	26731.9
758.044	26659.81
758.381	26737.09
758.719	26569.87
759.056	26576.65
