Data from hue_26_FLMS001491_00075.txt Node
Date: Tue Feb 07 17:14:30 GMT 2017
User: dcchb
Spectrometer: FLMS00149
Trigger mode: 0
Integration Time (sec): 2.000000E-2
Scans to average: 10
Electric dark correction enabled: true
Nonlinearity correction enabled: false
Boxcar width: 0
XAxis mode: Wavelengths
Number of Pixels in Spectrum: 2048
>>>>>Begin Spectral Data<<<<<
341.393	-15.13
341.776	-15.13
342.16	-15.13
342.543	-46.31
342.927	-59.87
343.31	-61.68
343.693	-81.57
344.077	-67.33
344.46	-61.68
344.843	-57.16
345.226	-36.6
345.61	-18.52
345.993	-15.58
346.376	-2.47
346.759	12.44
347.142	25.1
347.525	39.11
347.908	63.29
348.291	68.03
348.674	76.85
349.057	117.75
349.44	131.99
349.823	151.65
350.206	152.55
350.588	174.25
350.971	207.92
351.354	226.45
351.737	249.27
352.119	247.24
352.502	247.47
352.884	291.53
353.267	265.77
353.65	302.83
354.032	302.15
354.414	309.16
354.797	311.19
355.179	306.22
355.562	323.62
355.944	311.42
356.326	347.35
356.709	335.82
357.091	359.1
357.473	359.55
357.855	340.57
358.238	327.46
358.62	310.06
359.002	343.28
359.384	337.86
359.766	347.35
360.148	328.59
360.53	350.74
360.912	332.43
361.294	333.34
361.676	318.65
362.057	331.53
362.439	343.73
362.821	349.38
363.203	317.97
363.584	316.39
363.966	329.95
364.348	313.45
364.729	309.61
365.111	322.27
365.493	304.41
365.874	323.62
366.256	308.48
366.637	303.28
367.019	323.85
367.4	291.98
367.781	314.13
368.163	311.19
368.544	317.07
368.925	298.54
369.306	322.27
369.688	312.1
370.069	309.16
370.45	303.28
370.831	321.36
371.212	319.55
371.593	311.42
371.974	311.64
372.355	331.3
372.736	314.13
373.117	324.98
373.498	287.01
373.879	308.71
374.26	334.02
374.641	318.88
375.021	290.4
375.402	317.07
375.783	337.86
376.163	345.32
376.544	313.23
376.925	332.89
377.305	329.27
377.686	329.27
378.066	318.2
378.447	325.66
378.827	317.75
379.208	330.63
379.588	331.3
379.968	323.62
380.349	340.12
380.729	353.9
381.109	329.05
381.489	361.36
381.87	341.25
382.25	344.86
382.63	337.18
383.01	348.25
383.39	348.25
383.77	334.69
384.15	351.64
384.53	352.77
384.91	355.03
385.29	343.51
385.67	347.8
386.049	347.35
386.429	346.45
386.809	348.93
387.189	348.71
387.568	345.99
387.948	353.23
388.328	355.26
388.707	348.48
389.087	348.03
389.466	342.15
389.846	364.3
390.225	363.85
390.605	390.96
390.984	360.46
391.363	361.81
391.743	359.55
392.122	369.5
392.501	353.23
392.881	372.43
393.26	387.35
393.639	384.18
394.018	371.08
394.397	377.41
394.776	398.87
395.155	381.7
395.534	391.42
395.913	384.18
396.292	383.96
396.671	379.44
397.05	397.07
397.429	389.83
397.808	381.92
398.186	373.79
398.565	385.99
398.944	384.64
399.323	390.29
399.701	408.82
400.08	376.73
400.458	386.44
400.837	409.04
401.215	427.8
401.594	394.35
401.972	402.94
402.351	413.56
402.729	422.15
403.107	389.38
403.486	416.05
403.864	423.51
404.242	430.51
404.62	425.31
404.999	415.6
405.377	406.11
405.755	406.78
406.133	413.79
406.511	418.31
406.889	426.44
407.267	420.79
407.645	439.1
408.023	453.11
408.401	437.29
408.779	439.55
409.156	435.48
409.534	427.12
409.912	440.45
410.29	461.24
410.667	454.01
411.045	446.33
411.422	461.47
411.8	470.28
412.178	474.58
412.555	477.74
412.933	480.23
413.31	481.13
413.687	465.54
414.065	483.62
414.442	469.61
414.819	480
415.197	462.6
415.574	499.21
415.951	480
416.328	497.63
416.705	496.95
417.082	515.71
417.46	505.31
417.837	506.44
418.214	490.85
418.591	517.97
418.967	501.47
419.344	524.29
419.721	540.79
420.098	518.87
420.475	524.52
420.852	531.07
421.228	531.07
421.605	519.1
421.982	518.87
422.358	533.56
422.735	548.47
423.111	529.27
423.488	538.98
423.864	543.95
424.241	533.33
424.617	557.51
424.994	553.67
425.37	551.41
425.746	572.65
426.123	572.2
426.499	565.42
426.875	562.26
427.251	587.12
427.627	574.46
428.003	609.94
428.379	599.09
428.756	602.71
429.132	587.34
429.507	594.8
429.883	589.38
430.259	620.56
430.635	604.52
431.011	618.3
431.387	621.47
431.763	625.53
432.138	631.41
432.514	652.65
432.89	638.19
433.265	665.99
433.641	656.72
434.016	675.48
434.392	681.58
434.767	682.48
435.143	679.32
435.518	687.91
435.894	705.08
436.269	681.35
436.644	712.09
437.02	710.73
437.395	715.02
437.77	705.76
438.145	713.44
438.52	729.26
438.895	729.71
439.271	718.19
439.646	725.87
440.021	751.41
440.395	764.74
440.77	748.02
441.145	770.62
441.52	768.13
441.895	753.89
442.27	758.19
442.645	756.38
443.019	769.26
443.394	763.16
443.769	768.81
444.143	777.85
444.518	783.5
444.892	800.67
445.267	783.95
445.641	806.55
446.016	821.69
446.39	819.43
446.764	820.56
447.139	820.78
447.513	820.56
447.887	840.9
448.262	793.21
448.636	839.31
449.01	842.48
449.384	835.92
449.758	845.87
450.132	844.29
450.506	846.32
450.88	902.14
451.254	889.48
451.628	891.29
452.002	897.84
452.376	898.97
452.75	890.84
453.123	902.82
453.497	910.95
453.871	911.63
454.244	950.72
454.618	947.56
454.992	954.57
455.365	914.34
455.739	947.56
456.112	974
456.486	994.34
456.859	973.77
457.232	971.97
457.606	992.3
457.979	1000.89
458.352	1033.21
458.725	1026.88
459.099	1045.64
459.472	1074.79
459.845	1073.21
460.218	1082.25
460.591	1085.64
460.964	1123.15
461.337	1109.14
461.71	1126.54
462.083	1152.07
462.456	1139.87
462.829	1170.6
463.201	1145.75
463.574	1155.92
463.947	1170.6
464.32	1224.39
464.692	1180.1
465.065	1246.54
465.438	1224.61
465.81	1278.4
466.183	1237.04
466.555	1305.97
466.928	1295.57
467.3	1296.25
467.672	1309.81
468.045	1351.62
468.417	1358.17
468.789	1373.54
469.161	1364.72
469.534	1418.06
469.906	1414.89
470.278	1435.46
470.65	1456.25
471.022	1509.8
471.394	1528.11
471.766	1527.88
472.138	1509.13
472.51	1552.97
472.882	1619.63
473.253	1632.51
473.625	1652.17
473.997	1663.93
474.369	1658.73
474.74	1711.61
475.112	1735.56
475.484	1770.82
475.855	1805.39
476.227	1832.28
476.598	1900.53
476.97	1888.78
477.341	1936.23
477.713	1989.79
478.084	1999.74
478.455	2049
478.827	2075.67
479.198	2141.88
479.569	2144.14
479.94	2202.22
480.311	2210.35
480.682	2275.66
481.053	2310.46
481.424	2372.83
481.795	2420.97
482.166	2467.29
482.537	2484.47
482.908	2535.31
483.279	2578.25
483.65	2626.39
484.021	2694.41
484.391	2756.55
484.762	2777.79
485.133	2797.91
485.503	2805.82
485.874	2914.97
486.244	2946.6
486.615	3018.47
486.985	3043.1
487.356	3157.22
487.726	3164
488.097	3199.48
488.467	3250.78
488.837	3309.76
489.207	3386.82
489.578	3439.25
489.948	3469.08
490.318	3533.03
490.688	3531.22
491.058	3570.99
491.428	3666.58
491.798	3674.49
492.168	3754.49
492.538	3808.5
492.908	3845.79
493.278	3914.04
493.648	3922.62
494.017	3994.71
494.387	4034.26
494.757	4095.05
495.126	4101.38
495.496	4127.82
495.866	4187.02
496.235	4242.61
496.605	4241.26
496.974	4292.56
497.344	4360.8
497.713	4437.41
498.082	4426.79
498.452	4476.05
498.821	4486.9
499.19	4467.47
499.559	4617.07
499.928	4609.16
500.298	4651.64
500.667	4660.68
501.036	4715.37
501.405	4744.3
501.774	4760.79
502.143	4766.22
502.512	4836.95
502.88	4869.26
503.249	4865.87
503.618	4888.93
503.987	4928.92
504.356	4992.2
504.724	4995.59
505.093	5005.76
505.462	5023.38
505.83	5065.19
506.199	5060.67
506.567	5213.89
506.936	5187
507.304	5240.55
507.672	5258.63
508.041	5240.78
508.409	5314.9
508.777	5357.39
509.145	5373.43
509.514	5393.32
509.882	5403.49
510.25	5411.62
510.618	5449.81
510.986	5481
511.354	5529.59
511.722	5532.07
512.09	5593.09
512.458	5550.83
512.826	5648.68
513.193	5610.71
513.561	5666.76
513.929	5694.78
514.297	5746.08
514.664	5730.71
515.032	5782.69
515.4	5858.84
515.767	5839.86
516.135	5902.68
516.502	5869.01
516.869	5892.51
517.237	5917.37
517.604	5934.55
517.972	5966.41
518.339	5986.98
518.706	5929.8
519.073	6051.61
519.44	6051.83
519.808	6110.14
520.175	6040.53
520.542	6106.07
520.909	6162.56
521.276	6166.18
521.643	6207.99
522.009	6301.77
522.376	6277.14
522.743	6328.66
523.11	6372.5
523.477	6422.22
523.843	6463.8
524.21	6537.92
524.577	6565.04
524.943	6523.46
525.31	6602.1
525.676	6639.39
526.043	6654.53
526.409	6752.83
526.776	6777.92
527.142	6742.21
527.508	6774.75
527.874	6828.76
528.241	6854.3
528.607	6955.31
528.973	6939.94
529.339	7036.67
529.705	6985.82
530.071	7069.66
530.437	7079.38
530.803	7138.81
531.169	7183.33
531.535	7175.87
531.901	7207.06
532.267	7211.58
532.632	7271.24
532.998	7248.19
533.364	7330.44
533.73	7400.27
534.095	7454.28
534.461	7438.69
534.826	7452.25
535.192	7488.18
535.557	7589.65
535.923	7510.55
536.288	7543.32
536.653	7562.53
537.019	7573.6
537.384	7636.2
537.749	7665.58
538.114	7799.13
538.479	7683.65
538.845	7829.19
539.21	7788.06
539.575	7843.2
539.94	7842.07
540.305	7888.39
540.67	7927.49
541.034	7891.33
541.399	7993.93
541.764	7991.44
542.129	8068.95
542.494	8035.28
542.858	8152.12
543.223	8164.77
543.587	8203.64
543.952	8128.16
544.316	8217.2
544.681	8207.71
545.045	8264.43
545.41	8324.54
545.774	8350.53
546.138	8327.48
546.503	8385.33
546.867	8401.6
547.231	8528.38
547.595	8500.58
547.959	8533.35
548.324	8584.2
548.688	8624.65
549.052	8578.77
549.416	8607.92
549.779	8627.36
550.143	8705.77
550.507	8695.15
550.871	8760.24
551.235	8699.9
551.599	8880.46
551.962	8877.07
552.326	8789.39
552.689	8887.92
553.053	8870.06
553.417	8945.54
553.78	9065.09
554.143	8989.38
554.507	9016.05
554.87	9048.82
555.234	9157.97
555.597	9086.78
555.96	9209.49
556.323	9270.96
556.686	9180.11
557.05	9204.97
557.413	9282.71
557.776	9327.23
558.139	9434.79
558.502	9419.43
558.865	9430.27
559.228	9510.27
559.59	9457.84
559.953	9472.08
560.316	9583.49
560.679	9605.41
561.041	9695.35
561.404	9630.72
561.767	9715.46
562.129	9682.92
562.492	9769.7
562.854	9783.71
563.217	9822.58
563.579	9778.97
563.941	9918.62
564.304	9936.02
564.666	9900.09
565.028	10003.82
565.39	10032.29
565.753	10050.15
566.115	10053.31
566.477	10086.75
566.839	10101.9
567.201	10205.85
567.563	10201.78
567.925	10319.97
568.287	10280.87
568.648	10342.57
569.01	10380.31
569.372	10430.7
569.734	10467.76
570.095	10536.91
570.457	10582.56
570.819	10584.14
571.18	10604.03
571.542	10749.34
571.903	10663.46
572.265	10817.36
572.626	10826.85
572.987	10865.49
573.349	10889.22
573.71	10987.3
574.071	10952.27
574.432	11097.8
574.794	11184.58
575.155	11223.45
575.516	11306.61
575.877	11357.68
576.238	11342.54
576.599	11509.99
576.96	11588.64
577.32	11577.34
577.681	11670.67
578.042	11879.7
578.403	11945.46
578.763	11964.67
579.124	12034.73
579.485	12255.06
579.845	12356.98
580.206	12406.02
580.566	12496.18
580.927	12654.6
581.287	12889.62
581.648	12878.32
582.008	13095.26
582.368	13214.81
582.728	13396.5
583.089	13517.85
583.449	13669.71
583.809	13902.02
584.169	14079.87
584.529	14169.59
584.889	14479.18
585.249	14601.44
585.609	14680.53
585.969	14984.48
586.329	15259.5
586.688	15401.42
587.048	15587.4
587.408	15929.09
587.768	16088.18
588.127	16224.9
588.487	16430.99
588.846	16834.6
589.206	17120.02
589.565	17298.77
589.925	17587.8
590.284	17825.31
590.643	18107.33
591.003	18413.99
591.362	18804.27
591.721	19008.1
592.08	19237.7
592.44	19569.22
592.799	19891.92
593.158	20105.25
593.517	20377.56
593.876	20680.6
594.235	21035.39
594.593	21319.68
594.952	21665.43
595.311	21816.62
595.67	22282.59
596.029	22668.12
596.387	22982.69
596.746	23277.37
597.104	23445.5
597.463	23709.67
597.822	24068.76
598.18	24335.87
598.538	24718.01
598.897	25079.58
599.255	25189.41
599.613	25829.39
599.972	25901.93
600.33	26358.42
600.688	26384.18
601.046	26825.3
601.404	27253.76
601.762	27470.48
602.12	27857.81
602.478	28079.5
602.836	28291.25
603.194	28432.03
603.552	28944.56
603.91	29041.28
604.268	29452.8
604.625	29537.32
604.983	29826.12
605.341	30088.49
605.698	30493.22
606.056	30768.92
606.413	31026.99
606.771	31322.81
607.128	31495.46
607.485	31744.72
607.843	31887.76
608.2	32333.4
608.557	32660.17
608.914	32627.86
609.272	33071.69
609.629	33295.18
609.986	33655.4
610.343	33708.51
610.7	34143.3
611.057	34263.75
611.414	34400.01
611.771	34636.62
612.127	34862.6
612.484	35078.64
612.841	35568.57
613.198	35546.88
613.554	35535.8
613.911	35945.74
614.267	36048.56
614.624	36255.56
614.98	36498.26
615.337	36806.28
615.693	36800.4
616.05	36959.95
616.406	37256.21
616.762	37272.48
617.118	37390.44
617.475	37556.54
617.831	37833.82
618.187	37959.24
618.543	38086.47
618.899	38358.78
619.255	38427.93
619.611	38541.15
619.967	38692.78
620.323	38987.69
620.678	38852.78
621.034	38959.89
621.39	39063.17
621.746	39218.64
622.101	39761.23
622.457	39450.95
622.812	39634.45
623.168	39815.69
623.523	39867.67
623.879	40072.86
624.234	39945.4
624.589	40163.25
624.945	40297.49
625.3	40406.41
625.655	40415.67
626.01	40434.43
626.365	40582.68
626.72	40490.02
627.075	40720.75
627.43	40664.71
627.785	40791.71
628.14	40955.1
628.495	40945.6
628.85	41135.2
629.205	40801.2
629.559	41187.86
629.914	41163.68
630.269	41123.9
630.623	41105.37
630.978	41032.83
631.332	41297.46
631.687	41339.49
632.041	41198.48
632.396	41320.51
632.75	41022.66
633.104	41402.32
633.459	41180.63
633.813	41200.29
634.167	41201.19
634.521	41310.79
634.875	41284.58
635.229	41344.69
635.583	41053.17
635.937	41320.74
636.291	41232.6
636.645	41339.94
636.999	41333.39
637.352	41353.5
637.706	41287.97
638.06	41328.19
638.413	41246.61
638.767	41305.37
639.121	41209.33
639.474	41129.78
639.828	41144.47
640.181	41330
640.534	41154.19
640.888	41177.24
641.241	40900.41
641.594	41179.95
641.947	41348.08
642.301	41207.07
642.654	41162.55
643.007	41141.31
643.36	41132.94
643.713	41125.26
644.066	41151.47
644.419	40958.26
644.771	40711.26
645.124	40358.05
645.477	40444.15
645.83	40207.09
646.182	40131.61
646.535	39920.09
646.888	39935.24
647.24	39881.68
647.593	40074.89
647.945	40127.32
648.298	39919.87
648.65	39820.66
649.002	39831.06
649.355	40016.59
649.707	39953.77
650.059	40220.65
650.411	40634.2
650.763	40645.5
651.115	41080.52
651.467	40796.91
651.819	40770.69
652.171	40656.35
652.523	40712.16
652.875	40635.56
653.227	40540.64
653.578	40907.64
653.93	40786.29
654.282	40683.92
654.633	40467.42
654.985	40532.28
655.337	40601.21
655.688	40691.83
656.039	40815.44
656.391	40329.12
656.742	40433.08
657.094	40544.48
657.445	40667.65
657.796	40531.38
658.147	40393.75
658.498	40524.37
658.849	40503.13
659.2	40360.99
659.551	40537.25
659.902	40738.15
660.253	40372.06
660.604	40448.67
660.955	40304.04
661.306	40398.73
661.656	40455.67
662.007	40540.42
662.358	40517.82
662.708	40436.92
663.059	40411.61
663.409	40146.08
663.76	40509.01
664.11	40520.98
664.461	40519.4
664.811	40545.61
665.161	40451.38
665.511	40335.9
665.862	40361.21
666.212	40436.01
666.562	40470.14
666.912	40373.42
667.262	40334.55
667.612	40205.06
667.962	40265.85
668.312	40382.68
668.662	40510.36
669.011	40417.48
669.361	40373.87
669.711	40348.78
670.06	40311.5
670.41	40189.92
670.76	40165.74
671.109	40272.18
671.459	40062.01
671.808	40158.51
672.157	40229.01
672.507	39954.67
672.856	39932.52
673.205	40036.48
673.554	40228.11
673.904	39951.96
674.253	40189.69
674.602	40156.25
674.951	39479.88
675.3	39334.8
675.649	39923.03
675.998	39955.8
676.346	39970.71
676.695	40078.28
677.044	39670.61
677.393	39866.31
677.741	39882.13
678.09	39874.67
678.438	39726.88
678.787	39844.84
679.135	39773.43
679.484	39488.24
679.832	39814.79
680.181	39563.95
680.529	39659.54
680.877	39459.77
681.225	39488.24
681.573	39807.33
681.922	39405.08
682.27	39222.49
682.618	39314.01
682.966	39190.17
683.314	39377.06
683.661	39147.46
684.009	38886.68
684.357	38882.38
684.705	38897.97
685.053	38879.9
685.4	38790.41
685.748	38659.56
686.095	38735.49
686.443	38515.39
686.79	38480.36
687.138	38503.41
687.485	38489.17
687.832	38259.57
688.18	38414.82
688.527	38324.2
688.874	38160.59
689.221	38104.32
689.568	37944.33
689.915	37966.47
690.262	37907.94
690.609	37922.86
690.956	37745.46
691.303	37780.49
691.65	37543.21
691.997	37608.74
692.344	37458.92
692.69	37344.57
693.037	37451.46
693.383	37048.76
693.73	37262.54
694.077	37032.94
694.423	37061.41
694.769	36820.97
695.116	36735.32
695.462	36628.88
695.808	36545.49
696.155	36715.88
696.501	36379.62
696.847	36407.19
697.193	36241.1
697.539	36312.51
697.885	36022.8
698.231	35978.96
698.577	35972.85
698.923	35954.77
699.269	35811.5
699.614	35596.14
699.96	35489.02
700.306	35460.55
700.651	35252.87
700.997	35209.26
701.342	35279.31
701.688	35207.22
702.033	35019.66
702.379	35119.99
702.724	34981.92
703.069	35105.08
703.415	34634.81
703.76	34706.9
704.105	34628.48
704.45	34602.95
704.795	34325.21
705.14	34229.85
705.485	34256.97
705.83	34072.34
706.175	34192.79
706.52	33941.49
706.865	33738.56
707.209	34006.13
707.554	33744.44
707.899	33726.81
708.243	33714.16
708.588	33670.09
708.932	33372.7
709.277	33519.58
709.621	33367.05
709.966	33201.18
710.31	33317.78
710.654	32989.43
710.998	32982.42
711.342	33085.02
711.687	32914.18
712.031	32782.65
712.375	32768.64
712.719	32764.35
713.063	32646.16
713.407	32779.49
713.75	32569.55
714.094	32561.87
714.438	32365.04
714.782	32402.78
715.125	32233.29
715.469	32214.31
715.812	32200.75
716.156	32023.8
716.499	32054.54
716.843	31946.97
717.186	31742.68
717.53	31990.36
717.873	31990.81
718.216	31910.81
718.559	31768.22
718.902	31468.11
719.246	31626.08
719.589	31535
719.932	31440.09
720.275	31405.52
720.617	31384.95
720.96	31226.76
721.303	31288.68
721.646	31297.5
721.989	31001.68
722.331	31156.26
722.674	30966.43
723.016	31065.64
723.359	31045.53
723.701	30920.56
724.044	30815.25
724.386	30716.72
724.729	30954.23
725.071	30797.4
725.413	30752.2
725.755	30751.75
726.097	30684.18
726.439	30460
726.782	30482.38
727.124	30621.13
727.465	30462.94
727.807	30361.7
728.149	30268.6
728.491	30288.48
728.833	30305.43
729.175	30243.06
729.516	30165.1
729.858	30098.21
730.199	30209.62
730.541	29990.41
730.882	29920.13
731.224	30047.81
731.565	29888.49
731.906	29900.02
732.248	29790.19
732.589	29651.89
732.93	29632.91
733.271	29699.57
733.612	29663.19
733.953	29610.76
734.294	29546.36
734.635	29418.68
734.976	29443.99
735.317	29394.04
735.658	29372.8
735.999	29413.48
736.339	29232.92
736.68	29461.16
737.021	29264.33
737.361	29066.59
737.702	29210.09
738.042	29166.03
738.383	29071.34
738.723	29024.34
739.063	29046.71
739.404	29045.8
739.744	28924.9
740.084	28899.37
740.424	28880.61
740.764	28795.87
741.104	28942.08
741.444	28725.59
741.784	28669.09
742.124	28755.87
742.464	28762.65
742.804	28554.74
743.143	28500.28
743.483	28635.42
743.823	28352.04
744.162	28357.46
744.502	28443.11
744.841	28415.54
745.181	28449.66
745.52	28218.71
745.86	28277.46
746.199	28303.45
746.538	28261.42
746.877	28255.32
747.216	28202.66
747.556	28172.83
747.895	28227.29
748.234	28013.51
748.573	27973.74
748.911	27918.83
749.25	27971.93
749.589	27805.84
749.928	27852.84
750.267	27936.91
750.605	27792.5
750.944	27760.41
751.283	27581.89
751.621	27635.45
751.96	27473.42
752.298	27519.97
752.636	27576.69
752.975	27456.69
753.313	27330.59
753.651	27476.13
753.989	27346.41
754.327	27344.83
754.666	27181.22
755.004	27028.91
755.342	27165.4
755.679	27068.91
756.017	26942.36
756.355	27016.48
756.693	26918.18
757.031	26882.7
757.368	26754.56
757.706	26836.6
758.044	26634.57
758.381	26691.97
758.719	26632.76
759.056	26645.42
759.394	26435.03
759.731	26321.58
760.068	26247.91
