Data from hue_230_FLMS001491_00098.txt Node
Date: Tue Feb 07 16:38:01 GMT 2017
User: dcchb
Spectrometer: FLMS00149
Trigger mode: 0
Integration Time (sec): 2.000000E-2
Scans to average: 10
Electric dark correction enabled: true
Nonlinearity correction enabled: false
Boxcar width: 0
XAxis mode: Wavelengths
Number of Pixels in Spectrum: 2048
>>>>>Begin Spectral Data<<<<<
341.393	-12.29
341.776	-12.29
342.16	-12.29
342.543	-64.26
342.927	-84.6
343.31	-70.37
343.693	-62.46
344.077	-76.69
344.46	-74.21
344.843	-57.94
345.226	-26.98
345.61	-40.99
345.993	-36.47
346.376	-10.03
346.759	17.32
347.142	51.21
347.525	34.94
347.908	53.25
348.291	87.37
348.674	95.51
349.057	116.52
349.44	116.3
349.823	127.14
350.206	149.74
350.588	180.48
350.971	215.73
351.354	214.82
351.737	223.41
352.119	241.49
352.502	253.47
352.884	276.52
353.267	275.39
353.65	272.68
354.032	281.04
354.414	295.5
354.797	300.92
355.179	303.41
355.562	292.11
355.944	312.22
356.326	323.52
356.709	326.46
357.091	304.77
357.473	335.5
357.855	327.36
358.238	338.21
358.62	309.96
359.002	335.5
359.384	317.42
359.766	328.72
360.148	324.65
360.53	330.08
360.912	336.18
361.294	309.96
361.676	327.36
362.057	322.62
362.439	332.34
362.821	309.51
363.203	323.07
363.584	304.09
363.966	313.13
364.348	300.7
364.729	304.54
365.111	297.08
365.493	307.25
365.874	310.42
366.256	288.04
366.637	308.38
367.019	298.66
367.4	314.26
367.781	285.78
368.163	302.73
368.544	305.67
368.925	304.77
369.306	293.24
369.688	304.09
370.069	299.34
370.45	303.41
370.831	305.44
371.212	292.34
371.593	313.81
371.974	297.76
372.355	293.92
372.736	312.68
373.117	300.25
373.498	295.05
373.879	317.65
374.26	296.63
374.641	307.93
375.021	281.49
375.402	323.3
375.783	304.31
376.163	317.42
376.544	321.04
376.925	296.18
377.305	315.16
377.686	321.94
378.066	315.39
378.447	314.71
378.827	331.21
379.208	319.23
379.588	333.01
379.968	325.1
380.349	320.13
380.729	319.91
381.109	334.37
381.489	304.99
381.87	330.3
382.25	324.65
382.63	326.01
383.01	324.43
383.39	325.1
383.77	329.62
384.15	307.48
384.53	338.89
384.91	318.32
385.29	325.1
385.67	328.72
386.049	325.1
386.429	331.21
386.809	321.94
387.189	339.34
387.568	348.83
387.948	324.88
388.328	346.12
388.707	326.91
389.087	348.61
389.466	345.67
389.846	343.41
390.225	335.5
390.605	352.9
390.984	348.38
391.363	346.8
391.743	349.96
392.122	355.84
392.501	345.67
392.881	351.54
393.26	346.35
393.639	363.97
394.018	358.78
394.397	349.51
394.776	369.17
395.155	368.49
395.534	368.72
395.913	365.33
396.292	356.97
396.671	373.01
397.05	382.28
397.429	378.21
397.808	357.19
398.186	370.08
398.565	367.14
398.944	377.08
399.323	380.24
399.701	387.48
400.08	378.66
400.458	409.4
400.837	399
401.215	381.37
401.594	386.57
401.972	414.82
402.351	397.42
402.729	396.51
403.107	401.71
403.486	410.3
403.864	408.49
404.242	404.42
404.62	413.46
404.999	414.82
405.377	417.98
405.755	447.14
406.133	427.7
406.511	411.43
406.889	450.52
407.267	430.86
407.645	464.08
408.023	443.52
408.401	420.7
408.779	460.02
409.156	457.3
409.534	468.83
409.912	489.39
410.29	469.28
410.667	474.48
411.045	501.37
411.422	488.26
411.8	487.59
412.178	490.75
412.555	505.44
412.933	498.66
413.31	509.05
413.687	525.33
414.065	517.42
414.442	514.7
414.819	536.4
415.197	553.57
415.574	562.84
415.951	563.06
416.328	584.31
416.705	570.3
417.082	571.43
417.46	592.89
417.837	592.44
418.214	598.54
418.591	595.61
418.967	591.54
419.344	597.87
419.721	620.24
420.098	620.69
420.475	608.71
420.852	618.43
421.228	651.65
421.605	649.84
421.982	646
422.358	667.92
422.735	683.29
423.111	680.58
423.488	704.76
423.864	702.72
424.241	744.08
424.617	726.9
424.994	710.86
425.37	757.41
425.746	764.41
426.123	747.24
426.499	754.92
426.875	787.92
427.251	801.48
427.627	822.04
428.003	801.7
428.379	818.42
428.756	801.93
429.132	827.24
429.507	837.41
429.883	866.11
430.259	874.24
430.635	862.94
431.011	895.03
431.387	884.41
431.763	922.83
432.138	885.54
432.514	932.32
432.89	935.26
433.265	974.58
433.641	977.52
434.016	967.8
434.392	1008.7
434.767	1059.32
435.143	1028.81
435.518	1068.14
435.894	1073.79
436.269	1063.84
436.644	1092.32
437.02	1111.3
437.395	1115.82
437.77	1150.85
438.145	1138.19
438.52	1183.39
438.895	1174.12
439.271	1166.21
439.646	1198.53
440.021	1230.17
440.395	1252.09
440.77	1231.3
441.145	1283.05
441.52	1298.64
441.895	1268.36
442.27	1301.35
442.645	1317.39
443.019	1324.4
443.394	1333.44
443.769	1324.63
444.143	1360.56
444.518	1364.4
444.892	1362.14
445.267	1378.18
445.641	1435.58
446.016	1391.97
446.39	1446.2
446.764	1443.49
447.139	1424.96
447.513	1446.43
447.887	1436.71
448.262	1459.09
448.636	1469.48
449.01	1501.8
449.384	1536.82
449.758	1505.64
450.132	1532.3
450.506	1544.73
450.88	1500.44
451.254	1555.81
451.628	1557.61
452.002	1577.05
452.376	1588.35
452.75	1599.42
453.123	1632.64
453.497	1645.75
453.871	1683.49
454.244	1677.39
454.618	1702.02
454.992	1698.85
455.365	1682.36
455.739	1717.38
456.112	1787.66
456.486	1746.31
456.859	1781.79
457.232	1796.7
457.606	1804.39
457.979	1838.74
458.352	1848.45
458.725	1905.85
459.099	1905.4
459.472	1916.93
459.845	1913.54
460.218	1951.05
460.591	1975.23
460.964	1951.05
461.337	2053.87
461.71	2054.78
462.083	2110.82
462.456	2081.89
462.829	2115.11
463.201	2125.28
463.574	2127.09
463.947	2142.46
464.32	2219.97
464.692	2197.37
465.065	2222.23
465.438	2244.6
465.81	2286.86
466.183	2306.07
466.555	2347.88
466.928	2341.1
467.3	2354.66
467.672	2402.56
468.045	2428.1
468.417	2441.21
468.789	2461.09
469.161	2487.31
469.534	2547.19
469.906	2550.58
470.278	2614.99
470.65	2598.94
471.022	2636.68
471.394	2696.12
471.766	2720.52
472.138	2729.79
472.51	2781.31
472.882	2801.2
473.253	2835.55
473.625	2923.23
473.997	2926.17
474.369	2920.97
474.74	2962.1
475.112	3061.76
475.484	3060.17
475.855	3132.71
476.227	3123.9
476.598	3224.69
476.97	3229.66
477.341	3308.08
477.713	3322.31
478.084	3390.33
478.455	3458.81
478.827	3456.55
479.198	3501.29
479.569	3511.24
479.94	3651.57
480.311	3644.79
480.682	3697.9
481.053	3792.36
481.424	3831.45
481.795	3910.55
482.166	3927.95
482.537	3965.23
482.908	4065.12
483.279	4098.11
483.65	4106.7
484.021	4180.14
484.391	4224.89
484.762	4260.82
485.133	4333.36
485.503	4354.6
485.874	4439.35
486.244	4431.44
486.615	4528.16
486.985	4541.49
487.356	4611.77
487.726	4662.62
488.097	4746.01
488.467	4714.82
488.837	4837.08
489.207	4873.91
489.578	4944.19
489.948	4976.06
490.318	5028.71
490.688	5038.2
491.058	5066.22
491.428	5147.8
491.798	5190.51
492.168	5250.85
492.538	5263.05
492.908	5351.41
493.278	5364.52
493.648	5417.4
494.017	5461.24
494.387	5529.94
494.757	5523.16
495.126	5623.95
495.496	5612.65
495.866	5561.8
496.235	5666.66
496.605	5700.78
496.974	5723.83
497.344	5727
497.713	5821.23
498.082	5851.96
498.452	5860.1
498.821	5835.92
499.19	5893.09
499.559	5980.32
499.928	5966.99
500.298	6019.19
500.667	6022.58
501.036	6028.91
501.405	6112.75
501.774	6057.16
502.143	6083.6
502.512	6097.16
502.88	6179.41
503.249	6127.89
503.618	6188.45
503.987	6212.18
504.356	6248.79
504.724	6215.57
505.093	6226.19
505.462	6284.5
505.83	6338.73
506.199	6367.66
506.567	6363.14
506.936	6392.06
507.304	6462.34
507.672	6392.74
508.041	6422.12
508.409	6482.68
508.777	6534.43
509.145	6600.65
509.514	6549.12
509.882	6575.11
510.25	6527.88
510.618	6558.84
510.986	6538.5
511.354	6621.44
511.722	6683.81
512.09	6691.72
512.458	6707.54
512.826	6738.04
513.193	6757.03
513.561	6707.76
513.929	6740.98
514.297	6770.58
514.664	6804.03
515.032	6795.89
515.4	6863.46
515.767	6847.64
516.135	6824.59
516.502	6747.08
516.869	6820.98
517.237	6917.02
517.604	6822.56
517.972	6946.4
518.339	6868.66
518.706	6902.33
519.073	6903.46
519.44	6874.99
519.808	6952.05
520.175	6920.19
520.542	6963.8
520.909	7015.1
521.276	6950.69
521.643	7022.1
522.009	6932.16
522.376	7041.76
522.743	7010.13
523.11	7077.24
523.477	7073.18
523.843	7118.82
524.21	7138.71
524.577	7183
524.943	7115.89
525.31	7136.45
525.676	7126.73
526.043	7189.33
526.409	7199.95
526.776	7207.41
527.142	7193.62
527.508	7254.64
527.874	7216.22
528.241	7227.97
528.607	7261.65
528.973	7274.3
529.339	7295.09
529.705	7303.45
530.071	7373.28
530.437	7301.42
530.803	7305.94
531.169	7321.08
531.535	7288.76
531.901	7283.34
532.267	7304.36
532.632	7305.71
532.998	7284.7
533.364	7285.83
533.73	7311.81
534.095	7308.65
534.461	7291.47
534.826	7316.33
535.192	7305.94
535.557	7325.15
535.923	7237.24
536.288	7279.05
536.653	7291.93
537.019	7247.18
537.384	7237.24
537.749	7206.05
538.114	7184.59
538.479	7219.39
538.845	7199.73
539.21	7183
539.575	7172.38
539.94	7213.06
540.305	7213.51
540.67	7122.89
541.034	7141.65
541.399	7114.53
541.764	7114.3
542.129	7177.35
542.494	7121.54
542.858	7159.28
543.223	7050.8
543.587	7138.26
543.952	7068.43
544.316	7102.1
544.681	7077.7
545.045	7027.3
545.41	7072.27
545.774	7010.13
546.138	7047.87
546.503	6966.96
546.867	6969.45
547.231	6980.97
547.595	6985.72
547.959	6990.92
548.324	6893.29
548.688	6919.96
549.052	6977.58
549.416	6933.74
549.779	6926.96
550.143	6932.84
550.507	6920.86
550.871	6933.97
551.235	6870.02
551.599	6864.14
551.962	6884.03
552.326	6846.29
552.689	6832.5
553.053	6800.87
553.417	6860.07
553.78	6860.3
554.143	6811.94
554.507	6825.72
554.87	6862.79
555.234	6837.02
555.597	6800.19
555.96	6797.48
556.323	6776.46
556.686	6798.38
557.05	6832.73
557.413	6787.99
557.776	6792.05
558.139	6823.01
558.502	6753.18
558.865	6763.13
559.228	6782.79
559.59	6824.59
559.953	6800.19
560.316	6847.64
560.679	6823.01
561.041	6876.8
561.404	6856.68
561.767	6850.81
562.129	6763.58
562.492	6841.09
562.854	6879.28
563.217	6895.1
563.579	6841.32
563.941	6875.21
564.304	6849.68
564.666	6947.76
565.028	6875.44
565.39	6883.8
565.753	6969.9
566.115	6959.28
566.477	6936
566.839	6921.99
567.201	7062.55
567.563	7023.69
567.925	7049.9
568.287	7050.58
568.648	7077.24
569.01	7074.08
569.372	7053.97
569.734	7103.01
570.095	7150.46
570.457	7143.68
570.819	7157.02
571.18	7159.73
571.542	7132.84
571.903	7131.71
572.265	7234.98
572.626	7191.59
572.987	7189.78
573.349	7246.73
573.71	7221.19
574.071	7238.59
574.432	7284.7
574.794	7346.84
575.155	7335.77
575.516	7293.06
575.877	7289.44
576.238	7324.47
576.599	7356.11
576.96	7373.28
577.32	7367.86
577.681	7431.81
578.042	7483.33
578.403	7396.33
578.763	7446.5
579.124	7502.54
579.485	7465.71
579.845	7564.24
580.206	7514.75
580.566	7497.8
580.927	7545.03
581.287	7592.26
581.648	7517.46
582.008	7585.93
582.368	7523.56
582.728	7589.09
583.089	7634.29
583.449	7615.99
583.809	7622.99
584.169	7648.3
584.529	7678.81
584.889	7704.12
585.249	7672.71
585.609	7643.56
585.969	7707.74
586.329	7646.49
586.688	7731.24
587.048	7731.24
587.408	7729.43
587.768	7670.67
588.127	7743.21
588.487	7681.3
588.846	7796.77
589.206	7772.37
589.565	7734.4
589.925	7837.9
590.284	7796.55
590.643	7814.85
591.003	7831.35
591.362	7822.99
591.721	7846.71
592.08	7865.25
592.44	7968.29
592.799	7866.83
593.158	7877.45
593.517	7862.08
593.876	7872.93
594.235	7883.32
594.593	7896.43
594.952	7972.81
595.311	7949.54
595.67	7920.84
596.029	7967.16
596.387	7979.82
596.746	7995.41
597.104	7951.8
597.463	7982.08
597.822	8026.6
598.18	7978.91
598.538	7978.24
598.897	8024.11
599.255	7918.8
599.613	8064.34
599.972	8036.99
600.33	8049.42
600.688	8026.37
601.046	8034.28
601.404	8018.46
601.762	8070.66
602.12	8126.48
602.478	8113.83
602.836	8074.51
603.194	8095.52
603.552	8124.22
603.91	8029.08
604.268	8139.59
604.625	8066.37
604.983	8088.52
605.341	8042.87
605.698	8077.22
606.056	8141.4
606.413	8133.94
606.771	8145.69
607.128	8204.67
607.485	8108.18
607.843	8151.11
608.2	8121.51
608.557	8190.21
608.914	8154.96
609.272	8183.65
609.629	8200.15
609.986	8271.56
610.343	8155.86
610.7	8229.76
611.057	8244.22
611.414	8196.08
611.771	8259.59
612.127	8264.1
612.484	8286.93
612.841	8332.35
613.198	8230.89
613.554	8248.06
613.911	8252.58
614.267	8323.76
614.624	8290.77
614.98	8284.22
615.337	8345.68
615.693	8287.38
616.05	8351.56
616.406	8355.85
616.762	8386.14
617.118	8377.1
617.475	8370.09
617.831	8352.01
618.187	8406.47
618.543	8374.38
618.899	8405.12
619.255	8447.38
619.611	8392.24
619.967	8379.58
620.323	8479.47
620.678	8427.04
621.034	8425.91
621.39	8413.93
621.746	8415.51
622.101	8447.6
622.457	8390.2
622.812	8414.38
623.168	8455.74
623.523	8447.6
623.879	8401.73
624.234	8401.05
624.589	8467.94
624.945	8385.23
625.3	8380.71
625.655	8413.71
626.01	8427.94
626.365	8457.55
626.72	8401.95
627.075	8396.98
627.43	8414.61
627.785	8387.04
628.14	8403.99
628.495	8451.44
628.85	8428.17
629.205	8384.1
629.559	8405.57
629.914	8338.91
630.269	8367.15
630.623	8307.49
630.978	8292.35
631.332	8319.92
631.687	8324.89
632.041	8282.41
632.396	8328.51
632.75	8321.05
633.104	8328.96
633.459	8309.08
633.813	8288.96
634.167	8329.87
634.521	8235.86
634.875	8263.2
635.229	8291.45
635.583	8291.9
635.937	8242.41
636.291	8216.65
636.645	8218.68
636.999	8185.69
637.352	8216.65
637.706	8159.25
638.06	8209.42
638.413	8140.04
638.767	8096.65
639.121	8152.92
639.474	8147.05
639.828	8082.19
640.181	8170.77
640.534	8138.46
640.888	8135.07
641.241	8036.99
641.594	8061.4
641.947	8137.33
642.301	8060.49
642.654	8069.99
643.007	8084
643.36	8087.16
643.713	8104.79
644.066	8046.26
644.419	7985.92
644.771	8006.03
645.124	7935.75
645.477	7921.06
645.83	7800.84
646.182	7807.17
646.535	7799.03
646.888	7857.56
647.24	7793.61
647.593	7876.09
647.945	7753.38
648.298	7767.17
648.65	7745.47
649.002	7725.59
649.355	7788.64
649.707	7792.03
650.059	7774.85
650.411	7896.88
650.763	7888.75
651.115	8012.59
651.467	7975.52
651.819	7891.69
652.171	7931.23
652.523	7862.76
652.875	7916.09
653.227	7890.78
653.578	7938.92
653.93	7928.75
654.282	7895.98
654.633	7890.33
654.985	7877
655.337	7940.05
655.688	7947.28
656.039	7917.45
656.391	7888.75
656.742	7931.01
657.094	7897.11
657.445	7989.99
657.796	7898.24
658.147	7870.89
658.498	7890.56
658.849	7873.38
659.2	7938.01
659.551	7926.03
659.902	7892.36
660.253	7909.31
660.604	7956.54
660.955	7841.52
661.306	7940.95
661.656	7942.98
662.007	7915.19
662.358	7918.8
662.708	7935.53
663.059	7912.48
663.409	7875.64
663.76	7966.26
664.11	7973.94
664.461	7956.09
664.811	7976.88
665.161	7915.87
665.511	7931.01
665.862	7914.96
666.212	7929.42
666.562	7966.49
666.912	7891.69
667.262	7953.15
667.612	7938.01
667.962	7927.84
668.312	7987.05
668.662	7963.55
669.011	7919.03
669.361	7925.36
669.711	7942.53
670.06	7951.12
670.41	7914.74
670.76	7867.05
671.109	7929.65
671.459	7938.01
671.808	7959.25
672.157	7966.49
672.507	7830.67
672.856	7866.38
673.205	7902.08
673.554	7878.8
673.904	7836.32
674.253	7846.94
674.602	7818.47
674.951	7729.88
675.3	7701.63
675.649	7811.46
675.998	7803.78
676.346	7845.13
676.695	7834.29
677.044	7799.03
677.393	7814.85
677.741	7750.45
678.09	7790.44
678.438	7794.29
678.787	7787.28
679.135	7778.69
679.484	7747.73
679.832	7782.31
680.181	7678.36
680.529	7741.18
680.877	7690.11
681.225	7679.71
681.573	7710.45
681.922	7642.88
682.27	7687.4
682.618	7620.51
682.966	7591.13
683.314	7611.92
683.661	7625.93
684.009	7491.24
684.357	7524.24
684.705	7551.36
685.053	7562.88
685.4	7532.37
685.748	7568.76
686.095	7464.58
686.443	7413.05
686.79	7397.91
687.138	7495.99
687.485	7434.97
687.832	7386.16
688.18	7421.19
688.527	7367.63
688.874	7382.55
689.221	7290.8
689.568	7292.38
689.915	7266.84
690.262	7228.43
690.609	7241.76
690.956	7255.09
691.303	7139.84
691.65	7218.93
691.997	7156.11
692.344	7096
692.69	7140.07
693.037	7150.69
693.383	7028.88
693.73	7038.83
694.077	7012.84
694.423	7075.66
694.769	6932.61
695.116	7015.78
695.462	6954.99
695.808	6943.01
696.155	6913.86
696.501	6871.37
696.847	6850.36
697.193	6802
697.539	6883.58
697.885	6827.53
698.231	6717.25
698.577	6757.48
698.923	6786.4
699.269	6766.74
699.614	6666.18
699.96	6630.02
700.306	6660.08
700.651	6645.39
700.997	6627.54
701.342	6547.31
701.688	6531.95
702.033	6560.19
702.379	6546.41
702.724	6526.3
703.069	6492.63
703.415	6442.91
703.76	6430.48
704.105	6383.7
704.45	6387.77
704.795	6395.23
705.14	6397.26
705.485	6307.09
705.83	6364.49
706.175	6293.31
706.52	6281.11
706.865	6274.1
707.209	6283.82
707.554	6205.63
707.899	6260.77
708.243	6206.08
708.588	6234.78
708.932	6155.23
709.277	6136.93
709.621	6131.51
709.966	6111.62
710.31	6119.98
710.654	6079.76
710.998	6078.17
711.342	6063.71
711.687	6079.53
712.031	5992.3
712.375	5956.59
712.719	6046.54
713.063	6032.3
713.407	6021.68
713.75	6025.75
714.094	5966.31
714.438	5962.02
714.782	5985.07
715.125	5943.04
715.469	5900.33
715.812	5858.07
716.156	5907.56
716.499	5903.04
716.843	5856.71
717.186	5842.02
717.53	5885.41
717.873	5911.62
718.216	5886.77
718.559	5830.95
718.902	5835.69
719.246	5836.6
719.589	5812.42
719.932	5830.04
720.275	5776.26
720.617	5806.32
720.96	5749.14
721.303	5764.96
721.646	5729.71
721.989	5752.76
722.331	5746.43
722.674	5745.75
723.016	5736.26
723.359	5767.22
723.701	5767.45
724.044	5723.83
724.386	5736.04
724.729	5734.23
725.071	5688.58
725.413	5729.93
725.755	5769.93
726.097	5706.88
726.439	5708.47
726.782	5665.53
727.124	5641.57
727.465	5636.83
727.807	5653.55
728.149	5632.31
728.491	5637.51
728.833	5635.25
729.175	5661.24
729.516	5611.75
729.858	5656.94
730.199	5635.93
730.541	5694.23
730.882	5574.23
731.224	5623.04
731.565	5601.58
731.906	5628.92
732.248	5614.68
732.589	5632.99
732.93	5596.6
733.271	5632.99
733.612	5599.77
733.953	5624.17
734.294	5634.34
734.635	5554.57
734.976	5651.29
735.317	5663.04
735.658	5642.25
735.999	5630.95
736.339	5593.89
736.68	5640.67
737.021	5617.62
737.361	5587.34
737.702	5664.17
738.042	5640.9
738.383	5628.47
738.723	5691.07
739.063	5658.3
739.404	5661.46
739.744	5659.43
740.084	5657.62
740.424	5681.57
740.764	5705.53
741.104	5738.97
741.444	5692.65
741.784	5716.6
742.124	5707.56
742.464	5698.07
742.804	5735.81
743.143	5734.23
743.483	5766.77
743.823	5785.3
744.162	5802.7
744.502	5816.26
744.841	5866.43
745.181	5821.46
745.52	5835.24
745.86	5949.36
746.199	5922.47
746.538	5903.94
746.877	5945.3
747.216	6019.42
747.556	6075.24
747.895	6078.4
748.234	6111.62
748.573	6078.17
748.911	6176.02
749.25	6222.12
749.589	6254.67
749.928	6300.09
750.267	6333.76
750.605	6391.84
750.944	6383.25
751.283	6396.58
751.621	6519.97
751.96	6528.56
752.298	6634.77
752.636	6689.91
752.975	6701.89
753.313	6768.1
753.651	6865.27
753.989	6919.73
754.327	7032.72
754.666	7069.56
755.004	7172.83
755.342	7256.67
755.679	7403.34
756.017	7494.86
756.355	7565.14
756.693	7662.09
757.031	7770.11
757.368	7784.57
757.706	7916.77
758.044	8003.77
758.381	8173.03
758.719	8227.72
759.056	8373.93
759.394	8457.55
759.731	8520.6
760.068	8681.95
760.405	8796.52
760.743	8829.74
761.08	8974.37
761.417	9043.52
761.754	9192.44
762.091	9326.45
762.428	9401.02
762.765	9441.47
763.102	9634.01
763.438	9714.91
763.775	9851.41
764.112	9992.42
764.449	10104.73
764.785	10176.82
765.122	10259.98
765.458	10375.91
765.795	10442.13
766.131	10657.49
766.467	10729.8
766.804	10745.4
767.14	10775.9
767.476	10978.61
767.812	11001.89
768.148	11189
768.485	11245.04
768.821	11297.7
769.157	11402.55
769.492	11500.86
