Data from hue_100_FLMS001491_00031.txt Node
Date: Tue Feb 07 17:03:03 GMT 2017
User: dcchb
Spectrometer: FLMS00149
Trigger mode: 0
Integration Time (sec): 2.000000E-2
Scans to average: 10
Electric dark correction enabled: true
Nonlinearity correction enabled: false
Boxcar width: 0
XAxis mode: Wavelengths
Number of Pixels in Spectrum: 2048
>>>>>Begin Spectral Data<<<<<
341.393	-1.03
341.776	-1.03
342.16	-1.03
342.543	-67.7
342.927	-63.4
343.31	-52.56
343.693	-56.62
344.077	-72.67
344.46	-50.3
344.843	-68.83
345.226	-48.04
345.61	-37.87
345.993	-40.35
346.376	-14.36
346.759	18.18
347.142	36.26
347.525	44.84
347.908	65.18
348.291	79.87
348.674	98.18
349.057	99.08
349.44	120.1
349.823	115.58
350.206	163.71
350.588	196.25
350.971	215.01
351.354	207.33
351.737	227.21
352.119	254.78
352.502	275.12
352.884	274.44
353.267	288.9
353.65	301.33
354.032	286.87
354.414	293.42
354.797	321.22
355.179	326.87
355.562	313.54
355.944	329.58
356.326	331.84
356.709	361.45
357.091	327.77
357.473	344.5
357.855	321.45
358.238	325.74
358.62	351.73
359.002	356.47
359.384	347.66
359.766	356.93
360.148	335.23
360.53	340.88
360.912	336.36
361.294	353.31
361.676	327.55
362.057	326.42
362.439	346.53
362.821	335.46
363.203	347.66
363.584	334.78
363.966	327.55
364.348	321.67
364.729	321.9
365.111	322.8
365.493	331.84
365.874	344.95
366.256	313.08
366.637	332.07
367.019	330.49
367.4	331.62
367.781	313.08
368.163	322.58
368.544	318.28
368.925	314.21
369.306	319.41
369.688	306.08
370.069	312.63
370.45	314.67
370.831	306.98
371.212	307.21
371.593	332.75
371.974	330.03
372.355	322.12
372.736	324.84
373.117	310.37
373.498	325.29
373.879	317.6
374.26	316.47
374.641	310.37
375.021	330.71
375.402	335.01
375.783	328.68
376.163	336.36
376.544	349.69
376.925	334.33
377.305	343.82
377.686	328.68
378.066	345.85
378.447	317.15
378.827	360.99
379.208	331.84
379.588	349.92
379.968	336.36
380.349	348.11
380.729	348.56
381.109	348.79
381.489	350.15
381.87	355.34
382.25	359.86
382.63	356.02
383.01	364.38
383.39	336.36
383.77	373.87
384.15	346.53
384.53	352.86
384.91	366.42
385.29	355.57
385.67	368.22
386.049	396.7
386.429	371.84
386.809	376.59
387.189	393.99
387.568	378.85
387.948	367.77
388.328	376.81
388.707	383.37
389.087	389.24
389.466	386.3
389.846	379.98
390.225	386.08
390.605	402.12
390.984	401.9
391.363	383.82
391.743	398.73
392.122	386.76
392.501	392.63
392.881	413.42
393.26	393.53
393.639	396.02
394.018	400.09
394.397	419.52
394.776	420.88
395.155	410.71
395.534	428.11
395.913	417.49
396.292	403.48
396.671	386.98
397.05	401.44
397.429	419.3
397.808	429.47
398.186	424.72
398.565	419.52
398.944	419.07
399.323	402.12
399.701	435.79
400.08	444.15
400.458	435.57
400.837	430.6
401.215	441.9
401.594	441.67
401.972	459.52
402.351	452.74
402.729	429.69
403.107	488.22
403.486	475.79
403.864	474.66
404.242	472.18
404.62	472.4
404.999	468.34
405.377	479.86
405.755	460.65
406.133	475.57
406.511	461.33
406.889	473.98
407.267	481.44
407.645	479.18
408.023	511.27
408.401	473.08
408.779	503.14
409.156	501.55
409.534	515.79
409.912	496.58
410.29	521.22
410.667	514.89
411.045	506.07
411.422	530.48
411.8	535.68
412.178	530.93
412.555	555.34
412.933	547.66
413.31	543.81
413.687	582.68
414.065	572.74
414.442	585.85
414.819	567.77
415.197	543.59
415.574	581.33
415.951	586.07
416.328	607.31
416.705	563.02
417.082	565.51
417.46	592.85
417.837	583.81
418.214	599.63
418.591	610.93
418.967	604.38
419.344	627.88
419.721	630.82
420.098	611.16
420.475	632.4
420.852	628.78
421.228	665.17
421.605	643.47
421.982	643.02
422.358	638.05
422.735	656.8
423.111	673.53
423.488	656.58
423.864	663.58
424.241	684.6
424.617	668.56
424.994	693.64
425.37	680.53
425.746	680.76
426.123	700.19
426.499	707.65
426.875	719.18
427.251	729.35
427.627	722.11
428.003	714.66
428.379	744.03
428.756	720.98
429.132	752.85
429.507	765.5
429.883	751.49
430.259	762.79
430.635	761.21
431.011	790.81
431.387	798.5
431.763	844.37
432.138	820.42
432.514	851.38
432.89	808.44
433.265	827.87
433.641	842.56
434.016	872.84
434.392	859.96
434.767	899.51
435.143	882.34
435.518	877.59
435.894	904.93
436.269	911.71
436.644	893.41
437.02	902.45
437.395	929.11
437.77	930.92
438.145	936.35
438.52	946.51
438.895	952.62
439.271	958.27
439.646	949.68
440.021	962.79
440.395	1000.98
440.77	996.23
441.145	998.72
441.52	1009.11
441.895	1011.37
442.27	1033.52
442.645	1060.86
443.019	1037.81
443.394	1063.57
443.769	1071.71
444.143	1033.29
444.518	1044.14
444.892	1063.12
445.267	1086.85
445.641	1078.26
446.016	1072.16
446.39	1091.6
446.764	1115.78
447.139	1105.15
447.513	1113.06
447.887	1149.9
448.262	1116.68
448.636	1141.54
449.01	1129.11
449.384	1173.63
449.758	1201.42
450.132	1196.23
450.506	1194.19
450.88	1229.22
451.254	1171.82
451.628	1216.56
452.002	1214.98
452.376	1224.02
452.75	1254.3
453.123	1268.77
453.497	1284.36
453.871	1289.33
454.244	1318.03
454.618	1326.84
454.992	1349.22
455.365	1346.05
455.739	1394.19
456.112	1374.3
456.486	1391.02
456.859	1401.64
457.232	1440.96
457.606	1422.89
457.979	1451.13
458.352	1505.37
458.725	1489.55
459.099	1511.25
459.472	1554.41
459.845	1519.38
460.218	1559.15
460.591	1597.57
460.964	1617.01
461.337	1628.08
461.71	1651.81
462.083	1692.03
462.456	1702.65
462.829	1686.83
463.201	1725.48
463.574	1745.14
463.947	1791.24
464.32	1797.34
464.692	1817.23
465.065	1823.1
465.438	1885.92
465.81	1912.59
466.183	1907.17
466.555	1958.24
466.928	2001.18
467.3	2003.21
467.672	2038.24
468.045	2066.49
468.417	2111.68
468.789	2134.05
469.161	2170.44
469.534	2182.41
469.906	2234.16
470.278	2280.26
470.65	2315.97
471.022	2357.33
471.394	2441.62
471.766	2454.72
472.138	2485.91
472.51	2547.83
472.882	2620.37
473.253	2647.49
473.625	2688.39
473.997	2749.41
474.369	2788.73
474.74	2836.18
475.112	2922.96
475.484	2997.31
475.855	3035.95
476.227	3103.52
476.598	3191.88
476.97	3272.33
477.341	3322.5
477.713	3415.83
478.084	3461.93
478.455	3614.47
478.827	3643.62
479.198	3787.34
479.569	3802.94
479.94	3975.14
480.311	4019.65
480.682	4157.28
481.053	4238.86
481.424	4382.58
481.795	4452.86
482.166	4558.4
482.537	4705.29
482.908	4818.5
483.279	4933.3
483.65	5129.68
484.021	5243.8
484.391	5335.78
484.762	5461.42
485.133	5578.71
485.503	5704.58
485.874	5874.97
486.244	5973.95
486.615	6158.13
486.985	6231.8
487.356	6487.16
487.726	6615.07
488.097	6780.71
488.467	6898.9
488.837	7094.6
489.207	7276.07
489.578	7377.53
489.948	7546.57
490.318	7795.6
490.688	7833.11
491.058	8086.21
491.428	8302.48
491.798	8393.1
492.168	8656.59
492.538	8772.07
492.908	8930.94
493.278	9118.96
493.648	9174.55
494.017	9430.81
494.387	9580.19
494.757	9709.45
495.126	9948.09
495.496	9923.68
495.866	10176.55
496.235	10335.87
496.605	10454.97
496.974	10619.93
497.344	10736.99
497.713	10821.06
498.082	11072.35
498.452	11222.63
498.821	11379.23
499.19	11367.94
499.559	11576.97
499.928	11688.83
500.298	11822.61
500.667	11988.94
501.036	12038.2
501.405	12232.09
501.774	12264.41
502.143	12381.24
502.512	12618.3
502.88	12732.65
503.249	12776.94
503.618	12920.44
503.987	13029.13
504.356	13145.06
504.724	13297.6
505.093	13244.5
505.462	13419.18
505.83	13517.03
506.199	13644.03
506.567	13866.17
506.936	13790.02
507.304	14025.94
507.672	14073.85
508.041	14223
508.409	14208.09
508.777	14357.46
509.145	14515.42
509.514	14415.54
509.882	14695.53
510.25	14728.3
510.618	14785.92
510.986	14839.03
511.354	14975.75
511.722	15048.06
512.09	15230.88
512.458	15183.2
512.826	15331
513.193	15406.93
513.561	15468.39
513.929	15486.92
514.297	15658.44
514.664	15601.5
515.032	15723.08
515.4	15906.57
515.767	15841.26
516.135	15975.27
516.502	15903.41
516.869	16144.08
517.237	16095.04
517.604	16118.55
517.972	16197.19
518.339	16282.16
518.706	16337.52
519.073	16337.97
519.44	16382.72
519.808	16525.77
520.175	16566.89
520.542	16717.85
520.909	16804.18
521.276	16670.62
521.643	16869.26
522.009	16916.72
522.376	16914.68
522.743	17011.4
523.11	17116.26
523.477	17263.37
523.843	17293.88
524.21	17383.14
524.577	17458.62
524.943	17436.02
525.31	17550.82
525.676	17692.29
526.043	17591.27
526.409	17640.76
526.776	17831.27
527.142	17722.34
527.508	17815.9
527.874	17859.74
528.241	17970.47
528.607	17939.74
528.973	17970.25
529.339	18003.02
529.705	18089.57
530.071	18166.4
530.437	18153.75
530.803	18311.26
531.169	18231.71
531.535	18216.8
531.901	18170.47
532.267	18195.1
532.632	18331.37
532.998	18308.09
533.364	18314.19
533.73	18326.85
534.095	18275.55
534.461	18308.77
534.826	18445.94
535.192	18340.86
535.557	18404.36
535.923	18329.56
536.288	18354.42
536.653	18403.68
537.019	18302.67
537.384	18293.86
537.749	18290.92
538.114	18281.65
538.479	18250.24
538.845	18287.3
539.21	18245.72
539.575	18327.07
539.94	18318.94
540.305	18284.36
540.67	18116.46
541.034	18206.85
541.399	18185.61
541.764	18152.39
542.129	18095.89
542.494	18135.22
542.858	18204.59
543.223	18152.16
543.587	18328.43
543.952	18046.86
544.316	17953.53
544.681	18018.83
545.045	18022.9
545.41	18062.9
545.774	17941.1
546.138	17872.4
546.503	17870.14
546.867	17906.07
547.231	17812.74
547.595	17890.25
547.959	17810.25
548.324	17826.3
548.688	17684.15
549.052	17734.77
549.416	17746.75
549.779	17724.15
550.143	17652.29
550.507	17743.14
550.871	17680.31
551.235	17661.78
551.599	17706.98
551.962	17699.07
552.326	17673.08
552.689	17656.58
553.053	17460.43
553.417	17552.63
553.78	17766.86
554.143	17529.13
554.507	17701.55
554.87	17537.49
555.234	17736.58
555.597	17592.63
555.96	17576.59
556.323	17608.22
556.686	17537.26
557.05	17664.72
557.413	17548.56
557.776	17455.69
558.139	17667.2
558.502	17655.68
558.865	17613.65
559.228	17683.25
559.59	17671.5
559.953	17666.75
560.316	17826.07
560.679	17808.22
561.041	17852.28
561.404	17793.3
561.767	17852.28
562.129	17725.28
562.492	17884.6
562.854	17837.6
563.217	17950.81
563.579	17838.27
563.941	17977.71
564.304	17920.53
564.666	17977.25
565.028	17938.16
565.39	17967.99
565.753	18064.93
566.115	18059.06
566.477	18201.65
566.839	18034.65
567.201	18227.64
567.563	18145.16
567.925	18267.42
568.287	18226.96
568.648	18254.76
569.01	18194.2
569.372	18371.82
569.734	18304.02
570.095	18386.06
570.457	18461.53
570.819	18373.18
571.18	18441.2
571.542	18481.19
571.903	18643.22
572.265	18624.69
572.626	18664.69
572.987	18677.8
573.349	18654.07
573.71	18600.29
574.071	18681.42
574.432	18768.87
574.794	18704.69
575.155	18794.18
575.516	18668.08
575.877	18738.59
576.238	18701.3
576.599	18727.06
576.96	18800.06
577.32	18651.13
577.681	18788.76
578.042	18830.11
578.403	18860.85
578.763	18898.59
579.124	18861.52
579.485	18889.77
579.845	18959.83
580.206	18941.07
580.566	18915.76
580.927	18891.13
581.287	18997.57
581.648	18802.09
582.008	18901.75
582.368	18992.14
582.728	18867.85
583.089	18837.34
583.449	18897.23
583.809	18896.78
584.169	18883.44
584.529	18824.69
584.889	18997.11
585.249	18809.1
585.609	18704.92
585.969	18846.38
586.329	18829.89
586.688	18797.34
587.048	18646.16
587.408	18687.97
587.768	18670.57
588.127	18715.09
588.487	18643.9
588.846	18826.27
589.206	18679.83
589.565	18701.75
589.925	18817.46
590.284	18578.14
590.643	18702.21
591.003	18657.01
591.362	18751.24
591.721	18666.73
592.08	18724.58
592.44	18789.89
592.799	18714.18
593.158	18687.74
593.517	18732.26
593.876	18689.1
594.235	18636.9
594.593	18662.88
594.952	18712.38
595.311	18600.74
595.67	18573.4
596.029	18775.88
596.387	18758.7
596.746	18734.75
597.104	18597.12
597.463	18586.73
597.822	18749.66
598.18	18564.13
598.538	18532.49
598.897	18657.24
599.255	18491.36
599.613	18800.73
599.972	18609.1
600.33	18638.93
600.688	18565.49
601.046	18729.78
601.404	18633.51
601.762	18720.28
602.12	18729.78
602.478	18742.43
602.836	18658.37
603.194	18595.77
603.552	18672.15
603.91	18515.54
604.268	18618.14
604.625	18654.98
604.983	18682.77
605.341	18553.51
605.698	18651.36
606.056	18686.61
606.413	18626.95
606.771	18737.91
607.128	18678.48
607.485	18673.73
607.843	18649.33
608.2	18771.36
608.557	18825.59
608.914	18780.62
609.272	18732.71
609.629	18835.08
609.986	18848.87
610.343	18764.35
610.7	18912.6
611.057	18920.51
611.414	18788.08
611.771	18866.5
612.127	19063.33
612.484	18923.44
612.841	18922.54
613.198	18961.41
613.554	18917.12
613.911	19029.43
614.267	18946.27
614.624	19028.53
614.98	19028.75
615.337	19110.33
615.693	19025.59
616.05	19048.41
616.406	19079.82
616.762	19050.67
617.118	19122.53
617.475	19083.89
617.831	19115.53
618.187	19144.45
618.543	19152.36
618.899	19212.48
619.255	19150.56
619.611	19234.4
619.967	19242.98
620.323	19292.02
620.678	19264.68
621.034	19193.49
621.39	19232.14
621.746	19239.59
622.101	19397.33
622.457	19227.39
622.812	19240.5
623.168	19267.84
623.523	19315.07
623.879	19323.66
624.234	19272.13
624.589	19335.86
624.945	19254.28
625.3	19291.8
625.655	19249.54
626.01	19256.77
626.365	19289.76
626.72	19292.02
627.075	19248.63
627.43	19264.9
627.785	19180.39
628.14	19291.34
628.495	19214.06
628.85	19299.25
629.205	19073.27
629.559	19188.52
629.914	19138.13
630.269	19179.93
630.623	19150.33
630.978	18977.45
631.332	19133.16
631.687	19181.52
632.041	18941.75
632.396	19053.61
632.75	19010.9
633.104	19021.75
633.459	18924.8
633.813	18911.47
634.167	18890.68
634.521	18885.93
634.875	18965.02
635.229	18925.25
635.583	18864.24
635.937	18796.21
636.291	18738.36
636.645	18709.66
636.999	18650.23
637.352	18740.62
637.706	18600.51
638.06	18722.77
638.413	18633.96
638.767	18591.02
639.121	18757.35
639.474	18555.09
639.828	18583.11
640.181	18584.02
640.534	18667.4
640.888	18491.82
641.241	18507.18
641.594	18515.77
641.947	18505.83
642.301	18395.1
642.654	18558.03
643.007	18535.43
643.36	18483.68
643.713	18448.65
644.066	18510.57
644.419	18393.74
644.771	18242.78
645.124	18231.94
645.477	18087.08
645.83	18078.49
646.182	17870.82
646.535	17850.03
646.888	17863.81
647.24	17768.45
647.593	17949.23
647.945	17753.53
648.298	17759.86
648.65	17698.16
649.002	17683.7
649.355	17813.19
649.707	17722.12
650.059	17869.01
650.411	18004.82
650.763	18099.28
651.115	18194.42
651.467	18145.61
651.819	18189.45
652.171	18081.88
652.523	18041.88
652.875	18147.19
653.227	17970.02
653.578	18126.4
653.93	18102.67
654.282	18106.97
654.633	18083.24
654.985	18116.01
655.337	18073.97
655.688	18106.74
656.039	18137.93
656.391	17990.81
656.742	18102.9
657.094	18021.77
657.445	18189
657.796	18119.85
658.147	18137.48
658.498	18053.64
658.849	18094.09
659.2	18092.5
659.551	18065.39
659.902	18162.33
660.253	18103.8
660.604	18116.91
660.955	18117.36
661.306	18132.5
661.656	18092.05
662.007	18170.47
662.358	18126.4
662.708	18129.57
663.059	18112.62
663.409	18014.54
663.76	18163.01
664.11	18193.07
664.461	18171.15
664.811	18174.99
665.161	18178.83
665.511	18151.26
665.862	18005.95
666.212	18163.46
666.562	18039.85
666.912	18070.81
667.262	18128.44
667.612	18086.4
667.962	18129.79
668.312	18112.17
668.662	18144.48
669.011	18190.13
669.361	18147.87
669.711	18055.9
670.06	18139.06
670.41	18028.1
670.76	18149.23
671.109	18164.37
671.459	18062.45
671.808	18085.5
672.157	18119.62
672.507	17901.78
672.856	17943.36
673.205	17969.34
673.554	17997.82
673.904	17888.44
674.253	18028.33
674.602	18000.76
674.951	17683.48
675.3	17601.9
675.649	17779.74
675.998	17831.49
676.346	17772.51
676.695	17903.13
677.044	17775.45
677.393	17854.09
677.741	17806.18
678.09	17712.18
678.438	17576.81
678.787	17686.87
679.135	17709.92
679.484	17581.56
679.832	17596.92
680.181	17583.59
680.529	17610.71
680.877	17510.82
681.225	17532.52
681.573	17643.7
681.922	17429.92
682.27	17425.4
682.618	17388.79
682.966	17367.55
683.314	17431.05
683.661	17342.24
684.009	17246.43
684.357	17201.91
684.705	17170.27
685.053	17254.56
685.4	17116.71
685.748	17027.9
686.095	16981.12
686.443	16947.9
686.79	16928.47
687.138	16982.93
687.485	17003.49
687.832	16797.62
688.18	16906.55
688.527	16786.32
688.874	16765.31
689.221	16732.77
689.568	16700.68
689.915	16532.09
690.262	16672.2
690.609	16560.57
690.956	16445.09
691.303	16520.79
691.65	16355.83
691.997	16379.78
692.344	16246.68
692.69	16219.79
693.037	16245.32
693.383	16107.25
693.73	16143.86
694.077	15980.92
694.423	16045.78
694.769	15892.11
695.116	15821.6
695.462	15845.78
695.808	15754.26
696.155	15837.65
696.501	15737.76
696.847	15717.43
697.193	15533.02
697.539	15591.1
697.885	15402.18
698.231	15413.03
698.577	15425.91
698.923	15333.93
699.269	15314.05
699.614	15186.37
699.96	15197.21
700.306	15096.65
700.651	15025.92
700.997	15012.36
701.342	14962.87
701.688	15014.39
702.033	14915.41
702.379	14848.52
702.724	14740.28
703.069	14831.12
703.415	14606.72
703.76	14700.05
704.105	14666.83
704.45	14620.51
704.795	14478.36
705.14	14506.16
705.485	14424.35
705.83	14314.07
706.175	14376.44
706.52	14301.19
706.865	14223.91
707.209	14247.41
707.554	14231.36
707.899	14150.24
708.243	14124.47
708.588	14028.66
708.932	13902.56
709.277	13944.36
709.621	13910.47
709.966	13807.65
710.31	13872.95
710.654	13717.48
710.998	13841.99
711.342	13758.83
711.687	13736.01
712.031	13653.75
712.375	13651.04
712.719	13591.83
713.063	13571.27
713.407	13596.35
713.75	13537.82
714.094	13585.5
714.438	13466.19
714.782	13543.02
715.125	13437.26
715.469	13438.39
715.812	13359.75
716.156	13359.07
716.499	13279.75
716.843	13296.25
717.186	13209.02
717.53	13229.58
717.873	13210.15
718.216	13183.93
718.559	13220.09
718.902	13117.72
719.246	13100.77
719.589	13083.37
719.932	13021
720.275	12991.85
720.617	12927.44
720.96	12962.47
721.303	12944.62
721.646	13037.72
721.989	12899.65
722.331	13039.53
722.674	12903.71
723.016	12939.19
723.359	12894
723.701	12892.42
724.044	12898.29
724.386	12846.99
724.729	12932.64
725.071	12867.56
725.413	12766.09
725.755	12788.24
726.097	12707.56
726.439	12672.99
726.782	12718.41
727.124	12827.56
727.465	12617.17
727.807	12702.59
728.149	12595.47
728.491	12664.4
728.833	12619.65
729.175	12584.63
729.516	12632.08
729.858	12563.84
730.199	12666.66
730.541	12645.87
730.882	12613.55
731.224	12581.91
731.565	12567.68
731.906	12644.74
732.248	12627.56
732.589	12528.13
732.93	12592.31
733.271	12494.01
733.612	12512.76
733.953	12592.31
734.294	12524.29
734.635	12492.65
734.976	12545.08
735.317	12505.53
735.658	12561.35
735.999	12489.49
736.339	12486.78
736.68	12565.64
737.021	12440.22
737.361	12518.87
737.702	12547.34
738.042	12558.19
738.383	12477.96
738.723	12496.27
739.063	12515.02
739.404	12529.03
739.744	12451.75
740.084	12476.83
740.424	12583.27
740.764	12519.32
741.104	12564.74
741.444	12557.06
741.784	12626.21
742.124	12639.99
742.464	12570.39
742.804	12572.2
743.143	12584.17
743.483	12604.06
743.823	12589.37
744.162	12662.59
744.502	12745.53
744.841	12711.63
745.181	12807.22
745.52	12770.84
745.86	13018.29
746.199	12861.68
746.538	12955.46
746.877	13107.1
747.216	13112.75
747.556	13092.86
747.895	13223.25
748.234	13167.44
748.573	13208.11
748.911	13348
749.25	13399.75
749.589	13350.93
749.928	13458.05
750.267	13617.14
750.605	13612.62
750.944	13726.52
751.283	13795.44
751.621	13924.48
751.96	13999.28
752.298	14010.8
752.636	14230.69
752.975	14264.13
753.313	14319.5
753.651	14533.73
753.989	14601.97
754.327	14728.07
754.666	14828.41
755.004	14917.67
755.342	15053.26
