Data from hue_200_FLMS001491_00079.txt Node
Date: Tue Feb 07 16:43:56 GMT 2017
User: dcchb
Spectrometer: FLMS00149
Trigger mode: 0
Integration Time (sec): 2.000000E-2
Scans to average: 10
Electric dark correction enabled: true
Nonlinearity correction enabled: false
Boxcar width: 0
XAxis mode: Wavelengths
Number of Pixels in Spectrum: 2048
>>>>>Begin Spectral Data<<<<<
341.393	-13.33
341.776	-13.33
342.16	-13.33
342.543	-68.02
342.927	-72.54
343.31	-58.08
343.693	-82.48
344.077	-71.64
344.46	-63.05
344.843	-71.86
345.226	-51.98
345.61	-30.28
345.993	-11.75
346.376	-14.24
346.759	9.72
347.142	35.03
347.525	58.76
347.908	62.6
348.291	74.35
348.674	91.75
349.057	123.16
349.44	111.86
349.823	143.5
350.206	150.96
350.588	175.14
350.971	184.85
351.354	218.3
351.737	219.66
352.119	254.46
352.502	258.07
352.884	263.5
353.267	292.2
353.65	286.32
354.032	294.46
354.414	280.22
354.797	297.62
355.179	317.51
355.562	315.7
355.944	319.31
356.326	327.22
356.709	310.95
357.091	311.4
357.473	341.69
357.855	347.56
358.238	338.3
358.62	346.88
359.002	329.48
359.384	325.19
359.766	313.66
360.148	337.39
360.53	334.91
360.912	319.99
361.294	320.44
361.676	309.37
362.057	344.17
362.439	317.51
362.821	326.55
363.203	335.36
363.584	332.19
363.966	314.34
364.348	328.13
364.729	316.6
365.111	327.45
365.493	323.83
365.874	304.62
366.256	313.66
366.637	303.95
367.019	331.06
367.4	306.88
367.781	314.12
368.163	311.63
368.544	322.03
368.925	291.29
369.306	326.77
369.688	317.05
370.069	322.48
370.45	302.59
370.831	300.78
371.212	307.79
371.593	313.44
371.974	317.51
372.355	312.31
372.736	310.95
373.117	306.66
373.498	317.73
373.879	307.11
374.26	297.62
374.641	295.36
375.021	290.16
375.402	322.03
375.783	319.54
376.163	305.75
376.544	323.16
376.925	307.11
377.305	312.53
377.686	332.87
378.066	301.46
378.447	329.03
378.827	306.66
379.208	311.86
379.588	320.67
379.968	315.92
380.349	334.45
380.729	316.83
381.109	318.41
381.489	322.25
381.87	326.32
382.25	355.02
382.63	336.71
383.01	333.78
383.39	342.36
383.77	341.69
384.15	322.03
384.53	337.84
384.91	346.88
385.29	321.57
385.67	337.17
386.049	357.73
386.429	343.72
386.809	355.92
387.189	337.62
387.568	362.93
387.948	343.27
388.328	353.66
388.707	360.67
389.087	352.76
389.466	349.6
389.846	351.63
390.225	351.18
390.605	358.86
390.984	382.81
391.363	373.55
391.743	352.99
392.122	357.5
392.501	375.13
392.881	359.31
393.26	360.44
393.639	366.54
394.018	362.7
394.397	373.78
394.776	394.57
395.155	385.3
395.534	390.72
395.913	377.62
396.292	378.3
396.671	371.74
397.05	383.72
397.429	380.1
397.808	401.8
398.186	402.25
398.565	363.61
398.944	389.37
399.323	396.83
399.701	393.44
400.08	387.33
400.458	396.37
400.837	431.4
401.215	423.94
401.594	397.5
401.972	425.75
402.351	415.13
402.729	421.46
403.107	426.2
403.486	445.64
403.864	442.25
404.242	438.18
404.62	441.8
404.999	436.6
405.377	455.36
405.755	436.15
406.133	439.99
406.511	456.94
406.889	456.71
407.267	484.73
407.645	479.54
408.023	484.51
408.401	497.39
408.779	482.7
409.156	525.64
409.534	506.2
409.912	507.78
410.29	520.89
410.667	537.61
411.045	547.78
411.422	538.74
411.8	541.68
412.178	550.49
412.555	575.58
412.933	586.43
413.31	587.78
413.687	610.61
414.065	616.25
414.442	616.71
414.819	636.14
415.197	640.66
415.574	663.94
415.951	655.35
416.328	670.49
416.705	681.11
417.082	686.08
417.46	711.39
417.837	693.54
418.214	726.99
418.591	731.05
418.967	744.16
419.344	738.29
419.721	784.84
420.098	753.43
420.475	756.14
420.852	791.62
421.228	809.92
421.605	816.02
421.982	843.14
422.358	837.04
422.735	884.04
423.111	882.01
423.488	916.59
423.864	924.5
424.241	910.03
424.617	953.65
424.994	951.39
425.37	964.95
425.746	961.1
426.123	1013.53
426.499	1017.6
426.875	1011.27
427.251	1032.29
427.627	1095.11
428.003	1069.8
428.379	1085.85
428.756	1122.46
429.132	1101.44
429.507	1129.01
429.883	1121.1
430.259	1165.62
430.635	1143.47
431.011	1159.07
431.387	1201.78
431.763	1231.15
432.138	1231.38
432.514	1242.91
432.89	1284.94
433.265	1318.61
433.641	1336.24
434.016	1357.93
434.392	1386.86
434.767	1417.14
435.143	1415.1
435.518	1474.99
435.894	1474.99
436.269	1517.02
436.644	1541.88
437.02	1562.67
437.395	1561.09
437.77	1617.36
438.145	1657.81
438.52	1678.6
438.895	1687.19
439.271	1703.91
439.646	1753.17
440.021	1800.18
440.395	1795.21
440.77	1790.24
441.145	1831.82
441.52	1870.69
441.895	1880.4
442.27	1897.58
442.645	1936.22
443.019	1957.91
443.394	1954.98
443.769	2020.29
444.143	1981.42
444.518	2041.75
444.892	2053.28
445.267	2077.69
445.641	2063.9
446.016	2101.64
446.39	2124.92
446.764	2144.12
447.139	2138.47
447.513	2182.54
447.887	2182.54
448.262	2210.56
448.636	2195.65
449.01	2267.96
449.384	2262.09
449.758	2277.91
450.132	2325.14
450.506	2318.36
450.88	2359.26
451.254	2378.92
451.628	2380.5
452.002	2420.73
452.376	2431.12
452.75	2483.55
453.123	2484.45
453.497	2513.83
453.871	2540.5
454.244	2619.14
454.618	2609.87
454.992	2633.38
455.365	2647.84
455.739	2734.62
456.112	2728.06
456.486	2759.48
456.859	2767.38
457.232	2844.67
457.606	2861.85
457.979	2867.72
458.352	2923.54
458.725	2971.9
459.099	2987.94
459.472	3041.73
459.845	3055.96
460.218	3081.5
460.591	3087.6
460.964	3130.77
461.337	3183.19
461.71	3261.84
462.083	3323.75
462.456	3302.51
462.829	3327.6
463.201	3382.28
463.574	3380.02
463.947	3442.62
464.32	3495.28
464.692	3513.13
465.065	3580.7
465.438	3597.65
465.81	3664.76
466.183	3699.34
466.555	3829.73
466.928	3782.73
467.3	3786.57
467.672	3809.84
468.045	3950.18
468.417	3978.2
468.789	3992.89
469.161	4041.7
469.534	4083.51
469.906	4156.05
470.278	4232.66
470.65	4279.66
471.022	4369.38
471.394	4451.18
471.766	4444.85
472.138	4490.05
472.51	4570.28
472.882	4657.28
473.253	4688.92
473.625	4809.59
473.997	4830.83
474.369	4883.26
474.74	4948.8
475.112	4990.15
475.484	5145.18
475.855	5195.8
476.227	5172.07
476.598	5361.67
476.97	5393.76
477.341	5450.03
477.713	5558.27
478.084	5602.56
478.455	5719.85
478.827	5743.58
479.198	5979.96
479.569	5922.33
479.94	6072.38
480.311	6101.99
480.682	6250.91
481.053	6411.13
481.424	6481.64
481.795	6484.58
482.166	6603.67
482.537	6648.86
482.908	6790.33
483.279	6798.24
483.65	6928.41
484.021	7051.79
484.391	7119.13
484.762	7169.08
485.133	7243.2
485.503	7364.78
485.874	7503.08
486.244	7511.67
486.615	7698.78
486.985	7768.84
487.356	7900.81
487.726	8007.02
488.097	8110.3
488.467	8106.45
488.837	8305.77
489.207	8336.28
489.578	8485.2
489.948	8459.89
490.318	8622.6
490.688	8638.42
491.058	8740.79
491.428	8853.33
491.798	8959.99
492.168	9060.78
492.538	9042.02
492.908	9102.81
493.278	9259.64
493.648	9236.59
494.017	9292.86
494.387	9478.62
494.757	9536.92
495.126	9564.04
495.496	9550.94
495.866	9598.84
496.235	9728.78
496.605	9793.64
496.974	9773.75
497.344	9880.42
497.713	9876.8
498.082	9972.62
498.452	10042
498.821	10045.84
499.19	10052.84
499.559	10155.89
499.928	10132.84
500.298	10288.54
500.667	10298.26
501.036	10229.34
501.405	10407.86
501.774	10369.67
502.143	10423.91
502.512	10444.7
502.88	10468.65
503.249	10485.6
503.618	10536.67
503.987	10555.2
504.356	10592.94
504.724	10623
505.093	10614.41
505.462	10647.63
505.83	10705.71
506.199	10824.57
506.567	10888.98
506.936	10811.92
507.304	10818.92
507.672	10896.44
508.041	10870.45
508.409	10981.18
508.777	11080.39
509.145	11127.62
509.514	11085.36
509.882	11076.32
510.25	11095.08
510.618	11119.48
510.986	11086.71
511.354	11188.18
511.722	11233.83
512.09	11282.19
512.458	11220.27
512.826	11306.37
513.193	11232.7
513.561	11256.2
513.929	11324.45
514.297	11342.98
514.664	11426.14
515.032	11403.99
515.4	11475.18
515.767	11495.06
516.135	11434.05
516.502	11329.42
516.869	11458.23
517.237	11526.02
517.604	11403.32
517.972	11525.57
518.339	11557.66
518.706	11522.63
519.073	11508.4
519.44	11524.67
519.808	11613.71
520.175	11505.01
520.542	11665.68
520.909	11528.96
521.276	11496.42
521.643	11576.42
522.009	11715.4
522.376	11627.72
522.743	11663.87
523.11	11682.86
523.477	11777.54
523.843	11768.5
524.21	11817.32
524.577	11729.18
524.943	11785.23
525.31	11766.24
525.676	11817.32
526.043	11821.16
526.409	11787.71
526.776	11839.24
527.142	11851.89
527.508	11932.79
527.874	11895.05
528.241	11803.76
528.607	11797.2
528.973	11800.14
529.339	11738.9
529.705	11927.6
530.071	11810.99
530.437	11806.47
530.803	11808.73
531.169	11787.26
531.535	11736.41
531.901	11681.27
532.267	11721.5
532.632	11654.38
532.998	11596.08
533.364	11607.83
533.73	11610.99
534.095	11635.17
534.461	11604.89
534.826	11577.32
535.192	11534.61
535.557	11498.91
535.923	11464.78
536.288	11448.96
536.653	11439.7
537.019	11308.18
537.384	11264.56
537.749	11304.79
538.114	11269.31
538.479	11213.94
538.845	11133.27
539.21	11076.54
539.575	11147.73
539.94	11028.86
540.305	10997.9
540.67	10969.43
541.034	10926.94
541.399	10911.58
541.764	10818.7
542.129	10800.85
542.494	10764.69
542.858	10704.58
543.223	10725.82
543.587	10641.3
543.952	10535.32
544.316	10543.23
544.681	10449.44
545.045	10496.22
545.41	10479.27
545.774	10433.4
546.138	10341.42
546.503	10267.3
546.867	10205.16
547.231	10327.64
547.595	10217.81
547.959	10114.99
548.324	10119.51
548.688	10092.16
549.052	10001.32
549.416	9971.26
549.779	9919.97
550.143	9865.96
550.507	9838.39
550.871	9788.44
551.235	9744.83
551.599	9782.79
551.962	9759.52
552.326	9749.8
552.689	9641.55
553.053	9565.17
553.417	9504.16
553.78	9599.97
554.143	9515
554.507	9498.06
554.87	9437.94
555.234	9467.1
555.597	9266.42
555.96	9385.74
556.323	9382.13
556.686	9299.19
557.05	9328.34
557.413	9230.04
557.776	9237.27
558.139	9234.79
558.502	9224.62
558.865	9159.08
559.228	9185.75
559.59	9169.93
559.953	9027.56
560.316	9162.7
560.679	9078.41
561.041	9108.91
561.404	9079.76
561.767	9136.93
562.129	8990.5
562.492	9006.99
562.854	9054.45
563.217	9016.71
563.579	8977.62
563.941	9004.28
564.304	8978.29
564.666	9036.82
565.028	8971.06
565.39	8998.86
565.753	9042.93
566.115	8979.65
566.477	9015.81
566.839	8974.68
567.201	9019.2
567.563	8989.14
567.925	8980.1
568.287	8976.94
568.648	9002.02
569.01	8930.39
569.372	8988.92
569.734	8941.91
570.095	9039.31
570.457	8998.18
570.819	9022.81
571.18	8980.1
571.542	9008.58
571.903	8943.49
572.265	9006.32
572.626	8939.43
572.987	9026.43
573.349	9006.99
573.71	9030.95
574.071	9004.96
574.432	9050.38
574.794	8981.91
575.155	9048.58
575.516	9036.15
575.877	9021.68
576.238	9025.53
576.599	9007.45
576.96	8999.09
577.32	8977.62
577.681	8996.37
578.042	8988.69
578.403	9054.45
578.763	9037.05
579.124	8951.18
579.485	8969.26
579.845	9045.86
580.206	9066.43
580.566	8938.52
580.927	9045.86
581.287	8972.19
581.648	8914.79
582.008	9012.87
582.368	9003.15
582.728	8985.3
583.089	8980.78
583.449	8978.52
583.809	8943.04
584.169	8907.79
584.529	8900.33
584.889	8932.19
585.249	8938.97
585.609	8892.65
585.969	8975.13
586.329	8926.77
586.688	8950.73
587.048	8966.54
587.408	8930.16
587.768	8824.4
588.127	8873.44
588.487	8789.37
588.846	8889.71
589.206	8758.41
589.565	8863.72
589.925	8879.31
590.284	8863.72
590.643	8851.29
591.003	8860.78
591.362	8898.52
591.721	8863.27
592.08	8863.72
592.44	8835.93
592.799	8848.13
593.158	8785.76
593.517	8863.5
593.876	8839.99
594.235	8797.96
594.593	8787.34
594.952	8815.14
595.311	8788.7
595.67	8769.71
596.029	8771.75
596.387	8829.82
596.746	8820.79
597.104	8748.02
597.463	8770.62
597.822	8815.59
598.18	8724.29
598.538	8687
598.897	8764.52
599.255	8765.42
599.613	8778.75
599.972	8692.43
600.33	8710.05
600.688	8711.41
601.046	8673.9
601.404	8753.22
601.762	8712.54
602.12	8799.77
602.478	8700.11
602.836	8695.36
603.194	8677.51
603.552	8696.27
603.91	8686.78
604.268	8761.35
604.625	8654.24
604.983	8735.82
605.341	8641.58
605.698	8652.2
606.056	8676.61
606.413	8647.46
606.771	8788.47
607.128	8751.86
607.485	8657.4
607.843	8636.38
608.2	8736.72
608.557	8706.21
608.914	8655.59
609.272	8741.69
609.629	8764.29
609.986	8728.13
610.343	8735.36
610.7	8784.4
611.057	8752.09
611.414	8736.27
611.771	8758.19
612.127	8739.88
612.484	8780.79
612.841	8746.66
613.198	8788.47
613.554	8770.16
613.911	8770.84
614.267	8727.45
614.624	8763.39
614.98	8772.42
615.337	8821.91
615.693	8859.65
616.05	8791.86
616.406	8815.14
616.762	8723.61
617.118	8788.02
617.475	8818.53
617.831	8792.76
618.187	8793.89
618.543	8791.86
618.899	8894.68
619.255	8880.67
619.611	8832.76
619.967	8896.04
620.323	8879.54
620.678	8783.27
621.034	8847
621.39	8830.28
621.746	8851.07
622.101	8916.38
622.457	8887.45
622.812	8919.77
623.168	8897.85
623.523	8864.85
623.879	8958.41
624.234	8852.2
624.589	8852.2
624.945	8860.56
625.3	8810.39
625.655	8779.88
626.01	8910.5
626.365	8880.22
626.72	8827.11
627.075	8764.52
627.43	8844.74
627.785	8833.67
628.14	8835.25
628.495	8834.8
628.85	8799.09
629.205	8778.53
629.559	8795.7
629.914	8794.12
630.269	8851.52
630.623	8710.73
630.978	8709.83
631.332	8731.97
631.687	8769.71
632.041	8734.23
632.396	8735.14
632.75	8687
633.104	8716.38
633.459	8690.84
633.813	8687
634.167	8697.4
634.521	8659.43
634.875	8681.35
635.229	8652.65
635.583	8602.94
635.937	8602.03
636.291	8630.28
636.645	8584.86
636.999	8555.48
637.352	8622.82
637.706	8601.81
638.06	8552.77
638.413	8570.17
638.767	8501.25
639.121	8574.46
639.474	8482.26
639.828	8445.43
640.181	8577.4
640.534	8492.43
640.888	8481.81
641.241	8455.82
641.594	8477.07
641.947	8463.05
642.301	8478.2
642.654	8463.28
643.007	8527.23
643.36	8380.34
643.713	8407.69
644.066	8465.54
644.419	8388.93
644.771	8386.22
645.124	8268.03
645.477	8265.77
645.83	8221.7
646.182	8278.88
646.535	8160.46
646.888	8181.93
647.24	8141.48
647.593	8183.97
647.945	8113.46
648.298	8062.39
648.65	8079.56
649.002	8087.92
649.355	8183.29
649.707	8123.85
650.059	8187.13
650.411	8293.79
650.763	8297.18
651.115	8329.5
651.467	8265.09
651.819	8338.99
652.171	8300.8
652.523	8323.17
652.875	8304.87
653.227	8301.93
653.578	8339.67
653.93	8358.2
654.282	8330.63
654.633	8266.45
654.985	8281.82
655.337	8293.12
655.688	8376.05
656.039	8386.67
656.391	8325.2
656.742	8334.02
657.094	8327.69
657.445	8290.4
657.796	8371.53
658.147	8348.48
658.498	8346.67
658.849	8401.14
659.2	8353.45
659.551	8290.63
659.902	8407.69
660.253	8412.21
660.604	8392.32
660.955	8322.27
661.306	8365.66
661.656	8354.13
662.007	8426.22
662.358	8388.93
662.708	8328.82
663.059	8352.77
663.409	8353.45
663.76	8431.87
664.11	8411.08
664.461	8436.39
664.811	8470.06
665.161	8383.96
665.511	8383.96
665.862	8427.35
666.212	8447.91
666.562	8418.08
666.912	8441.36
667.262	8391.64
667.612	8429.38
667.962	8442.72
668.312	8434.13
668.662	8435.94
669.011	8402.04
669.361	8369.72
669.711	8439.1
670.06	8362.49
670.41	8371.31
670.76	8326.33
671.109	8392.77
671.459	8345.54
671.808	8376.28
672.157	8435.71
672.507	8351.64
672.856	8336.5
673.205	8297.63
673.554	8325.88
673.904	8312.32
674.253	8308.26
674.602	8274.58
674.951	8211.54
675.3	8148.94
675.649	8270.52
675.998	8259.67
676.346	8267.13
676.695	8292.21
677.044	8217.41
677.393	8250.18
677.741	8286.11
678.09	8249.5
678.438	8193
678.787	8225.77
679.135	8187.36
679.484	8106.23
679.832	8190.52
680.181	8151.42
680.529	8152.1
680.877	8204.3
681.225	8104.65
681.573	8177.19
681.922	8056.96
682.27	8099.45
682.618	8080.69
682.966	8042.5
683.314	8012.44
683.661	8118.88
684.009	7997.3
684.357	8004.76
684.705	8001.37
685.053	7952.11
685.4	7920.02
685.748	7894.03
686.095	7893.8
686.443	7804.31
686.79	7869.4
687.138	7846.12
687.485	7841.15
687.832	7800.25
688.18	7808.38
688.527	7706.69
688.874	7727.93
689.221	7670.98
689.568	7650.42
689.915	7637.54
690.262	7654.26
690.609	7643.19
690.956	7557.54
691.303	7628.05
691.65	7508.5
691.997	7540.14
692.344	7487.26
692.69	7487.26
693.037	7423.76
693.383	7398.9
693.73	7376.98
694.077	7370.65
694.423	7333.82
694.769	7324.33
695.116	7305.34
695.462	7250.43
695.808	7233.48
696.155	7283.65
696.501	7192.13
696.847	7163.65
697.193	7133.15
697.539	7193.94
697.885	7103.99
698.231	7077.78
698.577	7019.02
698.923	7055.18
699.269	7033.94
699.614	7012.92
699.96	6899.48
700.306	6950.78
700.651	6893.15
700.997	6874.17
701.342	6779.93
701.688	6807.73
702.033	6829.2
702.379	6771.12
702.724	6775.64
703.069	6708.75
703.415	6604.12
703.76	6655.19
704.105	6690.9
704.45	6660.84
704.795	6617.68
705.14	6574.29
705.485	6566.16
705.83	6487.74
706.175	6557.12
706.52	6485.25
706.865	6423.79
707.209	6408.65
707.554	6440.73
707.899	6454.97
708.243	6425.59
708.588	6393.96
708.932	6349.66
709.277	6366.39
709.621	6280.74
709.966	6299.72
710.31	6307.63
710.654	6283.9
710.998	6303.79
711.342	6261.76
711.687	6222.44
712.031	6225.15
712.375	6158.48
712.719	6116.45
713.063	6183.11
713.407	6187.63
713.75	6172.04
714.094	6128.2
714.438	6099.5
714.782	6145.6
715.125	6096.34
715.469	6115.09
715.812	6076.9
716.156	6054.3
716.499	6064.93
716.843	6051.82
717.186	5945.38
717.53	6089.56
717.873	6039.16
718.216	5994.87
718.559	5962.78
718.902	5961.2
719.246	5975.44
719.589	5917.58
719.932	5900.18
720.275	5920.52
720.617	5949.67
720.96	5914.65
721.303	5937.02
721.646	5908.77
721.989	5894.53
722.331	5926.4
722.674	5920.07
723.016	5917.36
723.359	5957.36
723.701	5939.73
724.044	5869.68
724.386	5845.04
724.729	5861.09
725.071	5867.64
725.413	5902.67
725.755	5880.3
726.097	5827.87
726.439	5855.44
726.782	5798.27
727.124	5841.65
727.465	5802.79
727.807	5836.91
728.149	5801.88
728.491	5853.41
728.833	5857.25
729.175	5842.33
729.516	5764.59
729.858	5787.19
730.199	5861.99
730.541	5810.24
730.882	5791.71
731.224	5776.8
731.565	5784.48
731.906	5803.01
732.248	5809.56
732.589	5796.68
732.93	5820.64
733.271	5826.06
733.612	5821.77
733.953	5833.29
734.294	5802.56
734.635	5811.6
734.976	5829.23
735.317	5818.83
735.658	5866.06
735.999	5838.49
736.339	5843.46
736.68	5872.16
737.021	5844.59
737.361	5819.96
737.702	5839.62
738.042	5838.94
738.383	5899.05
738.723	5906.51
739.063	5838.49
739.404	5902.67
739.744	5924.59
740.084	5910.35
740.424	5945.15
740.764	5923.69
741.104	5951.26
741.444	6006.62
741.784	5947.41
742.124	6039.39
742.464	6035.55
742.804	6035.55
743.143	6037.13
743.483	6070.57
743.823	6033.06
744.162	6147.41
744.502	6174.07
744.841	6196
745.181	6218.59
745.52	6216.11
745.86	6294.98
746.199	6340.17
746.538	6370.45
746.877	6431.47
747.216	6401.19
747.556	6517.34
747.895	6542.65
748.234	6559.83
748.573	6580.84
748.911	6706.72
749.25	6691.58
749.589	6780.39
749.928	6855.41
750.267	6917.78
750.605	7001.4
750.944	7026.93
751.283	7158.91
751.621	7218.79
751.96	7375.17
752.298	7401.61
752.636	7521.38
752.975	7575.85
753.313	7612
753.651	7791.43
753.989	7890.64
754.327	8011.09
754.666	8127.7
755.004	8249.73
755.342	8374.02
755.679	8510.06
756.017	8607.01
756.355	8797.51
756.693	8985.3
757.031	9039.08
757.368	9151.4
757.706	9277.27
758.044	9498.96
758.381	9685.4
758.719	9870.7
759.056	9997.03
759.394	10133.74
759.731	10278.15
760.068	10428.43
760.405	10586.84
760.743	10808.08
761.08	11002.42
761.417	11057.11
761.754	11364.67
762.091	11473.14
762.428	11693.03
762.765	11823.42
763.102	12001.49
763.438	12274.71
763.775	12314.7
764.112	12572.55
764.449	12775.71
764.785	12944.74
765.122	13045.08
765.458	13194
765.795	13313.77
766.131	13577.95
766.467	13705.85
