Data from hue_70_FLMS001491_92.txt Node
Date: Mon Feb 06 15:21:46 GMT 2017
User: dcchb
Spectrometer: FLMS00149
Trigger mode: 0
Integration Time (sec): 2.000000E-2
Scans to average: 10
Electric dark correction enabled: true
Nonlinearity correction enabled: false
Boxcar width: 0
XAxis mode: Wavelengths
Number of Pixels in Spectrum: 2048
>>>>>Begin Spectral Data<<<<<
341.393	-19.36
341.776	-19.36
342.16	-19.36
342.543	-63.66
342.927	-52.58
343.31	-58.01
343.693	-61.4
344.077	-46.71
344.46	-60.94
344.843	-60.49
345.226	-58.68
345.61	-39.25
345.993	-12.81
346.376	1.2
346.759	12.95
347.142	24.7
347.525	39.39
347.908	46.4
348.291	67.19
348.674	96.34
349.057	110.12
349.44	108.09
349.823	137.24
350.206	148.99
350.588	186.05
350.971	195.09
351.354	222.89
351.737	242.1
352.119	257.46
352.502	270.12
352.884	255.88
353.267	268.31
353.65	287.52
354.032	311.25
354.414	316.45
354.797	310.57
355.179	337.69
355.562	298.59
355.944	333.17
356.326	323.45
356.709	339.72
357.091	330.23
357.473	360.97
357.855	327.75
358.238	344.47
358.62	336.56
359.002	331.36
359.384	351.47
359.766	356.22
360.148	323.9
360.53	342.43
360.912	326.39
361.294	314.19
361.676	315.32
362.057	334.07
362.439	322.32
362.821	320.51
363.203	323
363.584	315.54
363.966	345.82
364.348	307.63
364.729	328.65
365.111	315.32
365.493	320.97
365.874	295.88
366.256	309.67
366.637	306.05
367.019	303.57
367.4	323.45
367.781	305.6
368.163	306.5
368.544	312.83
368.925	329.78
369.306	328.42
369.688	311.47
370.069	302.66
370.45	310.34
370.831	319.38
371.212	314.19
371.593	326.84
371.974	304.47
372.355	315.77
372.736	292.72
373.117	308.54
373.498	326.39
373.879	324.13
374.26	315.09
374.641	300.18
375.021	309.44
375.402	337.91
375.783	330.91
376.163	327.52
376.544	303.79
376.925	320.51
377.305	301.98
377.686	324.13
378.066	304.02
378.447	316.22
378.827	320.29
379.208	325.03
379.588	329.1
379.968	318.71
380.349	327.07
380.729	325.94
381.109	325.94
381.489	312.6
381.87	313.28
382.25	335.43
382.63	326.84
383.01	341.53
383.39	335.43
383.77	338.59
384.15	322.1
384.53	348.31
384.91	357.12
385.29	335.2
385.67	337.69
386.049	354.19
386.429	348.54
386.809	341.3
387.189	322.32
387.568	342.66
387.948	349.44
388.328	347.18
388.707	347.18
389.087	345.15
389.466	347.86
389.846	368.65
390.225	376.78
390.605	355.09
390.984	363.45
391.363	355.77
391.743	358.71
392.122	361.42
392.501	386.73
392.881	357.58
393.26	377.69
393.639	360.97
394.018	372.04
394.397	351.7
394.776	358.03
395.155	383.11
395.534	362.09
395.913	375.43
396.292	360.06
396.671	387.63
397.05	354.19
397.429	394.18
397.808	373.85
398.186	377.46
398.565	395.31
398.944	379.95
399.323	370.23
399.701	354.86
400.08	395.77
400.458	405.94
400.837	378.82
401.215	390.12
401.594	404.35
401.972	391.25
402.351	398.03
402.729	404.13
403.107	381.98
403.486	377.46
403.864	405.26
404.242	386.5
404.62	410.68
404.999	410
405.377	396.22
405.755	394.18
406.133	428.99
406.511	403.22
406.889	414.97
407.267	409.1
407.645	411.59
408.023	437.12
408.401	421.98
408.779	410.23
409.156	420.62
409.534	422.21
409.912	433.51
410.29	421.3
410.667	429.89
411.045	442.54
411.422	457.91
411.8	427.18
412.178	435.77
412.555	442.32
412.933	438.03
413.31	451.13
413.687	451.58
414.065	452.94
414.442	464.47
414.819	450.68
415.197	451.81
415.574	474.86
415.951	466.05
416.328	479.38
416.705	494.52
417.082	455.88
417.46	474.18
417.837	460.62
418.214	480.51
418.591	486.39
418.967	482.09
419.344	499.27
419.721	483
420.098	508.31
420.475	489.78
420.852	525.25
421.228	523.22
421.605	493.39
421.982	514.86
422.358	493.39
422.735	502.2
423.111	515.54
423.488	521.64
423.864	541.3
424.241	520.51
424.617	530.9
424.994	522.09
425.37	535.65
425.746	523.9
426.123	542.2
426.499	559.6
426.875	526.38
427.251	540.62
427.627	553.28
428.003	563.67
428.379	561.19
428.756	579.72
429.132	571.36
429.507	554.86
429.883	576.1
430.259	578.36
430.635	583.33
431.011	566.84
431.387	579.94
431.763	584.91
432.138	593.5
432.514	605.93
432.89	626.04
433.265	597.57
433.641	624.23
434.016	618.36
434.392	633.73
434.767	646.61
435.143	627.85
435.518	638.25
435.894	660.62
436.269	645.93
436.644	663.1
437.02	658.13
437.395	679.15
437.77	665.14
438.145	680.05
438.52	696.1
438.895	688.19
439.271	682.09
439.646	689.32
440.021	716.44
440.395	703.1
440.77	702.88
441.145	697.23
441.52	718.92
441.895	702.88
442.27	709.43
442.645	728.87
443.019	729.99
443.394	725.25
443.769	733.38
444.143	727.51
444.518	763.67
444.892	763.67
445.267	751.24
445.641	760.73
446.016	761.63
446.39	784.23
446.764	762.54
447.139	771.35
447.513	772.48
447.887	791.24
448.262	789.65
448.636	764.8
449.01	803.44
449.384	803.67
449.758	815.64
450.132	809.77
450.506	795.76
450.88	818.81
451.254	819.71
451.628	834.62
452.002	830.11
452.376	839.82
452.75	832.37
453.123	886.15
453.497	839.37
453.871	863.78
454.244	881.4
454.618	889.31
454.992	875.75
455.365	904
455.739	928.18
456.112	914.85
456.486	903.55
456.859	937.22
457.232	946.26
457.606	924.11
457.979	957.79
458.352	993.72
458.725	995.3
459.099	994.17
459.472	1016.32
459.845	1022.19
460.218	1042.53
460.591	1054.51
460.964	1052.47
461.337	1061.51
461.71	1075.52
462.083	1084.79
462.456	1106.48
462.829	1111.91
463.201	1135.86
463.574	1144.22
463.947	1155.97
464.32	1171.11
464.692	1167.72
465.065	1193.03
465.438	1205.91
465.81	1221.28
466.183	1247.5
466.555	1298.79
466.928	1259.7
467.3	1288.62
467.672	1321.39
468.045	1338.79
468.417	1357.55
468.789	1366.36
469.161	1406.36
469.534	1425.8
469.906	1466.25
470.278	1481.61
470.65	1494.27
471.022	1495.17
471.394	1543.31
471.766	1548.05
472.138	1599.12
472.51	1642.29
472.882	1660.82
473.253	1678.9
473.625	1705.11
473.997	1754.15
474.369	1802.06
474.74	1838.21
475.112	1887.7
475.484	1918.89
475.855	1985.33
476.227	1992.56
476.598	2070.52
476.97	2153.23
477.341	2218.77
477.713	2230.75
478.084	2270.52
478.455	2335.83
478.827	2376.96
479.198	2501.47
479.569	2540.57
479.94	2623.05
480.311	2653.79
480.682	2736.95
481.053	2839.77
481.424	2955.93
481.795	2985.98
482.166	3085.19
482.537	3135.81
482.908	3270.04
483.279	3343.71
483.65	3446.76
484.021	3521.79
484.391	3623.7
484.762	3721.1
485.133	3813.3
485.503	3878.39
485.874	4063.24
486.244	4107.08
486.615	4266.85
486.985	4343.46
487.356	4512.72
487.726	4663.22
488.097	4723.11
488.467	4862.09
488.837	5059.82
489.207	5160.61
489.578	5263.21
489.948	5340.72
490.318	5500.26
490.688	5621.84
491.058	5783.87
491.428	5982.96
491.798	6052.11
492.168	6317.42
492.538	6297.76
492.908	6504.53
493.278	6651.42
493.648	6723.51
494.017	6887.8
494.387	7073.1
494.757	7191.75
495.126	7313.1
495.496	7434.45
495.866	7637.16
496.235	7839.19
496.605	7944.49
496.974	7982.69
497.344	8164.6
497.713	8238.5
498.082	8454.54
498.452	8565.72
498.821	8709.9
499.19	8812.49
499.559	9032.83
499.928	9024.24
500.298	9129.32
500.667	9314.18
501.036	9415.19
501.405	9606.37
501.774	9658.35
502.143	9862.64
502.512	9997.77
502.88	10096.75
503.249	10110.31
503.618	10275.05
503.987	10409.74
504.356	10527.48
504.724	10612.67
505.093	10721.6
505.462	10816.28
505.83	10989.61
506.199	11079.78
506.567	11272.09
506.936	11286.33
507.304	11467.11
507.672	11600.67
508.041	11639.54
508.409	11847.67
508.777	11931.96
509.145	12030.71
509.514	12063.48
509.882	12239.75
510.25	12308.67
510.618	12451.04
510.986	12554.99
511.354	12646.74
511.722	12857.13
512.09	12940.3
512.458	12868.21
512.826	13085.6
513.193	13187.75
513.561	13206.73
513.929	13336.44
514.297	13496.66
514.664	13589.32
515.032	13581.63
515.4	13782.99
515.767	13836.32
516.135	14014.62
516.502	14001.28
516.869	14154.95
517.237	14246.93
517.604	14174.61
517.972	14339.81
518.339	14487.15
518.706	14467.49
519.073	14602.62
519.44	14757.87
519.808	14855.27
520.175	14839
520.542	15055.27
520.909	15122.84
521.276	15168.03
521.643	15308.82
522.009	15433.56
522.376	15509.72
522.743	15551.3
523.11	15619.55
523.477	15788.58
523.843	15859.09
524.21	16076.26
524.577	16138.63
524.943	16171.17
525.31	16237.16
525.676	16378.85
526.043	16429.7
526.409	16590.37
526.776	16742.46
527.142	16722.79
527.508	16805.28
527.874	17020.87
528.241	17102.22
528.607	17058.83
528.973	17261.31
529.339	17162.78
529.705	17308.77
530.071	17404.36
530.437	17523
530.803	17583.79
531.169	17701.75
531.535	17646.84
531.901	17643.22
532.267	17734.75
532.632	17839.15
532.998	17934.97
533.364	17985.36
533.73	17967.06
534.095	18113.27
534.461	18029.88
534.826	18128.41
535.192	18238.24
535.557	18326.82
535.923	18157.11
536.288	18364.33
536.653	18447.72
537.019	18341.06
537.384	18438.68
537.749	18472.13
538.114	18518
538.479	18469.87
538.845	18506.25
539.21	18433.71
539.575	18474.39
539.94	18564.1
540.305	18686.36
540.67	18554.61
541.034	18629.19
541.399	18682.52
541.764	18868.05
542.129	18746.24
542.494	18697.43
542.858	18879.35
543.223	18813.59
543.587	18872.57
543.952	18885.9
544.316	18969.74
544.681	18805.45
545.045	18917.77
545.41	19054.48
545.774	18972
546.138	18946.47
546.503	18938.56
546.867	18926.58
547.231	19089.29
547.595	19042.96
547.959	19066.46
548.324	19138.78
548.688	19136.29
549.052	19151.43
549.416	19058.1
549.779	19174.71
550.143	19270.75
550.507	19294.7
550.871	19323.63
551.235	19277.08
551.599	19496.96
551.962	19449.5
552.326	19405.66
552.689	19529.5
553.053	19467.58
553.417	19477.07
553.78	19580.12
554.143	19549.84
554.507	19584.19
554.87	19643.85
555.234	19793.22
555.597	19569.05
555.96	19663.73
556.323	19782.15
556.686	19735.14
557.05	19817.18
557.413	19900.56
557.776	19912.09
558.139	20001.13
558.502	19980.56
558.865	20050.62
559.228	20164.29
559.59	20153.21
559.953	20144.17
560.316	20376.48
560.679	20308.92
561.041	20413.77
561.404	20489.7
561.767	20575.12
562.129	20465.75
562.492	20658.28
562.854	20648.34
563.217	20621
563.579	20619.19
563.941	20831.39
564.304	20923.81
564.666	20933.76
565.028	20926.53
565.39	21018.05
565.753	21040.42
566.115	21204.71
566.477	21212.39
566.839	21232.05
567.201	21436.12
567.563	21328.1
567.925	21483.57
568.287	21429.11
568.648	21472.95
569.01	21547.98
569.372	21732.83
569.734	21693.29
570.095	21846.95
570.457	21826.16
570.819	21766.5
571.18	21891.02
571.542	22005.82
571.903	22015.08
572.265	22003.33
572.626	22082.43
572.987	22180.73
573.349	22205.59
573.71	22157.45
574.071	22341.18
574.432	22315.64
574.794	22434.06
575.155	22409.65
575.516	22250.56
575.877	22443.32
576.238	22487.16
576.599	22531
576.96	22636.31
577.32	22564.22
577.681	22542.75
578.042	22645.35
578.403	22717.21
578.763	22674.95
579.124	22897.55
579.485	22860.94
579.845	22851.67
580.206	22727.16
580.566	22786.82
580.927	22976.19
581.287	22904.78
581.648	22791.56
582.008	23003.53
582.368	22860.94
582.728	22861.16
583.089	22881.28
583.449	22906.36
583.809	22927.83
584.169	22927.38
584.529	22832.01
584.889	22931.67
585.249	22865.91
585.609	22809.64
585.969	22987.26
586.329	22860.94
586.688	22942.29
587.048	22923.08
587.408	22868.4
587.768	22909.52
588.127	22880.15
588.487	22837.66
588.846	23057.09
589.206	22841.73
589.565	22878.57
589.925	22970.77
590.284	22914.04
590.643	22911.33
591.003	22896.19
591.362	23053.02
591.721	22983.87
592.08	22915.4
592.44	23056.64
592.799	22966.7
593.158	22907.26
593.517	22881.28
593.876	23009.86
594.235	22959.69
594.593	22925.57
594.952	22934.38
595.311	22904.33
595.67	22989.3
596.029	23128.28
596.387	23040.59
596.746	23076.53
597.104	23055.51
597.463	22985.23
597.822	23039.69
598.18	22970.09
598.538	23023.65
598.897	23172.57
599.255	22905.23
599.613	23237.43
599.972	23116.3
600.33	23216.86
600.688	23032.46
601.046	23134.15
601.404	23300.93
601.762	23104.1
602.12	23279.23
602.478	23251.21
602.836	23322.62
603.194	23187.26
603.552	23225.45
603.91	23152.68
604.268	23312.9
604.625	23194.71
604.983	23231.32
605.341	23166.92
605.698	23432.67
606.056	23433.35
606.413	23389.06
606.771	23468.61
607.128	23492.33
607.485	23403.98
607.843	23353.13
608.2	23497.76
608.557	23575.04
608.914	23557.87
609.272	23549.51
609.629	23624.31
609.986	23731.65
610.343	23594.25
610.7	23793.34
611.057	23760.8
611.414	23721.25
611.771	23761.03
612.127	23877.63
612.484	23843.74
612.841	23923.74
613.198	23796.73
613.554	23813.68
613.911	24110.4
614.267	23961.93
614.624	23987.24
614.98	24031.98
615.337	24123.96
615.693	24114.69
616.05	24145.65
616.406	24221.35
616.762	24098.19
617.118	24084.86
617.475	24168.7
617.831	24267
618.187	24234.69
618.543	24185.88
618.899	24356.94
619.255	24380.22
619.611	24388.58
619.967	24469.03
620.323	24429.94
620.678	24382.03
621.034	24337.74
621.39	24398.53
621.746	24326.44
622.101	24595.13
622.457	24367.11
622.812	24504.74
623.168	24588.8
623.523	24513.55
623.879	24676.48
624.234	24471.29
624.589	24501.57
624.945	24520.1
625.3	24573.44
625.655	24586.09
626.01	24530.5
626.365	24601.23
626.72	24530.27
627.075	24593.1
627.43	24562.59
627.785	24529.82
628.14	24559.65
628.495	24662.47
628.85	24553.1
629.205	24530.05
629.559	24641
629.914	24553.55
630.269	24525.53
630.623	24530.5
630.978	24550.61
631.332	24531.18
631.687	24612.53
632.041	24405.08
632.396	24553.1
632.75	24444.85
633.104	24499.99
633.459	24325.53
633.813	24389.71
634.167	24475.36
634.521	24373.22
634.875	24518.3
635.229	24276.04
635.583	24265.87
635.937	24254.57
636.291	24250.51
636.645	24116.5
636.999	24234.46
637.352	24223.16
637.706	24037.18
638.06	24174.58
638.413	24069.49
638.767	24028.37
639.121	24107.46
639.474	23979.1
639.828	23992.89
640.181	24063.62
640.534	24038.08
640.888	23889.39
641.241	23887.8
641.594	23908.82
641.947	23957.41
642.301	23933
642.654	23861.59
643.007	23924.64
643.36	23903.62
643.713	23848.48
644.066	23806
644.419	23818.65
644.771	23584.08
645.124	23347.71
645.477	23377.08
645.83	23152.46
646.182	23077.2
646.535	23107.71
646.888	23174.6
647.24	23079.92
647.593	23098.67
647.945	23076.3
648.298	23049.41
648.65	22998.11
649.002	22887.38
649.355	23085.34
649.707	22935.96
650.059	23152.68
650.411	23410.53
650.763	23381.6
651.115	23694.59
651.467	23610.52
651.819	23554.71
652.171	23458.21
652.523	23465.89
652.875	23493.01
653.227	23469.06
653.578	23497.53
653.93	23498.21
654.282	23284.66
654.633	23324.43
654.985	23381.38
655.337	23428.38
655.688	23381.6
656.039	23453.92
656.391	23340.93
656.742	23382.73
657.094	23262.28
657.445	23511.77
657.796	23315.84
658.147	23282.17
658.498	23326.69
658.849	23438.78
659.2	23308.84
659.551	23336.18
659.902	23475.39
660.253	23336.63
660.604	23398.78
660.955	23187.94
661.306	23351.55
661.656	23381.15
662.007	23337.99
662.358	23387.25
662.708	23358.55
663.059	23289.18
663.409	23147.03
663.76	23389.74
664.11	23398.78
664.461	23467.93
664.811	23354.26
665.161	23364.65
665.511	23305.45
665.862	23319.01
666.212	23419.57
666.562	23451.88
666.912	23328.04
667.262	23352.45
667.612	23369.63
667.962	23376.63
668.312	23232
668.662	23346.58
669.011	23451.43
669.361	23279.23
669.711	23445.1
670.06	23201.04
670.41	23172.12
670.76	23286.01
671.109	23249.18
671.459	23177.09
671.808	23243.75
672.157	23278.33
672.507	23201.72
672.856	23203.53
673.205	23142.51
673.554	23274.26
673.904	23070.65
674.253	23156.3
674.602	23084.89
674.951	22892.12
675.3	22666.82
675.649	23134.38
675.998	23014.61
676.346	23078.11
676.695	23157.88
677.044	22982.07
677.393	22993.14
677.741	22970.09
678.09	22860.71
678.438	22882.41
678.787	22891.67
679.135	23018.9
679.484	22757.89
679.832	22759.7
680.181	22652.58
680.529	22739.13
680.877	22678.8
681.225	22720.38
681.573	22843.54
681.922	22727.16
682.27	22515.41
682.618	22589.53
682.966	22467.5
683.314	22476.32
683.661	22560.16
684.009	22356.77
684.357	22408.29
684.705	22335.98
685.053	22307.51
685.4	22185.7
685.748	22162.65
686.095	22204.91
686.443	22083.11
686.79	21927.4
687.138	22107.06
687.485	22096.44
687.832	21956.56
688.18	22009.89
688.527	21838.82
688.874	21759.27
689.221	21768.31
689.568	21757.01
689.915	21618.03
690.262	21691.48
690.609	21573.29
690.956	21452.61
691.303	21421.2
691.65	21230.02
691.997	21274.09
692.344	21208.78
692.69	21179.85
693.037	21081.55
693.383	20958.62
693.73	21136.01
694.077	20921.33
694.423	20967.65
694.769	20889.46
695.116	20814.44
695.462	20780.09
695.808	20679.07
696.155	20694.44
696.501	20585.29
696.847	20484.05
697.193	20421
697.539	20515.69
697.885	20242.48
698.231	20249.93
698.577	20167.45
698.923	20169.26
699.269	20100.79
699.614	20004.74
699.96	19920.68
700.306	19877.74
700.651	19848.36
700.997	19734.24
701.342	19758.87
701.688	19785.31
702.033	19603.85
702.379	19565.21
702.724	19457.19
703.069	19494.47
703.415	19322.05
703.76	19288.6
704.105	19231.43
704.45	19273.24
704.795	19171.32
705.14	19109.4
705.485	19082.05
705.83	18950.53
706.175	18972.68
706.52	18891.55
706.865	18827.82
707.209	18797.99
707.554	18702.18
707.899	18879.57
708.243	18572.92
708.588	18646.81
708.932	18524.56
709.277	18442.98
709.621	18424.9
709.966	18372.92
710.31	18310.32
710.654	18082.98
710.998	18259.25
711.342	18209.54
711.687	18120.95
712.031	18038.24
712.375	18005.02
712.719	18007.96
713.063	17950.56
713.407	18013.16
713.75	17878.47
714.094	17982.87
714.438	17789.89
714.782	17895.19
715.125	17748.53
715.469	17766.84
715.812	17667.63
716.156	17633.51
716.499	17600.96
716.843	17655.65
717.186	17586.27
717.53	17629.89
717.873	17661.53
718.216	17544.92
718.559	17468.99
718.902	17319.62
719.246	17396.9
719.589	17341.76
719.932	17280.52
720.275	17269
720.617	17329.11
720.96	17276.23
721.303	17162.56
721.646	17236.23
721.989	17137.47
722.331	17168.66
722.674	17191.03
723.016	17172.73
723.359	17062.22
723.701	17078.49
724.044	16975.67
724.386	16894.54
724.729	17055.44
725.071	17020.41
725.413	17008.21
725.755	16916.69
726.097	16842.34
726.439	16775.67
726.782	16769.8
727.124	16823.58
727.465	16709.24
727.807	16832.85
728.149	16697.26
728.491	16738.16
728.833	16665.4
729.175	16657.71
729.516	16736.13
729.858	16632.85
730.199	16677.37
730.541	16618.16
730.882	16638.28
731.224	16709.01
731.565	16493.87
731.906	16633.98
732.248	16578.39
732.589	16571.16
732.93	16465.63
733.271	16465.85
733.612	16445.97
733.953	16521.22
734.294	16376.82
734.635	16386.98
734.976	16526.42
735.317	16380.2
735.658	16401.45
735.999	16471.73
736.339	16366.19
736.68	16426.31
737.021	16369.36
737.361	16346.53
737.702	16457.04
738.042	16360.09
738.383	16351.51
738.723	16371.84
739.063	16319.87
739.404	16433.08
739.744	16351.51
740.084	16374.1
740.424	16394.22
740.764	16306.76
741.104	16365.06
741.444	16290.94
741.784	16282.35
742.124	16391.05
742.464	16333.65
742.804	16264.05
743.143	16412.07
743.483	16402.58
743.823	16481.22
744.162	16385.85
744.502	16469.24
744.841	16378.85
745.181	16460.88
745.52	16379.75
745.86	16417.49
746.199	16421.79
746.538	16559.41
746.877	16564.15
747.216	16562.57
747.556	16565.74
747.895	16569.8
748.234	16511.5
748.573	16638.05
748.911	16581.78
749.25	16656.58
749.589	16758.05
749.928	16715.56
750.267	16822.68
750.605	16822.68
750.944	16883.24
751.283	16866.97
751.621	16971.6
751.96	17054.54
752.298	17025.61
752.636	17145.61
752.975	17065.16
753.313	17128.66
753.651	17302.67
753.989	17256.11
754.327	17321.2
754.666	17318.49
755.004	17413.17
755.342	17553.96
755.679	17581.3
756.017	17457.92
756.355	17683.67
756.693	17673.96
757.031	17840.96
757.368	17815.87
