Data from hue_150_FLMS001491_00046.txt Node
Date: Tue Feb 07 16:54:06 GMT 2017
User: dcchb
Spectrometer: FLMS00149
Trigger mode: 0
Integration Time (sec): 2.000000E-2
Scans to average: 10
Electric dark correction enabled: true
Nonlinearity correction enabled: false
Boxcar width: 0
XAxis mode: Wavelengths
Number of Pixels in Spectrum: 2048
>>>>>Begin Spectral Data<<<<<
341.393	-15.51
341.776	-15.51
342.16	-15.51
342.543	-46.47
342.927	-86.47
343.31	-59.35
343.693	-70.42
344.077	-44.66
344.46	-53.02
344.843	-65.68
345.226	-49.86
345.61	-30.65
345.993	-30.65
346.376	-15.28
346.759	10.48
347.142	28.78
347.525	26.52
347.908	57.26
348.291	94.32
348.674	94.55
349.057	107.65
349.44	115.34
349.823	142.68
350.206	179.06
350.588	196.24
350.971	218.61
351.354	224.71
351.737	236.46
352.119	263.58
352.502	268.78
352.884	265.84
353.267	276.01
353.65	291.38
354.032	297.7
354.414	290.92
354.797	313.97
355.179	319.17
355.562	313.97
355.944	329.79
356.326	321.21
356.709	338.61
357.091	326.63
357.473	328.89
357.855	324.37
358.238	337.48
358.62	350.81
359.002	318.27
359.384	333.64
359.766	350.36
360.148	325.95
360.53	330.7
360.912	339.74
361.294	334.09
361.676	342.9
362.057	333.64
362.439	341.09
362.821	312.84
363.203	315.56
363.584	304.48
363.966	308.78
364.348	330.47
364.729	321.21
365.111	306.74
365.493	333.64
365.874	303.35
366.256	304.03
366.637	317.82
367.019	310.81
367.4	322.11
367.781	308.55
368.163	335.44
368.544	311.94
368.925	323.47
369.306	308.55
369.688	293.41
370.069	307.87
370.45	338.38
370.831	309.46
371.212	318.49
371.593	308.78
371.974	322.79
372.355	322.79
372.736	318.72
373.117	312.84
373.498	321.66
373.879	313.3
374.26	321.21
374.641	322.34
375.021	318.72
375.402	318.49
375.783	320.53
376.163	290.02
376.544	317.14
376.925	323.01
377.305	319.17
377.686	322.56
378.066	336.8
378.447	334.31
378.827	354.88
379.208	335.67
379.588	323.47
379.968	318.95
380.349	317.59
380.729	332.96
381.109	352.62
381.489	325.95
381.87	330.7
382.25	360.3
382.63	327.08
383.01	332.96
383.39	327.76
383.77	347.65
384.15	342.22
384.53	346.06
384.91	321.43
385.29	324.82
385.67	346.06
386.049	350.81
386.429	352.39
386.809	331.6
387.189	355.56
387.568	347.42
387.948	368.44
388.328	364.59
388.707	359.4
389.087	366.63
389.466	346.97
389.846	348.32
390.225	354.43
390.605	368.89
390.984	357.82
391.363	350.81
391.743	363.47
392.122	371.83
392.501	349.68
392.881	377.7
393.26	365.27
393.639	355.1
394.018	372.96
394.397	380.64
394.776	375.22
395.155	368.89
395.534	364.59
395.913	366.18
396.292	384.03
396.671	370.24
397.05	384.48
397.429	376.57
397.808	406.4
398.186	380.87
398.565	390.13
398.944	388.1
399.323	381.54
399.701	369.34
400.08	409.57
400.458	393.75
400.837	390.81
401.215	412.5
401.594	405.27
401.972	409.11
402.351	393.97
402.729	408.21
403.107	406.63
403.486	412.73
403.864	401.2
404.242	390.13
404.62	398.94
404.999	427.87
405.377	423.35
405.755	438.72
406.133	439.85
406.511	456.12
406.889	438.04
407.267	421.09
407.645	437.36
408.023	448.43
408.401	439.62
408.779	425.84
409.156	454.08
409.534	457.7
409.912	451.37
410.29	450.47
410.667	480.07
411.045	476.68
411.422	458.6
411.8	465.38
412.178	471.26
412.555	489.34
412.933	460.41
413.31	472.84
413.687	482.56
414.065	469.22
414.442	496.12
414.819	513.74
415.197	485.27
415.574	509.68
415.951	493.41
416.328	504.03
416.705	510.35
417.082	487.98
417.46	503.8
417.837	547.41
418.214	532.73
418.591	524.36
418.967	515.55
419.344	517.13
419.721	525.72
420.098	551.26
420.475	546.51
420.852	525.27
421.228	519.85
421.605	535.44
421.982	563.23
422.358	562.1
422.735	555.78
423.111	537.92
423.488	557.58
423.864	576.79
424.241	577.24
424.617	557.13
424.994	577.92
425.37	601.2
425.746	590.58
426.123	587.19
426.499	588.09
426.875	604.59
427.251	597.81
427.627	636.68
428.003	621.99
428.379	639.62
428.756	623.35
429.132	656.79
429.507	636.23
429.883	650.24
430.259	650.46
430.635	680.52
431.011	654.08
431.387	678.48
431.763	679.39
432.138	655.21
432.514	710.57
432.89	683
433.265	684.59
433.641	709.22
434.016	705.15
434.392	726.62
434.767	742.21
435.143	712.83
435.518	738.82
435.894	735.66
436.269	737.47
436.644	754.19
437.02	769.1
437.395	764.36
437.77	768.2
438.145	789.89
438.52	781.53
438.895	781.53
439.271	785.83
439.646	807.3
440.021	823.79
440.395	809.33
440.77	804.58
441.145	841.19
441.52	843
441.895	827.18
442.27	829.89
442.645	851.59
443.019	850.23
443.394	856.11
443.769	890
444.143	854.98
444.518	869.44
444.892	868.76
445.267	883.68
445.641	896.56
446.016	884.13
446.39	913.96
446.764	891.36
447.139	892.49
447.513	902.66
447.887	917.57
448.262	938.59
448.636	955.09
449.01	928.42
449.384	955.77
449.758	994.18
450.132	961.87
450.506	975.88
450.88	984.47
451.254	991.25
451.628	996.67
452.002	986.27
452.376	1009.1
452.75	997.35
453.123	1032.37
453.497	1018.59
453.871	1055.88
454.244	1060.4
454.618	1064.01
454.992	1090.45
455.365	1071.02
455.739	1097.01
456.112	1133.16
456.486	1119.15
456.859	1184.23
457.232	1176.1
457.606	1181.07
457.979	1198.92
458.352	1192.82
458.725	1198.47
459.099	1234.18
459.472	1241.18
459.845	1276.89
460.218	1283.67
460.591	1290.22
460.964	1274.85
461.337	1327.06
461.71	1337
462.083	1372.93
462.456	1360.05
462.829	1370.67
463.201	1398.69
463.574	1408.64
463.947	1435.98
464.32	1464.23
464.692	1474.62
465.065	1478.92
465.438	1489.76
465.81	1528.18
466.183	1545.13
466.555	1594.62
466.928	1604.79
467.3	1615.41
467.672	1616.77
468.045	1636.88
468.417	1659.48
468.789	1702.86
469.161	1711
469.534	1749.64
469.906	1794.16
470.278	1820.15
470.65	1849.08
471.022	1917.1
471.394	1941.28
471.766	2003.42
472.138	2005.68
472.51	2013.14
472.882	2072.8
473.253	2120.71
473.625	2146.69
473.997	2237.99
474.369	2253.81
474.74	2291.55
475.112	2312.11
475.484	2393.92
475.855	2464.2
476.227	2514.37
476.598	2573.35
476.97	2617.64
477.341	2709.17
477.713	2765.44
478.084	2813.12
478.455	2872.55
478.827	2983.51
479.198	3059.44
479.569	3131.75
479.94	3249.94
480.311	3255.14
480.682	3361.35
481.053	3463.72
481.424	3554.57
481.795	3663.04
482.166	3740.33
482.537	3778.74
482.908	3959.98
483.279	3989.13
483.65	4126.08
484.021	4263.48
484.391	4330.14
484.762	4410.36
485.133	4484.71
485.503	4612.84
485.874	4803.12
486.244	4805.16
486.615	5000.41
486.985	5124.24
487.356	5210.8
487.726	5353.39
488.097	5498.02
488.467	5592.71
488.837	5732.36
489.207	5869.31
489.578	6021.85
489.948	6088.29
490.318	6272.01
490.688	6346.13
491.058	6533.7
491.428	6629.74
491.798	6765.78
492.168	6995.83
492.538	7075.83
492.908	7194.47
493.278	7306.79
493.648	7408.03
494.017	7522.6
494.387	7720.11
494.757	7799.88
495.126	7948.58
495.496	7999.65
495.866	8181.11
496.235	8215.01
496.605	8404.84
496.974	8502.23
497.344	8621.55
497.713	8684.83
498.082	8823.13
498.452	8971.15
498.821	9114.65
499.19	9163.01
499.559	9225.38
499.928	9375.88
500.298	9414.75
500.667	9558.25
501.036	9550.79
501.405	9781.52
501.774	9745.37
502.143	9966.38
502.512	9975.64
502.88	10094.73
503.249	10104
503.618	10180.83
503.987	10286.59
504.356	10370.66
504.724	10471.45
505.093	10542.41
505.462	10604.33
505.83	10621.5
506.199	10734.72
506.567	10833.02
506.936	10840.48
507.304	11003.64
507.672	11071.21
508.041	11168.6
508.409	11212.9
508.777	11295.38
509.145	11392.33
509.514	11397.98
509.882	11515.71
510.25	11476.17
510.618	11571.53
510.986	11600.68
511.354	11645.65
511.722	11773.79
512.09	11860.79
512.458	11875.03
512.826	11875.93
513.193	11974.46
513.561	12007
513.929	12042.25
514.297	12098.52
514.664	12201.35
515.032	12208.8
515.4	12282.7
515.767	12289.48
516.135	12342.81
516.502	12228.01
516.869	12439.98
517.237	12537.16
517.604	12479.08
517.972	12614.22
518.339	12625.97
518.706	12575.57
519.073	12707.55
519.44	12679.98
519.808	12725.4
520.175	12700.54
520.542	12827.54
520.909	12858.5
521.276	12791.84
521.643	12923.59
522.009	12846.75
522.376	12926.98
522.743	13004.49
523.11	13114.54
523.477	13141.66
523.843	13202
524.21	13219.85
524.577	13363.8
524.943	13244.03
525.31	13329.9
525.676	13346.85
526.043	13370.81
526.409	13441.31
526.776	13538.03
527.142	13421.88
527.508	13520.41
527.874	13563.8
528.241	13613.96
528.607	13519.96
528.973	13582.78
529.339	13571.71
529.705	13644.25
530.071	13598.37
530.437	13624.59
530.803	13774.64
531.169	13751.81
531.535	13532.38
531.901	13579.84
532.267	13615.09
532.632	13735.09
532.998	13636.34
533.364	13700.29
533.73	13647.86
534.095	13683.57
534.461	13665.04
534.826	13661.65
535.192	13663.45
535.557	13715.88
535.923	13571.71
536.288	13595.21
536.653	13623.23
537.019	13601.99
537.384	13591.82
537.749	13620.07
538.114	13489.67
538.479	13483.12
538.845	13515.89
539.21	13405.61
539.575	13368.32
539.94	13366.06
540.305	13390.24
540.67	13333.29
541.034	13323.12
541.399	13320.19
541.764	13257.14
542.129	13257.82
542.494	13233.18
542.858	13176.01
543.223	13195.44
543.587	13198.16
543.952	13093.98
544.316	13153.64
544.681	13027.54
545.045	13054.2
545.41	13130.81
545.774	13043.81
546.138	12999.74
546.503	13002.45
546.867	12909.35
547.231	12973.3
547.595	12884.72
547.959	12861.44
548.324	12918.62
548.688	12804.49
549.052	12799.75
549.416	12689.02
549.779	12775.57
550.143	12690.15
550.507	12742.57
550.871	12644.5
551.235	12646.98
551.599	12604.73
551.962	12636.81
552.326	12634.1
552.689	12588
553.053	12489.7
553.417	12547.78
553.78	12542.13
554.143	12506.65
554.507	12567.89
554.87	12459.64
555.234	12554.56
555.597	12382.36
555.96	12382.58
556.323	12455.8
556.686	12464.62
557.05	12430.27
557.413	12355.47
557.776	12335.58
558.139	12455.58
558.502	12436.59
558.865	12364.51
559.228	12460.1
559.59	12458.97
559.953	12383.49
560.316	12499.42
560.679	12479.3
561.041	12489.47
561.404	12418.29
561.767	12527.44
562.129	12463.26
562.492	12479.98
562.854	12475.01
563.217	12410.15
563.579	12435.24
563.941	12426.2
564.304	12469.59
564.666	12572.41
565.028	12564.95
565.39	12461.23
565.753	12617.83
566.115	12596.82
566.477	12539.64
566.839	12614.44
567.201	12661.45
567.563	12571.28
567.925	12658.73
568.287	12618.51
568.648	12670.94
569.01	12729.47
569.372	12754.78
569.734	12620.54
570.095	12703.03
570.457	12757.49
570.819	12677.27
571.18	12708.68
571.542	12853.98
571.903	12769.92
572.265	12796.81
572.626	12796.81
572.987	12822.8
573.349	12872.29
573.71	12763.36
574.071	12825.28
574.432	12881.78
574.794	12946.41
575.155	12853.08
575.516	12726.08
575.877	12900.08
576.238	12882.01
576.599	12861.44
576.96	12958.61
577.32	12957.71
577.681	12908.45
578.042	12909.35
578.403	12944.83
578.763	12925.17
579.124	12914.32
579.485	12992.51
579.845	12948.9
580.206	13006.3
580.566	12963.13
580.927	12940.76
581.287	12930.37
581.648	12910.03
582.008	12965.39
582.368	12966.98
582.728	13030.25
583.089	12948.67
583.449	12931.04
583.809	13033.19
584.169	13044.71
584.529	12867.77
584.889	13023.7
585.249	12935.56
585.609	12856.24
585.969	12903.7
586.329	12851.95
586.688	12906.86
587.048	12857.15
587.408	12804.49
587.768	12884.94
588.127	12841.1
588.487	12788
588.846	12870.71
589.206	12815.57
589.565	12810.82
589.925	12910.71
590.284	12817.37
590.643	12867.99
591.003	12938.05
591.362	12888.56
591.721	12856.47
592.08	12874.1
592.44	12899.63
592.799	12858.5
593.158	12822.12
593.517	12715
593.876	12848.79
594.235	12695.34
594.593	12702.58
594.952	12800.65
595.311	12674.1
595.67	12769.69
596.029	12853.31
596.387	12742.12
596.746	12781.44
597.104	12699.19
597.463	12659.41
597.822	12757.04
598.18	12677.72
598.538	12715.91
598.897	12811.73
599.255	12652.63
599.613	12751.61
599.972	12707.32
600.33	12729.92
600.688	12657.15
601.046	12762.69
601.404	12738.05
601.762	12699.19
602.12	12751.61
602.478	12762.01
602.836	12710.49
603.194	12705.29
603.552	12669.81
603.91	12643.14
604.268	12718.17
604.625	12694.44
604.983	12685.4
605.341	12649.24
605.698	12749.58
606.056	12787.77
606.413	12692.63
606.771	12712.97
607.128	12757.04
607.485	12703.93
607.843	12713.42
608.2	12717.04
608.557	12801.56
608.914	12752.52
609.272	12803.36
609.629	12819.63
609.986	12909.35
610.343	12842.68
610.7	12879.29
611.057	12841.56
611.414	12858.05
611.771	12887.88
612.127	12936.92
612.484	12992.51
612.841	12885.85
613.198	12893.98
613.554	12938.95
613.911	12982.12
614.267	12995
614.624	12936.69
614.98	12992.74
615.337	13009.01
615.693	13004.49
616.05	13005.17
616.406	13031.61
616.762	13053.07
617.118	12986.41
617.475	13035.22
617.831	13054.2
618.187	13028.44
618.543	13056.01
618.899	13089.91
619.255	13159.51
619.611	13074.09
619.967	13156.8
620.323	13216.23
620.678	13120.42
621.034	13061.44
621.39	13093.75
621.746	13127.88
622.101	13185.95
622.457	13066.41
622.812	13151.15
623.168	13192.51
623.523	13148.21
623.879	13180.08
624.234	13066.41
624.589	13102.79
624.945	13107.31
625.3	13144.6
625.655	13077.03
626.01	13130.13
626.365	13116.12
626.72	13054.66
627.075	13093.98
627.43	13060.08
627.785	13027.09
628.14	13078.38
628.495	13104.6
628.85	13045.17
629.205	13002.68
629.559	13102.79
629.914	13068.44
630.269	12994.77
630.623	12944.6
630.978	12976.24
631.332	13007.65
631.687	12996.35
632.041	13054.2
632.396	12997.94
632.75	12953.87
633.104	13047.43
633.459	12883.36
633.813	12866.41
634.167	12960.2
634.521	12918.84
634.875	12934.43
635.229	12898.28
635.583	12785.74
635.937	12826.19
636.291	12784.61
636.645	12841.78
636.999	12771.5
637.352	12771.73
637.706	12755.23
638.06	12681.11
638.413	12753.2
638.767	12731.5
639.121	12766.98
639.474	12680.2
639.828	12662.12
640.181	12660.77
640.534	12720.65
640.888	12663.25
641.241	12592.07
641.594	12578.96
641.947	12661.45
642.301	12611.5
642.654	12623.71
643.007	12545.29
643.36	12564.05
643.713	12532.41
644.066	12628.68
644.419	12585.97
644.771	12416.03
645.124	12303.26
645.477	12361.12
645.83	12238.41
646.182	12181.01
646.535	12096.72
646.888	12157.96
647.24	12099.88
647.593	12123.83
647.945	12113.21
648.298	12032.99
648.65	12033.44
649.002	12020.56
649.355	12179.43
649.707	12112.31
650.059	12161.12
650.411	12289.03
650.763	12340.55
651.115	12443.6
651.467	12316.15
651.819	12409.02
652.171	12362.47
652.523	12343.94
652.875	12343.71
653.227	12305.52
653.578	12438.18
653.93	12398.63
654.282	12378.52
654.633	12395.69
654.985	12366.99
655.337	12328.8
655.688	12397.5
656.039	12375.35
656.391	12295.35
656.742	12341
657.094	12347.33
657.445	12291.51
657.796	12336.94
658.147	12332.64
658.498	12298.07
658.849	12317.05
659.2	12357.73
659.551	12198.86
659.902	12371.06
660.253	12320.44
660.604	12325.41
660.955	12359.99
661.306	12373.77
661.656	12314.11
662.007	12358.4
662.358	12411.96
662.708	12354.11
663.059	12415.13
663.409	12284.51
663.76	12483.6
664.11	12393.88
664.461	12402.47
664.811	12416.93
665.161	12414.9
665.511	12376.26
665.862	12433.88
666.212	12349.82
666.562	12468.01
666.912	12377.84
667.262	12389.14
667.612	12404.5
667.962	12391.4
668.312	12363.6
668.662	12444.28
669.011	12448.12
669.361	12382.58
669.711	12370.61
670.06	12347.56
670.41	12304.17
670.76	12251.74
671.109	12344.17
671.459	12309.14
671.808	12259.65
672.157	12358.63
672.507	12248.58
672.856	12229.14
673.205	12250.61
673.554	12254
673.904	12267.78
674.253	12298.97
674.602	12284.06
674.951	12091.07
675.3	12028.02
675.649	12257.39
675.998	12216.49
676.346	12273.21
676.695	12237.73
677.044	12149.37
677.393	12181.46
677.741	12155.92
678.09	12067.34
678.438	12122.7
678.787	12136.94
679.135	12108.69
679.484	12118.41
679.832	12088.81
680.181	11989.83
680.529	12051.52
680.877	11991.63
681.225	11896.72
681.573	12005.42
681.922	11891.3
682.27	11956.61
682.618	11825.31
682.966	11908.25
683.314	11891.75
683.661	11788.93
684.009	11744.63
684.357	11781.24
684.705	11735.6
685.053	11758.87
685.4	11692.88
685.748	11655.15
686.095	11667.57
686.443	11550.97
686.79	11581.93
687.138	11633.9
687.485	11647.01
687.832	11540.57
688.18	11559.1
688.527	11457.86
688.874	11458.31
689.221	11430.29
689.568	11332.22
689.915	11385.77
690.262	11309.84
690.609	11344.19
690.956	11308.04
691.303	11199.11
691.65	11241.37
691.997	11219
692.344	11148.27
692.69	11146.68
693.037	11110.08
693.383	11023.52
693.73	10982.85
694.077	10979.68
694.423	10992.79
694.769	10940.59
695.116	10936.07
695.462	10887.71
695.808	10821.27
696.155	10824.43
696.501	10689.07
696.847	10730.65
697.193	10686.36
697.539	10638.68
697.885	10547.38
698.231	10570.43
698.577	10486.59
698.923	10492.92
699.269	10458.79
699.614	10366.82
699.96	10420.38
700.306	10345.8
700.651	10266.93
700.997	10262.41
701.342	10254.05
701.688	10201.62
702.033	10165.24
702.379	10198.91
702.724	10136.09
703.069	10110.78
703.415	10001.63
703.76	9996.21
704.105	9977.45
704.45	9846.83
704.795	9929.54
705.14	9854.51
705.485	9764.12
705.83	9851.8
706.175	9846.83
706.52	9781.75
706.865	9716.89
707.209	9703.78
707.554	9690.45
707.899	9666.72
708.243	9621.07
708.588	9572.04
708.932	9574.52
709.277	9606.84
709.621	9534.3
709.966	9445.26
710.31	9514.41
710.654	9442.32
710.998	9383.57
711.342	9391.7
711.687	9383.34
712.031	9341.08
712.375	9273.29
712.719	9305.15
713.063	9271.71
713.407	9299.73
713.75	9256.79
714.094	9316
714.438	9209.11
714.782	9186.51
715.125	9208.43
715.469	9136.57
715.812	9064.25
716.156	9118.94
716.499	9054.31
716.843	9110.13
717.186	9035.55
717.53	9131.6
717.873	9041.88
718.216	9077.13
718.559	9111.48
718.902	9015.21
719.246	9004.82
719.589	8899.29
719.932	8940.41
720.275	8936.35
720.617	8918.04
720.96	8894.09
721.303	8901.55
721.646	8911.04
721.989	8898.61
722.331	8935.22
722.674	8902.9
723.016	8903.13
723.359	8846.18
723.701	8824.71
724.044	8823.36
724.386	8796.92
724.729	8812.73
725.071	8750.59
725.413	8750.59
725.755	8801.66
726.097	8748.56
726.439	8707.2
726.782	8751.95
727.124	8738.61
727.465	8694.77
727.807	8658.61
728.149	8717.37
728.491	8684.38
728.833	8720.76
729.175	8673.98
729.516	8691.83
729.858	8766.18
730.199	8688.67
730.541	8650.25
730.882	8688.22
731.224	8722.57
731.565	8650.48
731.906	8677.82
732.248	8676.24
732.589	8695.45
732.93	8607.54
733.271	8649.57
733.612	8560.54
733.953	8554.44
734.294	8649.35
734.635	8662.91
734.976	8710.59
735.317	8566.41
735.658	8623.13
735.999	8614.1
736.339	8638.73
736.68	8609.12
737.021	8672.63
737.361	8655.9
737.702	8661.33
738.042	8610.03
738.383	8603.47
738.723	8672.4
739.063	8678.05
739.404	8628.11
739.744	8701.55
740.084	8649.12
740.424	8673.08
740.764	8664.72
741.104	8777.48
741.444	8751.27
741.784	8636.92
742.124	8749.01
742.464	8735
742.804	8720.08
743.143	8758.27
743.483	8839.85
743.823	8752.85
744.162	8828.33
744.502	8881.43
744.841	8896.12
745.181	8929.34
745.52	8976.8
745.86	8921.88
746.199	9008.44
746.538	9048.66
746.877	9071.26
747.216	9151.26
747.556	9200.29
747.895	9168.88
748.234	9264.7
748.573	9209.33
748.911	9315.55
749.25	9447.29
749.589	9350.8
749.928	9454.3
750.267	9551.47
750.605	9605.93
750.944	9704.24
751.283	9693.62
751.621	9764.8
751.96	9818.13
752.298	9905.81
752.636	10071.01
752.975	10094.28
753.313	10140.84
753.651	10311.23
753.989	10413.82
754.327	10418.12
754.666	10691.78
755.004	10744.89
755.342	10781.27
755.679	10953.02
756.017	10965.22
756.355	11132.22
756.693	11310.52
757.031	11498.09
757.368	11503.96
757.706	11609.5
758.044	11823.73
758.381	11914.35
758.719	12026.21
759.056	12317.73
759.394	12329.7
