Data from hue_70_FLMS001491_50.txt Node
Date: Mon Feb 06 15:20:59 GMT 2017
User: dcchb
Spectrometer: FLMS00149
Trigger mode: 0
Integration Time (sec): 2.000000E-2
Scans to average: 10
Electric dark correction enabled: true
Nonlinearity correction enabled: false
Boxcar width: 0
XAxis mode: Wavelengths
Number of Pixels in Spectrum: 2048
>>>>>Begin Spectral Data<<<<<
341.393	-19.75
341.776	-19.75
342.16	-19.75
342.543	-73.08
342.927	-76.47
343.31	-74.89
343.693	-92.29
344.077	-70.37
344.46	-46.41
344.843	-44.15
345.226	-31.95
345.61	-41.89
345.993	-15
346.376	-1.21
346.759	20.03
347.142	4.89
347.525	41.95
347.908	57.99
348.291	66.13
348.674	106.13
349.057	121.04
349.44	121.95
349.823	159.23
350.206	164.2
350.588	196.29
350.971	231.77
351.354	216.86
351.737	229.51
352.119	270.87
352.502	260.93
352.884	262.06
353.267	268.61
353.65	277.87
354.032	304.09
354.414	303.86
354.797	309.51
355.179	337.08
355.562	314.48
355.944	336.4
356.326	342.05
356.709	337.31
357.091	338.89
357.473	361.26
357.855	354.03
358.238	349.06
358.62	333.69
359.002	319.23
359.384	351.77
359.766	334.14
360.148	321.49
360.53	333.24
360.912	323.75
361.294	337.53
361.676	325.33
362.057	332.79
362.439	345.67
362.821	321.71
363.203	314.48
363.584	330.75
363.966	317.87
364.348	333.24
364.729	318.55
365.111	311.55
365.493	319.23
365.874	328.27
366.256	315.84
366.637	313.35
367.019	328.95
367.4	309.51
367.781	318.55
368.163	315.39
368.544	299.57
368.925	300.47
369.306	326.23
369.688	312
370.069	305.67
370.45	317.65
370.831	304.09
371.212	305.9
371.593	308.38
371.974	309.51
372.355	304.31
372.736	327.36
373.117	320.81
373.498	313.58
373.879	309.96
374.26	327.36
374.641	304.31
375.021	317.2
375.402	313.81
375.783	310.42
376.163	331.43
376.544	324.43
376.925	337.99
377.305	314.94
377.686	327.59
378.066	344.09
378.447	321.49
378.827	319
379.208	322.84
379.588	324.65
379.968	317.42
380.349	325.78
380.729	336.4
381.109	335.73
381.489	335.73
381.87	341.83
382.25	350.87
382.63	332.34
383.01	346.35
383.39	343.86
383.77	326.23
384.15	329.62
384.53	336.4
384.91	350.87
385.29	341.15
385.67	349.51
386.049	349.74
386.429	349.06
386.809	343.64
387.189	350.64
387.568	343.86
387.948	341.15
388.328	341.83
388.707	340.92
389.087	370.08
389.466	340.92
389.846	361.94
390.225	341.6
390.605	357.65
390.984	352.22
391.363	372.79
391.743	362.62
392.122	350.87
392.501	356.97
392.881	383.41
393.26	346.35
393.639	358.55
394.018	363.3
394.397	374.37
394.776	354.93
395.155	388.15
395.534	369.17
395.913	376.18
396.292	370.75
396.671	375.72
397.05	368.95
397.429	384.54
397.808	368.72
398.186	369.4
398.565	380.92
398.944	370.08
399.323	393.8
399.701	380.02
400.08	370.98
400.458	372.33
400.837	395.39
401.215	406.23
401.594	374.14
401.972	384.76
402.351	403.29
402.729	380.02
403.107	400.81
403.486	401.71
403.864	396.51
404.242	414.82
404.62	393.8
404.999	398.77
405.377	385.89
405.755	403.29
406.133	403.29
406.511	404.88
406.889	422.05
407.267	428.38
407.645	418.89
408.023	444.2
408.401	429.28
408.779	441.26
409.156	421.15
409.534	422.5
409.912	417.53
410.29	424.99
410.667	419.57
411.045	436.51
411.422	433.58
411.8	430.41
412.178	427.25
412.555	438.77
412.933	448.94
413.31	450.52
413.687	446.01
414.065	455.95
414.442	455.95
414.819	466.34
415.197	501.82
415.574	489.17
415.951	462.28
416.328	455.04
416.705	485.33
417.082	477.87
417.46	487.59
417.837	478.55
418.214	493.24
418.591	495.04
418.967	474.25
419.344	472.67
419.721	504.31
420.098	487.13
420.475	510.86
420.852	491.88
421.228	496.63
421.605	512.67
421.982	505.21
422.358	529.84
422.735	520.13
423.111	500.69
423.488	515.38
423.864	523.52
424.241	529.62
424.617	550.18
424.994	528.04
425.37	519.9
425.746	519.68
426.123	549.96
426.499	541.37
426.875	538.88
427.251	566
427.627	564.19
428.003	563.29
428.379	572.33
428.756	567.81
429.132	564.19
429.507	555.38
429.883	585.21
430.259	580.46
430.635	585.89
431.011	589.05
431.387	590.18
431.763	589.73
432.138	617.53
432.514	605.55
432.89	608.71
433.265	606
433.641	628.83
434.016	641.93
434.392	622.95
434.767	638.77
435.143	662.27
435.518	633.8
435.894	646.9
436.269	681.03
436.644	662.5
437.02	653.46
437.395	670.18
437.77	677.64
438.145	660.46
438.52	668.37
438.895	664.53
439.271	673.57
439.646	703.85
440.021	688.03
440.395	724.42
440.77	676.06
441.145	707.69
441.52	727.35
441.895	719.22
442.27	722.83
442.645	707.92
443.019	728.03
443.394	745.66
443.769	734.81
444.143	743.4
444.518	748.6
444.892	754.92
445.267	766.22
445.641	758.31
446.016	755.38
446.39	750.86
446.764	762.38
447.139	755.15
447.513	763.74
447.887	782.49
448.262	759.22
448.636	771.65
449.01	801.48
449.384	792.44
449.758	794.7
450.132	809.16
450.506	805.54
450.88	830.63
451.254	819.1
451.628	820.46
452.002	829.95
452.376	860.46
452.75	820.46
453.123	845.32
453.497	874.24
453.871	872.43
454.244	884.41
454.618	859.55
454.992	889.38
455.365	904.98
455.739	910.85
456.112	918.99
456.486	902.49
456.859	951.98
457.232	972.09
457.606	970.51
457.979	969.83
458.352	975.71
458.725	996.5
459.099	1001.24
459.472	1034.46
459.845	1018.19
460.218	1045.99
460.591	1045.54
460.964	1056.16
461.337	1042.15
461.71	1088.02
462.083	1099.55
462.456	1104.29
462.829	1100.68
463.201	1129.15
463.574	1142.26
463.947	1180.68
464.32	1167.12
464.692	1170.73
465.065	1201.69
465.438	1190.62
465.81	1211.86
466.183	1250.73
466.555	1245.08
466.928	1271.07
467.3	1304.06
467.672	1299.32
468.045	1345.42
468.417	1350.84
468.789	1372.31
469.161	1408.24
469.534	1415.7
469.906	1445.3
470.278	1467.9
470.65	1473.1
471.022	1511.74
471.394	1537.28
471.766	1571.4
472.138	1595.35
472.51	1622.92
472.882	1634.67
473.253	1699.08
473.625	1749.02
473.997	1747.21
474.369	1795.35
474.74	1821.56
475.112	1924.38
475.484	1940.2
475.855	1984.95
476.227	2000.99
476.598	2083.7
476.97	2124.83
477.341	2199.63
477.713	2258.16
478.084	2254.09
478.455	2337.48
478.827	2412.51
479.198	2477.59
479.569	2537.93
479.94	2640.98
480.311	2668.77
480.682	2775.66
481.053	2851.82
481.424	2904.02
481.795	2980.18
482.166	3051.59
482.537	3127.06
482.908	3250.68
483.279	3312.37
483.65	3443.67
484.021	3536.77
484.391	3630.78
484.762	3722.98
485.133	3787.61
485.503	3887.04
485.874	4024.67
486.244	4122.74
486.615	4253.36
486.985	4385.11
487.356	4520.25
487.726	4577.65
488.097	4754.37
488.467	4799.34
488.837	4990.52
489.207	5069.39
489.578	5209.04
489.948	5351.41
490.318	5517.96
490.688	5567
491.058	5709.37
491.428	5907.56
491.798	6031.17
492.168	6203.59
492.538	6274.33
492.908	6433.64
493.278	6596.35
493.648	6648.33
494.017	6824.82
494.387	7072.5
494.757	7134.87
495.126	7335.99
495.496	7359.5
495.866	7481.07
496.235	7674.74
496.605	7831.35
496.974	7922.19
497.344	8053.04
497.713	8143.66
498.082	8321.73
498.452	8465
498.821	8606.24
499.19	8751.32
499.559	8914.03
499.928	8985.44
500.298	9092.78
500.667	9207.13
501.036	9335.49
501.405	9478.08
501.774	9547.01
502.143	9720.56
502.512	9804.63
502.88	9998.97
503.249	9991.06
503.618	10226.09
503.987	10244.62
504.356	10450.49
504.724	10536.59
505.093	10656.36
505.462	10656.81
505.83	10846.64
506.199	10982.23
506.567	11143.35
506.936	11160.98
507.304	11371.14
507.672	11514.41
508.041	11552.61
508.409	11632.83
508.777	11725.03
509.145	11896.33
509.514	11978.13
509.882	12145.58
510.25	12256.77
510.618	12257.9
510.986	12364.79
511.354	12506.93
511.722	12626.25
512.09	12724.33
512.458	12718.9
512.826	12956.41
513.193	12969.07
513.561	13119.8
513.929	13166.57
514.297	13371.77
514.664	13468.26
515.032	13485.89
515.4	13587.58
515.767	13693.57
516.135	13759.33
516.502	13722.49
516.869	13935.82
517.237	14040
517.604	14066.89
517.972	14272.31
518.339	14259.2
518.706	14368.8
519.073	14499.87
519.44	14579.64
519.808	14693.31
520.175	14627.1
520.542	14881.33
520.909	14905.06
521.276	14978.73
521.643	15110.03
522.009	15173.75
522.376	15266.41
522.743	15380.3
523.11	15494.88
523.477	15681.08
523.843	15710.91
524.21	15807.86
524.577	15955.88
524.943	16031.13
525.31	16114.29
525.676	16215.99
526.043	16268.19
526.409	16318.13
526.776	16549.99
527.142	16484.68
527.508	16662.08
527.874	16766.03
528.241	16795.18
528.607	16875.63
528.973	16950.66
529.339	16909.3
529.705	17069.3
530.071	17229.07
530.437	17213.25
530.803	17316.07
531.169	17390.87
531.535	17317.2
531.901	17508.38
532.267	17519.23
532.632	17583.63
532.998	17610.98
533.364	17787.47
533.73	17760.58
534.095	17739.34
534.461	17921.25
534.826	17853.46
535.192	17993.57
535.557	17896.85
535.923	18040.57
536.288	18074.92
536.653	18144.75
537.019	18013.68
537.384	18049.38
537.749	18216.61
538.114	18172.09
538.479	18257.29
538.845	18323.05
539.21	18204.63
539.575	18232.2
539.94	18279.43
540.305	18427
540.67	18332.31
541.034	18367.34
541.399	18314.24
541.764	18426.32
542.129	18444.63
542.494	18452.76
542.858	18497.73
543.223	18495.93
543.587	18617.73
543.952	18491.18
544.316	18654.79
544.681	18492.76
545.045	18605.75
545.41	18682.59
545.774	18613.21
546.138	18637.39
546.503	18683.27
546.867	18718.75
547.231	18758.29
547.595	18810.95
547.959	18822.25
548.324	18700.44
548.688	18840.78
549.052	18856.14
549.416	18909.47
549.779	18893.88
550.143	18810.27
550.507	19015.23
550.871	19076.48
551.235	18937.95
551.599	19092.75
551.962	19030.6
552.326	19010.26
552.689	19169.35
553.053	19044.16
553.417	19015.23
553.78	19249.35
554.143	19047.1
554.507	19252.06
554.87	19233.99
555.234	19375.45
555.597	19311.27
555.96	19255.91
556.323	19390.59
556.686	19445.73
557.05	19485.5
557.413	19518.72
557.776	19497.48
558.139	19497.03
558.502	19659.96
558.865	19636.46
559.228	19750.13
559.59	19715.33
559.953	19845.95
560.316	19988.09
560.679	19923.69
561.041	19951.48
561.404	20068.09
561.767	20139.05
562.129	20038.48
562.492	20265.15
562.854	20166.16
563.217	20169.1
563.579	20234.86
563.941	20326.39
564.304	20456.1
564.666	20392.37
565.028	20571.58
565.39	20541.97
565.753	20577.23
566.115	20728.64
566.477	20689.77
566.839	20782.87
567.201	20961.17
567.563	20957.78
567.925	20981.28
568.287	20980.83
568.648	21042.53
569.01	21069.42
569.372	21194.84
569.734	21122.75
570.095	21284.1
570.457	21331.33
570.819	21413.14
571.18	21365.23
571.542	21485.9
571.903	21420.59
572.265	21534.26
572.626	21581.49
572.987	21647.93
573.349	21652.23
573.71	21727.25
574.071	21744.2
574.432	21858.78
574.794	21961.37
575.155	21848.61
575.516	21807.7
575.877	21942.39
576.238	21991.88
576.599	21982.39
576.96	21932.45
577.32	21924.08
577.681	22145.55
578.042	22163.4
578.403	22057.64
578.763	22250.4
579.124	22140.58
579.485	22232.1
579.845	22347.12
580.206	22300.8
580.566	22197.07
580.927	22306.67
581.287	22213.12
581.648	22333.11
582.008	22416.05
582.368	22245.21
582.728	22366.33
583.089	22318.88
583.449	22393.9
583.809	22338.76
584.169	22349.61
584.529	22257.64
584.889	22515.48
585.249	22359.1
585.609	22319.33
585.969	22520
586.329	22373.34
586.688	22442.26
587.048	22355.26
587.408	22334.7
587.768	22340.12
588.127	22336.73
588.487	22296.5
588.846	22541.47
589.206	22252.44
589.565	22369.95
589.925	22400.23
590.284	22298.99
590.643	22342.15
591.003	22356.84
591.362	22393
591.721	22387.58
592.08	22431.87
592.44	22370.17
592.799	22518.65
593.158	22312.55
593.517	22404.52
593.876	22330.63
594.235	22339.44
594.593	22374.92
594.952	22430.29
595.311	22341.25
595.67	22309.84
596.029	22341.93
596.387	22515.71
596.746	22546.44
597.104	22489.04
597.463	22373.79
597.822	22512.09
598.18	22339.67
598.538	22264.87
598.897	22390.29
599.255	22376.28
599.613	22644.52
599.972	22469.83
600.33	22505.76
600.688	22436.84
601.046	22581.02
601.404	22688.58
601.762	22593.22
602.12	22616.5
602.478	22710.5
602.836	22668.02
603.194	22543.96
603.552	22655.59
603.91	22480.91
604.268	22677.29
604.625	22610.17
604.983	22691.97
605.341	22604.97
605.698	22710.73
606.056	22562.26
606.413	22642.94
606.771	22740.79
607.128	22811.52
607.485	22709.83
607.843	22785.3
608.2	22875.02
608.557	22884.06
608.914	22829.6
609.272	23038.18
609.629	22976.94
609.986	23039.54
610.343	22985.3
610.7	23119.99
611.057	23221.23
611.414	23069.37
611.771	23083.6
612.127	23252.19
612.484	23203.15
612.841	23264.39
613.198	23199.31
613.554	23294.9
613.911	23294.22
614.267	23355.23
614.624	23258.29
614.98	23396.59
615.337	23486.3
615.693	23406.08
616.05	23389.81
616.406	23539.41
616.762	23518.39
617.118	23522.01
617.475	23582.8
617.831	23724.72
618.187	23599.29
618.543	23693.98
618.899	23695.11
619.255	23718.16
619.611	23716.13
619.967	23758.16
620.323	23864.15
620.678	23708.22
621.034	23738.05
621.39	23662.12
621.746	23674.32
622.101	23953.18
622.457	23765.62
622.812	23832.28
623.168	23832.06
623.523	23795.45
623.879	23896.24
624.234	23660.99
624.589	23980.98
624.945	23832.73
625.3	23883.58
625.655	23842.68
626.01	23900.76
626.365	23930.13
626.72	23958.38
627.075	23779.63
627.43	23987.53
627.785	23905.05
628.14	23978.04
628.495	23962.9
628.85	23942.11
629.205	23820.76
629.559	24027.76
629.914	23940.98
630.269	23859.17
630.623	23846.75
630.978	23812.62
631.332	23878.61
631.687	23955.67
632.041	23760.87
632.396	23772.62
632.75	23731.04
633.104	23763.58
633.459	23571.72
633.813	23693.08
634.167	23640.42
634.521	23644.94
634.875	23740.76
635.229	23572.63
635.583	23515.23
635.937	23667.54
636.291	23492.86
636.645	23601.55
636.999	23439.3
637.352	23632.51
637.706	23543.48
638.06	23488.56
638.413	23425.97
638.767	23308.23
639.121	23369.24
639.474	23296.03
639.828	23366.31
640.181	23294.44
640.534	23326.31
640.888	23210.6
641.241	23240.21
641.594	23176.71
641.947	23355.46
642.301	23274.78
642.654	23263.71
643.007	23278.4
643.36	23133.32
643.713	23138.29
644.066	23180.1
644.419	23032.08
644.771	22935.36
645.124	22794.34
645.477	22758.41
645.83	22587.34
646.182	22538.98
646.535	22503.96
646.888	22548.47
647.24	22255.38
647.593	22478.19
647.945	22481.81
648.298	22276.84
648.65	22306.45
649.002	22245.21
649.355	22374.92
649.707	22353
650.059	22457.86
650.411	22651.75
650.763	22863.27
651.115	23007.22
651.467	22749.83
651.819	22801.8
652.171	22814.68
652.523	22703.95
652.875	22754.35
653.227	22696.95
653.578	22847.68
653.93	22850.84
654.282	22712.09
654.633	22678.64
654.985	22710.5
655.337	22732.88
655.688	22734.91
656.039	22842.93
656.391	22682.26
656.742	22627.79
657.094	22624.41
657.445	22821.01
657.796	22764.29
658.147	22657.17
658.498	22767.23
658.849	22829.82
659.2	22722.93
659.551	22701.69
659.902	22740.56
660.253	22676.61
660.604	22750.5
660.955	22632.77
661.306	22756.83
661.656	22685.65
662.007	22823.04
662.358	22660.11
662.708	22720.45
663.059	22715.25
663.409	22550.96
663.76	22724.29
664.11	22710.28
664.461	22694.91
664.811	22761.12
665.161	22661.92
665.511	22669.15
665.862	22699.21
666.212	22798.41
666.562	22821.91
666.912	22777.4
667.262	22734.68
667.612	22747.57
667.962	22813.55
668.312	22692.2
668.662	22818.52
669.011	22745.76
669.361	22690.17
669.711	22623.5
670.06	22727.91
670.41	22681.8
670.76	22640
671.109	22694.23
671.459	22698.3
671.808	22511.87
672.157	22635.03
672.507	22596.16
672.856	22500.57
673.205	22549.83
673.554	22661.92
673.904	22541.7
674.253	22529.94
674.602	22536.72
674.951	22339.67
675.3	22151.42
675.649	22506.89
675.998	22380.34
676.346	22473.9
676.695	22364.07
677.044	22292.89
677.393	22464.18
677.741	22430.29
678.09	22360.23
678.438	22279.33
678.787	22300.57
679.135	22295.15
679.484	22222.38
679.832	22270.52
680.181	22109.62
680.529	22250.18
680.877	22179.45
681.225	22064.65
681.573	22173.8
681.922	22016.06
682.27	21949.17
682.618	22068.04
682.966	21913.24
683.314	21923.86
683.661	21790.53
684.009	21757.76
684.357	21753.47
684.705	21724.77
685.053	21705.79
685.4	21691.77
685.748	21461.5
686.095	21527.03
686.443	21423.53
686.79	21381.5
687.138	21545.56
687.485	21454.04
687.832	21364.1
688.18	21445
688.527	21361.84
688.874	21203.2
689.221	21163.65
689.568	21086.14
689.915	21079.36
690.262	21115.29
690.609	20954.62
690.956	20890.21
691.303	20902.42
691.65	20780.39
691.997	20811.57
692.344	20585.36
692.69	20623.1
693.037	20669.88
693.383	20370.68
693.73	20480.51
694.077	20378.81
694.423	20389.89
694.769	20305.82
695.116	20198.03
695.462	20113.96
695.808	20187.18
696.155	20135.88
696.501	20038.26
696.847	20047.07
697.193	19843.46
697.539	19898.6
697.885	19706.97
698.231	19634.65
698.577	19739.74
698.923	19560.08
699.269	19501.1
699.614	19416.81
699.96	19318.5
700.306	19383.81
700.651	19299.52
700.997	19283.48
701.342	19242.12
701.688	19159.64
702.033	19010.71
702.379	19059.98
702.724	19017.27
703.069	19035.12
703.415	18767.56
703.76	18828.57
704.105	18793.77
704.45	18789.48
704.795	18602.82
705.14	18508.81
705.485	18721.91
705.83	18418.41
706.175	18459.32
706.52	18350.62
706.865	18250.96
707.209	18258.19
707.554	18180.45
707.899	18253.22
708.243	18059.33
708.588	18082.38
708.932	17981.14
709.277	17954.92
709.621	17884.42
709.966	17866.11
710.31	17866.11
710.654	17712.9
710.998	17719.68
711.342	17714.48
711.687	17685.33
712.031	17690.07
712.375	17629.96
712.719	17623.18
713.063	17464.99
713.407	17568.27
713.75	17518.32
714.094	17431.1
714.438	17367.37
714.782	17382.96
715.125	17355.62
715.469	17272.23
715.812	17292.57
716.156	17122.63
716.499	17238.78
716.843	17215.73
717.186	17103.65
717.53	17168.96
717.873	17101.61
718.216	16960.15
718.559	16978
718.902	16831.79
719.246	16893.48
719.589	16907.72
719.932	16755.63
720.275	16814.61
720.617	16816.65
720.96	16767.16
721.303	16822.98
721.646	16789.53
721.989	16650.55
722.331	16720.61
722.674	16659.82
723.016	16664.56
723.359	16676.54
723.701	16636.09
724.044	16528.75
724.386	16403.55
724.729	16600.16
725.071	16571
725.413	16533.04
725.755	16586.37
726.097	16537.56
726.439	16401.74
726.782	16379.82
727.124	16487.39
727.465	16367.17
727.807	16315.64
728.149	16359.49
728.491	16266.38
728.833	16340.05
729.175	16264.8
729.516	16273.84
729.858	16275.42
730.199	16189.77
730.541	16164.91
730.882	16171.92
731.224	16280.39
731.565	16079.72
731.906	16145.48
732.248	16181.86
732.589	16020.96
732.93	16105.03
733.271	16019.61
733.612	16053.73
733.953	16126.72
734.294	16003.56
734.635	15940.74
734.976	16107.29
735.317	15987.29
735.658	16040.17
735.999	16046.95
736.339	16046.05
736.68	16089.21
737.021	16030
737.361	15952.94
737.702	16064.13
738.042	16021.64
738.383	15964.24
738.723	16053.05
739.063	15971.25
739.404	16027.29
739.744	15951.59
740.084	15890.12
740.424	16005.14
740.764	15951.59
741.104	15905.26
741.444	16000.85
741.784	15978.03
742.124	15963.34
742.464	15963.34
742.804	16008.53
743.143	15987.74
743.483	15993.39
743.823	15925.37
744.162	15929.21
744.502	16122.66
744.841	15905.49
745.181	16058.48
745.52	16019.61
745.86	16095.31
746.199	15933.73
746.538	16141.64
746.877	16185.48
747.216	16223.9
747.556	16267.74
747.895	16209.66
748.234	16131.02
748.573	16239.71
748.911	16288.98
749.25	16334.63
749.589	16311.12
749.928	16456.88
750.267	16494.17
750.605	16464.57
750.944	16594.96
751.283	16542.76
751.621	16622.98
751.96	16624.56
752.298	16701.4
752.636	16747.95
752.975	16795.86
753.313	16880.38
753.651	16914.72
753.989	16985.68
754.327	16930.32
754.666	17048.96
755.004	17173.7
755.342	17237.65
755.679	17232.68
756.017	17290.76
756.355	17432.45
756.693	17358.78
757.031	17634.25
