Data from hue_50_FLMS001491_32.txt Node
Date: Mon Feb 06 15:10:02 GMT 2017
User: dcchb
Spectrometer: FLMS00149
Trigger mode: 0
Integration Time (sec): 2.000000E-2
Scans to average: 10
Electric dark correction enabled: true
Nonlinearity correction enabled: false
Boxcar width: 0
XAxis mode: Wavelengths
Number of Pixels in Spectrum: 2048
>>>>>Begin Spectral Data<<<<<
341.393	-7.92
341.776	-7.92
342.16	-7.92
342.543	-56.96
342.927	-45.44
343.31	-56.06
343.693	-77.75
344.077	-70.29
344.46	-51.09
344.843	-56.74
345.226	-59.67
345.61	-25.1
345.993	-23.52
346.376	-1.82
346.759	5.18
347.142	38.85
347.525	43.37
347.908	67.1
348.291	81.79
348.674	66.65
349.057	119.08
349.44	118.4
349.823	156.59
350.206	154.11
350.588	178.29
350.971	193.43
351.354	210.15
351.737	240.88
352.119	251.96
352.502	244.27
352.884	282.24
353.267	272.52
353.65	283.82
354.032	291.05
354.414	324.5
354.797	332.41
355.179	328.79
355.562	319.3
355.944	327.89
356.326	350.49
356.709	323.37
357.091	325.4
357.473	334.67
357.855	348.68
358.238	329.69
358.62	344.38
359.002	348.45
359.384	362.01
359.766	350.94
360.148	349.36
360.53	346.64
360.912	351.62
361.294	324.05
361.676	315.01
362.057	326.3
362.439	317.72
362.821	345.97
363.203	310.94
363.584	324.05
363.966	342.58
364.348	325.18
364.729	327.89
365.111	326.08
365.493	315.01
365.874	328.79
366.256	311.62
366.637	323.59
367.019	333.99
367.4	334.89
367.781	308.23
368.163	319.07
368.544	308.45
368.925	316.59
369.306	316.36
369.688	310.26
370.069	312.07
370.45	314.78
370.831	303.48
371.212	318.62
371.593	326.08
371.974	306.19
372.355	309.58
372.736	313.65
373.117	308.68
373.498	325.85
373.879	315.01
374.26	293.99
374.641	320.2
375.021	324.72
375.402	305.51
375.783	323.59
376.163	312.52
376.544	319.75
376.925	342.12
377.305	338.51
377.686	323.82
378.066	320.66
378.447	322.01
378.827	342.12
379.208	314.33
379.588	325.85
379.968	325.18
380.349	327.89
380.729	342.8
381.109	331.73
381.489	331.28
381.87	334.21
382.25	334.21
382.63	330.82
383.01	357.94
383.39	342.58
383.77	331.73
384.15	330.37
384.53	366.3
384.91	350.71
385.29	340.99
385.67	338.96
386.049	357.72
386.429	341.67
386.809	343.93
387.189	342.12
387.568	343.25
387.948	343.48
388.328	338.51
388.707	363.14
389.087	369.69
389.466	359.75
389.846	360.65
390.225	366.76
390.605	359.75
390.984	357.26
391.363	367.43
391.743	354.78
392.122	351.84
392.501	362.69
392.881	359.3
393.26	378.96
393.639	358.85
394.018	354.78
394.397	377.38
394.776	358.39
395.155	377.6
395.534	385.06
395.913	366.98
396.292	384.83
396.671	369.92
397.05	361.33
397.429	374.44
397.808	372.18
398.186	378.28
398.565	361.56
398.944	397.49
399.323	352.97
399.701	381.44
400.08	397.04
400.458	367.21
400.837	392.29
401.215	385.74
401.594	390.26
401.972	401.33
402.351	378.96
402.729	380.99
403.107	373.08
403.486	412.63
403.864	398.85
404.242	395.23
404.62	402.91
404.999	403.14
405.377	388.68
405.755	409.69
406.133	406.98
406.511	385.96
406.889	407.21
407.267	386.19
407.645	422.8
408.023	406.08
408.401	418.28
408.779	398.62
409.156	407.88
409.534	418.73
409.912	413.76
410.29	424.16
410.667	443.59
411.045	436.13
411.422	410.82
411.8	443.82
412.178	434.78
412.555	450.37
412.933	437.94
413.31	425.29
413.687	446.08
414.065	453.53
414.442	437.94
414.819	440.88
415.197	475.91
415.574	465.28
415.951	468.22
416.328	449.69
416.705	435.45
417.082	453.76
417.46	479.75
417.837	470.26
418.214	494.89
418.591	492.4
418.967	463.48
419.344	468.67
419.721	472.74
420.098	471.39
420.475	468
420.852	480.88
421.228	485.62
421.605	473.42
421.982	499.86
422.358	489.46
422.735	494.66
423.111	457.37
423.488	536.02
423.864	474.1
424.241	515.68
424.617	500.54
424.994	500.54
425.37	505.96
425.746	529.69
426.123	505.51
426.499	519.07
426.875	546.19
427.251	505.96
427.627	537.6
428.003	544.6
428.379	545.06
428.756	529.24
429.132	555.23
429.507	561.33
429.883	573.76
430.259	557.03
430.635	548.67
431.011	571.04
431.387	558.84
431.763	587.77
432.138	553.64
432.514	591.83
432.89	583.93
433.265	596.13
433.641	592.51
434.016	585.28
434.392	601.78
434.767	614.43
435.143	605.17
435.518	630.7
435.894	609.01
436.269	636.35
436.644	637.26
437.02	627.77
437.395	625.96
437.77	632.51
438.145	644.94
438.52	660.53
438.895	641.55
439.271	653.3
439.646	638.84
440.021	677.93
440.395	659.86
440.77	676.35
441.145	646.75
441.52	656.92
441.895	664.38
442.27	670.48
442.645	663.47
443.019	689.23
443.394	696.69
443.769	709.35
444.143	692.62
444.518	708.44
444.892	705.96
445.267	717.26
445.641	726.52
446.016	715
446.39	738.27
446.764	718.16
447.139	710.7
447.513	709.57
447.887	731.94
448.262	723.58
448.636	737.14
449.01	720.19
449.384	737.37
449.758	761.55
450.132	738.95
450.506	737.14
450.88	772.39
451.254	761.77
451.628	781.21
452.002	764.26
452.376	790.02
452.75	786.63
453.123	810.36
453.497	798.16
453.871	812.85
454.244	787.54
454.618	817.14
454.992	823.02
455.365	825.73
455.739	830.25
456.112	863.24
456.486	861.43
456.859	867.99
457.232	874.31
457.606	876.8
457.979	871.15
458.352	907.53
458.725	916.57
459.099	919.06
459.472	921.09
459.845	936.46
460.218	933.07
460.591	914.31
460.964	958.38
461.337	976.91
461.71	990.92
462.083	980.98
462.456	1007.87
462.829	992.28
463.201	1008.77
463.574	1010.58
463.947	1047.42
464.32	1082.67
464.692	1062.33
465.065	1082.9
465.438	1066.17
465.81	1115.21
466.183	1137.81
466.555	1135.32
466.928	1159.5
467.3	1180.75
467.672	1182.1
468.045	1201.99
468.417	1221.42
468.789	1235.89
469.161	1256.9
469.534	1259.84
469.906	1289.44
470.278	1317.69
470.65	1315.21
471.022	1380.51
471.394	1395.2
471.766	1448.31
472.138	1432.94
472.51	1472.49
472.882	1495.09
473.253	1537.57
473.625	1557.91
473.997	1601.53
474.369	1609.89
474.74	1633.62
475.112	1698.7
475.484	1741.63
475.855	1753.16
476.227	1833.38
476.598	1874.51
476.97	1883.55
477.341	1948.41
477.713	2012.36
478.084	2069.99
478.455	2109.31
478.827	2164.45
479.198	2213.26
479.569	2266.14
479.94	2349.75
480.311	2404.22
480.682	2482.86
481.053	2592.46
481.424	2642.63
481.795	2716.98
482.166	2793.13
482.537	2857.99
482.908	2925.11
483.279	3014.37
483.65	3102.73
484.021	3260.47
484.391	3279.22
484.762	3374.13
485.133	3452.55
485.503	3579.1
485.874	3690.51
486.244	3741.36
486.615	3889.83
486.985	3998.98
487.356	4115.81
487.726	4232.42
488.097	4337.72
488.467	4395.35
488.837	4522.8
489.207	4695.23
489.578	4833.31
489.948	4918.05
490.318	5056.35
490.688	5118.5
491.058	5339.96
491.428	5427.19
491.798	5574.53
492.168	5676.45
492.538	5778.59
492.908	5942.43
493.278	6133.38
493.648	6184.23
494.017	6354.4
494.387	6453.38
494.757	6602.3
495.126	6760.49
495.496	6836.87
495.866	6968.16
496.235	7078.22
496.605	7236.41
496.974	7299.23
497.344	7485.21
497.713	7555.27
498.082	7711.42
498.452	7832.32
498.821	7972.88
499.19	8038.19
499.559	8219.43
499.928	8302.82
500.298	8390.27
500.667	8618.06
501.036	8646.31
501.405	8825.74
501.774	8872.07
502.143	9064.61
502.512	9090.14
502.88	9253.75
503.249	9374.2
503.618	9432.96
503.987	9594.76
504.356	9659.17
504.724	9786.62
505.093	9823.91
505.462	9979.84
505.83	10046.28
506.199	10194.29
506.567	10414.85
506.936	10407.17
507.304	10578.01
507.672	10562.42
508.041	10733.04
508.409	10761.96
508.777	10977.55
509.145	11090.09
509.514	11144.1
509.882	11298.9
510.25	11342.51
510.618	11383.87
510.986	11471.32
511.354	11688.04
511.722	11777.3
512.09	11822.95
512.458	11973.46
512.826	12128.93
513.193	12137.75
513.561	12227.46
513.929	12396.95
514.297	12540.67
514.664	12612.54
515.032	12671.29
515.4	12812.08
515.767	12929.36
516.135	12925.97
516.502	12949.48
516.869	13167.55
517.237	13300.2
517.604	13322.57
517.972	13498.16
518.339	13589.23
518.706	13608.22
519.073	13706.74
519.44	13829.23
519.808	13917.36
520.175	13936.12
520.542	14111.25
520.909	14210.91
521.276	14218.37
521.643	14391.7
522.009	14577.46
522.376	14661.3
522.743	14690
523.11	14824.68
523.477	15071.23
523.843	15047.05
524.21	15219.92
524.577	15441.16
524.943	15457.43
525.31	15489.97
525.676	15731.1
526.043	15769.06
526.409	15888.83
526.776	16079.79
527.142	16081.82
527.508	16128.6
527.874	16274.13
528.241	16435.26
528.607	16537.18
528.973	16595.26
529.339	16690.17
529.705	16762.03
530.071	16975.58
530.437	17006.77
530.803	17157.27
531.169	17206.54
531.535	17236.82
531.901	17342.58
532.267	17439.08
532.632	17657.37
532.998	17546.87
533.364	17684.04
533.73	17726.07
534.095	17914.54
534.461	17946.63
534.826	18099.4
535.192	18215.33
535.557	18340.29
535.923	18293.52
536.288	18349.56
536.653	18423.23
537.019	18501.65
537.384	18581.42
537.749	18614.19
538.114	18659.38
538.479	18630.91
538.845	18823.45
539.21	18834.07
539.575	18951.13
539.94	18950.67
540.305	19127.62
540.67	19074.74
541.034	19152.25
541.399	19275.19
541.764	19315.41
542.129	19345.47
542.494	19441.96
542.858	19607.83
543.223	19633.82
543.587	19779.13
543.952	19771.22
544.316	19775.06
544.681	19913.59
545.045	19999.91
545.41	20104.99
545.774	20106.12
546.138	20183.18
546.503	20100.7
546.867	20184.99
547.231	20415.27
547.595	20384.99
547.959	20446.45
548.324	20484.42
548.688	20596.96
549.052	20683.51
549.416	20673.79
549.779	20783.17
550.143	20845.99
550.507	20961.92
550.871	20994.91
551.235	20991.75
551.599	21111.52
551.962	21286.66
552.326	21273.1
552.689	21413.66
553.053	21342.48
553.417	21349.71
553.78	21701.34
554.143	21672.18
554.507	21760.32
554.87	21796.47
555.234	22039.63
555.597	21918.73
555.96	21902.23
556.323	22038.95
556.686	22089.57
557.05	22258.84
557.413	22328.21
557.776	22500.86
558.139	22598.26
558.502	22658.37
558.865	22707.64
559.228	22921.42
559.59	22927.07
559.953	22888.42
560.316	23217.91
560.679	23276.66
561.041	23364.34
561.404	23419.94
561.767	23473.72
562.129	23518.92
562.492	23715.52
562.854	23708.29
563.217	23790.77
563.579	23859.25
563.941	23971.11
564.304	24013.82
564.666	24240.03
565.028	24334.94
565.39	24395.05
565.753	24552.79
566.115	24569.51
566.477	24699
566.839	24845.89
567.201	24936.05
567.563	24942.61
567.925	25101.92
568.287	25146.67
568.648	25268.47
569.01	25328.81
569.372	25427.79
569.734	25475.7
570.095	25646.54
570.457	25717.95
570.819	25843.6
571.18	25867.78
571.542	26003.14
571.903	25994.33
572.265	26138.96
572.626	26255.11
572.987	26322.68
573.349	26441.78
573.71	26609.23
574.071	26636.8
574.432	26695.78
574.794	26887.87
575.155	26925.15
575.516	26840.18
575.877	27008.54
576.238	27147.52
576.599	27314.3
576.96	27231.13
577.32	27246.95
577.681	27492.14
578.042	27594.97
578.403	27592.25
578.763	27674.06
579.124	27731.69
579.485	27909.99
579.845	28091
580.206	28088.51
580.566	28183.65
580.927	28157.44
581.287	28497.54
581.648	28410.09
582.008	28799
582.368	28574.38
582.728	28624.77
583.089	28798.1
583.449	28854.37
583.809	29022.27
584.169	29086
584.529	29192.66
584.889	29440.12
585.249	29293
585.609	29323.96
585.969	29645.53
586.329	29690.73
586.688	29829.26
587.048	29802.59
587.408	29921.68
587.768	30039.87
588.127	30046.65
588.487	30241.45
588.846	30438.28
589.206	30324.39
589.565	30530.03
589.925	30690.25
590.284	30680.54
590.643	30917.37
591.003	31100.41
591.362	31209.11
591.721	31200.07
592.08	31179.96
592.44	31390.8
592.799	31521.87
593.158	31520.29
593.517	31693.16
593.876	31750.11
594.235	31871.92
594.593	31901.75
594.952	32064.68
595.311	31997.56
595.67	32109.65
596.029	32344.67
596.387	32430.77
596.746	32593.03
597.104	32463.77
597.463	32597.55
597.822	32814.49
598.18	32677.77
598.538	32793.02
598.897	33055.39
599.255	33015.61
599.613	33341.93
599.972	33246.8
600.33	33357.53
600.688	33336.28
601.046	33628.71
601.404	33720
601.762	33725.43
602.12	33918.42
602.478	33881.58
602.836	33941.47
603.194	33936.95
603.552	34069.82
603.91	34074.12
604.268	34403.15
604.625	34158.18
604.983	34568.57
605.341	34369.03
605.698	34608.57
606.056	34499.42
606.413	34734.44
606.771	34956.58
607.128	34785.51
607.485	34710.94
607.843	34889.01
608.2	35115.45
608.557	35257.36
608.914	35105.28
609.272	35434.76
609.629	35450.58
609.986	35483.57
610.343	35508.66
610.7	35707.3
611.057	35761.08
611.414	35820.96
611.771	35833.62
612.127	36067.29
612.484	35975.54
612.841	36228.86
613.198	36101.18
613.554	36145.48
613.911	36409.2
614.267	36363.32
614.624	36354.06
614.98	36486.03
615.337	36800.15
615.693	36691.9
616.05	36608.06
616.406	36931.22
616.762	36807.61
617.118	36682.86
617.475	36811.22
617.831	37023.42
618.187	37093.7
618.543	37120.59
618.899	37169.4
619.255	37341.6
619.611	37297.54
619.967	37599.45
620.323	37491.2
620.678	37490.07
621.034	37544.54
621.39	37384.54
621.746	37567.59
622.101	37875.83
622.457	37549.28
622.812	37771.87
623.168	37851.19
623.523	37832.66
623.879	37866.79
624.234	37715.83
624.589	37920.57
624.945	37857.52
625.3	37872.89
625.655	37931.19
626.01	38006.9
626.365	38016.61
626.72	37921.47
627.075	37920.8
627.43	37971.87
627.785	37995.37
628.14	37958.99
628.495	38057.97
628.85	37941.59
629.205	37963.06
629.559	38127.8
629.914	37902.94
630.269	37888.26
630.623	37958.54
630.978	37990.4
631.332	38017.74
631.687	38198.08
632.041	38003.51
632.396	38068.14
632.75	37862.95
633.104	38123.73
633.459	37886.45
633.813	37953.34
634.167	37908.37
634.521	37955.6
634.875	38107.46
635.229	37941.81
635.583	37852.1
635.937	37830.86
636.291	37774.36
636.645	37804.87
636.999	37772.33
637.352	37953.34
637.706	37717.41
638.06	37895.49
638.413	37740.01
638.767	37714.7
639.121	37780.69
639.474	37540.02
639.828	37478.1
640.181	37570.07
640.534	37637.87
640.888	37624.53
641.241	37367.82
641.594	37532.78
641.947	37557.87
642.301	37382.28
642.654	37454.59
643.007	37418.44
643.36	37296.41
643.713	37384.09
644.066	37393.35
644.419	37219.35
644.771	37158.78
645.124	36649.64
645.477	36634.95
645.83	36469.08
646.182	36357.67
646.535	36153.39
646.888	36241.52
647.24	36052.82
647.593	36246.26
647.945	36181.86
648.298	36100.73
648.65	35984.8
649.002	35759.5
649.355	36038.36
649.707	36005.82
650.059	36101.86
650.411	36566.48
650.763	36542.75
651.115	36912.24
651.467	36803.76
651.819	36718.57
652.171	36836.53
652.523	36604.22
652.875	36756.53
653.227	36447.62
653.578	36765.35
653.93	36698.91
654.282	36551.34
654.633	36398.58
654.985	36490.78
655.337	36504.79
655.688	36635.18
656.039	36671.79
656.391	36361.52
656.742	36469.08
657.094	36428.18
657.445	36673.82
657.796	36519.7
658.147	36361.52
658.498	36453.49
658.849	36524.9
659.2	36417.79
659.551	36245.13
659.902	36446.94
660.253	36365.58
660.604	36509.99
660.955	36289.2
661.306	36372.81
661.656	36268.41
662.007	36230.45
662.358	36277
662.708	36255.3
663.059	36100.96
663.409	36020.73
663.76	36357
664.11	36204.91
664.461	36339.82
664.811	36245.59
665.161	36176.89
665.511	36035.42
665.862	36230.9
666.212	36181.18
666.562	36263.44
666.912	36047.85
667.262	36043.11
667.612	36196.1
667.962	36225.02
668.312	36222.99
668.662	36304.34
669.011	36213.5
669.361	36150.45
669.711	36050.79
670.06	36090.56
670.41	36104.57
670.76	36005.82
671.109	36035.87
671.459	36089.21
671.808	36066.16
672.157	36224.34
672.507	35781.19
672.856	35844.69
673.205	35964.24
673.554	35973.73
673.904	35843.11
674.253	36026.61
674.602	35895.77
674.951	35389.79
675.3	35191.6
675.649	35842.43
675.998	35891.25
676.346	35737.35
676.695	35838.59
677.044	35612.61
677.393	35724.92
677.741	35686.51
678.09	35556.11
678.438	35618.03
678.787	35515.21
679.135	35552.72
679.484	35279.06
679.832	35493.06
680.181	35238.83
680.529	35411.26
680.877	35467.53
681.225	35342.11
681.573	35358.15
681.922	35140.08
682.27	35243.35
682.618	35140.08
682.966	35044.04
683.314	35138.72
683.661	35046.3
684.009	34914.77
684.357	34875
684.705	34867.32
685.053	34921.55
685.4	34747.09
685.748	34593.2
686.095	34615.57
686.443	34536.7
686.79	34435.69
687.138	34459.87
687.485	34478.85
687.832	34346.2
688.18	34378.74
688.527	34263.04
688.874	34290.16
689.221	34144.62
689.568	33911.86
689.915	34036.61
690.262	34017.62
690.609	33801.13
690.956	33707.57
691.303	33706.67
691.65	33566.79
691.997	33443.17
692.344	33311.88
692.69	33398.66
693.037	33421.71
693.383	33007.93
693.73	33167.7
694.077	33022.85
694.423	33024.65
694.769	32919.35
695.116	32798.9
695.462	32767.71
695.808	32668.05
696.155	32783.3
696.501	32450.43
696.847	32595.96
697.193	32318.46
697.539	32209.53
697.885	32146.71
698.231	32107.39
698.577	32162.98
698.923	32111.46
699.269	31954.85
699.614	31853.84
699.96	31758.7
700.306	31708.3
700.651	31632.6
700.997	31343.34
701.342	31385.15
701.688	31452.27
702.033	31323.68
702.379	31192.84
702.724	31123.69
703.069	31229.9
703.415	30821.55
703.76	30989.45
704.105	30877.59
704.45	30842.56
704.795	30656.35
705.14	30509.69
705.485	30572.52
705.83	30337.49
706.175	30426.53
706.52	30366.42
706.865	30280.77
707.209	30237.61
707.554	30124.39
707.899	30248.68
708.243	29964.85
708.588	30010.27
708.932	29814.57
709.277	29674.91
709.621	29792.2
709.966	29602.82
710.31	29618.42
710.654	29360.12
710.998	29517.85
711.342	29526.67
711.687	29309.05
712.031	29257.52
712.375	29093.68
712.719	29232.44
713.063	29158.09
713.407	29201.03
713.75	29003.29
714.094	29038.54
714.438	28872.9
714.782	28894.82
715.125	28730.08
715.469	28759.68
715.812	28567.82
716.156	28484.66
716.499	28546.13
716.843	28605.79
717.186	28296.64
717.53	28522.63
717.873	28439.69
718.216	28383.65
718.559	28153.14
718.902	28096.2
719.246	28118.34
719.589	27991.34
719.932	27983.66
720.275	27940.49
720.617	27948.86
720.96	27855.07
721.303	27843.55
721.646	27896.65
721.989	27595.42
722.331	27691.24
722.674	27660.73
723.016	27727.62
723.359	27555.42
723.701	27495.08
724.044	27459.15
724.386	27364.92
724.729	27439.04
725.071	27365.82
725.413	27304.58
725.755	27330.34
726.097	27273.39
726.439	26979.84
726.782	27026.39
727.124	27227.07
727.465	26940.97
727.807	26997.69
728.149	26912.5
728.491	26877.47
728.833	26968.32
729.175	26648.32
729.516	26734.65
729.858	26693.75
730.199	26750.24
730.541	26693.07
730.882	26668.66
731.224	26665.5
731.565	26511.61
731.906	26500.53
732.248	26582.11
732.589	26386.18
732.93	26393.42
733.271	26271.39
733.612	26437.71
733.953	26324.72
734.294	26335.11
734.635	26136.25
734.976	26240.88
735.317	26059.87
735.658	26145.51
735.999	25936.48
736.339	26007.21
736.68	26144.84
737.021	26022.58
737.361	25863.71
737.702	26001.11
738.042	25919.53
738.383	25795.01
738.723	25788.23
739.063	25668.92
739.404	25754.11
739.744	25690.61
740.084	25528.81
740.424	25648.8
740.764	25551.86
741.104	25630.72
741.444	25503.27
741.784	25331.52
742.124	25394.35
742.464	25472.76
742.804	25270.06
743.143	25209.72
743.483	25367
743.823	25086.78
744.162	25155.93
744.502	25091.3
744.841	25088.59
745.181	25096.95
745.52	25008.37
745.86	25030.97
746.199	24953.68
746.538	24936.73
746.877	25093.56
747.216	24972.66
747.556	24736.28
747.895	24913
748.234	24765.66
748.573	24687.25
748.911	24720.01
749.25	24681.82
749.589	24471.43
749.928	24519.12
750.267	24547.81
750.605	24552.56
750.944	24397.76
751.283	24280.03
751.621	24395.5
751.96	24263.08
752.298	24217.88
752.636	24160.25
752.975	24192.34
753.313	24115.51
753.651	24141.05
753.989	23934.27
754.327	23880.94
754.666	23811.11
755.004	23928.4
755.342	23925.68
755.679	23865.35
756.017	23751.23
756.355	23697.67
756.693	23719.59
757.031	23644.56
757.368	23387.85
