Data from hue_170_FLMS001491_00021.txt Node
Date: Tue Feb 07 16:48:27 GMT 2017
User: dcchb
Spectrometer: FLMS00149
Trigger mode: 0
Integration Time (sec): 2.000000E-2
Scans to average: 10
Electric dark correction enabled: true
Nonlinearity correction enabled: false
Boxcar width: 0
XAxis mode: Wavelengths
Number of Pixels in Spectrum: 2048
>>>>>Begin Spectral Data<<<<<
341.393	1.33
341.776	1.33
342.16	1.33
342.543	-60.14
342.927	-64.66
343.31	-72.79
343.693	-46.13
344.077	-61.72
344.46	-54.94
344.843	-43.19
345.226	-50.65
345.61	-48.61
345.993	-10.2
346.376	-7.26
346.759	13.08
347.142	45.39
347.525	24.15
347.908	65.73
348.291	81.1
348.674	81.33
349.057	84.72
349.44	124.71
349.823	137.82
350.206	157.93
350.588	199.74
350.971	216.46
351.354	252.85
351.737	242.9
352.119	247.65
352.502	266.41
352.884	280.87
353.267	270.93
353.65	292.62
354.032	292.39
354.414	302.79
354.797	304.6
355.179	316.57
355.562	320.87
355.944	328.32
356.326	324.26
356.709	339.4
357.091	345.05
357.473	340.3
357.855	352.73
358.238	333.97
358.62	334.88
359.002	359.28
359.384	313.18
359.766	333.07
360.148	344.14
360.53	323.13
360.912	331.26
361.294	324.93
361.676	326.06
362.057	343.47
362.439	319.29
362.821	332.84
363.203	322.45
363.584	319.74
363.966	325.84
364.348	334.2
364.729	339.85
365.111	320.42
365.493	313.18
365.874	309.34
366.256	317.93
366.637	312.51
367.019	322.22
367.4	317.93
367.781	318.61
368.163	306.4
368.544	314.31
368.925	324.48
369.306	304.14
369.688	325.61
370.069	301.21
370.45	296.91
370.831	323.35
371.212	291.49
371.593	320.19
371.974	300.08
372.355	317.03
372.736	309.12
373.117	314.77
373.498	321.32
373.879	301.21
374.26	320.19
374.641	302.56
375.021	332.84
375.402	328.78
375.783	323.13
376.163	315.22
376.544	331.26
376.925	319.51
377.305	334.88
377.686	317.7
378.066	333.07
378.447	334.65
378.827	324.03
379.208	315.9
379.588	326.52
379.968	345.95
380.349	341.43
380.729	323.35
381.109	342.79
381.489	336.91
381.87	327.42
382.25	350.92
382.63	348.44
383.01	347.76
383.39	309.57
383.77	339.4
384.15	340.98
384.53	334.43
384.91	358.15
385.29	342.11
385.67	326.97
386.049	354.31
386.429	353.86
386.809	352.28
387.189	339.4
387.568	340.3
387.948	343.92
388.328	372.62
388.707	351.83
389.087	371.94
389.466	358.83
389.846	366.97
390.225	365.16
390.605	369.68
390.984	391.15
391.363	342.56
391.743	370.36
392.122	376.91
392.501	366.97
392.881	382.79
393.26	388.89
393.639	365.84
394.018	378.04
394.397	405.16
394.776	371.94
395.155	396.8
395.534	374.2
395.913	400.87
396.292	396.57
396.671	381.66
397.05	397.93
397.429	406.29
397.808	389.79
398.186	391.15
398.565	404.48
398.944	399.96
399.323	405.61
399.701	399.96
400.08	408.32
400.458	413.29
400.837	417.59
401.215	411.03
401.594	417.36
401.972	400.64
402.351	410.13
402.729	418.04
403.107	421.43
403.486	399.28
403.864	429.56
404.242	419.85
404.62	435.89
404.999	419.62
405.377	413.29
405.755	425.5
406.133	441.09
406.511	453.29
406.889	443.8
407.267	458.04
407.645	459.17
408.023	451.03
408.401	441.77
408.779	449.68
409.156	464.14
409.534	472.28
409.912	486.29
410.29	498.26
410.667	524.7
411.045	477.47
411.422	505.72
411.8	496.68
412.178	520.41
412.555	497.81
412.933	528.32
413.31	519.28
413.687	526.74
414.065	530.13
414.442	542.56
414.819	524.03
415.197	539.84
415.574	537.58
415.951	543.69
416.328	555.44
416.705	566.74
417.082	571.26
417.46	567.19
417.837	566.96
418.214	548.21
418.591	577.81
418.967	587.53
419.344	604.93
419.721	604.48
420.098	593.85
420.475	621.42
420.852	577.81
421.228	621.88
421.605	634.76
421.982	625.94
422.358	631.82
422.735	666.85
423.111	626.4
423.488	649.22
423.864	657.58
424.241	672.72
424.617	690.8
424.994	691.7
425.37	698.71
425.746	691.93
426.123	707.07
426.499	675.66
426.875	703.46
427.251	712.5
427.627	723.34
428.003	738.94
428.379	766.51
428.756	754.98
429.132	745.26
429.507	771.02
429.883	766.73
430.259	765.38
430.635	784.13
431.011	798.59
431.387	809.44
431.763	806.5
432.138	838.59
432.514	815.09
432.89	823.45
433.265	860.74
433.641	872.04
434.016	876.56
434.392	876.33
434.767	887.18
435.143	914.07
435.518	900.29
435.894	933.96
436.269	930.34
436.644	980.51
437.02	963.56
437.395	964.01
437.77	994.75
438.145	992.04
438.52	993.17
438.895	1025.48
439.271	1009.44
439.646	1043.33
440.021	1045.59
440.395	1061.86
440.77	1063.67
441.145	1070.9
441.52	1067.51
441.895	1099.15
442.27	1091.69
442.645	1132.82
443.019	1117.46
443.394	1111.35
443.769	1144.35
444.143	1140.51
444.518	1155.2
444.892	1154.97
445.267	1161.3
445.641	1182.54
446.016	1176.66
446.39	1189.09
446.764	1176.21
447.139	1217.11
447.513	1245.36
447.887	1247.4
448.262	1239.94
448.636	1246.49
449.01	1262.76
449.384	1262.76
449.758	1279.26
450.132	1302.31
450.506	1282.2
450.88	1304.57
451.254	1302.76
451.628	1315.87
452.002	1362.42
452.376	1361.74
452.75	1381.18
453.123	1370.11
453.497	1397.45
453.871	1408.52
454.244	1484.68
454.618	1434.74
454.992	1467.05
455.365	1465.47
455.739	1485.36
456.112	1563.09
456.486	1554.06
456.859	1543.21
457.232	1558.8
457.606	1570.33
457.979	1618.23
458.352	1637.22
458.725	1677.22
459.099	1656.88
459.472	1669.98
459.845	1691
460.218	1705.69
460.591	1744.78
460.964	1751.56
461.337	1815.07
461.71	1840.38
462.083	1841.05
462.456	1836.08
462.829	1892.58
463.201	1888.96
463.574	1919.24
463.947	1962.41
464.32	2001.05
464.692	2013.03
465.065	2030.2
465.438	2079.24
465.81	2101.16
466.183	2143.19
466.555	2213.02
466.928	2206.24
467.3	2234.26
467.672	2259.12
468.045	2297.99
468.417	2368.27
468.789	2373.92
469.161	2401.26
469.534	2434.71
469.906	2478.78
470.278	2513.35
470.65	2551.54
471.022	2602.16
471.394	2641.71
471.766	2703.63
472.138	2740.46
472.51	2801.25
472.882	2843.51
473.253	2899.33
473.625	2936.39
473.997	3028.14
474.369	3054.35
474.74	3183.16
475.112	3221.81
475.484	3253.45
475.855	3314.69
476.227	3408.24
476.598	3496.6
476.97	3571.86
477.341	3643.94
477.713	3697.5
478.084	3735.92
478.455	3872.86
478.827	3955.8
479.198	4062.69
479.569	4116.93
479.94	4231.5
480.311	4328.45
480.682	4451.38
481.053	4581.32
481.424	4677.59
481.795	4731.15
482.166	4812.73
482.537	4907.41
482.908	5053.4
483.279	5135.43
483.65	5263.79
484.021	5415.42
484.391	5477.57
484.762	5542.88
485.133	5647.28
485.503	5807.5
485.874	5941.74
486.244	6039.13
486.615	6204.33
486.985	6316.87
487.356	6462.63
487.726	6553.02
488.097	6761.83
488.467	6754.14
488.837	6956.17
489.207	7093.57
489.578	7221.25
489.948	7367.46
490.318	7518.42
490.688	7499.66
491.058	7723.61
491.428	7846.55
491.798	7938.97
492.168	8227.1
492.538	8196.82
492.908	8332.63
493.278	8460.77
493.648	8547.54
494.017	8690.14
494.387	8808.78
494.757	8819.17
495.126	8969.23
495.496	9094.87
495.866	9161.09
496.235	9294.87
496.605	9346.17
496.974	9427.97
497.344	9619.61
497.713	9696.67
498.082	9773.27
498.452	9887.62
498.821	9896.21
499.19	9912.48
499.559	10105.92
499.928	10151.57
500.298	10143.89
500.667	10400.6
501.036	10294.39
501.405	10482.86
501.774	10528.06
502.143	10593.59
502.512	10614.83
502.88	10838.1
503.249	10763.3
503.618	10867.48
503.987	10895.28
504.356	10983.41
504.724	11074.93
505.093	11007.37
505.462	11150.64
505.83	11152.9
506.199	11279.22
506.567	11412.1
506.936	11405.1
507.304	11540.46
507.672	11473.57
508.041	11530.52
508.409	11589.72
508.777	11679.21
509.145	11707.23
509.514	11764.63
509.882	11821.58
510.25	11814.35
510.618	11845.08
510.986	11937.28
511.354	12029.26
511.722	12062.03
512.09	12182.48
512.458	12085.98
512.826	12155.58
513.193	12282.59
513.561	12261.8
513.929	12330.72
514.297	12424.28
514.664	12443.26
515.032	12441.68
515.4	12491.39
515.767	12463.82
516.135	12532.3
516.502	12476.48
516.869	12633.76
517.237	12632.86
517.604	12558.29
517.972	12667.66
518.339	12716.02
518.706	12703.37
519.073	12700.65
519.44	12830.59
519.808	12816.36
520.175	12828.79
520.542	12970.7
520.909	12956.47
521.276	12876.24
521.643	12933.42
522.009	13013.19
522.376	13047.99
522.743	13057.48
523.11	13075.11
523.477	13203.01
523.843	13186.29
524.21	13264.93
524.577	13251.15
524.943	13326.18
525.31	13323.24
525.676	13393.97
526.043	13431.48
526.409	13491.59
526.776	13474.87
527.142	13441.43
527.508	13577.69
527.874	13490.69
528.241	13587.19
528.607	13572.5
528.973	13520.52
529.339	13552.16
529.705	13562.33
530.071	13621.53
530.437	13574.3
530.803	13636
531.169	13692.72
531.535	13538.6
531.901	13492.95
532.267	13536.34
532.632	13488.66
532.998	13604.36
533.364	13528.66
533.73	13513.29
534.095	13556.68
534.461	13471.48
534.826	13591.03
535.192	13550.8
535.557	13509.9
535.923	13477.58
536.288	13458.37
536.653	13458.37
537.019	13300.41
537.384	13338.6
537.749	13355.33
538.114	13375.67
538.479	13238.04
538.845	13262.9
539.21	13209.34
539.575	13212.73
539.94	13196.69
540.305	13242.56
540.67	13092.73
541.034	13109.01
541.399	13136.35
541.764	13049.35
542.129	13006.41
542.494	13018.16
542.858	12950.14
543.223	12972.29
543.587	12859.29
543.952	12890.48
544.316	12854.1
544.681	12778.39
545.045	12752.63
545.41	12767.09
545.774	12749.02
546.138	12690.03
546.503	12607.78
546.867	12638.96
547.231	12565.97
547.595	12578.17
547.959	12516.03
548.324	12485.29
548.688	12392.19
549.052	12435.35
549.416	12407.33
549.779	12362.58
550.143	12318.74
550.507	12309.93
550.871	12286.88
551.235	12198.75
551.599	12281.46
551.962	12210.72
552.326	12196.94
552.689	12185.87
553.053	12121.69
553.417	12118.75
553.78	12172.31
554.143	12070.84
554.507	12138.18
554.87	12071.29
555.234	12052.31
555.597	11885.99
555.96	12040.79
556.323	12081.24
556.686	11923.5
557.05	11950.17
557.413	11893.22
557.776	11890.96
558.139	11922.82
558.502	11956.49
558.865	11858.42
559.228	11871.07
559.59	11862.71
559.953	11864.29
560.316	11993.78
560.679	11941.13
561.041	11949.04
561.404	11887.12
561.767	11916.49
562.129	11912.2
562.492	11968.02
562.854	11837.17
563.217	11836.04
563.579	11995.14
563.941	11980
564.304	11905.65
564.666	11985.19
565.028	11962.37
565.39	11923.73
565.753	11912.88
566.115	11927.57
566.477	11915.14
566.839	12013.22
567.201	12053.67
567.563	11909.49
567.925	12018.64
568.287	12084.85
568.648	11962.37
569.01	12011.18
569.372	12134.79
569.734	12017.96
570.095	12132.76
570.457	12093.21
570.819	12088.02
571.18	12018.86
571.542	12161.91
571.903	12097.28
572.265	12183.15
572.626	12119.88
572.987	12164.62
573.349	12134.79
573.71	12145.19
574.071	12143.83
574.432	12234.23
574.794	12271.74
575.155	12128.01
575.516	12217.73
575.877	12278.07
576.238	12182.7
576.599	12354.9
576.96	12205.53
577.32	12264.73
577.681	12286.65
578.042	12264.06
578.403	12243.27
578.763	12250.05
579.124	12265.41
579.485	12289.37
579.845	12280.55
580.206	12287.78
580.566	12208.92
580.927	12192.19
581.287	12326.88
581.648	12197.17
582.008	12274.45
582.368	12234.68
582.728	12240.1
583.089	12256.82
583.449	12210.95
583.809	12211.63
584.169	12253.66
584.529	12239.88
584.889	12302.7
585.249	12181.57
585.609	12086.43
585.969	12190.16
586.329	12096.6
586.688	12107.68
587.048	12156.04
587.408	12150.16
587.768	12168.01
588.127	12147.67
588.487	12024.97
588.846	12156.71
589.206	12011.63
589.565	12076.49
589.925	12068.35
590.284	12008.24
590.643	12008.7
591.003	12042.14
591.362	12119.65
591.721	12087.79
592.08	11996.49
592.44	11944.97
592.799	12084.4
593.158	11998.07
593.517	12078.52
593.876	11974.8
594.235	11987
594.593	11970.73
594.952	12056.38
595.311	11942.03
595.67	12005.31
596.029	11998.53
596.387	12017.28
596.746	11996.49
597.104	11989.71
597.463	11948.58
597.822	11962.37
598.18	11918.53
598.538	11934.12
598.897	11935.48
599.255	11812.77
599.613	12007.34
599.972	11942.71
600.33	11938.87
600.688	11941.13
601.046	11940.22
601.404	11996.72
601.762	11962.82
602.12	11982.71
602.478	11988.13
602.836	11947.45
603.194	11902.71
603.552	11925.76
603.91	11855.48
604.268	11945.19
604.625	11968.7
604.983	11896.38
605.341	11839.21
605.698	11933.9
606.056	11912.2
606.413	11909.26
606.771	11999.88
607.128	11913.33
607.485	11893.44
607.843	11955.36
608.2	12034.46
608.557	12026.55
608.914	11991.29
609.272	11977.06
609.629	11971.18
609.986	12048.92
610.343	12055.7
610.7	12080.56
611.057	11958.08
611.414	12045.3
611.771	12064.51
612.127	12005.98
612.484	12104.06
612.841	12128.69
613.198	12154.45
613.554	12123.49
613.911	12068.81
614.267	12137.96
614.624	12134.34
614.98	12120.11
615.337	12165.98
615.693	12146.32
616.05	12115.36
616.406	12171.18
616.762	12228.58
617.118	12127.11
617.475	12178.86
617.831	12208.24
618.187	12183.15
618.543	12191.29
618.899	12226.54
619.255	12258.18
619.611	12247.56
619.967	12236.03
620.323	12291.17
620.678	12238.75
621.034	12174.34
621.39	12217.5
621.746	12221.8
622.101	12337.95
622.457	12226.54
622.812	12244.4
623.168	12345.41
623.523	12285.52
623.879	12257.95
624.234	12159.43
624.589	12247.79
624.945	12230.61
625.3	12336.82
625.655	12208.01
626.01	12337.27
626.365	12300.89
626.72	12249.37
627.075	12286.2
627.43	12205.07
627.785	12154.68
628.14	12205.75
628.495	12242.14
628.85	12189.26
629.205	12154.68
629.559	12321.68
629.914	12112.2
630.269	12151.06
630.623	12132.53
630.978	12088.02
631.332	12201.01
631.687	12104.96
632.041	12093.44
632.396	12135.47
632.75	12083.95
633.104	12100.67
633.459	12013.67
633.813	12060.67
634.167	11964.18
634.521	12000.79
634.875	11978.87
635.229	12057.06
635.583	11958.75
635.937	11966.66
636.291	11975.25
636.645	11969.15
636.999	11878.53
637.352	11857.29
637.706	11849.38
638.06	11939.09
638.413	11821.36
638.767	11813.67
639.121	11786.1
639.474	11709.04
639.828	11780.9
640.181	11719.89
640.534	11813.67
640.888	11781.81
641.241	11678.53
641.594	11768.02
641.947	11733.9
642.301	11674.47
642.654	11703.62
643.007	11684.86
643.36	11812.99
643.713	11635.82
644.066	11686.9
644.419	11579.78
644.771	11532.32
645.124	11428.37
645.477	11379.11
645.83	11348.83
646.182	11342.72
646.535	11314.93
646.888	11330.97
647.24	11249.17
647.593	11327.81
647.945	11261.37
648.298	11264.08
648.65	11252.11
649.002	11196.74
649.355	11247.59
649.707	11229.06
650.059	11338.43
650.411	11499.56
650.763	11501.82
651.115	11600.34
651.467	11503.4
651.819	11569.61
652.171	11496.62
652.523	11432.44
652.875	11510.63
653.227	11407.13
653.578	11540.91
653.93	11539.78
654.282	11421.59
654.633	11483.29
654.985	11474.02
655.337	11510.4
655.688	11548.59
656.039	11596.95
656.391	11493.23
656.742	11453.68
657.094	11469.73
657.445	11517.41
657.796	11459.33
658.147	11483.74
658.498	11501.36
658.849	11565.09
659.2	11544.3
659.551	11508.82
659.902	11511.31
660.253	11559.89
660.604	11556.96
660.955	11510.63
661.306	11563.96
661.656	11595.37
662.007	11590.63
662.358	11553.79
662.708	11623.39
663.059	11569.16
663.409	11461.59
663.76	11612.32
664.11	11603.73
664.461	11608.71
664.811	11613.9
665.161	11627.91
665.511	11576.84
665.862	11624.07
666.212	11650.06
666.562	11623.62
666.912	11591.53
667.262	11578.65
667.612	11595.6
667.962	11572.77
668.312	11622.49
668.662	11625.65
669.011	11551.31
669.361	11642.6
669.711	11598.76
670.06	11622.04
670.41	11443.74
670.76	11475.15
671.109	11546.33
671.459	11531.65
671.808	11532.1
672.157	11599.89
672.507	11419.56
672.856	11483.29
673.205	11476.05
673.554	11532.1
673.904	11423.85
674.253	11566.45
674.602	11491.2
674.951	11300.47
675.3	11243.97
675.649	11426.79
675.998	11474.47
676.346	11456.17
676.695	11509.95
677.044	11350.86
677.393	11462.5
677.741	11419.11
678.09	11442.38
678.438	11381.14
678.787	11330.97
679.135	11302.05
679.484	11276.06
679.832	11299.79
680.181	11243.52
680.529	11338.43
680.877	11145.44
681.225	11154.93
681.573	11226.12
681.922	11159.45
682.27	11158.32
682.618	11165.33
682.966	11089.62
683.314	11134.37
683.661	11064.09
684.009	11033.13
684.357	11078.55
684.705	11008.72
685.053	11074.93
685.4	10985.45
685.748	10924.2
686.095	10851.21
686.443	10892.34
686.79	10892.11
687.138	10959.01
687.485	10855.28
687.832	10763.3
688.18	10776.64
688.527	10701.84
688.874	10756.75
689.221	10656.64
689.568	10649.18
689.915	10662.52
690.262	10627.71
690.609	10597.43
690.956	10481.96
691.303	10531.22
691.65	10453.03
691.997	10453.26
692.344	10389.53
692.69	10410.77
693.037	10356.31
693.383	10279.02
693.73	10251
694.077	10220.27
694.423	10248.74
694.769	10184.79
695.116	10182.3
695.462	10166.48
695.808	10105.69
696.155	10179.82
696.501	10004
696.847	10021.63
697.193	9890.11
697.539	10006.71
697.885	9851.92
698.231	9823.22
698.577	9870.67
698.923	9755.87
699.269	9744.12
699.614	9740.96
699.96	9628.87
700.306	9622.54
700.651	9544.35
700.997	9561.08
701.342	9563.34
701.688	9457.8
702.033	9508.87
702.379	9434.07
702.724	9319.05
703.069	9412.15
703.415	9343
703.76	9344.13
704.105	9334.19
704.45	9270.24
704.795	9268.43
705.14	9206.96
705.485	9130.81
705.83	9189.33
706.175	9136
706.52	9095.55
706.865	9064.59
707.209	9041.99
707.554	9005.84
707.899	8985.05
708.243	8926.74
708.588	8936.69
708.932	8863.92
709.277	8837.48
709.621	8893.07
709.966	8802
710.31	8794.32
710.654	8756.35
710.998	8747.09
711.342	8790.02
711.687	8760.65
712.031	8719.29
712.375	8592.06
712.719	8726.75
713.063	8581.67
713.407	8670.48
713.75	8585.06
714.094	8572.4
714.438	8570.14
714.782	8559.75
715.125	8495.79
715.469	8493.76
715.812	8485.62
716.156	8458.51
716.499	8484.72
716.843	8456.47
717.186	8395.46
717.53	8454.89
717.873	8403.14
718.216	8382.35
718.559	8376.47
718.902	8281.11
719.246	8366.53
719.589	8315.91
719.932	8295.8
720.275	8288.12
720.617	8251.73
720.96	8326.31
721.303	8304.16
721.646	8280.21
721.989	8230.26
722.331	8278.62
722.674	8225.52
723.016	8238.4
723.359	8181.9
723.701	8238.63
724.044	8176.93
724.386	8190.72
724.729	8245.4
725.071	8155.24
725.413	8120.89
725.755	8164.73
726.097	8089.48
726.439	8124.96
726.782	8072.08
727.124	8107.33
727.465	8098.06
727.807	8115.69
728.149	8111.4
728.491	8071.85
728.833	8104.39
729.175	8071.17
729.516	8107.1
729.858	8115.24
730.199	8084.28
730.541	8058.52
730.882	8016.03
731.224	8092.87
731.565	8055.35
731.906	8058.74
732.248	8093.32
732.589	8071.62
732.93	7963.83
733.271	7987.33
733.612	8035.69
733.953	8035.01
734.294	8000.21
734.635	8003.15
734.976	8026.2
735.317	8023.94
735.658	8046.31
735.999	8042.25
736.339	8020.55
736.68	7999.31
737.021	8089.25
737.361	8069.36
737.702	8086.54
738.042	8070.04
738.383	8032.98
738.723	8092.87
739.063	8081.12
739.404	8129.7
739.744	8129.02
740.084	8151.17
740.424	8140.32
740.764	8087.22
741.104	8158.18
741.444	8111.62
741.784	8175.35
742.124	8184.16
742.464	8217.38
742.804	8221
743.143	8238.17
743.483	8259.42
743.823	8183.94
744.162	8281.79
744.502	8325.63
744.841	8330.15
745.181	8345.06
745.52	8419.41
745.86	8448.79
746.199	8540.31
746.538	8457.83
746.877	8562.46
747.216	8661.89
747.556	8629.35
747.895	8738.5
748.234	8731.72
748.573	8759.74
748.911	8876.8
749.25	8941.21
749.589	8936.46
749.928	9053.29
750.267	9119.28
750.605	9143.01
750.944	9225.94
751.283	9207.41
751.621	9367.18
751.96	9474.3
752.298	9514.52
752.636	9617.8
752.975	9736.44
753.313	9713.84
753.651	9902.08
753.989	9950.44
754.327	10119.25
754.666	10213.94
755.004	10314.5
755.342	10515.63
755.679	10578.45
756.017	10626.36
756.355	10788.84
756.693	10896.18
757.031	11017.08
757.368	11151.54
757.706	11312.67
758.044	11405.32
758.381	11621.81
758.719	11773.67
