Data from hue_60_FLMS001491_76.txt Node
Date: Mon Feb 06 15:17:54 GMT 2017
User: dcchb
Spectrometer: FLMS00149
Trigger mode: 0
Integration Time (sec): 2.000000E-2
Scans to average: 10
Electric dark correction enabled: true
Nonlinearity correction enabled: false
Boxcar width: 0
XAxis mode: Wavelengths
Number of Pixels in Spectrum: 2048
>>>>>Begin Spectral Data<<<<<
341.393	-3.02
341.776	-3.02
342.16	-3.02
342.543	-83.25
342.927	-66.52
343.31	-54.77
343.693	-61.1
344.077	-60.2
344.46	-58.61
344.843	-44.38
345.226	-49.35
345.61	-29.24
345.993	-22.01
346.376	-22.46
346.759	13.25
347.142	22.74
347.525	27.49
347.908	45.79
348.291	81.27
348.674	93.7
349.057	117.88
349.44	131.89
349.823	157.65
350.206	164.88
350.588	194.94
350.971	214.15
351.354	228.16
351.737	236.29
352.119	250.08
352.502	257.76
352.884	270.19
353.267	288.04
353.65	281.72
354.032	307.03
354.414	310.42
354.797	313.58
355.179	293.92
355.562	314.26
355.944	333.92
356.326	322.84
356.709	334.82
357.091	351.54
357.473	340.25
357.855	337.76
358.238	330.3
358.62	342.73
359.002	352.45
359.384	339.12
359.766	362.62
360.148	334.82
360.53	356.06
360.912	324.88
361.294	326.01
361.676	335.05
362.057	325.56
362.439	349.74
362.821	317.65
363.203	326.23
363.584	327.82
363.966	328.49
364.348	327.82
364.729	323.75
365.111	317.2
365.493	333.24
365.874	323.52
366.256	310.87
366.637	300.7
367.019	308.61
367.4	321.71
367.781	310.42
368.163	294.82
368.544	325.1
368.925	306.35
369.306	310.87
369.688	299.57
370.069	319.45
370.45	311.32
370.831	321.26
371.212	317.2
371.593	325.33
371.974	314.03
372.355	296.63
372.736	339.79
373.117	309.74
373.498	308.38
373.879	302.51
374.26	294.14
374.641	313.35
375.021	321.04
375.402	302.51
375.783	338.66
376.163	340.25
376.544	322.17
376.925	342.96
377.305	335.95
377.686	339.79
378.066	340.25
378.447	318.78
378.827	326.91
379.208	335.5
379.588	335.5
379.968	329.62
380.349	337.31
380.729	342.96
381.109	332.34
381.489	331.66
381.87	337.31
382.25	332.11
382.63	339.34
383.01	345.89
383.39	329.17
383.77	341.6
384.15	357.19
384.53	340.25
384.91	345.67
385.29	361.94
385.67	357.87
386.049	351.32
386.429	342.73
386.809	363.97
387.189	345.67
387.568	348.38
387.948	360.81
388.328	383.86
388.707	355.84
389.087	369.17
389.466	348.15
389.846	377.76
390.225	380.92
390.605	370.53
390.984	363.52
391.363	362.17
391.743	365.56
392.122	354.93
392.501	355.84
392.881	379.11
393.26	361.71
393.639	374.14
394.018	377.53
394.397	361.94
394.776	395.39
395.155	370.53
395.534	360.58
395.913	381.37
396.292	381.6
396.671	366.01
397.05	355.61
397.429	385.44
397.808	385.22
398.186	402.16
398.565	391.09
398.944	384.99
399.323	386.35
399.701	394.03
400.08	392.9
400.458	402.39
400.837	404.65
401.215	395.16
401.594	390.64
401.972	384.54
402.351	393.13
402.729	398.1
403.107	401.49
403.486	402.62
403.864	387.93
404.242	408.72
404.62	405.33
404.999	414.14
405.377	421.37
405.755	410.3
406.133	396.29
406.511	418.21
406.889	422.05
407.267	438.77
407.645	424.08
408.023	427.93
408.401	434.25
408.779	436.06
409.156	449.17
409.534	446.68
409.912	455.72
410.29	435.61
410.667	429.28
411.045	446.01
411.422	442.84
411.8	441.26
412.178	465.44
412.555	447.14
412.933	443.97
413.31	450.3
413.687	475.16
414.065	450.3
414.442	469.51
414.819	486.46
415.197	478.77
415.574	506.79
415.951	467.47
416.328	472.45
416.705	486.91
417.082	492.56
417.46	493.24
417.837	490.3
418.214	509.73
418.591	495.5
418.967	509.73
419.344	502.95
419.721	507.25
420.098	508.38
420.475	504.08
420.852	520.13
421.228	542.95
421.605	509.28
421.982	528.04
422.358	545.21
422.735	523.29
423.111	526.23
423.488	539.34
423.864	532.33
424.241	531.2
424.617	545.21
424.994	562.84
425.37	561.26
425.746	551.09
426.123	574.82
426.499	573.23
426.875	554.25
427.251	566.45
427.627	584.53
428.003	564.65
428.379	583.63
428.756	603.29
429.132	590.63
429.507	595.15
429.883	606.45
430.259	584.76
430.635	606.68
431.011	613.01
431.387	635.15
431.763	630.63
432.138	620.24
432.514	642.84
432.89	638.32
433.265	650.75
433.641	661.14
434.016	641.48
434.392	631.76
434.767	661.14
435.143	677.64
435.518	676.06
435.894	662.72
436.269	681.71
436.644	697.98
437.02	687.81
437.395	688.26
437.77	698.65
438.145	679.9
438.52	715.15
438.895	701.37
439.271	733
439.646	703.17
440.021	749.95
440.395	732.33
440.77	725.55
441.145	746.34
441.52	747.92
441.895	753.79
442.27	765.32
442.645	743.17
443.019	764.41
443.394	766.67
443.769	749.05
444.143	738.43
444.518	778.88
444.892	768.26
445.267	780.46
445.641	794.47
446.016	822.49
446.39	814.81
446.764	808.03
447.139	796.5
447.513	811.19
447.887	804.41
448.262	835.15
448.636	813.91
449.01	808.48
449.384	815.04
449.758	841.93
450.132	845.09
450.506	838.09
450.88	858.65
451.254	830.18
451.628	868.37
452.002	864.75
452.376	899.33
452.75	882.83
453.123	902.49
453.497	898.2
453.871	909.72
454.244	929.38
454.618	931.19
454.992	942.94
455.365	924.18
455.739	937.52
456.112	966.44
456.486	954.92
456.859	956.05
457.232	979.55
457.606	995.14
457.979	1010.28
458.352	1031.98
458.725	1036.05
459.099	1050.06
459.472	1050.51
459.845	1075.82
460.218	1079.21
460.591	1083.05
460.964	1103.84
461.337	1101.36
461.71	1118.98
462.083	1128.93
462.456	1139.32
462.829	1147.68
463.201	1170.51
463.574	1169.15
463.947	1213.22
464.32	1213.22
464.692	1205.99
465.065	1241.69
465.438	1246.66
465.81	1318.52
466.183	1314
466.555	1307.68
466.928	1321.46
467.3	1345.19
467.672	1370.5
468.045	1390.84
468.417	1432.19
468.789	1422.93
469.161	1440.56
469.534	1455.92
469.906	1520.33
470.278	1537.05
470.65	1561.68
471.022	1588.12
471.394	1608.23
471.766	1675.58
472.138	1656.59
472.51	1700.21
472.882	1736.37
473.253	1762.35
473.625	1801.68
473.997	1871.28
474.369	1850.49
474.74	1927.32
475.112	1965.51
475.484	1991.95
475.855	2050.26
476.227	2135
476.598	2181.55
476.97	2217.94
477.341	2269.91
477.713	2324.83
478.084	2401.66
478.455	2461.32
478.827	2504.03
479.198	2604.37
479.569	2633.97
479.94	2770.69
480.311	2809.33
480.682	2888.43
481.053	3015.43
481.424	3101.98
481.795	3164.13
482.166	3238.7
482.537	3321.18
482.908	3487.51
483.279	3473.72
483.65	3633.49
484.021	3712.59
484.391	3828.29
484.762	3917.55
485.133	4042.07
485.503	4136.3
485.874	4315.06
486.244	4436.41
486.615	4547.59
486.985	4629.4
487.356	4810.64
487.726	4871.43
488.097	5053.12
488.467	5107.13
488.837	5335.59
489.207	5480.45
489.578	5587.56
489.948	5750.05
490.318	5898.74
490.688	6042.47
491.058	6212.63
491.428	6274.78
491.798	6510.7
492.168	6713.19
492.538	6808.32
492.908	6950.24
493.278	7172.38
493.648	7263.91
494.017	7417.57
494.387	7599.72
494.757	7796.09
495.126	7942.76
495.496	7957.45
495.866	8199.47
496.235	8356.31
496.605	8508.39
496.974	8722.62
497.344	8886.01
497.713	9038.1
498.082	9133.46
498.452	9280.58
498.821	9534.58
499.19	9624.07
499.559	9857.51
499.928	9917.17
500.298	10079.65
500.667	10269.02
501.036	10292.07
501.405	10621.33
501.774	10692.74
502.143	10779.07
502.512	10923.47
502.88	11119.17
503.249	11245.95
503.618	11336.57
503.987	11466.28
504.356	11704.69
504.724	11785.59
505.093	11945.82
505.462	12068.52
505.83	12200.5
506.199	12400.27
506.567	12688.17
506.936	12648.62
507.304	12818.56
507.672	12959.57
508.041	13170.64
508.409	13333.12
508.777	13395.27
509.145	13642.04
509.514	13672.32
509.882	13865.31
510.25	13948.02
510.618	14112.99
510.986	14326.77
511.354	14478.86
511.722	14648.34
512.09	14737.38
512.458	14860.32
512.826	15005.17
513.193	15075.45
513.561	15217.82
513.929	15344.82
514.297	15530.81
514.664	15775.55
515.032	15823.68
515.4	15900.97
515.767	16147.74
516.135	16246.04
516.502	16185.25
516.869	16457.56
517.237	16628.4
517.604	16595.19
517.972	16948.85
518.339	17069.52
518.706	17091.67
519.073	17218.22
519.44	17312
519.808	17616.63
520.175	17701.14
520.542	17920.57
520.909	17996.28
521.276	18068.82
521.643	18259.55
522.009	18412.54
522.376	18424.29
522.743	18706.54
523.11	18944.05
523.477	19051.84
523.843	19172.74
524.21	19421.33
524.577	19690.92
524.943	19666.74
525.31	19791.71
525.676	19909.22
526.043	20153.28
526.409	20268.53
526.776	20447.74
527.142	20551.01
527.508	20737.9
527.874	20886.15
528.241	20969.76
528.607	21147.38
528.973	21346.02
529.339	21272.12
529.705	21506.02
530.071	21721.6
530.437	21812.68
530.803	21924.08
531.169	22162.27
531.535	22066.68
531.901	22221.7
532.267	22332.66
532.632	22453.79
532.998	22675.7
533.364	22702.14
533.73	22758.86
534.095	22985.53
534.461	23044.51
534.826	23178.06
535.192	23233.43
535.557	23483.59
535.923	23569.69
536.288	23528.34
536.653	23601.78
537.019	23668.9
537.384	23689.91
537.749	23889
538.114	23964.26
538.479	23981.43
538.845	24205.15
539.21	24058.72
539.575	24188.88
539.94	24414.64
540.305	24442.89
540.67	24483.79
541.034	24460.29
541.399	24781.64
541.764	24849.21
542.129	24924.01
542.494	24952.93
542.858	25105.24
543.223	25137.33
543.587	25260.72
543.952	25235.86
544.316	25336.65
544.681	25465.91
545.045	25489.41
545.41	25766.92
545.774	25716.75
546.138	25731.67
546.503	25756.75
546.867	25818.45
547.231	26025.67
547.595	26168.49
547.959	26120.36
548.324	26236.74
548.688	26334.59
549.052	26388.15
549.416	26406.45
549.779	26515.38
550.143	26671.98
550.507	26815.26
550.871	26876.95
551.235	26883.5
551.599	27024.52
551.962	27163.27
552.326	27241.46
552.689	27283.94
553.053	27188.13
553.417	27401
553.78	27735.01
554.143	27695.68
554.507	27809.35
554.87	27872.85
555.234	28233.3
555.597	27980.87
555.96	28139.51
556.323	28345.16
556.686	28250.02
557.05	28515.32
557.413	28693.85
557.776	28671.03
558.139	28905.6
558.502	28863.34
558.865	28976.1
559.228	29296.09
559.59	29384.23
559.953	29406.15
560.316	29663.54
560.679	29566.82
561.041	29911.22
561.404	29977.66
561.767	30219.46
562.129	30038.67
562.492	30495.38
562.854	30409.74
563.217	30481.37
563.579	30700.58
563.941	30679.56
564.304	30894.92
564.666	31224.4
565.028	31170.17
565.39	31241.13
565.753	31456.72
566.115	31509.14
566.477	31791.85
566.839	31776.03
567.201	31838.4
567.563	32013.08
567.925	32319.97
568.287	32263.7
568.648	32575.1
569.01	32601.09
569.372	32829.11
569.734	32674.99
570.095	32919.05
570.457	33039.5
570.819	33102.1
571.18	33124.92
571.542	33353.84
571.903	33316.78
572.265	33558.58
572.626	33642.19
572.987	33623.44
573.349	33672.48
573.71	33842.42
574.071	33998.8
574.432	34109.3
574.794	34334.83
575.155	34252.12
575.516	34154.5
575.877	34310.43
576.238	34491.89
576.599	34653.92
576.96	34619.34
577.32	34688.95
577.681	34828.6
578.042	34896.62
578.403	34737.53
578.763	35055.04
579.124	35002.84
579.485	35193.11
579.845	35283.73
580.206	35170.97
580.566	35161.7
580.927	35246.45
581.287	35370.06
581.648	35337.97
582.008	35455.25
582.368	35428.59
582.728	35661.8
583.089	35494.12
583.449	35449.15
583.809	35608.24
584.169	35608.47
584.529	35555.82
584.889	35778.41
585.249	35503.84
585.609	35685.3
585.969	35874.68
586.329	35668.13
586.688	35676.04
587.048	35681.01
587.408	35712.2
587.768	35826.54
588.127	35812.98
588.487	35650.5
588.846	35953.77
589.206	35647.34
589.565	35873.1
589.925	35943.6
590.284	35801.91
590.643	36019.31
591.003	35905.19
591.362	36083.94
591.721	36007.1
592.08	36127.1
592.44	36071.06
592.799	36197.38
593.158	35961.91
593.517	36085.75
593.876	36199.87
594.235	36100.66
594.593	36101.56
594.952	36223.14
595.311	36186.53
595.67	36225.18
596.029	36363.03
596.387	36408
596.746	36505.62
597.104	36407.55
597.463	36282.35
597.822	36490.26
598.18	36356.25
598.538	36386.3
598.897	36550.59
599.255	36300.2
599.613	36907.65
599.972	36659.97
600.33	36732.96
600.688	36726.41
601.046	36786.74
601.404	36951.71
601.762	36849.57
602.12	37055.44
602.478	36965.95
602.836	36977.47
603.194	36820.87
603.552	36955.78
603.91	36916.91
604.268	37222.67
604.625	37028.55
604.983	37143.8
605.341	37007.53
605.698	37404.36
606.056	37348.54
606.413	37339.27
606.771	37517.57
607.128	37475.77
607.485	37361.19
607.843	37454.98
608.2	37692.03
608.557	37862.65
608.914	37597.12
609.272	37858.58
609.629	37918.01
609.986	37941.52
610.343	37908.52
610.7	38203.88
611.057	38155.97
611.414	38172.92
611.771	38289.76
612.127	38423.99
612.484	38371.11
612.841	38621.5
613.198	38516.64
613.554	38462.18
613.911	38728.61
614.267	38670.76
614.624	38550.31
614.98	38727.94
615.337	38953.92
615.693	38825.11
616.05	38835.05
616.406	39032.56
616.762	38823.3
617.118	39028.95
617.475	39010.41
617.831	39025.1
618.187	39297.41
618.543	39184.42
618.899	39536.5
619.255	39401.59
619.611	39482.04
619.967	39571.08
620.323	39581.25
620.678	39431.42
621.034	39411.99
621.39	39382.38
621.746	39364.08
622.101	39807
622.457	39615.82
622.812	39650.85
623.168	39741.7
623.523	39785.31
623.879	39986.89
624.234	39647.91
624.589	39796.61
624.945	39729.72
625.3	39943.05
625.655	39949.15
626.01	40071.86
626.365	40029.82
626.72	39856.95
627.075	39969.94
627.43	39908.92
627.785	39901.69
628.14	39935.14
628.495	39985.53
628.85	39878.87
629.205	39914.57
629.559	40126.09
629.914	39969.71
630.269	40175.58
630.623	40044.96
630.978	39939.66
631.332	40092.65
631.687	40109.6
632.041	39876.83
632.396	40033.44
632.75	39967.9
633.104	39950.73
633.459	39811.75
633.813	39730.62
634.167	39741.47
634.521	39788.02
634.875	39772.43
635.229	39835.25
635.583	39623.05
635.937	39552.55
636.291	39593.9
636.645	39778.76
636.999	39619.21
637.352	39597.74
637.706	39420.12
638.06	39494.47
638.413	39579.89
638.767	39380.57
639.121	39544.19
639.474	39277.3
639.828	39374.93
640.181	39355.04
640.534	39475.94
640.888	39350.29
641.241	39093.12
641.594	39239.34
641.947	39230.3
642.301	39128.38
642.654	39141.94
643.007	39183.52
643.36	39179.68
643.713	39164.54
644.066	39335.6
644.419	38895.16
644.771	38729.29
645.124	38452.24
645.477	38190.1
645.83	38050.67
646.182	37886.38
646.535	37773.84
646.888	37944
647.24	37778.36
647.593	38056.77
647.945	37861.97
648.298	37709.66
648.65	37668.08
649.002	37592.6
649.355	37719.15
649.707	37717.34
650.059	37793.95
650.411	38303.09
650.763	38391.67
651.115	38709.41
651.467	38551.9
651.819	38431.9
652.171	38394.84
652.523	38370.21
652.875	38330.21
653.227	38312.35
653.578	38351.45
653.93	38495.4
654.282	38200.27
654.633	38228.74
654.985	38164.11
655.337	38182.64
655.688	38286.82
656.039	38332.69
656.391	37962.53
656.742	38117.56
657.094	38097.22
657.445	38167.73
657.796	37906.72
658.147	38028.07
658.498	38082.76
658.849	38165.69
659.2	38021.06
659.551	37936.32
659.902	38018.12
660.253	37968.86
660.604	38039.82
660.955	37711.47
661.306	37962.31
661.656	37924.79
662.007	37897.45
662.358	37904.91
662.708	37836.43
663.059	37878.02
663.409	37605.25
663.76	37856.32
664.11	37799.83
664.461	37955.08
664.811	37849.09
665.161	37802.09
665.511	37756.66
665.862	37736.55
666.212	38004.11
666.562	37903.33
666.912	37919.37
667.262	37703.56
667.612	37761.18
667.962	37807.28
668.312	37687.74
668.662	37843.89
669.011	37750.34
669.361	37630.56
669.711	37722.31
670.06	37608.19
670.41	37487.74
670.76	37577.01
671.109	37607.29
671.459	37663.78
671.808	37630.34
672.157	37772.26
672.507	37444.13
672.856	37484.81
673.205	37299.95
673.554	37594.18
673.904	37459.95
674.253	37615.2
674.602	37459.72
674.951	37031.03
675.3	36927.31
675.649	37305.83
675.998	37282.78
676.346	37458.59
676.695	37376.79
677.044	37229.67
677.393	37325.71
677.741	37287.97
678.09	37204.13
678.438	37140.63
678.787	37349.22
679.135	37238.26
679.484	36961.43
679.832	37196
680.181	36862.9
680.529	37042.78
680.877	37076.68
681.225	36796.01
681.573	36973.63
681.922	36765.95
682.27	36704.03
682.618	36744.94
682.966	36622.91
683.314	36638.05
683.661	36498.62
684.009	36233.09
684.357	36274.89
684.705	36097.05
685.053	36346.3
685.4	36203.26
685.748	36060.44
686.095	36121.45
686.443	35985.86
686.79	36007.1
687.138	35849.37
687.485	35984.73
687.832	35859.31
688.18	35813.44
688.527	35730.28
688.874	35660.22
689.221	35615.02
689.568	35675.81
689.915	35421.36
690.262	35409.38
690.609	35296.16
690.956	35205.54
691.303	35208.26
691.65	34976.17
691.997	35027.24
692.344	34851.43
692.69	34810.75
693.037	34901.6
693.383	34585.45
693.73	34601.04
694.077	34546.13
694.423	34582.28
694.769	34402.4
695.116	34382.29
695.462	34335.96
695.808	34103.43
696.155	34226.13
696.501	33944.33
696.847	33872.24
697.193	33821.85
697.539	33879.7
697.885	33506.15
698.231	33477.23
698.577	33495.98
698.923	33393.16
699.269	33351.58
699.614	33057.13
699.96	32956.79
700.306	32901.87
700.651	32975.55
700.997	32814.87
701.342	32681.32
701.688	32671.15
702.033	32555.22
702.379	32531.49
702.724	32446.97
703.069	32436.35
703.415	32117.94
703.76	32211.05
704.105	32108
704.45	32092.63
704.795	31993.65
705.14	31786.42
705.485	31774.67
705.83	31627.56
706.175	31663.49
706.52	31677.95
706.865	31453.33
707.209	31441.57
707.554	31384.4
707.899	31429.82
708.243	31224.86
708.588	31330.39
708.932	31049.27
709.277	31021.02
709.621	31049.95
709.966	30870.52
710.31	31045.2
710.654	30565.21
710.998	30748.26
711.342	30745.55
711.687	30488.15
712.031	30365.44
712.375	30412
712.719	30457.87
713.063	30343.98
713.407	30523.18
713.75	30308.04
714.094	30268.27
714.438	30165
714.782	30183.3
715.125	30001.39
715.469	30061.72
715.812	29898.34
716.156	29697.67
716.499	29801.39
716.843	29813.59
717.186	29605.92
717.53	29688.17
717.873	29692.69
718.216	29535.86
718.559	29404.34
718.902	29134.74
719.246	29370.89
719.589	29165.02
719.932	29194.85
720.275	29024.46
720.617	29019.27
720.96	29065.14
721.303	28951.47
721.646	29016.1
721.989	28807.75
722.331	28854.07
722.674	28706.05
723.016	28765.26
723.359	28698.82
723.701	28793.06
724.044	28494.31
724.386	28359.85
724.729	28502.44
725.071	28534.76
725.413	28443.46
725.755	28422.9
726.097	28339.28
726.439	28222.45
726.782	28273.3
727.124	28220.64
727.465	28125.05
727.807	28190.81
728.149	28047.09
728.491	28010.7
728.833	28128.89
729.175	27888.22
729.516	27967.54
729.858	27898.39
730.199	27862.01
730.541	27794.21
730.882	27736.59
731.224	27787.66
731.565	27581.56
731.906	27649.58
732.248	27568.23
732.589	27483.49
732.93	27361.23
733.271	27370.72
733.612	27512.86
733.953	27345.86
734.294	27326.88
734.635	27220.44
734.976	27332.08
735.317	27153.1
735.658	27148.81
735.999	27191.29
736.339	27015.48
736.68	27120.11
737.021	27036.94
737.361	26902.48
737.702	27079.66
738.042	26856.61
738.383	26766.9
738.723	26862.49
739.063	26680.8
739.404	26848.47
739.744	26742.26
740.084	26680.12
740.424	26794.01
740.764	26573.91
741.104	26645.32
741.444	26511.53
741.784	26364.65
742.124	26400.35
742.464	26486
742.804	26275.83
743.143	26220.24
743.483	26320.58
743.823	26128.95
744.162	26244.2
744.502	26126.23
744.841	25914.94
745.181	26153.8
745.52	25981.38
745.86	26039.23
746.199	25912.91
746.538	25882.4
746.877	25914.26
747.216	25843.53
747.556	25912.45
747.895	25816.64
748.234	25728.05
748.573	25682.18
748.911	25636.98
749.25	25644.21
749.589	25478.79
749.928	25582.97
750.267	25580.71
750.605	25529.19
750.944	25425.01
751.283	25335.97
751.621	25439.47
751.96	25243.32
752.298	25269.31
752.636	25162.87
752.975	25016.21
753.313	25063.44
753.651	25054.4
753.989	24934.63
754.327	24975.53
754.666	24651.92
755.004	24748.64
755.342	24808.98
755.679	24691.7
756.017	24597.23
756.355	24633.84
756.693	24503.23
