Data from hue_210_FLMS001491_00081.txt Node
Date: Tue Feb 07 16:41:51 GMT 2017
User: dcchb
Spectrometer: FLMS00149
Trigger mode: 0
Integration Time (sec): 2.000000E-2
Scans to average: 10
Electric dark correction enabled: true
Nonlinearity correction enabled: false
Boxcar width: 0
XAxis mode: Wavelengths
Number of Pixels in Spectrum: 2048
>>>>>Begin Spectral Data<<<<<
341.393	-16.85
341.776	-16.85
342.16	-16.85
342.543	-60.92
342.927	-63.18
343.31	-59.11
343.693	-81.93
344.077	-51.2
344.46	-42.84
344.843	-52.33
345.226	-39.22
345.61	-33.8
345.993	-24.99
346.376	-9.39
346.759	12.98
347.142	20.66
347.525	17.05
347.908	55.24
348.291	76.93
348.674	86.88
349.057	125.07
349.44	125.29
349.823	164.39
350.206	169.36
350.588	190.6
350.971	211.17
351.354	226.08
351.737	237.38
352.119	254.1
352.502	247.78
352.884	275.12
353.267	277.61
353.65	303.37
354.032	314.44
354.414	306.53
354.797	318.06
355.179	328.68
355.562	323.03
355.944	315.57
356.326	339.98
356.709	318.73
357.091	335.91
357.473	335.91
357.855	336.59
358.238	337.27
358.62	350.15
359.002	321.9
359.384	326.87
359.766	325.06
360.148	315.57
360.53	334.33
360.912	318.51
361.294	337.27
361.676	336.59
362.057	329.36
362.439	331.16
362.821	311.28
363.203	331.39
363.584	311.5
363.966	317.38
364.348	326.42
364.729	313.54
365.111	320.54
365.493	313.99
365.874	342.01
366.256	315.57
366.637	311.73
367.019	313.31
367.4	316.93
367.781	322.12
368.163	300.2
368.544	313.54
368.925	314.67
369.306	303.37
369.688	298.17
370.069	318.06
370.45	334.78
370.831	301.11
371.212	326.19
371.593	321.45
371.974	333.2
372.355	324.16
372.736	316.7
373.117	314.21
373.498	324.84
373.879	316.93
374.26	295.91
374.641	307.66
375.021	290.49
375.402	307.44
375.783	326.19
376.163	339.75
376.544	337.94
376.925	328.68
377.305	319.64
377.686	324.84
378.066	303.14
378.447	322.8
378.827	329.58
379.208	335.46
379.588	332.97
379.968	326.42
380.349	333.88
380.729	329.13
381.109	324.16
381.489	346.98
381.87	337.27
382.25	349.47
382.63	320.99
383.01	346.08
383.39	339.07
383.77	355.8
384.15	352.86
384.53	343.82
384.91	344.04
385.29	331.84
385.67	357.6
386.049	353.76
386.429	364.38
386.809	346.98
387.189	369.81
387.568	347.66
387.948	370.71
388.328	361.9
388.707	363.03
389.087	370.26
389.466	357.38
389.846	366.42
390.225	385.85
390.605	366.42
390.984	368.45
391.363	381.56
391.743	375
392.122	374.55
392.501	372.74
392.881	396.02
393.26	375
393.639	386.53
394.018	383.37
394.397	391.5
394.776	384.95
395.155	393.76
395.534	398.28
395.913	389.02
396.292	395.57
396.671	426.75
397.05	401.67
397.429	406.64
397.808	390.82
398.186	410.94
398.565	415.91
398.944	396.25
399.323	405.96
399.701	410.03
400.08	417.49
400.458	406.87
400.837	413.65
401.215	411.84
401.594	417.04
401.972	433.53
402.351	427.88
402.729	434.89
403.107	443.48
403.486	420.65
403.864	434.66
404.242	455.91
404.62	455
404.999	460.43
405.377	452.74
405.755	483.25
406.133	487.77
406.511	452.06
406.889	475.57
407.267	478.05
407.645	476.7
408.023	503.81
408.401	504.72
408.779	520.09
409.156	502.46
409.534	509.01
409.912	533.42
410.29	541.33
410.667	525.28
411.045	547.88
411.422	554.43
411.8	573.42
412.178	567.77
412.555	589.91
412.933	571.61
413.31	586.98
413.687	633.53
414.065	612.51
414.442	633.75
414.819	636.92
415.197	626.3
415.574	646.86
415.951	646.41
416.328	663.13
416.705	660.19
417.082	647.99
417.46	691.83
417.837	715.56
418.214	694.32
418.591	711.27
418.967	713.98
419.344	731.15
419.721	766.41
420.098	737.71
420.475	770.93
420.852	768.44
421.228	787.65
421.605	800.08
421.982	817.7
422.358	835.33
422.735	821.77
423.111	870.58
423.488	885.95
423.864	887.53
424.241	899.74
424.617	907.19
424.994	904.48
425.37	942.9
425.746	928.44
426.123	944.25
426.499	943.35
426.875	967.08
427.251	1007.53
427.627	1012.5
428.003	1019.51
428.379	1030.58
428.756	1040.3
429.132	1072.61
429.507	1073.97
429.883	1089.34
430.259	1074.65
430.635	1087.08
431.011	1131.59
431.387	1158.26
431.763	1172.27
432.138	1167.53
432.514	1194.19
432.89	1195.32
433.265	1238.48
433.641	1251.59
434.016	1291.59
434.392	1285.71
434.767	1323.68
435.143	1328.43
435.518	1353.06
435.894	1388.31
436.269	1405.94
436.644	1421.76
437.02	1444.13
437.395	1478.48
437.77	1499.04
438.145	1540.4
438.52	1538.14
438.895	1570.45
439.271	1600.51
439.646	1641.86
440.021	1641.19
440.395	1675.08
440.77	1667.85
441.145	1685.25
441.52	1741.75
441.895	1730
442.27	1732.71
442.645	1764.12
443.019	1789.43
443.394	1783.55
443.769	1861.07
444.143	1834.85
444.518	1838.69
444.892	1874.63
445.267	1911.46
445.641	1900.61
446.016	1925.25
446.39	1881.86
446.764	1950.56
447.139	1955.53
447.513	1993.04
447.887	1983.32
448.262	1981.97
448.636	2006.15
449.01	2051.12
449.384	2055.19
449.758	2075.52
450.132	2062.87
450.506	2098.8
450.88	2119.82
451.254	2122.53
451.628	2161.4
452.002	2191.23
452.376	2170.44
452.75	2200.04
453.123	2265.58
453.497	2284.33
453.871	2233.49
454.244	2310.77
454.618	2340.38
454.992	2367.04
455.365	2362.75
455.739	2412.92
456.112	2459.24
456.486	2456.53
456.859	2451.33
457.232	2506.02
457.606	2534.5
457.979	2558.22
458.352	2610.43
458.725	2592.12
459.099	2638.9
459.472	2665.57
459.845	2705.11
460.218	2720.25
460.591	2756.86
460.964	2786.92
461.337	2827.6
461.71	2852.68
462.083	2876.63
462.456	2910.53
462.829	2946.24
463.201	2983.07
463.574	2998.66
463.947	3041.83
464.32	3141.49
464.692	3123.63
465.065	3176.29
465.438	3176.06
465.81	3250.18
466.183	3291.31
466.555	3328.15
466.928	3331.08
467.3	3348.71
467.672	3368.37
468.045	3499.44
468.417	3462.83
468.789	3484.53
469.161	3528.82
469.534	3609.04
469.906	3621.47
470.278	3717.52
470.65	3723.84
471.022	3764.29
471.394	3852.65
471.766	3853.78
472.138	3925.42
472.51	4029.37
472.882	4036.15
473.253	4055.13
473.625	4138.75
473.997	4184.62
474.369	4199.76
474.74	4263.94
475.112	4307.56
475.484	4374.45
475.855	4445.86
476.227	4536.48
476.598	4652.18
476.97	4654.21
477.341	4778.96
477.713	4776.02
478.084	4804.27
478.455	4931.49
478.827	4971.04
479.198	5150.47
479.569	5116.12
479.94	5205.84
480.311	5267.31
480.682	5364.7
481.053	5454.42
481.424	5534.19
481.795	5638.14
482.166	5662.77
482.537	5695.99
482.908	5838.82
483.279	5882.2
483.65	6005.82
484.021	6085.81
484.391	6149.09
484.762	6180.28
485.133	6221.18
485.503	6346.6
485.874	6381.17
486.244	6521.28
486.615	6609.19
486.985	6689.64
487.356	6762.18
487.726	6793.14
488.097	6866.36
488.467	6893.48
488.837	7024.32
489.207	7056.86
489.578	7222.51
489.948	7199.23
490.318	7351.09
490.688	7354.71
491.058	7469.51
491.428	7581.37
491.798	7575.04
492.168	7737.75
492.538	7691.65
492.908	7873.56
493.278	7954.69
493.648	7973.9
494.017	7985.43
494.387	8085.54
494.757	8048.93
495.126	8200.56
495.496	8225.65
495.866	8200.34
496.235	8344.06
496.605	8365.53
496.974	8391.29
497.344	8495.69
497.713	8511.74
498.082	8551.06
498.452	8613.43
498.821	8595.13
499.19	8681.23
499.559	8736.14
499.928	8780.88
500.298	8787.66
500.667	8879.19
501.036	8855.01
501.405	8899.53
501.774	8922.35
502.143	8977.04
502.512	9017.26
502.88	9081.67
503.249	9031.95
503.618	9107.43
503.987	9097.94
504.356	9111.27
504.724	9151.5
505.093	9215.22
505.462	9171.84
505.83	9242.79
506.199	9302.45
506.567	9385.61
506.936	9317.82
507.304	9400.3
507.672	9442.56
508.041	9477.14
508.409	9473.75
508.777	9518.49
509.145	9628.55
509.514	9589
509.882	9556.46
510.25	9597.81
510.618	9653.18
510.986	9659.96
511.354	9746.28
511.722	9792.84
512.09	9824.25
512.458	9740.41
512.826	9791.48
513.193	9848.43
513.561	9833.74
513.929	9874.42
514.297	9927.3
514.664	9986.05
515.032	9932.72
515.4	10009.78
515.767	9972.49
516.135	10020.17
516.502	9969.1
516.869	10041.64
517.237	10002.77
517.604	10044.35
517.972	10022.21
518.339	10085.48
518.706	9992.38
519.073	10136.56
519.44	10105.6
519.808	10100.85
520.175	10167.06
520.542	10224.24
520.909	10239.6
521.276	10258.36
521.643	10291.35
522.009	10241.19
522.376	10305.36
522.743	10271.24
523.11	10245.93
523.477	10385.36
523.843	10384.68
524.21	10443.21
524.577	10374.29
524.943	10445.7
525.31	10501.52
525.676	10462.65
526.043	10476.89
526.409	10451.58
526.776	10551.91
527.142	10508.52
527.508	10556.21
527.874	10536.09
528.241	10614.06
528.607	10537.67
528.973	10606.6
529.339	10539.26
529.705	10595.07
530.071	10620.38
530.437	10624.68
530.803	10578.8
531.169	10668.29
531.535	10552.82
531.901	10583.1
532.267	10632.59
532.632	10589.2
532.998	10590.78
533.364	10527.51
533.73	10569.76
534.095	10544.68
534.461	10554.85
534.826	10548.97
535.192	10525.7
535.557	10582.42
535.923	10439.82
536.288	10482.99
536.653	10530.22
537.019	10406.38
537.384	10389.88
537.749	10409.54
538.114	10440.05
538.479	10385.14
538.845	10367.51
539.21	10307.85
539.575	10282.09
539.94	10304.01
540.305	10279.38
540.67	10231.24
541.034	10228.3
541.399	10257.91
541.764	10242.32
542.129	10175.88
542.494	10141.75
542.858	10202.99
543.223	10084.13
543.587	10113.05
543.952	10058.59
544.316	10017.91
544.681	9968.2
545.045	9979.72
545.41	9989.67
545.774	9951.7
546.138	9998.03
546.503	9924.36
546.867	9858.6
547.231	9894.98
547.595	9831.48
547.959	9874.64
548.324	9838.71
548.688	9722.33
549.052	9757.13
549.416	9739.05
549.779	9673.06
550.143	9670.58
550.507	9690.47
550.871	9678.26
551.235	9574.31
551.599	9645.95
551.962	9566.4
552.326	9615.21
552.689	9627.87
553.053	9520.75
553.417	9541.54
553.78	9581.32
554.143	9541.09
554.507	9473.3
554.87	9516.01
555.234	9513.3
555.597	9439.4
555.96	9387.42
556.323	9423.58
556.686	9384.26
557.05	9389
557.413	9365.28
557.776	9425.61
558.139	9398.27
558.502	9394.65
558.865	9353.53
559.228	9384.94
559.59	9410.92
559.953	9390.13
560.316	9413.18
560.679	9440.08
561.041	9442.79
561.404	9484.37
561.767	9396.24
562.129	9378.16
562.492	9448.66
562.854	9485.05
563.217	9397.37
563.579	9423.35
563.941	9413.18
564.304	9432.17
564.666	9428.78
565.028	9372.06
565.39	9435.56
565.753	9520.3
566.115	9509.91
566.477	9539.96
566.839	9446.63
567.201	9530.24
567.563	9547.19
567.925	9586.97
568.287	9461.09
568.648	9574.08
569.01	9578.15
569.372	9620.18
569.734	9565.72
570.095	9672.84
570.457	9644.82
570.819	9609.79
571.18	9659.05
571.542	9665.16
571.903	9711.71
572.265	9726.62
572.626	9647.08
572.987	9726.17
573.349	9708.77
573.71	9771.14
574.071	9786.28
574.432	9755.1
574.794	9885.26
575.155	9830.57
575.516	9770.92
575.877	9823.12
576.238	9840.52
576.599	9876.45
576.96	9838.94
577.32	9873.96
577.681	9893.62
578.042	9858.82
578.403	9922.55
578.763	9946.5
579.124	9871.03
579.485	9982.89
579.845	9945.6
580.206	9987.18
580.566	9926.84
580.927	9968.42
581.287	10004.36
581.648	9914.87
582.008	10024.92
582.368	10013.39
582.728	10058.14
583.089	10019.04
583.449	10042.55
583.809	10021.53
584.169	10034.86
584.529	9975.88
584.889	10080.06
585.249	10035.77
585.609	10113.51
585.969	10146.5
586.329	10031.47
586.688	10093.17
587.048	10095.88
587.408	10087.52
587.768	10132.04
588.127	10090.91
588.487	10103.11
588.846	10182.43
589.206	10123.45
589.565	10137.23
589.925	10168.65
590.284	10180.4
590.643	10126.16
591.003	10154.18
591.362	10207.29
591.721	10179.94
592.08	10161.41
592.44	10263.78
592.799	10197.34
593.158	10184.92
593.517	10174.29
593.876	10308.75
594.235	10225.37
594.593	10262.65
594.952	10278.47
595.311	10212.03
595.67	10205.25
596.029	10259.94
596.387	10212.26
596.746	10276.89
597.104	10203.9
597.463	10162.54
597.822	10252.48
598.18	10268.08
598.538	10258.36
598.897	10234.18
599.255	10196.44
599.613	10273.95
599.972	10253.16
600.33	10326.38
600.688	10257
601.046	10291.13
601.404	10354.4
601.762	10282.77
602.12	10289.55
602.478	10408.41
602.836	10370.22
603.194	10299.49
603.552	10346.27
603.91	10283.9
604.268	10310.79
604.625	10274.63
604.983	10354.4
605.341	10242.32
605.698	10300.17
606.056	10288.42
606.413	10287.06
606.771	10402.54
607.128	10385.36
607.485	10360.05
607.843	10354.85
608.2	10337.45
608.557	10429.66
608.914	10344.91
609.272	10419.03
609.629	10423.1
609.986	10487.05
610.343	10433.27
610.7	10508.3
611.057	10438.02
611.414	10479.82
611.771	10476.89
612.127	10490.44
612.484	10509.2
612.841	10572.25
613.198	10480.28
613.554	10512.36
613.911	10522.08
614.267	10524.79
614.624	10558.01
614.98	10562.53
615.337	10660.16
615.693	10576.09
616.05	10575.87
616.406	10610.67
616.762	10568.18
617.118	10555.75
617.475	10553.49
617.831	10582.42
618.187	10605.92
618.543	10581.97
618.899	10639.37
619.255	10620.61
619.611	10631.23
619.967	10741.74
620.323	10672.59
620.678	10641.85
621.034	10601.85
621.39	10552.82
621.746	10610.22
622.101	10784.45
622.457	10662.19
622.812	10615.86
623.168	10717.11
623.523	10690.21
623.879	10649.31
624.234	10637.56
624.589	10651.12
624.945	10716.2
625.3	10775.41
625.655	10632.59
626.01	10667.61
626.365	10626.49
626.72	10623.32
627.075	10581.52
627.43	10633.72
627.785	10623.55
628.14	10563.21
628.495	10606.83
628.85	10673.72
629.205	10556.43
629.559	10645.92
629.914	10562.76
630.269	10628.75
630.623	10537.22
630.978	10547.39
631.332	10549.65
631.687	10575.87
632.041	10584
632.396	10572.48
632.75	10551.46
633.104	10463.33
633.459	10500.84
633.813	10463.55
634.167	10408.86
634.521	10436.89
634.875	10429.66
635.229	10487.28
635.583	10373.16
635.937	10373.16
636.291	10379.04
636.645	10395.98
636.999	10358.92
637.352	10333.84
637.706	10332.93
638.06	10324.12
638.413	10318.47
638.767	10287.96
639.121	10272.6
639.474	10288.64
639.828	10231.92
640.181	10241.64
640.534	10254.52
640.888	10191.7
641.241	10169.32
641.594	10197.8
641.947	10220.85
642.301	10212.26
642.654	10192.15
643.007	10270.11
643.36	10184.92
643.713	10136.1
644.066	10201.41
644.419	10139.95
644.771	10043.68
645.124	9999.61
645.477	10018.37
645.83	9874.87
646.182	9843.68
646.535	9815.89
646.888	9813.85
647.24	9769.11
647.593	9830.57
647.945	9773.4
648.298	9701.54
648.65	9754.19
649.002	9723.91
649.355	9805.04
649.707	9767.07
650.059	9841.42
650.411	9950.12
650.763	9974.75
651.115	10049.55
651.467	9963
651.819	9986.05
652.171	9979.05
652.523	9970.01
652.875	10038.7
653.227	9951.7
653.578	9986.28
653.93	9991.02
654.282	9965.71
654.633	9968.88
654.985	9979.27
655.337	9948.31
655.688	9938.37
656.039	10042.77
656.391	9995.54
656.742	9981.76
657.094	9931.36
657.445	10030.57
657.796	9961.64
658.147	9872.61
658.498	9964.58
658.849	9946.5
659.2	10012.49
659.551	9930.01
659.902	9970.68
660.253	9984.47
660.604	9988.99
660.955	9966.39
661.306	10053.39
661.656	9937.92
662.007	10041.64
662.358	10040.06
662.708	10048.87
663.059	9983.11
663.409	10024.69
663.76	10016.11
664.11	10010.68
664.461	10094.07
664.811	10028.76
665.161	9968.65
665.511	9943.34
665.862	10024.02
666.212	10023.56
666.562	10006.16
666.912	10008.42
667.262	10022.89
667.612	9997.12
667.962	10012.72
668.312	9977.24
668.662	10011.59
669.011	10007.52
669.361	9984.24
669.711	9983.11
670.06	9929.33
670.41	9970.01
670.76	9936.11
671.109	10015.88
671.459	9940.63
671.808	9963.45
672.157	9940.63
672.507	9887.97
672.856	9857.24
673.205	9950.12
673.554	9990.34
673.904	9862.44
674.253	9957.58
674.602	9861.53
674.951	9748.09
675.3	9671.93
675.649	9786.51
675.998	9857.69
676.346	9884.81
676.695	9890.91
677.044	9815.43
677.393	9859.5
677.741	9768.2
678.09	9741.76
678.438	9776.34
678.787	9850.24
679.135	9798.03
679.484	9749.9
679.832	9743.12
680.181	9725.94
680.529	9694.99
680.877	9717.13
681.225	9662.22
681.573	9749
681.922	9591.71
682.27	9652.5
682.618	9552.62
682.966	9643.91
683.314	9564.82
683.661	9556.01
684.009	9535.89
684.357	9494.76
684.705	9445.27
685.053	9517.36
685.4	9382
685.748	9436.46
686.095	9380.87
686.443	9344.94
686.79	9321.89
687.138	9357.14
687.485	9388.1
687.832	9339.06
688.18	9330.93
688.527	9227.43
688.874	9273.3
689.221	9226.07
689.568	9178.61
689.915	9139.29
690.262	9152.85
690.609	9121.67
690.956	9082.57
691.303	9087.77
691.65	9042.8
691.997	8976.36
692.344	8974.55
692.69	8956.93
693.037	8911.05
693.383	8853.2
693.73	8893.65
694.077	8827.66
694.423	8806.2
694.769	8767.33
695.116	8764.16
695.462	8735.91
695.808	8740.89
696.155	8718.51
696.501	8675.13
696.847	8661.34
697.193	8612.53
697.539	8590.16
697.885	8524.85
698.231	8479.65
698.577	8480.78
698.923	8434
699.269	8419.76
699.614	8318.75
699.96	8271.97
700.306	8344.96
700.651	8300.9
700.997	8248.92
701.342	8240.11
701.688	8216.83
702.033	8156.95
702.379	8172.09
702.724	8155.82
703.069	8168.02
703.415	8065.88
703.76	8042.15
704.105	8032.43
704.45	8046.21
704.795	7893.22
705.14	7945.88
705.485	7968.48
705.83	7826.11
706.175	7851.42
706.52	7845.99
706.865	7881.47
707.209	7811.42
707.554	7712.44
707.899	7790.63
708.243	7667.69
708.588	7719.44
708.932	7662.95
709.277	7626.79
709.621	7639.67
709.966	7575.04
710.31	7569.84
710.654	7513.57
710.998	7556.74
711.342	7575.04
711.687	7578.88
712.031	7485.55
712.375	7438.1
712.719	7469.28
713.063	7451.88
713.407	7502.27
713.75	7454.59
714.094	7452.78
714.438	7379.34
714.782	7421.37
715.125	7346.35
715.469	7372.79
715.812	7323.52
716.156	7258.21
716.499	7292.11
716.843	7365.78
717.186	7270.87
717.53	7309.74
717.873	7247.14
718.216	7169.85
718.559	7219.8
718.902	7216.18
719.246	7192.23
719.589	7189.97
719.932	7181.15
720.275	7176.41
720.617	7104.09
720.96	7152.68
721.303	7104.09
721.646	7205.11
721.989	7120.14
722.331	7119.01
722.674	7148.84
723.016	7108.16
723.359	7124.43
723.701	7088.95
724.044	7074.26
724.386	6971.67
724.729	6997.65
725.071	7038.78
725.413	7063.42
725.755	7043.53
726.097	7064.55
726.439	6924.66
726.782	6982.97
727.124	6997.65
727.465	7004.21
727.807	6971.89
728.149	6992.23
728.491	6910.88
728.833	7015.73
729.175	6914.72
729.516	6999.91
729.858	6973.25
730.199	6950.42
730.541	6915.17
730.882	6939.8
731.224	6924.21
731.565	6952.91
731.906	6956.07
732.248	6980.48
732.589	6899.8
732.93	6939.8
733.271	6938.22
733.612	6963.31
733.953	6938
734.294	6913.59
734.635	6863.42
734.976	6905.91
735.317	6917.88
735.658	6870.2
735.999	6951.33
736.339	6979.58
736.68	6964.44
737.021	6970.54
737.361	6923.53
737.702	6976.41
738.042	6908.84
738.383	6893.7
738.723	6956.53
739.063	6957.66
739.404	6936.19
739.744	6967.15
740.084	6959.46
740.424	6994.49
740.764	7023.19
741.104	7034.94
741.444	7060.48
741.784	7022.29
742.124	7063.64
742.464	7012.57
742.804	7066.58
743.143	7085.34
743.483	7143.41
743.823	7107.26
744.162	7123.53
744.502	7113.58
744.841	7142.74
745.181	7227.48
745.52	7206.69
745.86	7238.1
746.199	7321.71
746.538	7323.97
746.877	7340.7
747.216	7461.15
747.556	7431.54
747.895	7457.3
748.234	7454.14
748.573	7570.75
748.911	7560.35
749.25	7723.06
749.589	7737.75
749.928	7758.76
750.267	7864.07
750.605	7893
750.944	7977.29
751.283	8017.74
751.621	8117.4
751.96	8170.96
752.298	8198.75
752.636	8382.03
752.975	8387.45
753.313	8490.5
753.651	8638.97
753.989	8759.19
754.327	8717.38
754.666	8825.18
755.004	9010.71
755.342	9190.59
755.679	9276.24
756.017	9331.6
756.355	9539.06
756.693	9618.6
757.031	9815.43
757.368	9829.67
757.706	10068.76
758.044	10158.02
758.381	10278.25
758.719	10359.83
759.056	10612.25
759.394	10788.52
759.731	10869.87
760.068	11034.39
760.405	11108.28
760.743	11318.22
761.08	11553.24
761.417	11593.92
761.754	11812.44
762.091	11936.28
762.428	12118.2
762.765	12183.96
763.102	12473.22
763.438	12623.27
