Data from hue_22_FLMS001491_00001.txt Node
Date: Tue Feb 07 17:09:24 GMT 2017
User: dcchb
Spectrometer: FLMS00149
Trigger mode: 0
Integration Time (sec): 2.000000E-2
Scans to average: 10
Electric dark correction enabled: true
Nonlinearity correction enabled: false
Boxcar width: 0
XAxis mode: Wavelengths
Number of Pixels in Spectrum: 2048
>>>>>Begin Spectral Data<<<<<
341.393	-11.89
341.776	-11.89
342.16	-11.89
342.543	-59.57
342.927	-73.36
343.31	-65.68
343.693	-82.4
344.077	-67.94
344.46	-44.89
344.843	-63.87
345.226	-53.93
345.61	-16.19
345.993	-18.22
346.376	3.25
346.759	15.45
347.142	21.1
347.525	38.95
347.908	52.29
348.291	73.76
348.674	102.23
349.057	106.07
349.44	131.83
349.823	160.98
350.206	169.57
350.588	227.42
350.971	220.19
351.354	230.14
351.737	246.18
352.119	260.87
352.502	253.41
352.884	270.13
353.267	284.6
353.65	302.22
354.032	313.75
354.414	318.95
354.797	314.2
355.179	313.97
355.562	330.7
355.944	318.04
356.326	317.82
356.709	341.77
357.091	340.19
357.473	348.32
357.855	340.41
358.238	363.24
358.62	339.96
359.002	341.77
359.384	353.75
359.766	365.95
360.148	347.19
360.53	333.86
360.912	322.79
361.294	334.77
361.676	340.41
362.057	333.86
362.439	335.9
362.821	317.14
363.203	320.08
363.584	316.01
363.966	315.33
364.348	314.2
364.729	321.43
365.111	344.03
365.493	291.38
365.874	320.08
366.256	313.52
366.637	314.88
367.019	321.43
367.4	309
367.781	324.82
368.163	335.44
368.544	309
368.925	322.56
369.306	311.49
369.688	317.82
370.069	313.3
370.45	303.81
370.831	321.88
371.212	328.66
371.593	309.23
371.974	313.52
372.355	326.63
372.736	320.75
373.117	322.11
373.498	306.52
373.879	318.27
374.26	328.89
374.641	304.71
375.021	322.56
375.402	295.44
375.783	324.82
376.163	342
376.544	326.18
376.925	314.88
377.305	329.34
377.686	345.16
378.066	322.79
378.447	325.5
378.827	332.05
379.208	330.25
379.588	350.13
379.968	317.59
380.349	339.06
380.729	327.76
381.109	355.78
381.489	352.39
381.87	338.61
382.25	343.58
382.63	339.74
383.01	338.38
383.39	346.74
383.77	333.41
384.15	342.67
384.53	318.49
384.91	348.78
385.29	340.19
385.67	372.73
386.049	351.94
386.429	344.03
386.809	352.62
387.189	350.58
387.568	340.87
387.948	357.59
388.328	366.4
388.707	367.98
389.087	336.35
389.466	352.62
389.846	362.11
390.225	378.61
390.605	356.91
390.984	382.67
391.363	372.96
391.743	394.88
392.122	384.48
392.501	370.7
392.881	364.82
393.26	359.17
393.639	367.53
394.018	380.41
394.397	371.83
394.776	384.26
395.155	391.49
395.534	395.33
395.913	392.16
396.292	381.77
396.671	393.07
397.05	370.92
397.429	387.19
397.808	391.49
398.186	378.61
398.565	383.35
398.944	393.75
399.323	385.61
399.701	396.91
400.08	396.68
400.458	408.89
400.837	417.47
401.215	390.13
401.594	415.67
401.972	393.07
402.351	382.45
402.729	405.72
403.107	407.98
403.486	409.57
403.864	419.28
404.242	405.5
404.62	419.51
404.999	421.09
405.377	417.93
405.755	418.38
406.133	426.74
406.511	420.19
406.889	412.73
407.267	414.76
407.645	417.25
408.023	412.5
408.401	431.26
408.779	448.43
409.156	425.38
409.534	458.38
409.912	437.36
410.29	435.55
410.667	451.37
411.045	445.04
411.422	452.28
411.8	450.92
412.178	436.91
412.555	443.91
412.933	457.7
413.31	450.92
413.687	466.06
414.065	466.51
414.442	480.98
414.819	479.39
415.197	484.59
415.574	455.21
415.951	483.24
416.328	463.35
416.705	464.71
417.082	511.48
417.46	487.76
417.837	478.04
418.214	496.34
418.591	498.15
418.967	523.46
419.344	516
419.721	517.36
420.098	505.61
420.475	513.74
420.852	493.63
421.228	514.65
421.605	498.38
421.982	528.66
422.358	528.43
422.735	544.25
423.111	530.69
423.488	555.32
423.864	523.23
424.241	534.31
424.617	551.71
424.994	539.05
425.37	539.28
425.746	544.93
426.123	566.85
426.499	560.07
426.875	526.85
427.251	557.81
427.627	560.52
428.003	582.22
428.379	585.83
428.756	584.7
429.132	564.14
429.507	597.81
429.883	568.43
430.259	609.79
430.635	592.61
431.011	603.01
431.387	581.31
431.763	607.07
432.138	598.49
432.514	628.54
432.89	633.97
433.265	658.37
433.641	630.35
434.016	656.11
434.392	631.48
434.767	660.18
435.143	661.54
435.518	643.91
435.894	653.85
436.269	647.75
436.644	663.8
437.02	691.14
437.395	683.68
437.77	689.78
438.145	713.51
438.52	695.43
438.895	696.56
439.271	686.62
439.646	701.31
440.021	719.84
440.395	706.28
440.77	703.8
441.145	716
441.52	740.4
441.895	733.4
442.27	723.46
442.645	731.36
443.019	729.33
443.394	744.25
443.769	730.01
444.143	762.32
444.518	741.76
444.892	762.78
445.267	743.12
445.641	786.05
446.016	755.77
446.39	774.3
446.764	765.04
447.139	774.98
447.513	774.75
447.887	800.29
448.262	797.35
448.636	789.22
449.01	791.93
449.384	812.72
449.758	813.62
450.132	814.98
450.506	798.26
450.88	832.38
451.254	842.32
451.628	818.82
452.002	839.61
452.376	835.09
452.75	825.83
453.123	859.27
453.497	855.2
453.871	861.76
454.244	894.07
454.618	907.41
454.992	877.8
455.365	898.59
455.739	907.86
456.112	920.51
456.486	940.17
456.859	958.93
457.232	930.68
457.606	932.72
457.979	954.41
458.352	973.84
458.725	972.04
459.099	943.34
459.472	976.78
459.845	986.73
460.218	1006.84
460.591	1024.01
460.964	998.02
461.337	1040.51
461.71	1066.72
462.083	1059.49
462.456	1057.46
462.829	1060.85
463.201	1107.4
463.574	1088.19
463.947	1096.33
464.32	1130.9
464.692	1140.17
465.065	1123.9
465.438	1148.98
465.81	1151.24
466.183	1160.51
466.555	1190.56
466.928	1181.75
467.3	1224.01
467.672	1228.53
468.045	1255.64
468.417	1264.23
468.789	1246.15
469.161	1273.95
469.534	1286.83
469.906	1339.26
470.278	1333.16
470.65	1344.23
471.022	1367.96
471.394	1389.65
471.766	1413.61
472.138	1404.34
472.51	1424.91
472.882	1485.47
473.253	1477.79
473.625	1518.46
473.997	1534.06
474.369	1563.21
474.74	1565.47
475.112	1589.2
475.484	1620.83
475.855	1650.44
476.227	1677.33
476.598	1704.22
476.97	1705.58
477.341	1759.59
477.713	1796.42
478.084	1759.81
478.455	1818.57
478.827	1849.3
479.198	1904.67
479.569	1922.07
479.94	1994.16
480.311	1991.9
480.682	2008.85
481.053	2083.87
481.424	2142.4
481.795	2129.07
482.166	2166.81
482.537	2204.55
482.908	2251.55
483.279	2284.54
483.65	2317.76
484.021	2360.47
484.391	2396.18
484.762	2442.96
485.133	2487.03
485.503	2463.07
485.874	2532.67
486.244	2593.69
486.615	2632.33
486.985	2642.95
487.356	2753.91
487.726	2771.31
488.097	2790.97
488.467	2845.43
488.837	2892.89
489.207	2893.12
489.578	2980.57
489.948	3012.21
490.318	3073.9
490.688	3054.47
491.058	3103.05
491.428	3202.26
491.798	3165.65
492.168	3237.74
492.538	3290.62
492.908	3340.34
493.278	3407.68
493.648	3408.13
494.017	3468.02
494.387	3472.76
494.757	3505.98
495.126	3530.61
495.496	3583.27
495.866	3637.05
496.235	3621.23
496.605	3689.03
496.974	3727.67
497.344	3776.93
497.713	3776.93
498.082	3844.73
498.452	3832.07
498.821	3872.07
499.19	3881.34
499.559	3926.08
499.928	3955.91
500.298	4013.76
500.667	4049.7
501.036	4035.23
501.405	4110.94
501.774	4077.04
502.143	4139.64
502.512	4143.48
502.88	4125.63
503.249	4211.95
503.618	4210.14
503.987	4211.27
504.356	4282.91
504.724	4285.85
505.093	4286.53
505.462	4356.58
505.83	4337.6
506.199	4387.54
506.567	4415.11
506.936	4435.67
507.304	4480.19
507.672	4537.14
508.041	4531.49
508.409	4558.38
508.777	4537.37
509.145	4572.17
509.514	4598.61
509.882	4662.11
510.25	4666.85
510.618	4667.76
510.986	4717.25
511.354	4689.45
511.722	4766.97
512.09	4809.9
512.458	4791.6
512.826	4843.8
513.193	4840.18
513.561	4881.99
513.929	4896.68
514.297	4921.09
514.664	4962.21
515.032	4968.32
515.4	4988.65
515.767	5018.94
516.135	5082.21
516.502	5006.28
516.869	5129.44
517.237	5079.95
517.604	5114.75
517.972	5131.93
518.339	5171.93
518.706	5197.01
519.073	5160.4
519.44	5172.6
519.808	5273.17
520.175	5231.36
520.542	5285.6
520.909	5330.34
521.276	5380.06
521.643	5365.14
522.009	5390
522.376	5415.76
522.743	5405.59
523.11	5532.59
523.477	5538.02
523.843	5525.36
524.21	5613.27
524.577	5673.38
524.943	5571.46
525.31	5675.19
525.676	5751.57
526.043	5787.5
526.409	5778.92
526.776	5819.37
527.142	5835.19
527.508	5870.66
527.874	5934.84
528.241	5928.29
528.607	5968.97
528.973	5921.28
529.339	5992.47
529.705	6068.4
530.071	6111.34
530.437	6090.55
530.803	6188.85
531.169	6161.73
531.535	6248.51
531.901	6209.86
532.267	6178
532.632	6326.25
532.998	6236.53
533.364	6321.5
533.73	6268.17
534.095	6383.87
534.461	6438.79
534.826	6445.34
535.192	6462.29
535.557	6519.91
535.923	6467.26
536.288	6596.3
536.653	6586.58
537.019	6571.89
537.384	6633.81
537.749	6634.71
538.114	6617.76
538.479	6637.88
538.845	6694.6
539.21	6687.82
539.575	6751.09
539.94	6779.12
540.305	6765.78
540.67	6776.63
541.034	6831.77
541.399	6918.77
541.764	6887.59
542.129	6935.72
542.494	6972.56
542.858	6975.95
543.223	7043.06
543.587	7033.57
543.952	7045.32
544.316	7147.47
544.681	7116.28
545.045	7136.62
545.41	7141.82
545.774	7180.01
546.138	7220.23
546.503	7242.61
546.867	7243.28
547.231	7290.06
547.595	7330.06
547.959	7414.81
548.324	7344.07
548.688	7388.82
549.052	7419.1
549.416	7497.74
549.779	7478.31
550.143	7507.91
550.507	7574.35
550.871	7579.55
551.235	7585.42
551.599	7637.62
551.962	7623.84
552.326	7689.6
552.689	7630.84
553.053	7656.15
553.417	7683.05
553.78	7830.16
554.143	7773.21
554.507	7793.1
554.87	7829.26
555.234	7875.58
555.597	7815.92
555.96	7931.63
556.323	7925.75
556.686	7907.9
557.05	7993.09
557.413	8013.21
557.776	8094.11
558.139	8112.41
558.502	8104.73
558.865	8135.69
559.228	8187.44
559.59	8217.5
559.953	8245.97
560.316	8317.15
560.679	8353.54
561.041	8324.39
561.404	8345.18
561.767	8400.09
562.129	8389.24
562.492	8473.53
562.854	8417.72
563.217	8460.43
563.579	8488
563.941	8574.32
564.304	8587.66
564.666	8625.39
565.028	8671.72
565.39	8649.8
565.753	8716.01
566.115	8737.26
566.477	8838.72
566.839	8857.03
567.201	8923.01
567.563	8873.98
567.925	8984.48
568.287	9001.2
568.648	8981.32
569.01	9033.97
569.372	9139.05
569.734	9101.99
570.095	9137.47
570.457	9185.15
570.819	9168.43
571.18	9198.94
571.542	9340.18
571.903	9323.68
572.265	9392.38
572.626	9360.06
572.987	9452.04
573.349	9475.09
573.71	9566.84
574.071	9584.69
574.432	9657.46
574.794	9774.52
575.155	9730.68
575.516	9807.96
575.877	9910.11
576.238	9890.22
576.599	10012.02
576.96	10054.51
577.32	10156.88
577.681	10206.6
578.042	10296.99
578.403	10312.36
578.763	10457.89
579.124	10537.43
579.485	10580.37
579.845	10756.86
580.206	10740.37
580.566	10833.02
580.927	10995.73
581.287	11081.15
581.648	11140.13
582.008	11361.59
582.368	11527.01
582.728	11589.38
583.089	11698.08
583.449	11936.27
583.809	12083.16
584.169	12164.06
584.529	12338.29
584.889	12612.18
585.249	12780.54
585.609	12839.07
585.969	13091.27
586.329	13303.92
586.688	13559.28
587.048	13738.71
587.408	13815.99
587.768	14102.76
588.127	14228.64
588.487	14527.39
588.846	14999.46
589.206	14971.67
589.565	15285.11
589.925	15592.9
590.284	15852.78
590.643	16067.68
591.003	16334.57
591.362	16746.31
591.721	16808.68
592.08	17156.92
592.44	17410.7
592.799	17756
593.158	18026.96
593.517	18273.28
593.876	18612.25
594.235	18867.16
594.593	19139.92
594.952	19548.05
595.311	19804.08
595.67	20314.58
596.029	20510.96
596.387	20858.97
596.746	21242.24
597.104	21355.68
597.463	21739.63
597.822	22182.78
598.18	22427.97
598.538	22735.31
598.897	23116.09
599.255	23229.08
599.613	23813.24
599.972	23970.08
600.33	24448.48
600.688	24523.06
601.046	24872.88
601.404	25379.3
601.762	25594.89
602.12	26124.82
602.478	26417.02
602.836	26550.8
603.194	26663.56
603.552	27038.24
603.91	27378.35
604.268	27746.02
604.625	27918.45
604.983	28419.45
605.341	28442.27
605.698	28847.46
606.056	29303.27
606.413	29457.16
606.771	29932.63
607.128	30077.49
607.485	30134.21
607.843	30468.44
608.2	30834.3
608.557	31206.04
608.914	31280.62
609.272	31714.05
609.629	31915.18
609.986	32332.12
610.343	32277.43
610.7	32811.2
611.057	32950.4
611.414	33116.95
611.771	33315.14
612.127	33607.11
612.484	33908.8
612.841	34125.74
613.198	34312.4
613.554	34536.58
613.911	34882.33
614.267	34948.32
614.624	35132.04
614.98	35252.27
615.337	35633.27
615.693	35809.76
616.05	35883.89
616.406	36212.92
616.762	36143.09
617.118	36496.75
617.475	36605
617.831	36830.75
618.187	37021.03
618.543	37049.05
618.899	37536.95
619.255	37473
619.611	37607.01
619.967	37912.08
620.323	38071.63
620.678	38102.13
621.034	38087.22
621.39	38292.19
621.746	38276.82
622.101	38814.66
622.457	38633.65
622.812	39014.2
623.168	39032.28
623.523	39153.41
623.879	39338.26
624.234	39147.53
624.589	39406.51
624.945	39408.09
625.3	39567.86
625.655	39677.23
626.01	39701.41
626.365	39796.1
626.72	39770.79
627.075	39796.33
627.43	39976.43
627.785	39943.22
628.14	40215.07
628.495	40253.49
628.85	40211
629.205	40233.83
629.559	40505.69
629.914	40328.97
630.269	40397.67
630.623	40364.22
630.978	40575.74
631.332	40620.71
631.687	40662.29
632.041	40593.14
632.396	40755.85
632.75	40628.62
633.104	40689.41
633.459	40647.38
633.813	40613.93
634.167	40629.75
634.521	40745.91
634.875	40929.4
635.229	40806.47
635.583	40572.13
635.937	40682.4
636.291	40776.64
636.645	40765.11
636.999	40713.59
637.352	40957.43
637.706	40656.42
638.06	40760.59
638.413	40872.91
638.767	40708.84
639.121	40725.34
639.474	40550.88
639.828	40588.4
640.181	40682.18
640.534	40646.25
640.888	40539.81
641.241	40511.34
641.594	40535.06
641.947	40773.93
642.301	40622.07
642.654	40707.94
643.007	40821.38
643.36	40678.79
643.713	40606.02
644.066	40819.12
644.419	40460.26
644.771	40320.61
645.124	39999.71
645.477	39836.78
645.83	39859.15
646.182	39610.57
646.535	39590.68
646.888	39644.92
647.24	39439.95
647.593	39720.17
647.945	39568.31
648.298	39424.36
648.65	39359.05
649.002	39335.77
649.355	39517.01
649.707	39387.3
650.059	39507.97
650.411	39892.82
650.763	39951.8
651.115	40498.45
651.467	40419.36
651.819	40302.98
652.171	40332.58
652.523	40126.94
652.875	40227.95
653.227	40028.41
653.578	40429.08
653.93	40268.63
654.282	39995.42
654.633	39987.96
654.985	40094.4
655.337	40112.02
655.688	39992.71
656.039	40305.01
656.391	40024.57
656.742	40098.47
657.094	40085.13
657.445	40142.76
657.796	40128.97
658.147	39947.06
658.498	40052.59
658.849	40132.81
659.2	40089.2
659.551	40022.76
659.902	40012.82
660.253	39842.43
660.604	40062.99
660.955	39983.89
661.306	40078.13
661.656	39942.76
662.007	40006.04
662.358	39968.53
662.708	39941.18
663.059	39906.15
663.409	39637.91
663.76	39884.46
664.11	40013.04
664.461	40130.78
664.811	40030.67
665.161	39888.75
665.511	39805.59
665.862	39960.62
666.212	39988.19
666.562	39800.62
666.912	39905.02
667.262	39865.93
667.612	39775.76
667.962	39864.12
668.312	39743.45
668.662	39948.19
669.011	39801.07
669.361	39731.7
669.711	39761.07
670.06	39681.3
670.41	39831.35
670.76	39620.51
671.109	39824.12
671.459	39767.63
671.808	39668.19
672.157	39811.47
672.507	39423.68
672.856	39423.45
673.205	39649.66
673.554	39733.96
673.904	39513.4
674.253	39766.04
674.602	39597.01
674.951	39088.77
675.3	38882.45
675.649	39325.15
675.998	39456.9
676.346	39415.55
676.695	39557.46
677.044	39385.49
677.393	39320.86
677.741	39430.23
678.09	39187.3
678.438	39110.69
678.787	39391.82
679.135	39253.97
679.484	38995.67
679.832	39232.27
680.181	39041.54
680.529	39058.04
680.877	39069.57
681.225	38902.56
681.573	39165.83
681.922	38898.05
682.27	38794.32
682.618	38906.18
682.966	38858.05
683.314	38804.94
683.661	38652.63
684.009	38536.92
684.357	38503.25
684.705	38522.69
685.053	38451.5
685.4	38381.45
685.748	38274.78
686.095	38246.54
686.443	38045.41
686.79	38069.59
687.138	38113.88
687.485	38162.02
687.832	37952.31
688.18	38040.89
688.527	37710.05
688.874	37733.78
689.221	37613.11
689.568	37549.83
689.915	37371.31
690.262	37497.86
690.609	37298.99
690.956	37272.33
691.303	37251.76
691.65	37195.94
691.997	37196.85
692.344	36882.73
692.69	36893.8
693.037	36884.54
693.383	36607.03
693.73	36827.14
694.077	36480.48
694.423	36540.37
694.769	36439.8
695.116	36378.56
695.462	36367.04
695.808	36048.4
696.155	36232.58
696.501	35975.18
696.847	35969.31
697.193	35789.88
697.539	35955.07
697.885	35591.69
698.231	35619.26
698.577	35515.76
698.923	35468.53
699.269	35314.18
699.614	35194.41
699.96	35021.54
700.306	35117.35
700.651	34842.78
700.997	34700.42
701.342	34762.11
701.688	34661.55
702.033	34551.94
702.379	34580.19
702.724	34413.19
703.069	34555.56
703.415	34183.37
703.76	34321.22
704.105	34173.88
704.45	34226.3
704.795	33828.8
705.14	33824.28
705.485	33886.2
705.83	33679.65
706.175	33745.41
706.52	33633.55
706.865	33523.95
707.209	33501.35
707.554	33387.91
707.899	33530.5
708.243	33295.71
708.588	33199.66
708.932	32971.2
709.277	32874.47
709.621	33005.77
709.966	32785.66
710.31	33054.13
710.654	32713.57
710.998	32761.03
711.342	32700.24
711.687	32539.79
712.031	32499.8
712.375	32360.36
712.719	32396.97
713.063	32307.94
713.407	32286.02
713.75	32161.5
714.094	32245.79
714.438	32053.03
714.782	32027.04
715.125	31872.24
715.469	31935.97
715.812	31793.83
716.156	31548.63
716.499	31687.84
716.843	31675.86
717.186	31540.72
717.53	31641.29
717.873	31569.88
718.216	31495.75
718.559	31312.71
718.902	31191.36
719.246	31348.86
719.589	31101.87
719.932	30998.82
720.275	31075.2
720.617	31121.53
720.96	31054.64
721.303	30925.6
721.646	30913.17
721.989	30736
722.331	30778.94
722.674	30719.73
723.016	30680.63
723.359	30639.96
723.701	30677.47
724.044	30404.03
724.386	30241.32
724.729	30450.81
725.071	30218.73
725.413	30356.35
725.755	30287.2
726.097	30250.81
726.439	29966.75
726.782	30116.58
727.124	30188.22
727.465	30005.4
727.807	29966.3
728.149	29914.33
728.491	29920.65
728.833	29815.57
729.175	29828.23
729.516	29830.03
729.858	29706.87
730.199	29700.32
730.541	29767.89
730.882	29568.12
731.224	29746.2
731.565	29421.46
731.906	29421.91
732.248	29535.13
732.589	29343.72
732.93	29241.35
733.271	29194.57
733.612	29338.3
733.953	29344.17
734.294	29155.93
734.635	29177.62
734.976	29247.23
735.317	28981.02
735.658	29040.45
735.999	28997.74
736.339	29091.75
736.68	29070.05
737.021	28925.43
737.361	28861.25
737.702	28950.06
738.042	28752.78
738.383	28737.63
738.723	28841.81
739.063	28600.91
739.404	28742.38
739.744	28718.2
740.084	28395.95
740.424	28551.65
740.764	28478.43
741.104	28594.36
741.444	28459
741.784	28323.86
742.124	28443.18
742.464	28390.75
742.804	28253.13
743.143	28281.83
743.483	28117.99
743.823	28042.06
744.162	28049.97
744.502	28032.57
744.841	28047.03
745.181	28100.59
745.52	27874.38
745.86	28018.78
746.199	27856.08
746.538	27887.49
746.877	27856.98
747.216	27888.62
747.556	27739.92
747.895	27769.07
748.234	27682.52
748.573	27621.28
748.911	27636.65
749.25	27583.77
749.589	27467.39
749.928	27537.21
750.267	27529.3
750.605	27460.83
750.944	27433.04
751.283	27254.74
751.621	27383.09
751.96	27162.53
752.298	27190.56
752.636	27215.41
752.975	27096.55
753.313	26992.37
753.651	27123.67
753.989	26921.18
754.327	26813.62
754.666	26792.37
755.004	26725.26
755.342	26724.35
755.679	26740.85
756.017	26631.25
756.355	26719.61
756.693	26481.2
757.031	26522.78
757.368	26327.3
757.706	26362.78
758.044	26335.21
758.381	26297.7
758.719	26181.09
759.056	26153.75
759.394	26116.91
759.731	25938.61
760.068	25972.51
760.405	25805.73
760.743	25719.63
