Data from hue_60_FLMS001491_27.txt Node
Date: Mon Feb 06 15:17:09 GMT 2017
User: dcchb
Spectrometer: FLMS00149
Trigger mode: 0
Integration Time (sec): 2.000000E-2
Scans to average: 10
Electric dark correction enabled: true
Nonlinearity correction enabled: false
Boxcar width: 0
XAxis mode: Wavelengths
Number of Pixels in Spectrum: 2048
>>>>>Begin Spectral Data<<<<<
341.393	-8.19
341.776	-8.19
342.16	-8.19
342.543	-56.78
342.927	-70.79
343.31	-61.75
343.693	-77.79
344.077	-54.74
344.46	-85.25
344.843	-49.77
345.226	-43.22
345.61	-21.98
345.993	-10.45
346.376	-7.51
346.759	17.57
347.142	27.97
347.525	33.61
347.908	60.73
348.291	65.93
348.674	91.47
349.057	115.19
349.44	125.82
349.823	152.71
350.206	174.63
350.588	188.64
350.971	222.99
351.354	247.62
351.737	246.72
352.119	255.98
352.502	263.21
352.884	290.11
353.267	282.87
353.65	300.73
354.032	300.95
354.414	300.5
354.797	316.32
355.179	335.98
355.562	339.37
355.944	337.56
356.326	344.12
356.709	350.67
357.091	332.14
357.473	354.06
357.855	353.61
358.238	353.61
358.62	345.47
359.002	355.19
359.384	348.63
359.766	354.96
360.148	334.62
360.53	345.7
360.912	333.27
361.294	352.48
361.676	338.24
362.057	349.76
362.439	335.3
362.821	341.18
363.203	364.91
363.584	339.14
363.966	313.16
364.348	339.82
364.729	337.11
365.111	319.03
365.493	331.69
365.874	329.88
366.256	318.81
366.637	298.01
367.019	337.11
367.4	310.67
367.781	336.21
368.163	328.97
368.544	307.96
368.925	304.79
369.306	333.95
369.688	317
370.069	305.25
370.45	317.9
370.831	346.15
371.212	307.05
371.593	325.13
371.974	292.59
372.355	312.7
372.736	321.07
373.117	317.9
373.498	328.07
373.879	303.66
374.26	323.55
374.641	316.55
375.021	314.29
375.402	318.13
375.783	321.74
376.163	315.19
376.544	319.03
376.925	324
377.305	329.65
377.686	336.66
378.066	326.71
378.447	330.78
378.827	333.27
379.208	352.7
379.588	332.14
379.968	342.08
380.349	332.82
380.729	331.91
381.109	344.79
381.489	317.22
381.87	339.82
382.25	304.79
382.63	351.8
383.01	352.25
383.39	346.83
383.77	330.33
384.15	323.78
384.53	337.56
384.91	347.96
385.29	344.79
385.67	335.75
386.049	366.04
386.429	343.89
386.809	353.61
387.189	348.63
387.568	362.19
387.948	352.93
388.328	355.87
388.707	334.4
389.087	365.36
389.466	367.84
389.846	336.88
390.225	348.63
390.605	348.63
390.984	376.66
391.363	351.35
391.743	343.89
392.122	357.22
392.501	352.02
392.881	380.27
393.26	373.27
393.639	373.49
394.018	357
394.397	370.1
394.776	393.61
395.155	378.46
395.534	357.67
395.913	374.4
396.292	384.34
396.671	386.83
397.05	377.11
397.429	378.01
397.808	394.28
398.186	381.63
398.565	394.96
398.944	394.28
399.323	379.14
399.701	396.32
400.08	374.85
400.458	395.87
400.837	385.24
401.215	379.37
401.594	402.42
401.972	383.89
402.351	396.09
402.729	383.66
403.107	407.39
403.486	389.31
403.864	381.63
404.242	401.97
404.62	381.85
404.999	388.86
405.377	408.97
405.755	402.19
406.133	411.91
406.511	429.76
406.889	412.81
407.267	414.85
407.645	413.72
408.023	422.98
408.401	429.31
408.779	427.5
409.156	429.08
409.534	440.16
409.912	427.28
410.29	426.6
410.667	413.94
411.045	457.11
411.422	456.88
411.8	433.38
412.178	453.94
412.555	439.25
412.933	454.85
413.31	436.54
413.687	443.55
414.065	455.98
414.442	454.62
414.819	452.36
415.197	474.73
415.574	471.12
415.951	468.41
416.328	448.97
416.705	479.03
417.082	473.83
417.46	495.07
417.837	470.44
418.214	504.56
418.591	457.56
418.967	490.33
419.344	494.39
419.721	479.03
420.098	486.26
420.475	495.3
420.852	493.04
421.228	490.1
421.605	502.76
421.982	514.96
422.358	516.77
422.735	504.79
423.111	505.47
423.488	521.29
423.864	507.73
424.241	561.51
424.617	535.52
424.994	547.95
425.37	538.69
425.746	532.36
426.123	540.95
426.499	548.63
426.875	543.66
427.251	551.34
427.627	537.56
428.003	562.87
428.379	572.13
428.756	554.96
429.132	575.75
429.507	567.39
429.883	586.82
430.259	587.27
430.635	605.58
431.011	561.51
431.387	595.18
431.763	591.11
432.138	595.86
432.514	605.58
432.89	608.06
433.265	608.74
433.641	618.46
434.016	602.87
434.392	642.86
434.767	620.94
435.143	639.02
435.518	620.94
435.894	655.07
436.269	636.08
436.644	637.67
437.02	662.3
437.395	651.45
437.77	656.88
438.145	654.62
438.52	689.42
438.895	676.76
439.271	694.16
439.646	665.91
440.021	693.26
440.395	695.52
440.77	686.93
441.145	685.35
441.52	680.38
441.895	725.12
442.27	688.06
442.645	712.92
443.019	721.05
443.394	725.35
443.769	717.89
444.143	706.59
444.518	744.56
444.892	739.81
445.267	744.78
445.641	747.04
446.016	760.38
446.39	746.14
446.764	757.44
447.139	739.36
447.513	768.06
447.887	750.66
448.262	738.68
448.636	767.83
449.01	793.82
449.384	779.36
449.758	782.07
450.132	783.43
450.506	788.62
450.88	799.92
451.254	815.74
451.628	825.01
452.002	809.41
452.376	822.07
452.75	830.88
453.123	820.49
453.497	844.89
453.871	838.11
454.244	861.62
454.618	873.59
454.992	875.4
455.365	845.35
455.739	890.99
456.112	908.39
456.486	887.38
456.859	911.78
457.232	931.22
457.606	903.87
457.979	941.16
458.352	953.14
458.725	978.22
459.099	947.49
459.472	979.13
459.845	989.52
460.218	996.98
460.591	1013.7
460.964	994.27
461.337	1017.54
461.71	1040.14
462.083	1062.06
462.456	1042.18
462.829	1044.21
463.201	1072.68
463.574	1105.45
463.947	1109.74
464.32	1095.06
464.692	1122.17
465.065	1139.35
465.438	1159.01
465.81	1153.13
466.183	1213.92
466.555	1204.66
466.928	1220.93
467.3	1248.27
467.672	1265.67
468.045	1280.81
468.417	1308.61
468.789	1298.21
469.161	1327.14
469.534	1362.85
469.906	1389.06
470.278	1386.12
470.65	1420.7
471.022	1449.85
471.394	1502.05
471.766	1501.82
472.138	1510.41
472.51	1611.43
472.882	1623.86
473.253	1652.1
473.625	1697.3
473.997	1724.87
474.369	1737.3
474.74	1793.79
475.112	1835.83
475.484	1855.26
475.855	1911.76
476.227	1974.81
476.598	2038.99
476.97	2065.88
477.341	2114.46
477.713	2158.08
478.084	2214.57
478.455	2273.1
478.827	2366.43
479.198	2432.65
479.569	2486.88
479.94	2600.33
480.311	2624.96
480.682	2742.92
481.053	2838.29
481.424	2911.28
481.795	2954.44
482.166	3061.33
482.537	3154.44
482.908	3256.58
483.279	3330.7
483.65	3435.33
484.021	3523.92
484.391	3649.79
484.762	3750.58
485.133	3852.95
485.503	3966.84
485.874	4098.59
486.244	4180.17
486.615	4311.24
486.985	4468.53
487.356	4544.23
487.726	4719.37
488.097	4853.83
488.467	4935.63
488.837	5090.21
489.207	5243.87
489.578	5349.63
489.948	5523.41
490.318	5699
490.688	5806.34
491.058	5984.64
491.428	6133.12
491.798	6229.16
492.168	6461.47
492.538	6535.36
492.908	6733.1
493.278	6858.97
493.648	6969.48
494.017	7114.78
494.387	7269.36
494.757	7464.61
495.126	7609.91
495.496	7771.26
495.866	7922
496.235	8103.46
496.605	8230.24
496.974	8333.96
497.344	8566.05
497.713	8703.44
498.082	8853.72
498.452	9069.54
498.821	9203.09
499.19	9263.65
499.559	9472.91
499.928	9615.28
500.298	9776.86
500.667	9997.87
501.036	9936.41
501.405	10201.48
501.774	10303.18
502.143	10477.18
502.512	10571.87
502.88	10752.88
503.249	10962.14
503.618	11007.34
503.987	11130.5
504.356	11323.94
504.724	11471.51
505.093	11612.52
505.462	11702.46
505.83	11811.61
506.199	11939.97
506.567	12247.76
506.936	12288.21
507.304	12520.29
507.672	12590.12
508.041	12768.87
508.409	12822.88
508.777	13071.01
509.145	13176.32
509.514	13245.02
509.882	13424
510.25	13504.9
510.618	13712.35
510.986	13805.68
511.354	13945.79
511.722	14101.49
512.09	14320.7
512.458	14313.01
512.826	14519.79
513.193	14640.69
513.561	14742.83
513.929	14918.2
514.297	14978.76
514.664	15208.36
515.032	15268.02
515.4	15476.6
515.767	15660.77
516.135	15799.08
516.502	15668.46
516.869	15910.49
517.237	16105.96
517.604	16101.67
517.972	16346.63
518.339	16498.94
518.706	16583.91
519.073	16608.09
519.44	16864.36
519.808	17021.87
520.175	17088.53
520.542	17285.14
520.909	17400.84
521.276	17502.76
521.643	17622.08
522.009	17941.39
522.376	18002.18
522.743	18079.92
523.11	18280.14
523.477	18485.11
523.843	18596.52
524.21	18813.91
524.577	19062.72
524.943	19064.53
525.31	19152.43
525.676	19358.76
526.043	19570.5
526.409	19604.63
526.776	19828.57
527.142	19899.76
527.508	20079.64
527.874	20170.71
528.241	20423.81
528.607	20383.14
528.973	20628.33
529.339	20633.3
529.705	20967.75
530.071	21047.07
530.437	21124.81
530.803	21302.43
531.169	21521.86
531.535	21289.55
531.901	21370.68
532.267	21585.82
532.632	21813.61
532.998	21864.91
533.364	21894.06
533.73	21998.91
534.095	22164.11
534.461	22359.81
534.826	22409.52
535.192	22498.11
535.557	22751.89
535.923	22656.07
536.288	22736.29
536.653	22889.96
537.019	22895.84
537.384	22990.3
537.749	23163.85
538.114	23174.7
538.479	23238.88
538.845	23397.97
539.21	23412.89
539.575	23465.32
539.94	23549.15
540.305	23821.92
540.67	23752.31
541.034	23821.01
541.399	23884.97
541.764	24000.67
542.129	24111.85
542.494	24112.53
542.858	24209.25
543.223	24232.53
543.587	24466.42
543.952	24406.76
544.316	24669.13
544.681	24544.16
545.045	24679.29
545.41	24776.24
545.774	24842.68
546.138	24928.1
546.503	24918.61
546.867	25103.01
547.231	25199.73
547.595	25291.03
547.959	25303.01
548.324	25437.47
548.688	25420.74
549.052	25597.69
549.416	25601.3
549.779	25615.77
550.143	25790.23
550.507	25923.1
550.871	26002.2
551.235	26039.48
551.599	26252.36
551.962	26322.87
552.326	26321.96
552.689	26503.65
553.053	26425.92
553.417	26412.81
553.78	26912.91
554.143	26692.8
554.507	26867.03
554.87	27026.58
555.234	27172.56
555.597	27101.6
555.96	27270.41
556.323	27358.77
556.686	27373.69
557.05	27657.07
557.413	27738.2
557.776	27840.79
558.139	27987.91
558.502	27927.34
558.865	28205.76
559.228	28277.39
559.59	28451.85
559.953	28533.66
560.316	28763.93
560.679	28805.51
561.041	28859.75
561.404	29139.97
561.767	29193.53
562.129	29142
562.492	29474.87
562.854	29523.46
563.217	29410.47
563.579	29613.18
563.941	29659.05
564.304	29875.77
564.666	30178.59
565.028	30118.7
565.39	30259.71
565.753	30473.94
566.115	30596.65
566.477	30675.07
566.839	30719.81
567.201	30966.59
567.563	31043.42
567.925	31306.92
568.287	31344.43
568.648	31433.92
569.01	31577.19
569.372	31755.94
569.734	31657.64
570.095	31830.29
570.457	31968.82
570.819	32020.8
571.18	32013.11
571.542	32159.1
571.903	32297.4
572.265	32512.76
572.626	32553.66
572.987	32561.8
573.349	32710.27
573.71	32871.17
574.071	32823.71
574.432	32948.23
574.794	33253.76
575.155	33164.5
575.516	33117.72
575.877	33313.42
576.238	33369.01
576.599	33637.03
576.96	33420.08
577.32	33646.29
577.681	33689.91
578.042	33701.66
578.403	33833.18
578.763	33812.16
579.124	33925.15
579.485	34036.11
579.845	34151.81
580.206	34117.69
580.566	34053.74
580.927	34177.58
581.287	34339.83
581.648	34146.62
582.008	34431.81
582.368	34253.73
582.728	34441.3
583.089	34292.38
583.449	34330.79
583.809	34435.2
584.169	34385.25
584.529	34381.86
584.889	34761.97
585.249	34575.98
585.609	34405.82
585.969	34702.31
586.329	34392.94
586.688	34519.04
587.048	34657.79
587.408	34618.24
587.768	34608.07
588.127	34669.31
588.487	34480.39
588.846	34923.32
589.206	34599.94
589.565	34601.29
589.925	34820.04
590.284	34787.5
590.643	34854.17
591.003	34943.43
591.362	34952.02
591.721	34919.93
592.08	34897.78
592.44	35079.7
592.799	35081.96
593.158	35190.43
593.517	34970.32
593.876	35085.12
594.235	35019.14
594.593	35120.6
594.952	35117.44
595.311	34997.22
595.67	35253.25
596.029	35302.29
596.387	35367.6
596.746	35468.16
597.104	35289.64
597.463	35328.96
597.822	35446.92
598.18	35284.89
598.538	35206.02
598.897	35455.73
599.255	35257.32
599.613	35841.94
599.972	35487.82
600.33	35629.06
600.688	35443.76
601.046	35726.24
601.404	35774.82
601.762	35716.52
602.12	35848.04
602.478	35911.09
602.836	35887.14
603.194	35790.41
603.552	36071.99
603.91	35817.31
604.268	36039
604.625	35848.27
604.983	36099.79
605.341	36041.71
605.698	36211.87
606.056	36216.17
606.413	36195.6
606.771	36454.8
607.128	36453.22
607.485	36443.73
607.843	36320.8
608.2	36683.05
608.557	36691.41
608.914	36606.21
609.272	36919.42
609.629	36865.64
609.986	36964.17
610.343	36834
610.7	37157.16
611.057	37101.11
611.414	37066.09
611.771	37076.71
612.127	37233.77
612.484	37304.27
612.841	37312.41
613.198	37218.85
613.554	37409.36
613.911	37578.84
614.267	37452.74
614.624	37473.53
614.98	37631.72
615.337	37729.12
615.693	37766.41
616.05	37661.1
616.406	37913.97
616.762	37765.05
617.118	37850.7
617.475	37927.31
617.831	37938.83
618.187	38083.91
618.543	38135.44
618.899	38346.05
619.255	38397.8
619.611	38244.81
619.967	38527.97
620.323	38486.16
620.678	38364.81
621.034	38427.86
621.39	38349.9
621.746	38416.33
622.101	38740.39
622.457	38573.84
622.812	38558.93
623.168	38758.02
623.523	38748.3
623.879	38899.26
624.234	38641.64
624.589	38847.74
624.945	38890.45
625.3	38879.6
625.655	38942.42
626.01	39028.52
626.365	38948.75
626.72	38866.72
627.075	38742.2
627.43	38862.2
627.785	38808.19
628.14	38882.76
628.495	38941.07
628.85	38880.05
629.205	38742.65
629.559	39160.95
629.914	38897.23
630.269	39003.89
630.623	38752.6
630.978	38760.96
631.332	39029.88
631.687	39084.11
632.041	38795.08
632.396	38925.93
632.75	38764.35
633.104	38894.97
633.459	38689.77
633.813	38632.83
634.167	38681.86
634.521	38827.17
634.875	38806.38
635.229	38733.61
635.583	38589.44
635.937	38631.24
636.291	38607.97
636.645	38734.74
636.999	38443.23
637.352	38645.48
637.706	38356.45
638.06	38565.26
638.413	38390.12
638.767	38390.57
639.121	38514.86
639.474	38371.59
639.828	38283.46
640.181	38376.34
640.534	38417.69
640.888	38325.26
641.241	38174.53
641.594	38101.54
641.947	38329.11
642.301	38193.74
642.654	38074.42
643.007	38206.17
643.36	38197.36
643.713	38057.02
644.066	38359.16
644.419	37987.87
644.771	37766.63
645.124	37509.92
645.477	37329.58
645.83	37165.52
646.182	36945.86
646.535	36968.24
646.888	37069.48
647.24	36807.56
647.593	36991.51
647.945	36904.96
648.298	36721.24
648.65	36642.82
649.002	36601.24
649.355	36728.24
649.707	36798.3
650.059	36841.23
650.411	37217.04
650.763	37306.99
651.115	37587.66
651.467	37534.55
651.819	37550.82
652.171	37540.88
652.523	37484.83
652.875	37350.37
653.227	37163.94
653.578	37634.21
653.93	37388.79
654.282	37182.92
654.633	37183.37
654.985	37204.39
655.337	37239.87
655.688	37204.39
656.039	37234.22
656.391	37097.5
656.742	37045.3
657.094	36990.84
657.445	37261.79
657.796	37125.75
658.147	37080.32
658.498	36942.47
658.849	37148.12
659.2	36995.35
659.551	36996.71
659.902	37034.22
660.253	37073.32
660.604	37050.49
660.955	36842.36
661.306	36949.25
661.656	36938.18
662.007	36918.75
662.358	36917.62
662.708	36792.65
663.059	36843.72
663.409	36589.49
663.76	36883.95
664.11	36863.16
664.461	36831.52
664.811	36773.44
665.161	36831.29
665.511	36797.62
665.862	36763.27
666.212	36905.41
666.562	37048.69
666.912	36777.28
667.262	36693.22
667.612	36834.68
667.962	36802.82
668.312	36692.76
668.662	36836.26
669.011	36765.3
669.361	36622.94
669.711	36717.17
670.06	36608.7
670.41	36439.21
670.76	36579.32
671.109	36712.2
671.459	36521.47
671.808	36550.85
672.157	36654.57
672.507	36480.57
672.856	36447.12
673.205	36493.45
673.554	36568.25
673.904	36444.63
674.253	36638.3
674.602	36374.13
674.951	36083.29
675.3	35775.5
675.649	36471.98
675.998	36407.12
676.346	36328.25
676.695	36476.72
677.044	36274.02
677.393	36255.94
677.741	36245.54
678.09	36225.21
678.438	36153.57
678.787	36081.71
679.135	36209.16
679.484	35891.88
679.832	36054.81
680.181	35841.49
680.529	36062.95
680.877	35869.06
681.225	35872.45
681.573	36018.66
681.922	35799.45
682.27	35657.54
682.618	35758.78
682.966	35613.47
683.314	35639.01
683.661	35550.87
684.009	35543.42
684.357	35296.42
684.705	35236.31
685.053	35318.79
685.4	35291.44
685.748	35259.13
686.095	35065.46
686.443	34984.56
686.79	35033.37
687.138	35173.26
687.485	35114.73
687.832	34881.51
688.18	34990.89
688.527	34797.22
688.874	34778.46
689.221	34614.17
689.568	34505.7
689.915	34408.76
690.262	34564.91
690.609	34207.18
690.956	34196.56
691.303	34304.13
691.65	33997.24
691.997	34069.56
692.344	34030.69
692.69	33965.15
693.037	33984.59
693.383	33724.48
693.73	33793.63
694.077	33518.16
694.423	33469.12
694.769	33422.12
695.116	33316.58
695.462	33333.76
695.808	33313.19
696.155	33289.69
696.501	32938.29
696.847	32996.36
697.193	32674.79
697.539	32891.73
697.885	32583.49
698.231	32490.61
698.577	32514.12
698.923	32400.9
699.269	32358.64
699.614	32221.47
699.96	32164.07
700.306	32097.63
700.651	32176.27
700.997	31960.46
701.342	31831.65
701.688	31863.06
702.033	31707.58
702.379	31703.06
702.724	31630.3
703.069	31623.74
703.415	31256.97
703.76	31338.55
704.105	31470.3
704.45	31266.92
704.795	31092.69
705.14	30925.23
705.485	30925.91
705.83	30834.61
706.175	30866.25
706.52	30845.23
706.865	30770.21
707.209	30648.4
707.554	30446.15
707.899	30591.46
708.243	30360.73
708.588	30319.82
708.932	30215.42
709.277	30066.95
709.621	30182.88
709.966	30091.13
710.31	30098.59
710.654	29809.56
710.998	29862.66
711.342	29810.01
711.687	29790.57
712.031	29646.62
712.375	29625.83
712.719	29604.59
713.063	29525.72
713.407	29690.01
713.75	29376.12
714.094	29432.16
714.438	29262.22
714.782	29298.61
715.125	29200.53
715.469	29212.96
715.812	28983.81
716.156	28902.91
716.499	28997.6
716.843	28969.58
717.186	28714.22
717.53	28851.61
717.873	28838.06
718.216	28803.71
718.559	28662.01
718.902	28446.88
719.246	28510.38
719.589	28380.21
719.932	28448.24
720.275	28318.52
720.617	28237.17
720.96	28206.21
721.303	28308.58
721.646	28217.51
721.989	27992.2
722.331	28198.3
722.674	28086.66
723.016	28001.02
723.359	27930.73
723.701	27997.63
724.044	27766.22
724.386	27726.9
724.729	27857.97
725.071	27720.34
725.413	27649.84
725.755	27621.36
726.097	27527.58
726.439	27387.02
726.782	27427.02
727.124	27527.13
727.465	27410.3
727.807	27381.14
728.149	27362.61
728.491	27269.96
728.833	27304.08
729.175	27076.07
729.516	27163.3
729.858	27109.29
730.199	27150.19
730.541	27061.15
730.882	26985.45
731.224	27242.62
731.565	26898.45
731.906	26883.76
732.248	26878.33
732.589	26718.56
732.93	26532.35
733.271	26666.59
733.612	26685.57
733.953	26653.48
734.294	26626.14
734.635	26565.57
734.976	26606.48
735.317	26402.19
735.658	26451.23
735.999	26369.65
736.339	26343.43
736.68	26401.51
737.021	26295.3
737.361	26193.15
737.702	26389.31
738.042	26175.07
738.383	26083.33
738.723	26079.94
739.063	26082.42
739.404	26186.83
739.744	26050.33
740.084	25952.26
740.424	25910
740.764	25815.08
741.104	25918.81
741.444	25695.09
741.784	25679.04
742.124	25671.36
742.464	25696.89
742.804	25594.52
743.143	25609.67
743.483	25639.04
743.823	25521.53
744.162	25392.27
744.502	25531.25
744.841	25298.94
745.181	25430.69
745.52	25306.85
745.86	25511.14
746.199	25222.56
746.538	25217.81
746.877	25337.58
747.216	25261.43
747.556	25122.45
747.895	25213.07
748.234	25028.21
748.573	25009
748.911	24971.26
749.25	24969.68
749.589	24882.23
749.928	24933.53
750.267	24886.97
750.605	24687.88
750.944	24669.58
751.283	24585.29
751.621	24678.16
751.96	24567.21
752.298	24529.24
752.636	24481.56
752.975	24499.41
753.313	24299.64
753.651	24408.12
753.989	24306.65
754.327	24223.94
754.666	24101
755.004	24222.58
755.342	24244.5
755.679	24055.36
756.017	23912.99
756.355	23947.34
756.693	23905.53
