Data from hue_20_FLMS001491_39.txt Node
Date: Mon Feb 06 15:33:59 GMT 2017
User: dcchb
Spectrometer: FLMS00149
Trigger mode: 0
Integration Time (sec): 2.000000E-2
Scans to average: 10
Electric dark correction enabled: true
Nonlinearity correction enabled: false
Boxcar width: 0
XAxis mode: Wavelengths
Number of Pixels in Spectrum: 2048
>>>>>Begin Spectral Data<<<<<
341.393	-1.53
341.776	-1.53
342.16	-1.53
342.543	-49.43
342.927	-73.16
343.31	-92.37
343.693	-73.16
344.077	-58.93
344.46	-67.51
344.843	-51.24
345.226	-46.72
345.61	-22.77
345.993	-8.3
346.376	12.03
346.759	10.23
347.142	27.63
347.525	46.61
347.908	53.61
348.291	74.63
348.674	84.35
349.057	111.92
349.44	131.35
349.823	143.78
350.206	159.37
350.588	188.53
350.971	217.9
351.354	205.47
351.737	220.62
352.119	244.8
352.502	256.09
352.884	258.13
353.267	301.74
353.65	293.83
354.032	293.83
354.414	292.03
354.797	292.93
355.179	325.02
355.562	325.25
355.944	304
356.326	332.25
356.709	311.46
357.091	343.32
357.473	335.41
357.855	345.58
358.238	324.79
358.62	336.32
359.002	340.16
359.384	347.17
359.766	323.66
360.148	348.07
360.53	327.96
360.912	330.44
361.294	318.69
361.676	329.09
362.057	312.14
362.439	300.61
362.821	330.22
363.203	329.99
363.584	338.58
363.966	322.53
364.348	326.6
364.729	314.62
365.111	321.63
365.493	309.65
365.874	320.95
366.256	310.78
366.637	305.59
367.019	304.23
367.4	310.56
367.781	309.88
368.163	312.82
368.544	321.63
368.925	299.03
369.306	305.59
369.688	318.24
370.069	318.01
370.45	305.81
370.831	312.36
371.212	310.33
371.593	318.47
371.974	293.38
372.355	314.62
372.736	310.33
373.117	293.38
373.498	310.56
373.879	304
374.26	326.38
374.641	296.09
375.021	307.85
375.402	319.6
375.783	305.81
376.163	313.04
376.544	324.57
376.925	315.75
377.305	306.49
377.686	338.13
378.066	326.6
378.447	334.96
378.827	320.27
379.208	336.77
379.588	325.02
379.968	302.42
380.349	323.66
380.729	315.3
381.109	324.57
381.489	344.45
381.87	318.69
382.25	339.93
382.63	344.91
383.01	324.57
383.39	340.16
383.77	339.03
384.15	335.19
384.53	338.35
384.91	342.19
385.29	333.61
385.67	335.19
386.049	327.73
386.429	347.17
386.809	339.03
387.189	340.16
387.568	348.75
387.948	344
388.328	353.27
388.707	348.97
389.087	337
389.466	350.33
389.846	344
390.225	338.8
390.605	344.91
390.984	361.18
391.363	365.24
391.743	357.79
392.122	358.47
392.501	390.33
392.881	362.08
393.26	345.36
393.639	368.18
394.018	367.5
394.397	365.24
394.776	359.82
395.155	367.73
395.534	352.36
395.913	385.36
396.292	373.83
396.671	372.48
397.05	387.62
397.429	371.8
397.808	366.83
398.186	381.52
398.565	388.29
398.944	369.76
399.323	372.48
399.701	399.82
400.08	379.93
400.458	400.05
400.837	397.56
401.215	400.72
401.594	392.36
401.972	377.9
402.351	391.01
402.729	391.91
403.107	390.33
403.486	399.37
403.864	394.4
404.242	402.98
404.62	379.03
404.999	401.18
405.377	400.5
405.755	388.97
406.133	416.09
406.511	400.27
406.889	396.66
407.267	398.46
407.645	397.79
408.023	408.41
408.401	383.1
408.779	406.83
409.156	422.64
409.534	425.81
409.912	413.15
410.29	420.16
410.667	441.4
411.045	413.6
411.422	434.17
411.8	434.62
412.178	443.66
412.555	434.4
412.933	445.69
413.31	462.42
413.687	436.43
414.065	444.34
414.442	445.69
414.819	447.28
415.197	433.04
415.574	450.21
415.951	445.47
416.328	473.26
416.705	443.43
417.082	452.02
417.46	445.02
417.837	487.95
418.214	468.29
418.591	459.48
418.967	463.1
419.344	472.36
419.721	468.74
420.098	472.36
420.475	474.39
420.852	476.65
421.228	493.38
421.605	477.56
421.982	491.57
422.358	492.7
422.735	513.49
423.111	489.08
423.488	507.61
423.864	504.45
424.241	512.13
424.617	522.08
424.994	519.82
425.37	525.92
425.746	530.89
426.123	525.92
426.499	526.6
426.875	506.26
427.251	505.81
427.627	533.38
428.003	531.34
428.379	529.99
428.756	552.58
429.132	520.95
429.507	534.51
429.883	564.11
430.259	537.44
430.635	561.17
431.011	542.64
431.387	553.94
431.763	577.22
432.138	552.36
432.514	582.64
432.89	573.6
433.265	573.6
433.641	572.92
434.016	597.33
434.392	583.77
434.767	596.42
435.143	625.35
435.518	623.54
435.894	614.28
436.269	595.52
436.644	633.49
437.02	624.9
437.395	620.61
437.77	662.19
438.145	635.29
438.52	640.27
438.895	651.34
439.271	643.88
439.646	665.12
440.021	689.08
440.395	646.59
440.77	643.88
441.145	657.67
441.52	678.46
441.895	653.82
442.27	676.87
442.645	675.52
443.019	684.78
443.394	694.28
443.769	691.56
444.143	690.89
444.518	713.71
444.892	700.6
445.267	707.16
445.641	706.25
446.016	715.74
446.39	711.9
446.764	703.54
447.139	735.86
447.513	718.23
447.887	742.18
448.262	730.66
448.636	765.69
449.01	732.24
449.384	736.08
449.758	759.13
450.132	745.8
450.506	755.97
450.88	760.94
451.254	764.56
451.628	760.04
452.002	786.7
452.376	784.89
452.75	776.99
453.123	778.34
453.497	820.37
453.871	802.07
454.244	820.6
454.618	807.49
454.992	828.96
455.365	820.15
455.739	830.32
456.112	872.12
456.486	843.2
456.859	862.86
457.232	838.9
457.606	854.27
457.979	859.47
458.352	890.88
458.725	881.39
459.099	886.36
459.472	924.55
459.845	891.33
460.218	904.44
460.591	941.5
460.964	915.96
461.337	951.67
461.71	955.29
462.083	938.56
462.456	996.41
462.829	978.79
463.201	975.62
463.574	1015.62
463.947	1010.88
464.32	1019.01
464.692	1048.16
465.065	1030.09
465.438	1051.1
465.81	1054.72
466.183	1053.81
466.555	1079.8
466.928	1072.12
467.3	1119.8
467.672	1113.93
468.045	1125.45
468.417	1136.3
468.789	1132
469.161	1150.99
469.534	1157.31
469.906	1219.69
470.278	1212.68
470.65	1238.89
471.022	1262.4
471.394	1299.91
471.766	1267.59
472.138	1281.83
472.51	1308.5
472.882	1317.54
473.253	1370.64
473.625	1355.95
473.997	1402.28
474.369	1402.28
474.74	1404.99
475.112	1442.5
475.484	1479.79
475.855	1500.36
476.227	1490.64
476.598	1549.62
476.97	1586
477.341	1592.11
477.713	1630.07
478.084	1620.35
478.455	1702.84
478.827	1685.66
479.198	1764.76
479.569	1744.64
479.94	1798.2
480.311	1779.44
480.682	1875.71
481.053	1879.56
481.424	1908.93
481.795	1929.95
482.166	1949.61
482.537	2006.33
482.908	2075.26
483.279	2071.87
483.65	2135.82
484.021	2170.85
484.391	2198.19
484.762	2231.64
485.133	2231.18
485.503	2287.23
485.874	2306.89
486.244	2331.75
486.615	2441.12
486.985	2413.1
487.356	2515.02
487.726	2497.84
488.097	2559.54
488.467	2548.92
488.837	2628.24
489.207	2666.2
489.578	2699.42
489.948	2764.73
490.318	2784.16
490.688	2783.03
491.058	2848.57
491.428	2880.21
491.798	2917.72
492.168	2963.37
492.538	2960.66
492.908	3012.41
493.278	3039.75
493.648	3089.69
494.017	3123.82
494.387	3182.57
494.757	3189.8
495.126	3230.25
495.496	3249.01
495.866	3261.21
496.235	3302.12
496.605	3371.72
496.974	3339.4
497.344	3380.31
497.713	3398.84
498.082	3433.64
498.452	3472.06
498.821	3515.9
499.19	3507.53
499.559	3577.59
499.928	3580.98
500.298	3591.83
500.667	3636.12
501.036	3655.78
501.405	3676.34
501.774	3681.54
502.143	3723.57
502.512	3699.85
502.88	3733.07
503.249	3740.75
503.618	3801.54
503.987	3788.43
504.356	3788.88
504.724	3856.9
505.093	3872.05
505.462	3868.88
505.83	3898.26
506.199	3937.35
506.567	3939.39
506.936	3961.53
507.304	3995.66
507.672	4016.9
508.041	3998.14
508.409	4067.97
508.777	4075.2
509.145	4135.31
509.514	4079.95
509.882	4160.63
510.25	4121.98
510.618	4218.25
510.986	4168.53
511.354	4203.79
511.722	4189.32
512.09	4241.53
512.458	4264.13
512.826	4279.49
513.193	4319.94
513.561	4267.06
513.929	4353.61
514.297	4370.79
514.664	4439.26
515.032	4384.12
515.4	4438.36
515.767	4401.52
516.135	4438.36
516.502	4436.1
516.869	4495.31
517.237	4462.54
517.604	4462.99
517.972	4545.47
518.339	4564.23
518.706	4507.96
519.073	4568.75
519.44	4558.13
519.808	4605.59
520.175	4609.88
520.542	4711.12
520.909	4695.3
521.276	4651.91
521.643	4714.73
522.009	4745.24
522.376	4739.59
522.743	4757.45
523.11	4789.76
523.477	4858.01
523.843	4825.92
524.21	4915.18
524.577	4908.85
524.943	4891.45
525.31	4959.25
525.676	5027.95
526.043	5017.33
526.409	5033.14
526.776	5092.13
527.142	5064.56
527.508	5087.15
527.874	5160.6
528.241	5196.3
528.607	5199.24
528.973	5234.5
529.339	5222.52
529.705	5279.92
530.071	5293.25
530.437	5337.32
530.803	5355.17
531.169	5385.45
531.535	5367.6
531.901	5367.82
532.267	5446.47
532.632	5441.04
532.998	5519.01
533.364	5521.49
533.73	5545.45
534.095	5565.79
534.461	5579.34
534.826	5644.2
535.192	5591.1
535.557	5683.3
535.923	5658.44
536.288	5709.96
536.653	5655.5
537.019	5733.47
537.384	5750.41
537.749	5793.12
538.114	5791.54
538.479	5787.47
538.845	5780.92
539.21	5872.44
539.575	5888.26
539.94	5895.95
540.305	5953.8
540.67	5883.52
541.034	5940.47
541.399	6005.77
541.764	5945.21
542.129	6043.06
542.494	6022.95
542.858	6070.63
543.223	6081.7
543.587	6116.51
543.952	6092.33
544.316	6190.18
544.681	6146.11
545.045	6209.61
545.41	6215.71
545.774	6257.75
546.138	6298.42
546.503	6282.38
546.867	6351.53
547.231	6412.09
547.595	6383.17
547.959	6388.36
548.324	6398.98
548.688	6391.07
549.052	6494.57
549.416	6436.5
549.779	6453.9
550.143	6485.76
550.507	6572.54
550.871	6548.36
551.235	6564.18
551.599	6590.62
551.962	6643.95
552.326	6703.61
552.689	6669.49
553.053	6681.24
553.417	6763.95
553.78	6812.08
554.143	6710.61
554.507	6777.05
554.87	6824.06
555.234	6861.57
555.597	6799.43
555.96	6831.29
556.323	6857.73
556.686	6878.75
557.05	6912.87
557.413	6894.79
557.776	6995.13
558.139	7003.49
558.502	7013.21
558.865	7001
559.228	7154.44
559.59	7130.72
559.953	7133.2
560.316	7176.59
560.679	7173.88
561.041	7225.86
561.404	7224.95
561.767	7293.2
562.129	7238.28
562.492	7306.98
562.854	7282.35
563.217	7355.8
563.579	7353.31
563.941	7344.5
564.304	7417.49
564.666	7399.86
565.028	7496.13
565.39	7534.32
565.753	7516.02
566.115	7537.26
566.477	7565.06
566.839	7697.03
567.201	7579.97
567.563	7644.6
567.925	7646.64
568.287	7701.1
568.648	7696.35
569.01	7765.73
569.372	7839.4
569.734	7835.33
570.095	7929.57
570.457	7935.44
570.819	7982.22
571.18	7996.68
571.542	8039.39
571.903	8008.66
572.265	8115.32
572.626	8144.93
572.987	8222.44
573.349	8249.11
573.71	8278.71
574.071	8209.11
574.432	8335.2
574.794	8466.95
575.155	8420.85
575.516	8412.04
575.877	8605.71
576.238	8576.1
576.599	8674.86
576.96	8712.82
577.32	8705.82
577.681	8812.25
578.042	8908.52
578.403	8943.32
578.763	9090.89
579.124	9097.44
579.485	9226.03
579.845	9293.15
580.206	9412.46
580.566	9447.27
580.927	9558.68
581.287	9670.76
581.648	9768.84
582.008	9900.59
582.368	10026.69
582.728	10085.89
583.089	10255.38
583.449	10369.05
583.809	10554.36
584.169	10671.19
584.529	10793.67
584.889	11084.06
585.249	11147.79
585.609	11307.78
585.969	11559.07
586.329	11606.76
586.688	11817.37
587.048	12019.63
587.408	12280.64
587.768	12431.59
588.127	12596.34
588.487	12763.79
588.846	13052.59
589.206	13217.56
589.565	13463.43
589.925	13723.31
590.284	13928.96
590.643	14187.03
591.003	14466.57
591.362	14731.65
591.721	14985.65
592.08	15198.75
592.44	15507.22
592.799	15798.06
593.158	15992.18
593.517	16317.14
593.876	16583.12
594.235	16772.72
594.593	17194.41
594.952	17363.67
595.311	17728.86
595.67	17962.07
596.029	18376.97
596.387	18688.38
596.746	18925.21
597.104	19096.73
597.463	19463.5
597.822	19705.3
598.18	19966.54
598.538	20320.88
598.897	20681.32
599.255	20821.66
599.613	21366.27
599.972	21511.81
600.33	21799.71
600.688	22100.49
601.046	22456.64
601.404	22744.77
601.762	22966.23
602.12	23260.01
602.478	23540.23
602.836	23819.54
603.194	23985.19
603.552	24217.95
603.91	24389.92
604.268	24858.16
604.625	25127.98
604.983	25304.93
605.341	25397.35
605.698	25847.51
606.056	26248.63
606.413	26408.85
606.771	26696.98
607.128	26938.56
607.485	27052.9
607.843	27318.89
608.2	27712.77
608.557	27915.03
608.914	28032.09
609.272	28432.3
609.629	28640.89
609.986	28899.41
610.343	29067.31
610.7	29519.73
611.057	29451.71
611.414	29754.08
611.771	29874.07
612.127	30295.08
612.484	30463.66
612.841	30714.5
613.198	30689.87
613.554	30956.08
613.911	31413.02
614.267	31416.18
614.624	31543.41
614.98	31727.81
615.337	31951.31
615.693	32121.7
616.05	32214.8
616.406	32591.52
616.762	32499.99
617.118	32783.83
617.475	32815.46
617.831	33054.55
618.187	33242.12
618.543	33465.17
618.899	33648.89
619.255	33784.25
619.611	33830.13
619.967	34081.42
620.323	34352.15
620.678	34294.07
621.034	34323.45
621.39	34389.89
621.746	34528.64
622.101	34969.98
622.457	34793.04
622.812	34836.88
623.168	35149.87
623.523	35242.29
623.879	35481.38
624.234	35329.52
624.589	35504.21
624.945	35576.52
625.3	35732.22
625.655	35807.48
626.01	35800.25
626.365	35894.93
626.72	36088.6
627.075	35980.81
627.43	36091.99
627.785	36128.37
628.14	36257.86
628.495	36385.31
628.85	36362.26
629.205	36314.81
629.559	36644.06
629.914	36581.02
630.269	36511.64
630.623	36536.04
630.978	36562.26
631.332	36786.89
631.687	36955.92
632.041	36703.5
632.396	36821.46
632.75	36731.07
633.104	36865.98
633.459	36633.22
633.813	36827.56
634.167	36842.03
634.521	36799.54
634.875	36848.58
635.229	36928.8
635.583	36759.32
635.937	36948.24
636.291	36684.29
636.645	36851.74
636.999	36794.57
637.352	36997.28
637.706	36699.2
638.06	36915.92
638.413	36682.03
638.767	36761.8
639.121	37056.71
639.474	36711.86
639.828	36842.25
640.181	36774.46
640.534	36984.17
640.888	36780.78
641.241	36717.96
641.594	36657.85
641.947	36899.88
642.301	36786.89
642.654	36801.12
643.007	36832.08
643.36	36779.2
643.713	36803.83
644.066	36900.33
644.419	36672.31
644.771	36536.5
645.124	36170.18
645.477	36120.91
645.83	35974.48
646.182	35866.01
646.535	35706.91
646.888	35792.79
647.24	35582.4
647.593	35854.48
647.945	35748.04
648.298	35572.68
648.65	35597.31
649.002	35463.98
649.355	35736.07
649.707	35643.64
650.059	35882.28
650.411	36086.34
650.763	36205.66
651.115	36745.76
651.467	36376.95
651.819	36486.33
652.171	36410.62
652.523	36382.15
652.875	36384.41
653.227	36283.4
653.578	36591.41
653.93	36365.65
654.282	36113.46
654.633	36106.68
654.985	36352.32
655.337	36250.18
655.688	36313.68
656.039	36260.12
656.391	36004.08
656.742	36130.41
657.094	36141.25
657.445	36294.47
657.796	36201.82
658.147	36191.65
658.498	36155.26
658.849	36279.55
659.2	36087.7
659.551	36124.76
659.902	36251.98
660.253	36098.32
660.604	36180.12
660.955	35991.2
661.306	36128.82
661.656	36137.19
662.007	36052.89
662.358	36014.25
662.708	36088.37
663.059	36070.75
663.409	35777.65
663.76	36117.52
664.11	36049.96
664.461	36155.26
664.811	36086.34
665.161	36018.32
665.511	35911.43
665.862	35976.29
666.212	36035.72
666.562	36105.32
666.912	36001.37
667.262	35997.08
667.612	36002.73
667.962	36049.05
668.312	35835.72
668.662	36155.94
669.011	35940.58
669.361	35935.83
669.711	35889.06
670.06	35883.63
670.41	35829.17
670.76	35802.28
671.109	35823.52
671.459	35953.24
671.808	35719.34
672.157	35895.38
672.507	35654.71
672.856	35643.87
673.205	35759.79
673.554	35886.8
673.904	35745.33
674.253	35889.28
674.602	35754.82
674.951	35232.35
675.3	34991.23
675.649	35657.65
675.998	35656.97
676.346	35523.64
676.695	35788.95
677.044	35565
677.393	35542.4
677.741	35598.67
678.09	35520.93
678.438	35380.37
678.787	35455.85
679.135	35525.68
679.484	35108.06
679.832	35455.85
680.181	35220.6
680.529	35393.93
680.877	35256.08
681.225	35296.08
681.573	35420.82
681.922	35182.63
682.27	35047.27
682.618	35059.02
682.966	35002.98
683.314	35056.76
683.661	34854.06
684.009	34815.86
684.357	34618.13
684.705	34709.88
685.053	34681.4
685.4	34531.13
685.748	34520.96
686.095	34525.02
686.443	34339.94
686.79	34304.01
687.138	34448.19
687.485	34317.8
687.832	34220.63
688.18	34338.36
688.527	34039.39
688.874	34045.71
689.221	34035.55
689.568	33893.18
689.915	33786.51
690.262	33906.28
690.609	33834.42
690.956	33698.61
691.303	33686.18
691.65	33462.68
691.997	33520.76
692.344	33346.07
692.69	33290.25
693.037	33299.29
693.383	33078.51
693.73	33082.58
694.077	33032.41
694.423	32777.95
694.769	33005.74
695.116	32673.1
695.462	32713.09
695.808	32670.84
696.155	32754
696.501	32526.21
696.847	32478.3
697.193	32138.19
697.539	32429.71
697.885	32130.74
698.231	32061.13
698.577	32021.14
698.923	32020.46
699.269	31769.39
699.614	31643.29
699.96	31642.39
700.306	31605.78
700.651	31450.53
700.997	31335.28
701.342	31364.88
701.688	31453.47
702.033	31095.28
702.379	31113.36
702.724	31114.27
703.069	31123.08
703.415	30752.24
703.76	30758.57
704.105	30789.53
704.45	30670.44
704.795	30574.85
705.14	30535.07
705.485	30511.34
705.83	30272.93
706.175	30406.94
706.52	30241.07
706.865	30185.7
707.209	30088.3
707.554	29966.5
707.899	30098.25
708.243	29937.12
708.588	29808.31
708.932	29700.07
709.277	29577.36
709.621	29652.16
709.966	29552.95
710.31	29621.65
710.654	29327.87
710.998	29470.02
711.342	29479.51
711.687	29333.52
712.031	29202
712.375	29170.14
712.719	29126.52
713.063	29110.25
713.407	29100.31
713.75	28937.37
714.094	29026.64
714.438	28753.2
714.782	28846.3
715.125	28677.49
715.469	28849.24
715.812	28727.21
716.156	28439.99
716.499	28346.88
716.843	28466.65
717.186	28281.12
717.53	28395.02
717.873	28369.93
718.216	28237.28
718.559	28112.99
718.902	28030.73
719.246	28089.04
719.589	27906.22
719.932	28027.12
720.275	27950.96
720.617	27895.82
720.96	27778.54
721.303	27762.72
721.646	27814.47
721.989	27707.8
722.331	27674.13
722.674	27581.03
723.016	27596.39
723.359	27589.61
723.701	27731.98
724.044	27435.49
724.386	27338.32
724.729	27338.32
725.071	27334.25
725.413	27217.42
725.755	27196.63
726.097	27062.4
726.439	27015.17
726.782	27090.42
727.124	27198.66
727.465	27028.05
727.807	27048.61
728.149	26987.82
728.491	26813.81
728.833	26916.18
729.175	26823.31
729.516	26697.89
729.858	26692.69
730.199	26701.05
730.541	26607.49
730.882	26593.26
731.224	26739.24
731.565	26556.65
731.906	26578.34
732.248	26400.27
732.589	26391.68
732.93	26317.33
733.271	26332.7
733.612	26301.51
733.953	26485.91
734.294	26101.97
734.635	26264
734.976	26270.78
735.317	26172.7
735.658	26066.49
735.999	26122.31
736.339	25992.59
736.68	26081.63
737.021	26007.73
737.361	25866.72
737.702	25878.92
738.042	25910.79
738.383	25867.4
738.723	25834.18
739.063	25727.52
739.404	25842.09
739.744	25636.44
740.084	25606.61
740.424	25611.36
740.764	25487.07
741.104	25652.94
741.444	25455.66
741.784	25341.54
742.124	25499.05
742.464	25444.81
742.804	25300.41
743.143	25348.54
743.483	25256.12
743.823	25217.25
744.162	25170.69
744.502	25304.48
744.841	25138.15
745.181	25142.67
745.52	25011.6
745.86	25077.14
746.199	25020.87
746.538	25001.21
746.877	25118.94
747.216	25022.9
747.556	25021.09
747.895	24943.36
748.234	24842.57
748.573	24775.68
748.911	24747.65
749.25	24793.98
749.589	24628.79
749.928	24706.75
750.267	24761.44
750.605	24584.27
750.944	24542.91
751.283	24552.18
751.621	24459.75
751.96	24428.79
752.298	24384.95
752.636	24334.33
752.975	24191.06
753.313	24322.58
753.651	24276.25
753.989	24116.03
754.327	24052.53
754.666	24009.59
755.004	24118.74
755.342	24070.61
755.679	24019.76
756.017	23860.67
756.355	23866.55
756.693	23896.6
757.031	23844.4
757.368	23679.21
757.706	23695.25
758.044	23619.55
758.381	23571.19
758.719	23509.49
759.056	23559.44
759.394	23432.89
759.731	23384.75
760.068	23232.67
760.405	23108.6
760.743	23093.23
761.08	23167.58
761.417	22987.02
