Data from hue_140_FLMS001491_00045.txt Node
Date: Tue Feb 07 16:55:58 GMT 2017
User: dcchb
Spectrometer: FLMS00149
Trigger mode: 0
Integration Time (sec): 2.000000E-2
Scans to average: 10
Electric dark correction enabled: true
Nonlinearity correction enabled: false
Boxcar width: 0
XAxis mode: Wavelengths
Number of Pixels in Spectrum: 2048
>>>>>Begin Spectral Data<<<<<
341.393	-22.12
341.776	-22.12
342.16	-22.12
342.543	-45.39
342.927	-77.71
343.31	-65.05
343.693	-77.03
344.077	-74.32
344.46	-63.25
344.843	-40.2
345.226	-43.13
345.61	-38.39
345.993	-16.47
346.376	0.48
346.759	-17.82
347.142	42.74
347.525	55.85
347.908	50.2
348.291	67.6
348.674	89.74
349.057	129.06
349.44	137.43
349.823	147.59
350.206	166.8
350.588	189.85
350.971	209.51
351.354	221.72
351.737	233.47
352.119	256.74
352.502	252
352.884	263.52
353.267	280.92
353.65	286.12
354.032	303.75
354.414	300.36
354.797	308.04
355.179	329.29
355.562	305.56
355.944	337.42
356.326	332.9
356.709	341.71
357.091	328.16
357.473	339.68
357.855	336.52
358.238	329.96
358.62	335.16
359.002	343.97
359.384	329.06
359.766	324.77
360.148	340.13
360.53	343.75
360.912	343.97
361.294	348.72
361.676	332.45
362.057	345.1
362.439	346.69
362.821	337.65
363.203	330.19
363.584	332
363.966	324.31
364.348	313.69
364.729	333.58
365.111	321.83
365.493	341.04
365.874	320.92
366.256	321.6
366.637	325.9
367.019	310.08
367.4	322.51
367.781	307.36
368.163	314.6
368.544	306.69
368.925	321.15
369.306	311.66
369.688	306.46
370.069	301.94
370.45	315.73
370.831	296.74
371.212	322.96
371.593	331.32
371.974	308.04
372.355	299.91
372.736	304.43
373.117	308.04
373.498	310.75
373.879	318.89
374.26	329.06
374.641	317.08
375.021	299.46
375.402	320.92
375.783	318.66
376.163	330.42
376.544	320.02
376.925	333.13
377.305	325.67
377.686	315.73
378.066	332.9
378.447	317.99
378.827	338.55
379.208	327.03
379.588	346.46
379.968	322.51
380.349	335.39
380.729	334.93
381.109	346.01
381.489	336.29
381.87	335.84
382.25	343.97
382.63	355.95
383.01	332.67
383.39	329.96
383.77	340.36
384.15	332
384.53	334.71
384.91	357.08
385.29	348.49
385.67	355.95
386.049	360.47
386.429	355.05
386.809	357.53
387.189	359.57
387.568	348.95
387.948	336.74
388.328	338.32
388.707	345.1
389.087	348.72
389.466	352.11
389.846	358.44
390.225	395.05
390.605	345.56
390.984	364.99
391.363	362.05
391.743	361.6
392.122	392.11
392.501	367.7
392.881	383.97
393.26	357.53
393.639	377.19
394.018	377.87
394.397	368.15
394.776	386.23
395.155	382.17
395.534	378.32
395.913	391.2
396.292	379.68
396.671	370.64
397.05	388.94
397.429	373.58
397.808	383.52
398.186	389.85
398.565	364.99
398.944	392.11
399.323	396.63
399.701	395.95
400.08	394.82
400.458	391.43
400.837	406.12
401.215	402.05
401.594	407.93
401.972	399.11
402.351	413.35
402.729	418.32
403.107	405.44
403.486	424.2
403.864	404.76
404.242	417.64
404.62	427.81
404.999	401.83
405.377	420.81
405.755	440.02
406.133	410.64
406.511	419.45
406.889	420.81
407.267	423.97
407.645	431.66
408.023	422.84
408.401	448.83
408.779	449.06
409.156	422.39
409.534	451.09
409.912	441.37
410.29	455.84
410.667	444.76
411.045	445.21
411.422	466.46
411.8	456.06
412.178	447.02
412.555	471.43
412.933	468.72
413.31	454.48
413.687	466.46
414.065	445.21
414.442	468.94
414.819	490.41
415.197	491.09
415.574	496.51
415.951	489.96
416.328	514.14
416.705	497.19
417.082	496.51
417.46	514.37
417.837	499.45
418.214	510.75
418.591	502.61
418.967	526.12
419.344	495.61
419.721	509.62
420.098	526.12
420.475	511.65
420.852	527.02
421.228	533.8
421.605	534.48
421.982	527.02
422.358	528.83
422.735	561.82
423.111	537.42
423.488	547.13
423.864	563.63
424.241	553.69
424.617	559.11
424.994	580.13
425.37	553.01
425.746	563.86
426.123	566.79
426.499	569.28
426.875	569.5
427.251	575.83
427.627	570.63
428.003	573.35
428.379	594.81
428.756	594.59
429.132	580.13
429.507	623.74
429.883	615.83
430.259	626.9
430.635	638.66
431.011	622.61
431.387	624.19
431.763	622.61
432.138	640.92
432.514	668.03
432.89	647.92
433.265	665.1
433.641	670.97
434.016	674.13
434.392	694.47
434.767	688.82
435.143	696.73
435.518	716.85
435.894	692.89
436.269	700.35
436.644	703.29
437.02	711.87
437.395	717.75
437.77	733.12
438.145	735.83
438.52	735.6
438.895	762.95
439.271	728.6
439.646	738.99
440.021	762.72
440.395	746
440.77	761.59
441.145	767.01
441.52	767.69
441.895	765.88
442.27	792.32
442.645	798.65
443.019	788.48
443.394	802.72
443.769	799.78
444.143	826.22
444.518	777.86
444.892	804.98
445.267	827.13
445.641	801.14
446.016	828.93
446.39	842.49
446.764	832.77
447.139	816.28
447.513	846.56
447.887	818.31
448.262	845.88
448.636	868.93
449.01	853.79
449.384	883.85
449.758	850.18
450.132	877.97
450.506	885.43
450.88	873.9
451.254	898.54
451.628	897.63
452.002	901.93
452.376	916.39
452.75	909.83
453.123	934.01
453.497	954.58
453.871	962.49
454.244	963.62
454.618	948.7
454.992	1002.04
455.365	973.11
455.739	996.16
456.112	1006.56
456.486	1027.12
456.859	1005.88
457.232	1063.73
457.606	1056.72
457.979	1075.48
458.352	1066.44
458.725	1061.47
459.099	1086.33
459.472	1089.94
459.845	1116.38
460.218	1123.16
460.591	1147.79
460.964	1144.4
461.337	1171.07
461.71	1192.09
462.083	1195.25
462.456	1225.08
462.829	1203.61
463.201	1246.32
463.574	1242.93
463.947	1289.03
464.32	1259.2
464.692	1326.77
465.065	1307.79
465.438	1356.15
465.81	1374.68
466.183	1378.98
466.555	1407.9
466.928	1387.34
467.3	1389.37
467.672	1419.2
468.045	1463.27
468.417	1472.76
468.789	1493.77
469.161	1543.04
469.534	1525.41
469.906	1557.95
470.278	1597.95
470.65	1635.92
471.022	1669.36
471.394	1686.31
471.766	1740.32
472.138	1736.03
472.51	1769.7
472.882	1811.28
473.253	1837.04
473.625	1898.06
473.997	1913.65
474.369	1956.81
474.74	1995.68
475.112	2083.14
475.484	2097.6
475.855	2183.02
476.227	2198.84
476.598	2252.85
476.97	2304.15
477.341	2348.67
477.713	2402.45
478.084	2441.09
478.455	2557.48
478.827	2609.45
479.198	2698.49
479.569	2736.91
479.94	2808.99
480.311	2862.1
480.682	2943
481.053	3044.47
481.424	3117.01
481.795	3205.37
482.166	3216.89
482.537	3365.82
482.908	3501.41
483.279	3560.16
483.65	3653.94
484.021	3766.03
484.391	3809.19
484.762	3896.65
485.133	4013.03
485.503	4117.21
485.874	4223.19
486.244	4304.55
486.615	4419.8
486.985	4559
487.356	4695.72
487.726	4743.86
488.097	4975.04
488.467	5017.3
488.837	5175.94
489.207	5269.95
489.578	5371.64
489.948	5494.8
490.318	5666.09
490.688	5777.28
491.058	5873.32
491.428	6040.32
491.798	6159.19
492.168	6275.8
492.538	6466.75
492.908	6554.43
493.278	6639.63
493.648	6795.56
494.017	6904.03
494.387	7017.24
494.757	7141.76
495.126	7288.88
495.496	7417.46
495.866	7509.89
496.235	7670.56
496.605	7746.94
496.974	7833.95
497.344	8005.92
497.713	8119.14
498.082	8182.19
498.452	8351.22
498.821	8405.46
499.19	8495.85
499.559	8637.09
499.928	8731.55
500.298	8838.89
500.667	8972.22
501.036	8939.23
501.405	9117.98
501.774	9118.21
502.143	9324.3
502.512	9338.31
502.88	9460.57
503.249	9501.47
503.618	9604.97
503.987	9685.42
504.356	9778.98
504.724	9908.92
505.093	9915.25
505.462	10031.4
505.83	10010.39
506.199	10119.76
506.567	10330.15
506.936	10273.88
507.304	10416.48
507.672	10489.92
508.041	10560.88
508.409	10552.97
508.777	10665.74
509.145	10725.85
509.514	10775.11
509.882	10822.34
510.25	10821.89
510.618	10967.65
510.986	10962.68
511.354	11051.49
511.722	11190.24
512.09	11244.25
512.458	11248.55
512.826	11257.36
513.193	11384.81
513.561	11318.83
513.929	11467.98
514.297	11530.8
514.664	11564.02
515.032	11590.68
515.4	11660.06
515.767	11679.95
516.135	11698.7
516.502	11592.49
516.869	11846.04
517.237	11826.16
517.604	11848.98
517.972	11843.11
518.339	11905.03
518.706	11874.52
519.073	11919.94
519.44	11980.73
519.808	11983.67
520.175	11989.32
520.542	12240.61
520.909	12106.6
521.276	12138.01
521.643	12216.43
522.009	12253.72
522.376	12232.02
522.743	12266.6
523.11	12378.23
523.477	12472.47
523.843	12488.97
524.21	12480.15
524.577	12566.25
524.943	12578.45
525.31	12557.44
525.676	12611.9
526.043	12679.69
526.409	12640.83
526.776	12794.95
527.142	12766.25
527.508	12718.56
527.874	12804.44
528.241	12746.59
528.607	12706.13
528.973	12787.94
529.339	12776.19
529.705	12808.51
530.071	12789.97
530.437	12744.55
530.803	12842.18
531.169	12921.5
531.535	12837.66
531.901	12805.12
532.267	12890.31
532.632	12838.79
532.998	12902.29
533.364	12842.18
533.73	12840.37
534.095	12785.23
534.461	12790.88
534.826	12897.77
535.192	12844.66
535.557	12806.02
535.923	12744.55
536.288	12718.11
536.653	12718.56
537.019	12642.18
537.384	12667.94
537.749	12663.42
538.114	12593.82
538.479	12584.1
538.845	12530.55
539.21	12480.15
539.575	12551.11
539.94	12444.45
540.305	12466.14
540.67	12340.27
541.034	12417.78
541.399	12460.04
541.764	12385.47
542.129	12364.45
542.494	12315.41
542.858	12339.59
543.223	12300.5
543.587	12305.47
543.952	12238.8
544.316	12184.57
544.681	12118.81
545.045	12181.18
545.41	12175.08
545.774	12154.28
546.138	12037.23
546.503	11977.34
546.867	11991.58
547.231	12084.91
547.595	11959.04
547.959	11945.7
548.324	11917
548.688	11939.38
549.052	11830.23
549.416	11723.34
549.779	11796.33
550.143	11772.83
550.507	11778.25
550.871	11714.75
551.235	11715.65
551.599	11759.27
551.962	11604.69
552.326	11661.87
552.689	11762.88
553.053	11658.25
553.417	11563.57
553.78	11664.58
554.143	11603.56
554.507	11576.45
554.87	11494.87
555.234	11591.36
555.597	11458.94
555.96	11469.78
556.323	11512.72
556.686	11452.61
557.05	11505.04
557.413	11520.4
557.776	11411.93
558.139	11433.85
558.502	11445.38
558.865	11484.25
559.228	11426.39
559.59	11404.93
559.953	11397.47
560.316	11531.48
560.679	11493.51
561.041	11448.09
561.404	11525.37
561.767	11476.56
562.129	11474.08
562.492	11505.04
562.854	11476.56
563.217	11460.52
563.579	11453.74
563.941	11580.06
564.304	11536
564.666	11627.29
565.028	11599.72
565.39	11517.47
565.753	11603.79
566.115	11625.71
566.477	11643.56
566.839	11643.11
567.201	11666.39
567.563	11598.59
567.925	11649.89
568.287	11690.34
568.648	11661.19
569.01	11690.12
569.372	11778.48
569.734	11642.43
570.095	11749.55
570.457	11757.46
570.819	11701.87
571.18	11742.54
571.542	11779.38
571.903	11844.24
572.265	11764.24
572.626	11833.39
572.987	11833.62
573.349	11836.55
573.71	11898.92
574.071	11867.06
574.432	11834.75
574.794	11889.89
575.155	11897.12
575.516	11767.63
575.877	11867.74
576.238	11955.87
576.599	11956.1
576.96	11945.48
577.32	11879.04
577.681	11935.31
578.042	11994.97
578.403	11893.73
578.763	12041.07
579.124	11959.26
579.485	11929.88
579.845	12020.5
580.206	11940.05
580.566	11992.71
580.927	11985.02
581.287	12006.04
581.648	11851.92
582.008	11991.58
582.368	11938.7
582.728	11939.15
583.089	11948.87
583.449	11936.21
583.809	11909.32
584.169	11930.11
584.529	11936.44
584.889	11969.43
585.249	11909.77
585.609	11891.69
585.969	11889.21
586.329	11882.88
586.688	11874.97
587.048	11822.54
587.408	11879.49
587.768	11835.42
588.127	11836.78
588.487	11857.34
588.846	11863.45
589.206	11725.82
589.565	11797.91
589.925	11822.77
590.284	11800.4
590.643	11813.95
591.003	11925.82
591.362	11825.03
591.721	11790.45
592.08	11817.8
592.44	11831.81
592.799	11887.17
593.158	11815.76
593.517	11777.8
593.876	11764.92
594.235	11782.09
594.593	11799.04
594.952	11816.44
595.311	11719.27
595.67	11749.55
596.029	11801.98
596.387	11747.52
596.746	11785.03
597.104	11630.23
597.463	11748.19
597.822	11705.03
598.18	11707.74
598.538	11683.56
598.897	11764.69
599.255	11705.71
599.613	11812.15
599.972	11775.99
600.33	11764.24
600.688	11702.77
601.046	11731.02
601.404	11735.99
601.762	11745.48
602.12	11820.51
602.478	11760.17
602.836	11754.75
603.194	11672.94
603.552	11760.85
603.91	11729.89
604.268	11721.08
604.625	11716.56
604.983	11798.14
605.341	11663.22
605.698	11749.78
606.056	11732.83
606.413	11708.19
606.771	11825.25
607.128	11820.06
607.485	11751.81
607.843	11747.06
608.2	11799.27
608.557	11847.85
608.914	11866.16
609.272	11864.8
609.629	11864.8
609.986	11928.75
610.343	11830.45
610.7	11949.77
611.057	11877.91
611.414	11877
611.771	11891.69
612.127	11925.36
612.484	11875.42
612.841	11956.78
613.198	11881.75
613.554	11927.17
613.911	12024.34
614.267	11961.52
614.624	11841.52
614.98	12030.9
615.337	12017.57
615.693	11970.33
616.05	12047.17
616.406	12078.13
616.762	12050.56
617.118	11970.79
617.475	12007.17
617.831	12046.04
618.187	12027.28
618.543	12050.78
618.899	12057.34
619.255	12044.46
619.611	12092.59
619.967	12065.7
620.323	12135.08
620.678	12101.86
621.034	12053.72
621.39	12049.65
621.746	12063.21
622.101	12271.57
622.457	12126.04
622.812	12096.66
623.168	12142.53
623.523	12086.94
623.879	12155.64
624.234	12047.17
624.589	12177.11
624.945	12129.43
625.3	12147.96
625.655	12071.12
626.01	12100.95
626.365	12170.78
626.72	12006.94
627.075	12105.92
627.43	12102.99
627.785	12060.05
628.14	12112.03
628.495	12131.91
628.85	12122.42
629.205	12066.6
629.559	12181.18
629.914	12050.33
630.269	11967.62
630.623	12075.19
630.978	11982.76
631.332	12104.79
631.687	12091.69
632.041	12028.19
632.396	12030.67
632.75	11963.1
633.104	11932.82
633.459	11944.35
633.813	11853.73
634.167	11908.19
634.521	11915.65
634.875	11839.72
635.229	11855.99
635.583	11846.27
635.937	11879.72
636.291	11811.7
636.645	11775.54
636.999	11824.12
637.352	11837.46
637.706	11787.51
638.06	11738.48
638.413	11729.66
638.767	11724.24
639.121	11776.67
639.474	11737.35
639.828	11646.5
640.181	11627.29
640.534	11746.39
640.888	11614.19
641.241	11645.37
641.594	11659.38
641.947	11738.25
642.301	11633.85
642.654	11624.58
643.007	11651.93
643.36	11672.26
643.713	11637.91
644.066	11634.52
644.419	11621.19
644.771	11467.75
645.124	11407.64
645.477	11462.1
645.83	11367.64
646.182	11218.49
646.535	11283.8
646.888	11279.05
647.24	11232.73
647.593	11256.68
647.945	11232.5
648.298	11271.14
648.65	11194.99
649.002	11168.1
649.355	11199.51
649.707	11200.41
650.059	11230.69
650.411	11397.69
650.763	11388.66
651.115	11520.18
651.467	11496.9
651.819	11510.01
652.171	11481.76
652.523	11398.37
652.875	11406.28
653.227	11419.39
653.578	11508.2
653.93	11463.91
654.282	11391.14
654.633	11381.42
654.985	11388.43
655.337	11386.85
655.688	11441.99
656.039	11410.35
656.391	11359.96
656.742	11384.81
657.094	11382.1
657.445	11406.28
657.796	11456.68
658.147	11387.53
658.498	11385.27
658.849	11489.67
659.2	11383.46
659.551	11350.92
659.902	11460.52
660.253	11396.34
660.604	11423.23
660.955	11440.63
661.306	11486.73
661.656	11392.05
662.007	11455.32
662.358	11438.15
662.708	11465.94
663.059	11471.59
663.409	11399.95
663.76	11550.68
664.11	11439.95
664.461	11501.42
664.811	11508.65
665.161	11522.21
665.511	11502.1
665.862	11528.31
666.212	11505.04
666.562	11447.41
666.912	11474.98
667.262	11475.88
667.612	11514.08
667.962	11451.25
668.312	11437.02
668.662	11479.5
669.011	11452.83
669.361	11474.08
669.711	11411.48
670.06	11423.68
670.41	11411.93
670.76	11317.7
671.109	11499.16
671.459	11406.06
671.808	11429.78
672.157	11439.05
672.507	11312.27
672.856	11372.84
673.205	11340.97
673.554	11418.26
673.904	11343.01
674.253	11458.26
674.602	11286.06
674.951	11266.4
675.3	11109.11
675.649	11368.54
675.998	11360.63
676.346	11320.18
676.695	11323.35
677.044	11245.83
677.393	11280.86
677.741	11237.02
678.09	11273.18
678.438	11265.49
678.787	11212.84
679.135	11185.27
679.484	11146.85
679.832	11199.28
680.181	11047.65
680.529	11142.79
680.877	11047.87
681.225	11110.92
681.573	11126.97
681.922	11057.59
682.27	11001.55
682.618	10983.47
682.966	10986.63
683.314	11048.55
683.661	10933.3
684.009	10867.54
684.357	10901.89
684.705	10926.29
685.053	10924.03
685.4	10916.8
685.748	10844.26
686.095	10800.65
686.443	10782.8
686.79	10743.93
687.138	10754.77
687.485	10714.32
687.832	10659.41
688.18	10728.79
688.527	10673.65
688.874	10666.41
689.221	10608.11
689.568	10618.73
689.915	10540.32
690.262	10510.71
690.609	10483.37
690.956	10489.7
691.303	10459.87
691.65	10369.25
691.997	10399.08
692.344	10392.3
692.69	10313.43
693.037	10266.88
693.383	10245.86
693.73	10251.06
694.077	10145.98
694.423	10180.55
694.769	10120.67
695.116	10094.9
695.462	10057.62
695.808	10068.69
696.155	10048.58
696.501	9896.04
696.847	9958.64
697.193	9872.09
697.539	9885.42
697.885	9861.69
698.231	9786.21
698.577	9730.39
698.923	9722.03
699.269	9727
699.614	9639.32
699.96	9581.92
700.306	9586.44
700.651	9534.92
700.997	9537.86
701.342	9545.09
701.688	9553
702.033	9488.82
702.379	9469.38
702.724	9487.69
703.069	9434.36
703.415	9318.2
703.76	9319.78
704.105	9308.03
704.45	9229.39
704.795	9156.62
705.14	9237.98
705.485	9179.22
705.83	9118.43
706.175	9109.39
706.52	9113.46
706.865	9094.03
707.209	9124.53
707.554	9009.96
707.899	9043.86
708.243	8953.92
708.588	9009.28
708.932	8932.45
709.277	8858.55
709.621	8898.55
709.966	8850.19
710.31	8847.48
710.654	8734.94
710.998	8779.23
711.342	8765.22
711.687	8823.07
712.031	8677.99
712.375	8648.39
712.719	8661.04
713.063	8688.61
713.407	8637.32
713.75	8636.41
714.094	8582.18
714.438	8606.81
714.782	8531.1
715.125	8527.71
715.469	8536.75
715.812	8494.49
716.156	8470.54
716.499	8480.48
716.843	8482.07
717.186	8460.37
717.53	8490.65
717.873	8462.86
718.216	8406.13
718.559	8374.95
718.902	8337.44
719.246	8356.87
719.589	8369.53
719.932	8369.3
720.275	8358.45
720.617	8304.22
720.96	8293.82
721.303	8357.55
721.646	8389.19
721.989	8239.13
722.331	8331.56
722.674	8243.2
723.016	8268.74
723.359	8287.27
723.701	8263.09
724.044	8179.47
724.386	8161.85
724.729	8260.83
725.071	8183.54
725.413	8231
725.755	8208.63
726.097	8143.09
726.439	8125.24
726.782	8113.71
727.124	8170.21
727.465	8180.83
727.807	8139.25
728.149	8178.12
728.491	8124.56
728.833	8160.27
729.175	8072.58
729.516	8098.8
729.858	8147.38
730.199	8132.24
730.541	8155.52
730.882	8064
731.224	8099.25
731.565	8075.07
731.906	8121.17
732.248	8076.65
732.589	8000.27
732.93	8004.34
733.271	8085.47
733.612	8027.16
733.953	8059.93
734.294	8021.96
734.635	8051.79
734.976	8039.59
735.317	8027.61
735.658	8028.07
735.999	8113.49
736.339	7982.87
736.68	8033.94
737.021	8088.86
737.361	8049.76
737.702	8109.65
738.042	8099.02
738.383	8047.5
738.723	8114.17
739.063	8052.25
739.404	8083.66
739.744	8120.49
740.084	8099.02
740.424	8180.83
740.764	8157.33
741.104	8141.96
741.444	8116.88
741.784	8124.79
742.124	8156.42
742.464	8158.46
742.804	8169.98
743.143	8235.07
743.483	8182.19
743.823	8249.75
744.162	8294.5
744.502	8319.13
744.841	8320.26
745.181	8340.83
745.52	8323.65
745.86	8404.33
746.199	8401.62
746.538	8482.29
746.877	8573.81
747.216	8589.63
747.556	8616.07
747.895	8633.47
748.234	8683.42
748.573	8674.6
748.911	8722.74
749.25	8859.46
749.589	8877.08
749.928	9000.92
750.267	9042.5
750.605	9015.84
750.944	9170.63
751.283	9108.72
751.621	9244.76
751.96	9320.46
752.298	9359.78
752.636	9521.36
752.975	9527.46
753.313	9627.8
753.651	9790.28
753.989	9800.9
754.327	9957.28
754.666	10024.62
755.004	10090.61
755.342	10242.92
755.679	10406.76
756.017	10400.88
756.355	10581.22
756.693	10748.45
757.031	10878.84
757.368	10884.94
757.706	11129.68
758.044	11201.54
758.381	11397.02
758.719	11531.25
759.056	11730.12
759.394	11770.34
759.731	11825.48
