Data from hue_30_FLMS001491_24.txt Node
Date: Mon Feb 06 15:04:56 GMT 2017
User: dcchb
Spectrometer: FLMS00149
Trigger mode: 0
Integration Time (sec): 2.000000E-2
Scans to average: 10
Electric dark correction enabled: true
Nonlinearity correction enabled: false
Boxcar width: 0
XAxis mode: Wavelengths
Number of Pixels in Spectrum: 2048
>>>>>Begin Spectral Data<<<<<
341.393	-11.67
341.776	-11.67
342.16	-11.67
342.543	-48.05
342.927	-53.93
343.31	-76.52
343.693	-76.07
344.077	-66.35
344.46	-54.83
344.843	-39.69
345.226	-26.81
345.61	-30.2
345.993	-23.19
346.376	-10.08
346.759	6.19
347.142	30.14
347.525	40.08
347.908	49.12
348.291	75.34
348.674	91.61
349.057	111.27
349.44	128.22
349.823	142
350.206	158.27
350.588	205.73
350.971	225.16
351.354	238.72
351.737	233.52
352.119	256.58
352.502	272.62
352.884	248.44
353.267	283.47
353.65	297.48
354.032	309.23
354.414	299.29
354.797	299.51
355.179	335.44
355.562	322.56
355.944	321.21
356.326	318.49
356.709	349.68
357.091	351.04
357.473	336.8
357.855	324.37
358.238	325.5
358.62	336.57
359.002	348.1
359.384	345.16
359.766	366.85
360.148	334.54
360.53	335.44
360.912	306.29
361.294	342.9
361.676	348.55
362.057	318.95
362.439	341.77
362.821	341.54
363.203	318.72
363.584	346.06
363.966	336.35
364.348	336.12
364.729	313.3
365.111	323.47
365.493	323.01
365.874	307.87
366.256	307.2
366.637	324.6
367.019	314.2
367.4	317.36
367.781	329.57
368.163	321.66
368.544	314.43
368.925	289.79
369.306	325.73
369.688	313.75
370.069	314.88
370.45	300.42
370.831	339.51
371.212	335.44
371.593	324.6
371.974	328.21
372.355	309.68
372.736	334.54
373.117	330.92
373.498	326.4
373.879	322.11
374.26	325.27
374.641	321.66
375.021	312.39
375.402	327.08
375.783	334.09
376.163	337.48
376.544	330.02
376.925	312.84
377.305	325.27
377.686	327.53
378.066	310.59
378.447	330.47
378.827	319.4
379.208	340.19
379.588	317.36
379.968	330.47
380.349	346.97
380.729	331.6
381.109	334.31
381.489	345.16
381.87	349.68
382.25	336.8
382.63	364.82
383.01	330.02
383.39	340.87
383.77	320.75
384.15	353.52
384.53	331.83
384.91	356.69
385.29	356.46
385.67	360.08
386.049	354.43
386.429	363.69
386.809	365.27
387.189	382.22
387.568	366.18
387.948	355.1
388.328	346.29
388.707	361.88
389.087	367.53
389.466	354.88
389.846	359.62
390.225	365.05
390.605	387.87
390.984	348.55
391.363	353.97
391.743	387.19
392.122	369.79
392.501	373.63
392.881	370.92
393.26	381.54
393.639	393.75
394.018	368.44
394.397	338.83
394.776	375.44
395.155	394.2
395.534	391.03
395.913	391.49
396.292	384.71
396.671	404.14
397.05	375.67
397.429	384.26
397.808	419.28
398.186	387.19
398.565	391.49
398.944	406.18
399.323	408.21
399.701	412.28
400.08	392.84
400.458	413.86
400.837	407.76
401.215	407.08
401.594	402.11
401.972	413.18
402.351	414.99
402.729	404.14
403.107	414.09
403.486	410.7
403.864	408.66
404.242	417.7
404.62	410.7
404.999	417.02
405.377	429.68
405.755	418.83
406.133	424.03
406.511	426.74
406.889	451.37
407.267	451.37
407.645	449.79
408.023	432.84
408.401	431.71
408.779	429.9
409.156	451.82
409.534	450.24
409.912	453.63
410.29	434.65
410.667	455.21
411.045	465.61
411.422	459.51
411.8	454.76
412.178	473.52
412.555	484.37
412.933	470.35
413.31	469.22
413.687	487.3
414.065	467.19
414.442	474.2
414.819	496.79
415.197	490.69
415.574	507.64
415.951	485.27
416.328	513.29
416.705	500.41
417.082	503.8
417.46	497.47
417.837	543.12
418.214	504.48
418.591	510.58
418.967	499.73
419.344	534.76
419.721	532.27
420.098	505.61
420.475	521.65
420.852	534.53
421.228	480.98
421.605	532.5
421.982	534.31
422.358	551.26
422.735	554.42
423.111	525.95
423.488	549.45
423.864	581.09
424.241	585.38
424.617	561.2
424.994	577.02
425.37	563.46
425.746	560.3
426.123	571.82
426.499	559.62
426.875	593.29
427.251	583.8
427.627	595.55
428.003	578.37
428.379	571.14
428.756	591.93
429.132	633.06
429.507	605.27
429.883	609.11
430.259	629.22
430.635	620.63
431.011	652.27
431.387	621.54
431.763	638.49
432.138	633.51
432.514	650.46
432.89	673.74
433.265	677.81
433.641	660.86
434.016	667.41
434.392	661.76
434.767	701.08
435.143	708.54
435.518	714.19
435.894	683
436.269	692.72
436.644	708.54
437.02	720.74
437.395	735.66
437.77	734.98
438.145	729.78
438.52	743.12
438.895	756
439.271	771.14
439.646	774.08
440.021	760.74
440.395	759.84
440.77	774.53
441.145	753.74
441.52	783.57
441.895	750.12
442.27	764.58
442.645	765.71
443.019	778.14
443.394	784.02
443.769	793.96
444.143	786.28
444.518	791.7
444.892	796
445.267	807.3
445.641	812.04
446.016	813.62
446.39	840.97
446.764	825.83
447.139	821.31
447.513	830.8
447.887	831.25
448.262	841.64
448.636	849.1
449.01	852.27
449.384	843
449.758	861.98
450.132	884.81
450.506	871.7
450.88	840.29
451.254	885.26
451.628	901.08
452.002	900.4
452.376	895.2
452.75	906.95
453.123	920.74
453.497	932.94
453.871	929.55
454.244	948.08
454.618	922.09
454.992	960.51
455.365	963.45
455.739	983.56
456.112	987.4
456.486	993.73
456.859	998.48
457.232	1017.91
457.606	1033.5
457.979	1042.32
458.352	1048.42
458.725	1011.13
459.099	1048.87
459.472	1090.45
459.845	1085.48
460.218	1116.21
460.591	1098.13
460.964	1098.59
461.337	1148.3
461.71	1136.33
462.083	1150.56
462.456	1181.97
462.829	1185.36
463.201	1195.08
463.574	1185.36
463.947	1194.86
464.32	1257
464.692	1247.74
465.065	1274.85
465.438	1273.27
465.81	1272.14
466.183	1333.61
466.555	1339.26
466.928	1307.17
467.3	1322.99
467.672	1372.93
468.045	1386.26
468.417	1416.32
468.789	1419.48
469.161	1427.62
469.534	1478.24
469.906	1476.2
470.278	1482.76
470.65	1495.64
471.022	1525.47
471.394	1570.66
471.766	1566.6
472.138	1605.24
472.51	1633.71
472.882	1683.88
473.253	1661.28
473.625	1697.89
473.997	1751.68
474.369	1751.23
474.74	1794.61
475.112	1835.06
475.484	1876.19
475.855	1896.98
476.227	1921.16
476.598	1961.62
476.97	2008.85
477.341	2056.53
477.713	2093.36
478.084	2139.24
478.455	2167.94
478.827	2216.98
479.198	2273.7
479.569	2272.12
479.94	2365.45
480.311	2394.6
480.682	2445.22
481.053	2490.41
481.424	2539
481.795	2624.42
482.166	2628.04
482.537	2725.21
482.908	2783.97
483.279	2792.33
483.65	2861.93
484.021	2943.74
484.391	2983.06
484.762	3012.66
485.133	3091.08
485.503	3153.45
485.874	3261.47
486.244	3285.42
486.615	3295.37
486.985	3415.14
487.356	3458.07
487.726	3497.85
488.097	3612.65
488.467	3623.04
488.837	3778.29
489.207	3825.07
489.578	3889.25
489.948	3925.41
490.318	3949.81
490.688	4017.83
491.058	4112.29
491.428	4169.92
491.798	4188.9
492.168	4321.33
492.538	4345.96
492.908	4443.36
493.278	4498.27
493.648	4517.71
494.017	4604.26
494.387	4690.81
494.757	4766.74
495.126	4797.92
495.496	4833.18
495.866	4909.56
496.235	4941.65
496.605	5047.41
496.974	5074.75
497.344	5095.32
497.713	5150.46
498.082	5181.87
498.452	5251.7
498.821	5266.84
499.19	5324.24
499.559	5440.17
499.928	5510
500.298	5519.94
500.667	5568.75
501.036	5564.46
501.405	5636.09
501.774	5654.4
502.143	5728.52
502.512	5772.36
502.88	5858.24
503.249	5855.3
503.618	5929.65
503.987	5923.32
504.356	5955.86
504.724	6010.1
505.093	6060.49
505.462	6086.48
505.83	6162.41
506.199	6199.92
506.567	6323.31
506.936	6234.05
507.304	6375.74
507.672	6390.65
508.041	6334.16
508.409	6436.3
508.777	6499.8
509.145	6545
509.514	6512.23
509.882	6532.34
510.25	6603.53
510.618	6611.44
510.986	6645.56
511.354	6701.38
511.722	6817.76
512.09	6815.05
512.458	6772.34
512.826	6868.38
513.193	6868.6
513.561	6972.78
513.929	6974.59
514.297	6996.96
514.664	7062.27
515.032	7059.33
515.4	7132.78
515.767	7150.86
516.135	7213.45
516.502	7158.09
516.869	7271.31
517.237	7269.95
517.604	7275.15
517.972	7344.75
518.339	7306.56
518.706	7380.68
519.073	7438.53
519.44	7377.97
519.808	7475.14
520.175	7488.93
520.542	7598.3
520.909	7652.99
521.276	7636.04
521.643	7652.76
522.009	7723.05
522.376	7795.81
522.743	7832.87
523.11	7857.51
523.477	7988.12
523.843	7930.95
524.21	8084.62
524.577	8048.91
524.943	8043.26
525.31	8073.32
525.676	8288.45
526.043	8244.84
526.409	8170.04
526.776	8371.84
527.142	8361.9
527.508	8411.39
527.874	8489.58
528.241	8516.02
528.607	8531.84
528.973	8558.96
529.339	8559.41
529.705	8636.69
530.071	8715.56
530.437	8693.64
530.803	8757.82
531.169	8807.54
531.535	8873.52
531.901	8833.07
532.267	8956.69
532.632	9055.67
532.998	8978.83
533.364	9060.41
533.73	9048.21
534.095	9132.27
534.461	9169.34
534.826	9236
535.192	9284.59
535.557	9324.81
535.923	9331.82
536.288	9375.43
536.653	9397.8
537.019	9327.75
537.384	9449.55
537.749	9520.06
538.114	9576.33
538.479	9561.19
538.845	9620.85
539.21	9632.83
539.575	9674.18
539.94	9716.89
540.305	9787.17
540.67	9883.44
541.034	9849.32
541.399	9892.25
541.764	9948.75
542.129	9915.3
542.494	9972.93
542.858	10020.61
543.223	10099.03
543.587	10225.58
543.952	10186.71
544.316	10189.42
544.681	10158.01
545.045	10262.19
545.41	10304.67
545.774	10367.27
546.138	10392.35
546.503	10452.01
546.867	10456.98
547.231	10569.07
547.595	10523.88
547.959	10590.99
548.324	10632.12
548.688	10692.01
549.052	10754.38
549.416	10764.1
549.779	10797.09
550.143	10786.47
550.507	10865.34
550.871	10960.02
551.235	10896.07
551.599	11040.92
551.962	10987.82
552.326	11031.89
552.689	11078.21
553.053	11027.82
553.417	11052.22
553.78	11297.64
554.143	11130.87
554.507	11216.74
554.87	11191.2
555.234	11396.62
555.597	11349.62
555.96	11358.43
556.323	11421.71
556.686	11464.87
557.05	11436.17
557.413	11452.66
557.776	11583.51
558.139	11597.75
558.502	11585.99
558.865	11682.04
559.228	11771.98
559.59	11760.68
559.953	11766.1
560.316	11860.11
560.679	11896.27
561.041	11967.23
561.404	12014.01
561.767	12035.47
562.129	12016.27
562.492	12109.37
562.854	12225.75
563.217	12101.69
563.579	12176.71
563.941	12326.31
564.304	12331.51
564.666	12420.78
565.028	12449.25
565.39	12471.17
565.753	12530.38
566.115	12548.46
566.477	12613.76
566.839	12642.69
567.201	12628
567.563	12716.13
567.925	12797.26
568.287	12756.13
568.648	12850.59
569.01	12887.66
569.372	13037.93
569.734	12879.07
570.095	13069.57
570.457	13063.92
570.819	13097.82
571.18	13187.31
571.542	13309.34
571.903	13250.81
572.265	13357.47
572.626	13429.56
572.987	13504.59
573.349	13459.84
573.71	13674.75
574.071	13656.67
574.432	13731.7
574.794	13967.63
575.155	13995.87
575.516	13977.12
575.877	14104.35
576.238	14177.34
576.599	14299.37
576.96	14413.49
577.32	14331.46
577.681	14639.02
578.042	14724.22
578.403	14740.04
578.763	14881.73
579.124	15049.63
579.485	15190.42
579.845	15357.42
580.206	15413.46
580.566	15520.81
580.927	15651.2
581.287	15952.21
581.648	16048.48
582.008	16317.4
582.368	16466.54
582.728	16589.25
583.089	16830.83
583.449	17066.53
583.809	17120.99
584.169	17489.34
584.529	17517.59
584.889	17917.13
585.249	18025.15
585.609	18099.04
585.969	18518.47
586.329	18647.96
586.688	18976.53
587.048	19151.45
587.408	19428.73
587.768	19562.51
588.127	19862.84
588.487	20233.9
588.846	20538.53
589.206	20663.72
589.565	21029.14
589.925	21371.5
590.284	21538.28
590.643	21865.27
591.003	22170.12
591.362	22494.86
591.721	22771.46
592.08	23063.66
592.44	23240.38
592.799	23619.35
593.158	23789.29
593.517	24194.25
593.876	24376.84
594.235	24618.87
594.593	24959.43
594.952	25279.87
595.311	25552.86
595.67	25888.22
596.029	26282.11
596.387	26662.43
596.746	26953.95
597.104	27115.08
597.463	27383.32
597.822	27856.75
598.18	27812.46
598.538	28236.4
598.897	28764.3
599.255	28664.19
599.613	29336.94
599.972	29314.34
600.33	29699.19
600.688	29854.44
601.046	30343.69
601.404	30619.84
601.762	30837.01
602.12	31184.8
602.478	31493.27
602.836	31552.93
603.194	31743.88
603.552	32165.79
603.91	32142.97
604.268	32522.39
604.625	32660.24
604.983	33003.28
605.341	33031.31
605.698	33665.19
606.056	33734.56
606.413	33955.35
606.771	34199.64
607.128	34425.39
607.485	34534.09
607.843	34721.66
608.2	35112.16
608.557	35300.17
608.914	35415.65
609.272	35853.38
609.629	36034.17
609.986	36304.44
610.343	36236.42
610.7	36736.97
611.057	36717.54
611.414	36977.42
611.771	37106.91
612.127	37403.85
612.484	37422.15
612.841	37630.28
613.198	37705.08
613.554	37841.8
613.911	38145.3
614.267	38262.13
614.624	38360.21
614.98	38530.6
615.337	38976.24
615.693	38882
616.05	39006.52
616.406	39351.14
616.762	39306.62
617.118	39487.18
617.475	39581.19
617.831	39924.01
618.187	39797
618.543	39976.66
618.899	40315.63
619.255	40412.13
619.611	40403.09
619.967	40570.32
620.323	40710.2
620.678	40626.59
621.034	40820.71
621.39	40940.48
621.746	40761.95
622.101	41276.29
622.457	41105.22
622.812	41158.78
623.168	41392.67
623.523	41355.38
623.879	41583.85
624.234	41471.99
624.589	41750.85
624.945	41797.86
625.3	41864.52
625.655	41836.95
626.01	42017.06
626.365	41996.04
626.72	42020.22
627.075	42190.84
627.43	41898.19
627.785	42076.27
628.14	42243.04
628.495	42303.61
628.85	42306.09
629.205	42201.46
629.559	42496.14
629.914	42363.49
630.269	42380.89
630.623	42290.72
630.978	42253.89
631.332	42388.12
631.687	42511.51
632.041	42364.62
632.396	42463.83
632.75	42284.62
633.104	42558.97
633.459	42263.83
633.813	42289.82
634.167	42383.38
634.521	42394.9
634.875	42658.85
635.229	42397.16
635.583	42341.34
635.937	42337.5
636.291	42256.83
636.645	42230.39
636.999	42258.63
637.352	42378.86
637.706	42160.11
638.06	42283.49
638.413	42318.07
638.767	42231.74
639.121	42204.4
639.474	42069.04
639.828	42173.21
640.181	42195.13
640.534	42206.66
640.888	42171.41
641.241	41933.9
641.594	42096.6
641.947	42220.9
642.301	42080.56
642.654	42156.26
643.007	41951.98
643.36	41994.01
643.713	42047.57
644.066	42056.83
644.419	41783.84
644.771	41638.31
645.124	41353.35
645.477	41253.69
645.83	41107.48
646.182	40869.07
646.535	40809.86
646.888	40884.66
647.24	40736.87
647.593	40996.07
647.945	40777.77
648.298	40653.48
648.65	40693.93
649.002	40488.74
649.355	40676.53
649.707	40587.94
650.059	40669.75
650.411	41239.45
650.763	41319.45
651.115	41766.67
651.467	41551.99
651.819	41552.21
652.171	41515.6
652.523	41417.75
652.875	41383.86
653.227	41172.56
653.578	41442.16
653.93	41360.35
654.282	41285.1
654.633	41125.11
654.985	41252.79
655.337	41333.46
655.688	41345.89
656.039	41340.01
656.391	41135.27
656.742	41110.42
657.094	41166.69
657.445	41242.84
657.796	41160.13
658.147	41102.28
658.498	41077.42
658.849	41197.87
659.2	41085.11
659.551	40970.53
659.902	41259.56
660.253	41130.08
660.604	41183.18
660.955	40892.79
661.306	41119.23
661.656	40949.74
662.007	40961.49
662.358	40952.23
662.708	40998.55
663.059	40972.79
663.409	40827.49
663.76	41026.58
664.11	40841.95
664.461	41047.82
664.811	40976.18
665.161	40961.04
665.511	40896.41
665.862	40888.05
666.212	41047.37
666.562	40952.68
666.912	40818.22
667.262	40729.86
667.612	41067.93
667.962	41036.29
668.312	40852.34
668.662	41109.51
669.011	40870.65
669.361	40798.56
669.711	40905
670.06	40766.02
670.41	40667.72
670.76	40687.6
671.109	40862.97
671.459	40831.33
671.808	40704.55
672.157	40873.59
672.507	40604.21
672.856	40542.3
673.205	40579.13
673.554	40681.27
673.904	40565.12
674.253	40680.15
674.602	40634.04
674.951	39996.32
675.3	39841.07
675.649	40457.78
675.998	40385.69
676.346	40462.52
676.695	40473.14
677.044	40335.52
677.393	40440.15
677.741	40302.3
678.09	40050.56
678.438	40092.36
678.787	40183.89
679.135	40462.07
679.484	40052.36
679.832	40250.78
680.181	39960.16
680.529	40038.13
680.877	39894.63
681.225	39997.68
681.573	40142.31
681.922	39759.94
682.27	39747.74
682.618	39639.72
682.966	39748.19
683.314	39872.71
683.661	39561.53
684.009	39433.85
684.357	39440.63
684.705	39312.72
685.053	39408.77
685.4	39250.35
685.748	39048.55
686.095	39177.81
686.443	38998.16
686.79	38885.84
687.138	39033.18
687.485	38959.29
687.832	38723.59
688.18	38821.66
688.527	38520.88
688.874	38640.65
689.221	38514.78
689.568	38540.31
689.915	38356.36
690.262	38362.24
690.609	38259.64
690.956	38024.85
691.303	37916.15
691.65	37893.78
691.997	37800.45
692.344	37730.62
692.69	37610.85
693.037	37625.99
693.383	37359.1
693.73	37586.67
694.077	37352.55
694.423	37382.83
694.769	37263.51
695.116	37097.19
695.462	36936.29
695.808	36905.56
696.155	37000.92
696.501	36671.21
696.847	36746.01
697.193	36431.9
697.539	36639.8
697.885	36329.07
698.231	36298.57
698.577	36063.32
698.923	36109.19
699.269	35977.44
699.614	35670.11
699.96	35765.47
700.306	35836.66
700.651	35567.74
700.997	35593.5
701.342	35490.23
701.688	35447.51
702.033	35350.57
702.379	35250.91
702.724	35120.29
703.069	35222.89
703.415	34784.03
703.76	34944.02
704.105	34786.06
704.45	34808.44
704.795	34647.08
705.14	34427.2
705.485	34532.51
705.83	34238.96
706.175	34278.51
706.52	34191.73
706.865	34118.51
707.209	34054.56
707.554	34017.72
707.899	34057.04
708.243	33892.07
708.588	33807.56
708.932	33579.31
709.277	33561.91
709.621	33662.48
709.966	33375.93
710.31	33451.63
710.654	33111.53
710.998	33310.62
711.342	33179.55
711.687	33008.48
712.031	32857.3
712.375	32852.33
712.719	32985.66
713.063	32706.12
713.407	32874.47
713.75	32642.62
714.094	32605.56
714.438	32580.47
714.782	32542.51
715.125	32505.67
715.469	32401.72
715.812	32355.84
716.156	32284.66
716.499	32149.52
716.843	32139.8
717.186	32050.54
717.53	32165.34
717.873	32040.6
718.216	31999.92
718.559	31869.53
718.902	31782.53
719.246	31762.19
719.589	31563.32
719.932	31522.19
720.275	31581.18
720.617	31509.31
720.96	31312.93
721.303	31353.61
721.646	31379.15
721.989	31188.87
722.331	31246.27
722.674	31206.72
723.016	31192.03
723.359	30982.55
723.701	31065.26
724.044	31008.76
724.386	30728.99
724.729	31018.7
725.071	30722.67
725.413	30762.67
725.755	30861.87
726.097	30669.11
726.439	30476.35
726.782	30593.4
727.124	30703.46
727.465	30324.49
727.807	30492.39
728.149	30464.37
728.491	30356.12
728.833	30403.81
729.175	30190.7
729.516	30154.77
729.858	30238.84
730.199	30053.08
730.541	30116.58
730.882	30109.58
731.224	30047.88
731.565	29827.55
731.906	29876.14
732.248	30118.39
732.589	29815.57
732.93	29722.24
733.271	29679.98
733.612	29621.45
733.953	29670.27
734.294	29449.93
734.635	29521.34
734.976	29680.43
735.317	29477.28
735.658	29403.38
735.999	29452.19
736.339	29326.55
736.68	29463.26
737.021	29296.49
737.361	29278.64
737.702	29267.56
738.042	29181.69
738.383	29140.34
738.723	29121.58
739.063	28990.51
739.404	29119.77
739.744	28953.22
740.084	28908.7
740.424	29037.51
740.764	28856.95
741.104	28923.17
741.444	28743.06
741.784	28680.69
742.124	28760.46
742.464	28637.98
742.804	28581.03
743.143	28485.89
743.483	28577.64
743.823	28387.59
744.162	28457.19
744.502	28487.47
744.841	28329.96
745.181	28416.74
745.52	28344.88
745.86	28364.31
746.199	28226.01
746.538	28146.46
746.877	28318.44
747.216	28228.5
747.556	28107.59
747.895	28209.29
748.234	27990.08
748.573	28028.05
748.911	28063.53
749.25	27936.75
749.589	27789.41
749.928	27904.89
750.267	27861.05
750.605	27756.64
750.944	27657.21
751.283	27689.07
751.621	27694.72
751.96	27642.3
752.298	27518.91
752.636	27521.17
752.975	27371.57
753.313	27273.72
753.651	27321.63
753.989	27256.54
754.327	27142.42
754.666	27116.66
755.004	27153.5
755.342	27208.41
755.679	27152.82
756.017	26836.67
756.355	26943.56
756.693	26791.02
757.031	27012.03
757.368	26742.66
757.706	26750.57
758.044	26637.58
758.381	26668.08
758.719	26505.6
