Data from hue_22_FLMS001491_00026.txt Node
Date: Tue Feb 07 17:09:52 GMT 2017
User: dcchb
Spectrometer: FLMS00149
Trigger mode: 0
Integration Time (sec): 2.000000E-2
Scans to average: 10
Electric dark correction enabled: true
Nonlinearity correction enabled: false
Boxcar width: 0
XAxis mode: Wavelengths
Number of Pixels in Spectrum: 2048
>>>>>Begin Spectral Data<<<<<
341.393	-21.84
341.776	-21.84
342.16	-21.84
342.543	-46.47
342.927	-67.94
343.31	-69.74
343.693	-68.16
344.077	-44.21
344.46	-77.88
344.843	-48.05
345.226	-50.31
345.61	-25.45
345.993	-19.35
346.376	-12.8
346.759	21.78
347.142	8.67
347.525	37.37
347.908	56.13
348.291	77.14
348.674	96.13
349.057	118.73
349.44	130.93
349.823	150.82
350.206	160.76
350.588	202.79
350.971	188.78
351.354	216.8
351.737	232.17
352.119	242.34
352.502	268.78
352.884	286.18
353.267	284.15
353.65	305.84
354.032	297.48
354.414	301.32
354.797	319.17
355.179	328.44
355.562	327.31
355.944	326.4
356.326	333.18
356.709	356.91
357.091	357.14
357.473	331.15
357.855	342.67
358.238	336.35
358.62	349.91
359.002	346.29
359.384	343.13
359.766	328.66
360.148	334.09
360.53	352.84
360.912	334.09
361.294	342.45
361.676	343.8
362.057	308.78
362.439	331.38
362.821	321.88
363.203	334.77
363.584	333.86
363.966	334.31
364.348	322.79
364.729	322.56
365.111	335.67
365.493	317.82
365.874	326.18
366.256	318.04
366.637	309.23
367.019	319.4
367.4	315.1
367.781	331.38
368.163	327.31
368.544	338.61
368.925	304.94
369.306	316.01
369.688	304.03
370.069	328.66
370.45	316.01
370.831	316.23
371.212	307.2
371.593	327.99
371.974	321.66
372.355	324.37
372.736	309.46
373.117	318.27
373.498	330.02
373.879	316.46
374.26	316.01
374.641	312.84
375.021	309.68
375.402	306.07
375.783	311.71
376.163	326.4
376.544	313.07
376.925	318.27
377.305	330.7
377.686	326.86
378.066	342.9
378.447	350.58
378.827	349.91
379.208	338.61
379.588	333.41
379.968	348.78
380.349	352.17
380.729	357.14
381.109	328.66
381.489	343.8
381.87	351.49
382.25	342.45
382.63	346.74
383.01	337.7
383.39	339.96
383.77	360.75
384.15	371.83
384.53	349.45
384.91	353.3
385.29	372.73
385.67	351.49
386.049	365.5
386.429	357.82
386.809	363.47
387.189	357.14
387.568	342
387.948	357.59
388.328	368.66
388.707	370.7
389.087	363.69
389.466	353.75
389.846	373.63
390.225	379.06
390.605	362.79
390.984	363.69
391.363	349.23
391.743	368.21
392.122	356.23
392.501	380.87
392.881	372.96
393.26	363.24
393.639	397.36
394.018	374.54
394.397	372.96
394.776	368.44
395.155	397.59
395.534	373.18
395.913	380.64
396.292	396.46
396.671	405.72
397.05	382.67
397.429	395.78
397.808	410.92
398.186	376.35
398.565	388.32
398.944	369.79
399.323	408.66
399.701	413.63
400.08	389.23
400.458	400.75
400.837	406.4
401.215	380.87
401.594	398.04
401.972	402.11
402.351	412.05
402.729	413.86
403.107	414.54
403.486	398.27
403.864	413.41
404.242	417.7
404.62	437.81
404.999	429
405.377	435.55
405.755	432.39
406.133	432.39
406.511	424.48
406.889	415.22
407.267	433.07
407.645	433.29
408.023	420.86
408.401	449.34
408.779	449.56
409.156	452.05
409.534	458.6
409.912	427.64
410.29	435.1
410.667	446.63
411.045	458.38
411.422	472.61
411.8	475.78
412.178	459.28
412.555	452.95
412.933	473.97
413.31	477.13
413.687	498.38
414.065	483.69
414.442	455.44
414.819	480.75
415.197	499.96
415.574	464.48
415.951	502.9
416.328	487.08
416.705	528.43
417.082	495.44
417.46	497.25
417.837	511.48
418.214	508.77
418.591	522.78
418.967	534.99
419.344	481.88
419.721	518.94
420.098	518.72
420.475	523.91
420.852	525.49
421.228	508.09
421.605	528.21
421.982	523.69
422.358	522.33
422.735	536.12
423.111	551.48
423.488	541.99
423.864	537.47
424.241	543.8
424.617	567.08
424.994	564.36
425.37	564.36
425.746	585.15
426.123	580.18
426.499	572.05
426.875	579.28
427.251	580.41
427.627	574.31
428.003	611.82
428.379	588.54
428.756	597.58
429.132	607.3
429.507	595.1
429.883	596.45
430.259	629.22
430.635	619.5
431.011	624.93
431.387	629.45
431.763	654.3
432.138	636
432.514	655.89
432.89	656.11
433.265	654.76
433.641	650.24
434.016	656.34
434.392	685.72
434.767	710.12
435.143	702.89
435.518	681.42
435.894	682.1
436.269	706.51
436.644	690.24
437.02	723.91
437.395	702.44
437.77	716.22
438.145	719.84
438.52	740.63
438.895	747.64
439.271	739.05
439.646	755.55
440.021	769.33
440.395	753.74
440.77	746.51
441.145	754.87
441.52	765.04
441.895	783.12
442.27	771.82
442.645	761.42
443.019	777.24
443.394	784.7
443.769	768.2
444.143	796.9
444.518	801.42
444.892	782.66
445.267	790.8
445.641	823.11
446.016	817.01
446.39	812.27
446.764	831.48
447.139	807.97
447.513	820.63
447.887	811.81
448.262	836.22
448.636	859.5
449.01	838.03
449.384	832.15
449.758	862.43
450.132	843
450.506	876.67
450.88	879.61
451.254	885.49
451.628	889.78
452.002	886.39
452.376	884.36
452.75	914.41
453.123	909.89
453.497	928.65
453.871	913.96
454.244	928.87
454.618	949.89
454.992	951.7
455.365	956.9
455.739	961.64
456.112	1008.19
456.486	975.65
456.859	980.4
457.232	1007.06
457.606	1026.05
457.979	1012.71
458.352	1044.58
458.725	1029.89
459.099	1075.76
459.472	1075.31
459.845	1049.1
460.218	1069.89
460.591	1107.17
460.964	1120.73
461.337	1103.33
461.71	1137.23
462.083	1147.63
462.456	1151.24
462.829	1160.73
463.201	1212.03
463.574	1186.04
463.947	1191.47
464.32	1213.61
464.692	1231.01
465.065	1233.27
465.438	1261.75
465.81	1245.93
466.183	1259.49
466.555	1271.92
466.928	1313.27
467.3	1300.16
467.672	1350.56
468.045	1384.68
468.417	1372.25
468.789	1358.47
469.161	1396.88
469.534	1407.96
469.906	1439.37
470.278	1448.41
470.65	1468.97
471.022	1488.86
471.394	1513.04
471.766	1523.66
472.138	1567.05
472.51	1576.77
472.882	1596.2
473.253	1600.72
473.625	1640.49
473.997	1698.57
474.369	1689.08
474.74	1689.76
475.112	1737.89
475.484	1758.23
475.855	1829.64
476.227	1816.08
476.598	1885.91
476.97	1894.95
477.341	1902.41
477.713	1956.19
478.084	1951.67
478.455	2020.82
478.827	2026.7
479.198	2104.21
479.569	2103.98
479.94	2164.55
480.311	2226.47
480.682	2230.08
481.053	2289.52
481.424	2326.58
481.795	2374.26
482.166	2421.94
482.537	2463.07
482.908	2503.07
483.279	2510.75
483.65	2590.3
484.021	2596.4
484.391	2662.61
484.762	2694.93
485.133	2718.88
485.503	2788.26
485.874	2787.58
486.244	2866.68
486.615	2910.74
486.985	2987.12
487.356	3045.2
487.726	3070.74
488.097	3111.87
488.467	3111.64
488.837	3228.93
489.207	3245.88
489.578	3301.92
489.948	3351.86
490.318	3392.09
490.688	3489.71
491.058	3475.25
491.428	3547.34
491.798	3528.81
492.168	3651.74
492.538	3703.49
492.908	3710.95
493.278	3747.33
493.648	3813.32
494.017	3836.37
494.387	3880.21
494.757	3952.98
495.126	4000.21
495.496	3984.16
495.866	4014.89
496.235	4021.67
496.605	4112.52
496.974	4123.37
497.344	4171.5
497.713	4213.31
498.082	4257.15
498.452	4286.3
498.821	4295.34
499.19	4344.83
499.559	4379.4
499.928	4401.1
500.298	4420.53
500.667	4536.69
501.036	4463.24
501.405	4510.47
501.774	4554.54
502.143	4590.92
502.512	4572.62
502.88	4653.52
503.249	4609
503.618	4692.39
503.987	4730.36
504.356	4739.62
504.724	4744.82
505.093	4754.31
505.462	4832.27
505.83	4824.82
506.199	4850.13
506.567	4913.4
506.936	4893.29
507.304	4998.82
507.672	5020.52
508.041	5001.08
508.409	5065.04
508.777	5083.34
509.145	5110.68
509.514	5104.13
509.882	5167.18
510.25	5183
510.618	5184.81
510.986	5149.78
511.354	5239.72
511.722	5304.35
512.09	5345.03
512.458	5344.58
512.826	5342.77
513.193	5320.62
513.561	5398.36
513.929	5418.7
514.297	5409.66
514.664	5477.68
515.032	5498.02
515.4	5514.52
515.767	5536.66
516.135	5600.16
516.502	5568.98
516.869	5632.93
517.237	5648.07
517.604	5654.85
517.972	5673.83
518.339	5732.82
518.706	5725.81
519.073	5728.97
519.44	5746.6
519.808	5781.85
520.175	5832.25
520.542	5900.49
520.909	5919.93
521.276	5882.42
521.643	5919.93
522.009	5981.4
522.376	5979.59
522.743	6003.32
523.11	6083.31
523.477	6074.5
523.843	6101.39
524.21	6187.49
524.577	6205.35
524.943	6274.27
525.31	6252.12
525.676	6324.89
526.043	6384.32
526.409	6341.84
526.776	6505.22
527.142	6430.2
527.508	6480.59
527.874	6499.8
528.241	6542.06
528.607	6567.82
528.973	6620.7
529.339	6626.8
529.705	6753.81
530.071	6674.26
530.437	6743.41
530.803	6781.6
531.169	6850.3
531.535	6847.81
531.901	6846.46
532.267	6848.94
532.632	6975.95
532.998	6996.74
533.364	6998.77
533.73	7002.16
534.095	7046.91
534.461	7103.4
534.826	7165.09
535.192	7166.68
535.557	7263.62
535.923	7263.62
536.288	7290.97
536.653	7257.75
537.019	7292.32
537.384	7220.01
537.749	7335.26
538.114	7398.53
538.479	7415.48
538.845	7421.58
539.21	7426.56
539.575	7474.24
539.94	7519.21
540.305	7557.4
540.67	7508.36
541.034	7602.82
541.399	7626.32
541.764	7656.83
542.129	7625.19
542.494	7747.45
542.858	7757.85
543.223	7711.97
543.587	7817.51
543.952	7826.32
544.316	7862.93
544.681	7882.82
545.045	7927.79
545.41	7979.54
545.774	8035.35
546.138	8003.94
546.503	8044.39
546.867	8033.77
547.231	8156.25
547.595	8101.57
547.959	8202.81
548.324	8208
548.688	8243.26
549.052	8253.88
549.416	8273.54
549.779	8299.3
550.143	8275.35
550.507	8368.68
550.871	8424.04
551.235	8370.03
551.599	8437.83
551.962	8510.82
552.326	8511.95
552.689	8539.75
553.053	8486.87
553.417	8496.13
553.78	8575
554.143	8532.97
554.507	8654.55
554.87	8720.08
555.234	8784.03
555.597	8720.99
555.96	8777.71
556.323	8770.7
556.686	8781.1
557.05	8881.66
557.413	8883.92
557.776	8921.43
558.139	8987.19
558.502	9047.76
558.865	8948.55
559.228	9071.71
559.59	9067.87
559.953	9074.2
560.316	9189.9
560.679	9225.38
561.041	9225.15
561.404	9221.54
561.767	9311.03
562.129	9288.88
562.492	9390.8
562.854	9399.16
563.217	9383.57
563.579	9411.81
563.941	9447.75
564.304	9541.3
564.666	9555.54
565.028	9604.35
565.39	9609.55
565.753	9690.9
566.115	9617.68
566.477	9715.76
566.839	9739.04
567.201	9815.42
567.563	9811.58
567.925	9945.59
568.287	9884.34
568.648	9921.41
569.01	9999.82
569.372	10025.58
569.734	10023.1
570.095	10139.03
570.457	10081.85
570.819	10210.89
571.18	10159.59
571.542	10251.79
571.903	10260.83
572.265	10374.95
572.626	10419.7
572.987	10483.65
573.349	10437.78
573.71	10473.71
574.071	10536.53
574.432	10610.88
574.794	10783.3
575.155	10829.4
575.516	10765.9
575.877	10859.01
576.238	10968.16
576.599	11014.48
576.96	11111.21
577.32	11140.36
577.681	11279.34
578.042	11377.41
578.403	11450.41
578.763	11462.61
579.124	11629.84
579.485	11720
579.845	11818.31
580.206	11828.25
580.566	11996.83
580.927	12128.13
581.287	12209.48
581.648	12364.28
582.008	12473.43
582.368	12583.71
582.728	12803.82
583.089	12913.64
583.449	13107.08
583.809	13263.24
584.169	13405.38
584.529	13525.6
584.889	13794.07
585.249	13956.33
585.609	14063.44
585.969	14315.19
586.329	14493.71
586.688	14719.92
587.048	14888.51
587.408	15171.89
587.768	15355.61
588.127	15609.17
588.487	15823.62
588.846	16154.91
589.206	16382.7
589.565	16558.29
589.925	16938.4
590.284	17186.53
590.643	17390.14
591.003	17813.85
591.362	18014.98
591.721	18289.55
592.08	18588.07
592.44	18758.46
592.799	19141.95
593.158	19348.28
593.517	19652.45
593.876	20014.02
594.235	20225.99
594.593	20597.28
594.952	20934.9
595.311	21125.18
595.67	21611.95
596.029	22000.18
596.387	22246.73
596.746	22610.34
597.104	22900.95
597.463	23001.29
597.822	23527.83
598.18	23753.36
598.538	23993.35
598.897	24455.49
599.255	24618.19
599.613	25305.18
599.972	25360.32
600.33	25706.98
600.688	25983.58
601.046	26377.7
601.404	26585.15
601.762	27003.89
602.12	27357.11
602.478	27664.22
602.836	28034.83
603.194	28079.12
603.552	28462.61
603.91	28663.74
604.268	29151.18
604.625	29363.83
604.983	29741.22
605.341	29755.91
605.698	30084.27
606.056	30665.95
606.413	30806.05
606.771	31236.1
607.128	31397
607.485	31524
607.843	31855.07
608.2	32184.55
608.557	32544.77
608.914	32499.57
609.272	33022.04
609.629	33297.06
609.986	33596.94
610.343	33611.63
610.7	33997.38
611.057	34182.01
611.414	34355.57
611.771	34696.35
612.127	34923.91
612.484	35189.67
612.841	35257.46
613.198	35468.53
613.554	35592.37
613.911	36066.03
614.267	36153.03
614.624	36383.53
614.98	36525
615.337	36820.59
615.693	36894.71
616.05	37094.02
616.406	37486.33
616.762	37522.71
617.118	37737.4
617.475	37804.06
617.831	38111.17
618.187	38200.44
618.543	38322.92
618.899	38730.59
619.255	38811.72
619.611	38918.61
619.967	39274.31
620.323	39378.71
620.678	39244.02
621.034	39337.36
621.39	39423.23
621.746	39461.65
622.101	40074.29
622.457	39849.21
622.812	40052.14
623.168	40160.38
623.523	40237.22
623.879	40453.26
624.234	40479.02
624.589	40633.37
624.945	40729.18
625.3	40944.09
625.655	40897.09
626.01	40928.05
626.365	41090.98
626.72	41050.53
627.075	41163.97
627.43	41187.25
627.785	41217.98
628.14	41389.5
628.495	41354.48
628.85	41490.75
629.205	41337.98
629.559	41645.77
629.914	41470.86
630.269	41610.97
630.623	41657.07
630.978	41539.56
631.332	41867.68
631.687	42037.62
632.041	41792.43
632.396	41908.36
632.75	41946.78
633.104	41868.81
633.459	41999.66
633.813	41896.84
634.167	41897.74
634.521	42014.57
634.875	42171.63
635.229	42048.7
635.583	41799.89
635.937	42032.43
636.291	42011.64
636.645	42073.78
636.999	41970.05
637.352	42089.15
637.706	41919.43
638.06	41987.23
638.413	41999.43
638.767	41930.73
639.121	41901.81
639.474	41859.78
639.828	41894.35
640.181	41909.04
640.534	41903.16
640.888	42012.99
641.241	41735.03
641.594	41914.69
641.947	41928.47
642.301	41908.14
642.654	41959.66
643.007	41824.52
643.36	41889.6
643.713	41827.23
644.066	41994.01
644.419	41758.08
644.771	41682.6
645.124	41309.51
645.477	41153.13
645.83	40808.5
646.182	40828.62
646.535	40781.84
646.888	40890.76
647.24	40460.94
647.593	40810.09
647.945	40832.46
648.298	40641.73
648.65	40463.43
649.002	40464.11
649.355	40508.17
649.707	40544.1
650.059	40798.11
650.411	41224.99
650.763	41234.25
651.115	41722.38
651.467	41478.32
651.819	41418.66
652.171	41527.13
652.523	41374.82
652.875	41292.78
653.227	41054.6
653.578	41556.05
653.93	41373.91
654.282	41408.49
654.633	41280.36
654.985	41338.88
655.337	41219.57
655.688	41407.81
656.039	41502.72
656.391	41243.75
656.742	41317.87
657.094	41224.99
657.445	41552.21
657.796	41339.56
658.147	41163.75
658.498	41188.61
658.849	41344.99
659.2	41224.09
659.551	41201.26
659.902	41271.32
660.253	41143.86
660.604	41218.21
660.955	41011.66
661.306	41244.65
661.656	41131.43
662.007	41210.3
662.358	41224.76
662.708	41131.88
663.059	41166.91
663.409	40731.67
663.76	41131.88
664.11	41108.38
664.461	41170.98
664.811	41219.11
665.161	41069.97
665.511	41087.82
665.862	41053.69
666.212	41170.75
666.562	41245.1
666.912	41068.16
667.262	41165.1
667.612	41037.2
667.962	41232.67
668.312	41036.97
668.662	41130.53
669.011	40975.28
669.361	41057.99
669.711	40999.91
670.06	40924.66
670.41	40918.78
670.76	40810.76
671.109	40936.86
671.459	41055.73
671.808	40805.11
672.157	40973.02
672.507	40719.47
672.856	40822.51
673.205	40796.75
673.554	40954.94
673.904	40761.95
674.253	40941.38
674.602	40959.91
674.951	40234.28
675.3	40081.29
675.649	40739.35
675.998	40691.67
676.346	40689.86
676.695	40709.75
677.044	40411.9
677.393	40625.91
677.741	40684.21
678.09	40543.65
678.438	40450.77
678.787	40495.74
679.135	40608.73
679.484	40187.73
679.832	40395.41
680.181	40212.36
680.529	40395.18
680.877	40142.31
681.225	40303.21
681.573	40394.95
681.922	40102.99
682.27	39962.42
682.618	40081.06
682.966	39994.06
683.314	40068.64
683.661	39896.89
684.009	39743.9
684.357	39723.56
684.705	39618.93
685.053	39740.73
685.4	39582.09
685.748	39418.94
686.095	39380.52
686.443	39309.33
686.79	39261.43
687.138	39384.81
687.485	39439.95
687.832	39192.27
688.18	39279.05
688.527	39091.03
688.874	38952.28
689.221	39013.07
689.568	38780.99
689.915	38797.26
690.262	38820.98
690.609	38607.88
690.956	38531.5
691.303	38504.61
691.65	38505.96
691.997	38342.81
692.344	38034.79
692.69	38137.39
693.037	38090.38
693.383	37837.51
693.73	37924.96
694.077	37691.52
694.423	37710.96
694.769	37541.02
695.116	37420.57
695.462	37375.37
695.808	37280.91
696.155	37475.26
696.501	37229.84
696.847	37123.4
697.193	36973.58
697.539	37074.82
697.885	36659.46
698.231	36567.71
698.577	36814.48
698.923	36588.5
699.269	36440.93
699.614	36302.18
699.96	36232.13
700.306	36213.6
700.651	36097.89
700.997	35910.78
701.342	35965.69
701.688	35861.51
702.033	35799.82
702.379	35814.51
702.724	35693.38
703.069	35714.63
703.415	35205.26
703.76	35329.33
704.105	35381.75
704.45	35250.91
704.795	35050.46
705.14	35031.93
705.485	35056.56
705.83	34857.02
706.175	34953.74
706.52	34791.49
706.865	34671.94
707.209	34580.64
707.554	34424.26
707.899	34608.44
708.243	34182.69
708.588	34170.94
708.932	34053.2
709.277	34168.23
709.621	34171.62
709.966	33787.44
710.31	33883.49
710.654	33646.88
710.998	33845.97
711.342	33631.97
711.687	33738.63
712.031	33520.56
712.375	33330.73
712.719	33504.29
713.063	33435.59
713.407	33509.71
713.75	33207.35
714.094	33340.45
714.438	33151.53
714.782	33135.71
715.125	33070.63
715.469	33115.82
715.812	32777.75
716.156	32737.53
716.499	32645.33
716.843	32836.74
717.186	32543.18
717.53	32722.84
717.873	32749.96
718.216	32510.87
718.559	32465.9
718.902	32168.5
719.246	32384.32
719.589	32330.99
719.932	32097.09
720.275	32032.46
720.617	32019.58
720.96	32077.89
721.303	32001.5
721.646	31943.43
721.989	31784.79
722.331	31862.07
722.674	31780.94
723.016	31779.59
723.359	31591.12
723.701	31598.8
724.044	31437.9
724.386	31324.68
724.729	31436.09
725.071	31289.88
725.413	31284.23
725.755	31341.86
726.097	31167.85
726.439	31069.78
726.782	31027.07
727.124	31304.35
727.465	31042.88
727.807	31001.98
728.149	30987.29
728.491	30912.04
728.833	30992.94
729.175	30867.3
729.516	30756.11
729.858	30805.83
730.199	30783.68
730.541	30805.38
730.882	30596.12
731.224	30698.03
731.565	30412.84
731.906	30536.91
732.248	30554.31
732.589	30238.61
732.93	30358.83
733.271	30290.14
733.612	30251.04
733.953	30266.18
734.294	30234.09
734.635	30047.2
734.976	30252.17
735.317	29871.16
735.658	29951.61
735.999	29981.44
736.339	29920.65
736.68	29969.69
737.021	29978.96
737.361	29662.13
737.702	29998.84
738.042	29677.04
738.383	29720.89
738.723	29765.86
739.063	29578.29
739.404	29699.19
739.744	29674.78
740.084	29431.85
740.424	29565.41
740.764	29464.85
741.104	29405.19
741.444	29356.15
741.784	29350.73
742.124	29329.48
742.464	29379.2
742.804	29227.34
743.143	29276.38
743.483	29132.88
743.823	29072.54
744.162	29014.92
744.502	28988.93
744.841	28984.18
745.181	29029.6
745.52	28832.32
745.86	28907.35
746.199	28889.04
746.538	28819.44
746.877	28780.8
747.216	28799.55
747.556	28784.41
747.895	28748.71
748.234	28687.01
748.573	28546.23
748.911	28512.33
749.25	28581.71
749.589	28351.2
749.928	28448.15
750.267	28441.37
750.605	28326.35
750.944	28334.71
751.283	28230.08
751.621	28281.6
751.96	28155.05
752.298	28138.33
752.636	28131.1
752.975	27977.43
753.313	27890.88
753.651	27901.27
753.989	27840.93
754.327	27661.28
754.666	27645.01
755.004	27570.21
755.342	27725.46
755.679	27709.19
756.017	27466.48
756.355	27543.77
756.693	27268.52
757.031	27437.33
757.368	27184.45
757.706	27181.97
758.044	27174.06
758.381	27241.4
758.719	27167.96
759.056	27159.6
759.394	26990.79
759.731	26847.74
760.068	26846.84
