Data from hue_310_FLMS001491_15.txt Node
Date: Mon Feb 06 15:48:54 GMT 2017
User: dcchb
Spectrometer: FLMS00149
Trigger mode: 0
Integration Time (sec): 2.000000E-2
Scans to average: 10
Electric dark correction enabled: true
Nonlinearity correction enabled: false
Boxcar width: 0
XAxis mode: Wavelengths
Number of Pixels in Spectrum: 2048
>>>>>Begin Spectral Data<<<<<
341.393	-17.8
341.776	-17.8
342.16	-17.8
342.543	-75.42
342.927	-72.03
343.31	-64.35
343.693	-54.18
344.077	-64.8
344.46	-62.09
344.843	-56.44
345.226	-48.53
345.61	-32.71
345.993	-20.96
346.376	-25.25
346.759	1.86
347.142	43.9
347.525	56.78
347.908	50.45
348.291	69.66
348.674	92.94
349.057	113.73
349.44	125.7
349.823	142.43
350.206	190.79
350.588	197.79
350.971	231.01
351.354	218.81
351.737	223.1
352.119	238.47
352.502	252.03
352.884	273.72
353.267	301.29
353.65	303.1
354.032	303.55
354.414	273.5
354.797	309.2
355.179	315.53
355.562	301.52
355.944	320.05
356.326	322.76
356.709	324.34
357.091	327.05
357.473	312.14
357.855	329.31
358.238	341.74
358.62	324.57
359.002	332.7
359.384	321.63
359.766	336.09
360.148	342.87
360.53	315.98
360.912	329.99
361.294	333.38
361.676	327.96
362.057	327.96
362.439	318.01
362.821	319.14
363.203	313.27
363.584	313.72
363.966	337
364.348	307.62
364.729	301.74
365.111	322.76
365.493	324.57
365.874	311.01
366.256	304.91
366.637	308.3
367.019	299.71
367.4	332.7
367.781	308.3
368.163	325.92
368.544	305.59
368.925	297
369.306	311.46
369.688	307.62
370.069	302.42
370.45	307.85
370.831	290.9
371.212	288.41
371.593	296.09
371.974	297.9
372.355	308.3
372.736	285.7
373.117	290.67
373.498	314.62
373.879	330.9
374.26	305.59
374.641	311.91
375.021	322.08
375.402	318.92
375.783	308.75
376.163	306.72
376.544	327.05
376.925	324.34
377.305	316.21
377.686	322.99
378.066	344
378.447	321.63
378.827	321.18
379.208	335.19
379.588	318.01
379.968	318.01
380.349	323.66
380.729	321.18
381.109	327.96
381.489	318.92
381.87	326.6
382.25	322.53
382.63	326.15
383.01	344.23
383.39	329.99
383.77	329.09
384.15	331.12
384.53	317.56
384.91	342.42
385.29	337.67
385.67	348.75
386.049	349.2
386.429	348.97
386.809	354.17
387.189	342.42
387.568	336.32
387.948	332.48
388.328	350.56
388.707	367.5
389.087	341.97
389.466	355.08
389.846	353.95
390.225	338.35
390.605	364.57
390.984	351.01
391.363	351.46
391.743	364.79
392.122	364.79
392.501	368.18
392.881	372.02
393.26	361.18
393.639	358.01
394.018	379.03
394.397	382.19
394.776	370.44
395.155	355.08
395.534	351.46
395.913	362.76
396.292	393.94
396.671	382.65
397.05	384.45
397.429	392.59
397.808	383.55
398.186	395.3
398.565	370.89
398.944	389.42
399.323	387.39
399.701	403.44
400.08	402.31
400.458	393.72
400.837	385.81
401.215	391.68
401.594	401.63
401.972	379.26
402.351	418.58
402.729	419.03
403.107	404.11
403.486	433.72
403.864	401.63
404.242	414.28
404.62	414.73
404.999	454.96
405.377	421.06
405.755	418.35
406.133	417.45
406.511	438.69
406.889	436.88
407.267	447.73
407.645	456.09
408.023	452.7
408.401	446.6
408.779	455.41
409.156	457.67
409.534	469.65
409.912	479.14
410.29	487.28
410.667	484.11
411.045	479.59
411.422	497.9
411.8	507.61
412.178	512.59
412.555	509.42
412.933	513.72
413.31	537.67
413.687	531.79
414.065	537.67
414.442	557.1
414.819	560.72
415.197	558.46
415.574	569.31
415.951	571.34
416.328	587.84
416.705	633.71
417.082	599.81
417.46	600.94
417.837	596.88
418.214	636.42
418.591	637.78
418.967	615.86
419.344	646.14
419.721	659.02
420.098	664.22
420.475	672.36
420.852	669.42
421.228	670.77
421.605	680.72
421.982	687.04
422.358	705.8
422.735	709.87
423.111	711.22
423.488	708.51
423.864	721.17
424.241	746.25
424.617	740.15
424.994	740.83
425.37	764.1
425.746	754.16
426.123	768.4
426.499	768.17
426.875	769.75
427.251	825.12
427.627	795.97
428.003	823.76
428.379	824.67
428.756	844.55
429.132	835.97
429.507	873.25
429.883	858.79
430.259	877.55
430.635	867.83
431.011	875.97
431.387	918
431.763	904.67
432.138	949.41
432.514	940.14
432.89	957.55
433.265	946.47
433.641	963.2
434.016	987.83
434.392	999.58
434.767	995.96
435.143	1001.61
435.518	1022.4
435.894	1020.14
436.269	1040.03
436.644	1042.06
437.02	1053.14
437.395	1064.66
437.77	1082.51
438.145	1083.87
438.52	1084.55
438.895	1070.08
439.271	1103.98
439.646	1118.22
440.021	1127.71
440.395	1133.59
440.77	1135.17
441.145	1144.66
441.52	1153.02
441.895	1145.11
442.27	1158.22
442.645	1174.71
443.019	1168.84
443.394	1164.77
443.769	1213.58
444.143	1224.88
444.518	1193.92
444.892	1170.2
445.267	1189.86
445.641	1198.22
446.016	1219.91
446.39	1203.41
446.764	1218.33
447.139	1222.17
447.513	1233.02
447.887	1228.05
448.262	1216.75
448.636	1256.52
449.01	1254.71
449.384	1271.89
449.758	1264.43
450.132	1272.11
450.506	1253.13
450.88	1300.14
451.254	1312.56
451.628	1295.84
452.002	1287.03
452.376	1296.97
452.75	1309.85
453.123	1320.47
453.497	1350.08
453.871	1341.49
454.244	1360.7
454.618	1367.93
454.992	1351.43
455.365	1387.36
455.739	1380.81
456.112	1420.13
456.486	1410.41
456.859	1416.29
457.232	1430.75
457.606	1411.32
457.979	1417.87
458.352	1458.1
458.725	1486.12
459.099	1470.53
459.472	1499.23
459.845	1548.49
460.218	1483.63
460.591	1533.12
460.964	1499.45
461.337	1541.94
461.71	1553.01
462.083	1582.16
462.456	1569.05
462.829	1592.33
463.201	1602.05
463.574	1561.82
463.947	1611.77
464.32	1621.93
464.692	1655.38
465.065	1632.1
465.438	1656.96
465.81	1681.14
466.183	1674.14
466.555	1698.54
466.928	1711.65
467.3	1713.01
467.672	1749.39
468.045	1772.44
468.417	1770.18
468.789	1746.23
469.161	1786.68
469.534	1814.47
469.906	1856.96
470.278	1861.48
470.65	1880.46
471.022	1915.26
471.394	1902.61
471.766	1906.67
472.138	1942.83
472.51	1944.64
472.882	1986.67
473.253	1968.14
473.625	2015.82
473.997	2042.71
474.369	2023.28
474.74	2059.44
475.112	2060.12
475.484	2103.28
475.855	2132.88
476.227	2138.76
476.598	2157.29
476.97	2218.98
477.341	2240.9
477.713	2233.9
478.084	2292.65
478.455	2272.99
478.827	2284.06
479.198	2344.63
479.569	2352.31
479.94	2390.28
480.311	2401.12
480.682	2446.77
481.053	2496.49
481.424	2515.02
481.795	2540.1
482.166	2570.61
482.537	2543.04
482.908	2647.22
483.279	2653.09
483.65	2663.26
484.021	2667.11
484.391	2722.92
484.762	2732.19
485.133	2738.97
485.503	2766.76
485.874	2790.04
486.244	2820.55
486.615	2861.22
486.985	2848.12
487.356	2929.02
487.726	2988.9
488.097	3014.44
488.467	2972.86
488.837	3018.51
489.207	3108
489.578	3087.66
489.948	3101.44
490.318	3122.46
490.688	3148.67
491.058	3211.05
491.428	3166.98
491.798	3261.67
492.168	3294.66
492.538	3324.71
492.908	3314.32
493.278	3387.76
493.648	3336.69
494.017	3370.59
494.387	3404.71
494.757	3397.26
495.126	3477.03
495.496	3505.28
495.866	3494.65
496.235	3532.84
496.605	3558.61
496.974	3570.58
497.344	3553.18
497.713	3558.61
498.082	3576.91
498.452	3621.43
498.821	3650.36
499.19	3633.41
499.559	3663.69
499.928	3703.24
500.298	3661.2
500.667	3762.44
501.036	3693.97
501.405	3719.05
501.774	3760.41
502.143	3754.08
502.512	3786.62
502.88	3804.93
503.249	3785.72
503.618	3791.6
503.987	3858.94
504.356	3824.59
504.724	3907.07
505.093	3844.25
505.462	3898.49
505.83	3926.51
506.199	3926.05
506.567	3950.91
506.936	3925.6
507.304	3968.54
507.672	4018.48
508.041	4011.93
508.409	4023.91
508.777	4021.65
509.145	4012.61
509.514	4065.71
509.882	4024.81
510.25	4064.36
510.618	4079.95
510.986	4123.79
511.354	4152.04
511.722	4119.5
512.09	4165.82
512.458	4154.3
512.826	4129.21
513.193	4201.98
513.561	4170.34
513.929	4190
514.297	4206.73
514.664	4233.84
515.032	4257.8
515.4	4255.09
515.767	4231.81
516.135	4278.14
516.502	4267.97
516.869	4340.06
517.237	4343.45
517.604	4257.12
517.972	4364.46
518.339	4344.8
518.706	4320.85
519.073	4350.9
519.44	4386.61
519.808	4376.89
520.175	4399.71
520.542	4420.51
520.909	4455.08
521.276	4447.62
521.643	4471.8
522.009	4464.12
522.376	4488.98
522.743	4522.42
523.11	4513.61
523.477	4562.42
523.843	4554.96
524.21	4619.37
524.577	4589.31
524.943	4658.01
525.31	4668.41
525.676	4681.29
526.043	4694.4
526.409	4752.25
526.776	4793.38
527.142	4753.15
527.508	4786.82
527.874	4854.39
528.241	4862.08
528.607	4816.88
528.973	4877.89
529.339	4898.23
529.705	4889.42
530.071	4956.99
530.437	5022.3
530.803	5010.32
531.169	5018.68
531.535	5038.12
531.901	5066.82
532.267	5049.64
532.632	5109.53
532.998	5060.49
533.364	5136.19
533.73	5166.02
534.095	5208.96
534.461	5192.24
534.826	5197.43
535.192	5255.29
535.557	5295.28
535.923	5255.74
536.288	5296.87
536.653	5289.86
537.019	5342.51
537.384	5292.35
537.749	5395.62
538.114	5324.89
538.479	5405.11
538.845	5437.2
539.21	5455.73
539.575	5441.5
539.94	5481.27
540.305	5514.49
540.67	5512.91
541.034	5524.21
541.399	5569.63
541.764	5643.98
542.129	5675.39
542.494	5664.31
542.858	5683.07
543.223	5709.74
543.587	5689.17
543.952	5704.09
544.316	5737.98
544.681	5737.08
545.045	5828.38
545.41	5870.86
545.774	5872.67
546.138	5884.87
546.503	5872.44
546.867	5907.02
547.231	5996.28
547.595	5900.01
547.959	5964.65
548.324	6010.07
548.688	5965.78
549.052	6032.67
549.416	6105.88
549.779	6094.59
550.143	6106.11
550.507	6186.11
550.871	6169.39
551.235	6112.66
551.599	6165.09
551.962	6166.67
552.326	6208.71
552.689	6287.12
553.053	6234.24
553.417	6264.52
553.78	6340
554.143	6312.43
554.507	6330.29
554.87	6279.44
555.234	6419.32
555.597	6349.49
555.96	6460.45
556.323	6405.76
556.686	6434.69
557.05	6501.58
557.413	6479.66
557.776	6548.36
558.139	6518.3
558.502	6533.67
558.865	6581.58
559.228	6595.59
559.59	6654.8
559.953	6630.62
560.316	6683.27
560.679	6674.01
561.041	6682.82
561.404	6747.9
561.767	6760.33
562.129	6796.04
562.492	6801.23
562.854	6764.85
563.217	6790.84
563.579	6856.83
563.941	6857.28
564.304	6863.83
564.666	6906.99
565.028	6952.87
565.39	7003.26
565.753	6997.84
566.115	6961.46
566.477	7021.34
566.839	6998.29
567.201	7089.36
567.563	7099.76
567.925	7117.61
568.287	7153.99
568.648	7217.49
569.01	7167.33
569.372	7154.44
569.734	7212.3
570.095	7351.28
570.457	7343.82
570.819	7362.8
571.18	7382.46
571.542	7394.89
571.903	7466.53
572.265	7443.93
572.626	7509.24
572.987	7528.9
573.349	7535.23
573.71	7709.46
574.071	7761.89
574.432	7756.46
574.794	7824.71
575.155	7813.41
575.516	7926.63
575.877	7923.24
576.238	8025.38
576.599	8072.61
576.96	8168.66
577.32	8232.83
577.681	8280.52
578.042	8360.74
578.403	8452.04
578.763	8478.7
579.124	8645.48
579.485	8766.15
579.845	8844.57
580.206	8921.63
580.566	8938.35
580.927	9130.89
581.287	9321.62
581.648	9394.39
582.008	9494.04
582.368	9620.59
582.728	9802.96
583.089	9897.88
583.449	10111.88
583.809	10236.85
584.169	10417.18
584.529	10517.97
584.889	10826.66
585.249	10904.85
585.609	11096.49
585.969	11302.13
586.329	11532.18
586.688	11672.52
587.048	11960.65
587.408	12249.45
587.768	12429.56
588.127	12653.51
588.487	12865.48
588.846	13201.97
589.206	13271.8
589.565	13615.29
589.925	13859.58
590.284	14128.95
590.643	14416.17
591.003	14683.96
591.362	14936.39
591.721	15222.48
592.08	15435.36
592.44	15808.91
592.799	16089.8
593.158	16287.31
593.517	16649.34
593.876	16879.39
594.235	17129.78
594.593	17688.18
594.952	17916.65
595.311	18037.77
595.67	18446.35
596.029	18873.46
596.387	19121.59
596.746	19341.69
597.104	19601.12
597.463	19929.7
597.822	20345.51
598.18	20507.99
598.538	20776.23
598.897	21188.88
599.255	21271.81
599.613	21822.53
599.972	22055.97
600.33	22340.71
600.688	22540.71
601.046	22947.48
601.404	23370.74
601.762	23520.57
602.12	23821.13
602.478	24061.8
602.836	24386.53
603.194	24566.42
603.552	24768.22
603.91	24989.46
604.268	25387.64
604.625	25502.44
604.983	25950.33
605.341	26072.37
605.698	26547.38
606.056	26759.13
606.413	26953.25
606.771	27243.86
607.128	27495.15
607.485	27666.45
607.843	27976.27
608.2	28188.47
608.557	28465.07
608.914	28712.97
609.272	28972.63
609.629	29204.94
609.986	29499.17
610.343	29539.84
610.7	29899.16
611.057	30023.45
611.414	30211.47
611.771	30372.37
612.127	30691.45
612.484	30872.47
612.841	31048.96
613.198	31143.87
613.554	31277.2
613.911	31696.85
614.267	31871.99
614.624	31996.28
614.98	32088.7
615.337	32482.14
615.693	32452.99
616.05	32662.47
616.406	32917.84
616.762	32843.26
617.118	33055.23
617.475	33302.01
617.831	33452.28
618.187	33595.78
618.543	33827.19
618.899	33995.32
619.255	34043.68
619.611	34116.9
619.967	34275.99
620.323	34494.52
620.678	34533.16
621.034	34627.17
621.39	34793.27
621.746	34753.04
622.101	35201.62
622.457	35144.22
622.812	35146.48
623.168	35476.86
623.523	35455.4
623.879	35652.45
624.234	35581.27
624.589	35711.66
624.945	35642.74
625.3	35976.74
625.655	35862.16
626.01	36022.84
626.365	36233.45
626.72	36119.78
627.075	36189.61
627.43	36303.06
627.785	36379.44
628.14	36477.74
628.495	36552.09
628.85	36474.35
629.205	36505.09
629.559	36774.23
629.914	36682.71
630.269	36687.45
630.623	36681.58
630.978	36594.12
631.332	36894.45
631.687	36979.88
632.041	36878.41
632.396	36837.73
632.75	36878.63
633.104	36956.6
633.459	36783.95
633.813	36735.59
634.167	36933.55
634.521	36942.14
634.875	36915.47
635.229	36978.29
635.583	36789.15
635.937	36932.87
636.291	36778.52
636.645	37073.21
636.999	36934.23
637.352	37045.86
637.706	36911.85
638.06	37032.3
638.413	36986.43
638.767	36926.77
639.121	36990.5
639.474	36722.03
639.828	36793.44
640.181	36837.05
640.534	36982.81
640.888	36900.56
641.241	36811.07
641.594	36817.62
641.947	36908.24
642.301	36821.01
642.654	36890.61
643.007	36769.94
643.36	36857.39
643.713	36809.03
644.066	36878.86
644.419	36653.1
644.771	36631.18
645.124	36148.26
645.477	36182.83
645.83	35906.68
646.182	35757.31
646.535	35767.03
646.888	35877.08
647.24	35683.41
647.593	35835.72
647.945	35835.95
648.298	35627.37
648.65	35628.72
649.002	35527.71
649.355	35692.68
649.707	35733.13
650.059	35610.65
650.411	36158.65
650.763	36279.1
651.115	36564.97
651.467	36538.3
651.819	36405.65
652.171	36449.95
652.523	36314.13
652.875	36410.4
653.227	36148.26
653.578	36512.77
653.93	36384.41
654.282	36317.07
654.633	36123.4
654.985	36310.06
655.337	36361.36
655.688	36347.35
656.039	36304.41
656.391	36064.87
656.742	36125.89
657.094	36131.99
657.445	36340.57
657.796	36163.63
658.147	36110.97
658.498	36124.53
658.849	36192.1
659.2	36101.93
659.551	35913.01
659.902	36077.75
660.253	36121.82
660.604	36143.29
660.955	36088.6
661.306	36043.85
661.656	36048.83
662.007	36006.79
662.358	36111.65
662.708	36206.11
663.059	36133.12
663.409	35795.27
663.76	36125.21
664.11	35896.29
664.461	36010.18
664.811	36033.01
665.161	35921.6
665.511	35944.42
665.862	35927.7
666.212	36063.97
666.562	36127.69
666.912	35977.19
667.262	35926.57
667.612	35986.23
667.962	36038.2
668.312	35981.48
668.662	36073.91
669.011	35957.98
669.361	35979.9
669.711	36002.95
670.06	35875.05
670.41	35836.63
670.76	35867.14
671.109	36007.02
671.459	35752.11
671.808	35657.2
672.157	35865.78
672.507	35702.85
672.856	35560.48
673.205	35690.42
673.554	35860.13
673.904	35661.27
674.253	35891.54
674.602	35720.7
674.951	35246.36
675.3	35107.61
675.649	35583.53
675.998	35567.03
676.346	35633.7
676.695	35675.05
677.044	35371.33
677.393	35553.25
677.741	35560.25
678.09	35646.8
678.438	35395.28
678.787	35544.21
679.135	35514.83
679.484	35194.16
679.832	35476.64
680.181	35264.89
680.529	35470.54
680.877	35323.65
681.225	35239.13
681.573	35395.51
681.922	35158.68
682.27	34974.5
682.618	34972.47
682.966	35046.37
683.314	35072.13
683.661	34861.06
684.009	34807.05
684.357	34733.61
684.705	34754.17
685.053	34777.22
685.4	34690.44
685.748	34547.4
686.095	34457.91
686.443	34330.45
686.79	34220.85
687.138	34333.84
687.485	34383.79
687.832	34232.6
688.18	34230.12
688.527	34094.53
688.874	34127.75
689.221	34044.59
689.568	33901.31
689.915	33888.43
690.262	33721.88
690.609	33625.39
690.956	33751.71
691.303	33520.53
691.65	33370.48
691.997	33410.03
692.344	33376.81
692.69	33222.46
693.037	33263.81
693.383	32957.83
693.73	33114.67
694.077	32958.29
694.423	32979.98
694.769	32727.78
695.116	32690.04
695.462	32725.3
695.808	32684.85
696.155	32702.7
696.501	32252.54
696.847	32424.51
697.193	32133.9
697.539	32425.87
697.885	32140
698.231	31946.34
698.577	31986.11
698.923	31902.04
699.269	31723.74
699.614	31610.75
699.96	31617.98
700.306	31709.96
700.651	31425.67
700.997	31437.65
701.342	31420.7
701.688	31287.14
702.033	31298.89
702.379	31169.18
702.724	31086.24
703.069	31156.3
703.415	30757.44
703.76	30762.41
704.105	30607.84
704.45	30691.9
704.795	30633.83
705.14	30572.81
705.485	30470.22
705.83	30440.61
706.175	30315.87
706.52	30276.77
706.865	30134.86
707.209	29998.36
707.554	29973.05
707.899	30111.81
708.243	29824.81
708.588	29863.45
708.932	29718.82
709.277	29712.72
709.621	29745.49
709.966	29527.42
710.31	29633.18
710.654	29424.37
710.998	29419.62
711.342	29369.23
711.687	29290.13
712.031	29138.05
712.375	29148.22
712.719	29203.81
713.063	29068.22
713.407	29096.69
713.75	28833.2
714.094	28931.95
714.438	28857.15
714.782	28911.84
715.125	28747.1
715.469	28658.06
715.812	28508.46
716.156	28359.08
716.499	28512.3
716.843	28489.93
717.186	28362.02
717.53	28440.89
717.873	28473.21
718.216	28430.5
718.559	28122.25
718.902	28082.71
719.246	28177.62
719.589	28102.14
719.932	27887.46
720.275	27942.15
720.617	27813.11
720.96	27825.54
721.303	27877.97
721.646	27806.33
721.989	27555.72
722.331	27787.57
722.674	27753.23
723.016	27594.36
723.359	27565.43
723.701	27710.97
724.044	27464.19
724.386	27225.33
724.729	27416.74
725.071	27305.78
725.413	27207.7
725.755	27328.6
726.097	27223.97
726.439	27196.4
726.782	27038.44
727.124	27212.45
727.465	27066.69
727.807	26910.76
728.149	26832.35
728.491	26947.37
728.833	26891.33
729.175	26664.44
729.516	26715.51
729.858	26669.86
730.199	26801.16
730.541	26711.67
730.882	26578.79
731.224	26661.5
731.565	26471.9
731.906	26463.99
732.248	26441.62
732.589	26289.99
732.93	26271.23
733.271	26288.86
733.612	26260.38
733.953	26346.26
734.294	26279.82
734.635	26071.69
734.976	26310.55
735.317	25945.14
735.658	26017.68
735.999	26046.15
736.339	25906.49
736.68	26056.77
737.021	25988.75
737.361	25789.43
737.702	25941.97
738.042	25880.05
738.383	25748.98
738.723	25872.14
739.063	25737.23
739.404	25774.07
739.744	25695.65
740.084	25675.77
740.424	25669.44
740.764	25665.14
741.104	25537.92
741.444	25403.91
741.784	25332.5
742.124	25415.89
742.464	25352.84
742.804	25277.13
743.143	25383.8
743.483	25351.03
743.823	25200.75
744.162	25170.47
744.502	25182.45
744.841	24996.24
745.181	25224.03
745.52	25029.45
745.86	25077.36
746.199	25004.14
746.538	24896.8
746.877	24994.2
747.216	24911.94
747.556	24924.37
747.895	24934.99
748.234	24621.78
748.573	24814.55
748.911	24732.06
749.25	24706.98
749.589	24570.94
749.928	24553.76
750.267	24598.28
750.605	24556.92
750.944	24447.1
751.283	24296.59
751.621	24490.03
751.96	24223.37
752.298	24268.8
752.636	24278.29
752.975	24040.1
753.313	24087.11
753.651	24175.24
753.989	23971.4
754.327	23957.62
754.666	23924.17
755.004	23892.99
755.342	23919.2
755.679	23790.84
756.017	23639.89
756.355	23831.97
756.693	23716.95
757.031	23602.83
757.368	23511.3
757.706	23473.34
758.044	23388.59
758.381	23390.4
758.719	23326.45
759.056	23314.92
759.394	23192.44
759.731	23126.68
