Data from hue_40_FLMS001491_31.txt Node
Date: Mon Feb 06 15:07:48 GMT 2017
User: dcchb
Spectrometer: FLMS00149
Trigger mode: 0
Integration Time (sec): 2.000000E-2
Scans to average: 10
Electric dark correction enabled: true
Nonlinearity correction enabled: false
Boxcar width: 0
XAxis mode: Wavelengths
Number of Pixels in Spectrum: 2048
>>>>>Begin Spectral Data<<<<<
341.393	0.14
341.776	0.14
342.16	0.14
342.543	-40.76
342.927	-60.87
343.31	-65.17
343.693	-69.91
344.077	-80.31
344.46	-71.04
344.843	-63.59
345.226	-55.68
345.61	-12.74
345.993	-24.72
346.376	11.21
346.759	-5.51
347.142	25.68
347.525	64.32
347.908	34.72
348.291	92.79
348.674	97.54
349.057	122.4
349.44	130.53
349.823	144.32
350.206	145.45
350.588	182.06
350.971	204.43
351.354	232.9
351.737	240.36
352.119	231.1
352.502	247.14
352.884	279.23
353.267	263.86
353.65	294.82
354.032	306.8
354.414	291.88
354.797	322.62
355.179	330.75
355.562	330.98
355.944	329.17
356.326	348.38
356.709	352.67
357.091	335.5
357.473	326.69
357.855	349.96
358.238	362.17
358.62	340.25
359.002	327.14
359.384	330.75
359.766	353.58
360.148	346.12
360.53	341.6
360.912	346.35
361.294	327.59
361.676	345.89
362.057	341.38
362.439	333.47
362.821	338.44
363.203	339.57
363.584	327.59
363.966	313.81
364.348	333.69
364.729	330.75
365.111	292.79
365.493	314.03
365.874	325.33
366.256	330.75
366.637	332.56
367.019	305.44
367.4	318.32
367.781	321.94
368.163	312
368.544	312.22
368.925	311.32
369.306	316.29
369.688	302.28
370.069	303.86
370.45	300.47
370.831	310.87
371.212	313.81
371.593	322.17
371.974	308.61
372.355	310.19
372.736	319.45
373.117	301.38
373.498	335.95
373.879	338.66
374.26	312.68
374.641	324.43
375.021	319.45
375.402	300.47
375.783	321.49
376.163	337.31
376.544	322.39
376.925	313.35
377.305	332.79
377.686	315.61
378.066	365.1
378.447	340.92
378.827	326.69
379.208	367.36
379.588	332.11
379.968	332.11
380.349	320.36
380.729	322.62
381.109	361.49
381.489	338.89
381.87	346.12
382.25	321.94
382.63	342.96
383.01	328.72
383.39	321.94
383.77	334.37
384.15	350.41
384.53	340.47
384.91	344.09
385.29	337.08
385.67	355.61
386.049	352.45
386.429	357.19
386.809	353.35
387.189	345.89
387.568	338.44
387.948	338.66
388.328	360.58
388.707	364.65
389.087	313.58
389.466	366.46
389.846	352
390.225	367.82
390.605	346.35
390.984	351.09
391.363	358.1
391.743	362.39
392.122	379.57
392.501	363.75
392.881	356.06
393.26	380.7
393.639	376.18
394.018	377.53
394.397	386.12
394.776	357.65
395.155	353.35
395.534	375.27
395.913	376.63
396.292	396.06
396.671	373.46
397.05	372.33
397.429	380.24
397.808	392.67
398.186	371.43
398.565	387.7
398.944	379.34
399.323	386.35
399.701	369.4
400.08	387.02
400.458	392.67
400.837	385.67
401.215	403.97
401.594	395.16
401.972	398.32
402.351	410.07
402.729	408.49
403.107	399.9
403.486	397.87
403.864	402.16
404.242	406.23
404.62	398.32
404.999	405.33
405.377	415.05
405.755	412.56
406.133	411.88
406.511	416.18
406.889	439.9
407.267	398.32
407.645	409.85
408.023	403.29
408.401	404.88
408.779	432.45
409.156	416.18
409.534	436.74
409.912	423.18
410.29	457.3
410.667	437.19
411.045	441.26
411.422	429.51
411.8	444.2
412.178	430.64
412.555	423.41
412.933	437.42
413.31	471.32
413.687	439
414.065	436.74
414.442	482.84
414.819	471.09
415.197	462.05
415.574	454.14
415.951	491.2
416.328	473.12
416.705	453.01
417.082	470.41
417.46	490.52
417.837	471.99
418.214	479.22
418.591	486.23
418.967	487.13
419.344	492.56
419.721	482.84
420.098	463.41
420.475	501.82
420.852	503.63
421.228	510.64
421.605	508.83
421.982	501.82
422.358	539.34
422.735	526.68
423.111	508.38
423.488	514.7
423.864	510.86
424.241	503.63
424.617	525.33
424.994	529.84
425.37	530.52
425.746	519
426.123	557.64
426.499	549.28
426.875	539.79
427.251	521.71
427.627	538.88
428.003	568.26
428.379	568.71
428.756	558.77
429.132	571.2
429.507	553.35
429.883	580.01
430.259	603.74
430.635	572.33
431.011	562.84
431.387	616.17
431.763	593.12
432.138	592.89
432.514	599.9
432.89	607.58
433.265	610.52
433.641	626.11
434.016	615.49
434.392	608.94
434.767	632.44
435.143	615.04
435.518	613.46
435.894	640.8
436.269	640.8
436.644	642.16
437.02	671.08
437.395	642.38
437.77	645.32
438.145	660.24
438.52	680.12
438.895	689.16
439.271	709.95
439.646	691.2
440.021	684.64
440.395	662.27
440.77	662.5
441.145	697.75
441.52	680.12
441.895	702.27
442.27	698.88
442.645	680.35
443.019	697.3
443.394	706.79
443.769	729.39
444.143	699.78
444.518	716.28
444.892	723.74
445.267	733
445.641	728.71
446.016	713.12
446.39	738.43
446.764	753.57
447.139	753.79
447.513	740.23
447.887	757.64
448.262	762.83
448.636	773.45
449.01	757.64
449.384	742.95
449.758	770.29
450.132	783.62
450.506	786.56
450.88	760.35
451.254	808.03
451.628	789.27
452.002	783.4
452.376	791.08
452.75	800.8
453.123	827.24
453.497	821.36
453.871	821.81
454.244	831.31
454.618	846.45
454.992	836.5
455.365	835.6
455.739	878.08
456.112	886.67
456.486	897.07
456.859	886.9
457.232	907.46
457.606	885.32
457.979	914.69
458.352	910.85
458.725	937.07
459.099	923.73
459.472	982.49
459.845	954.01
460.218	979.32
460.591	970.51
460.964	975.93
461.337	982.04
461.71	1010.51
462.083	1022.94
462.456	990.62
462.829	1020.68
463.201	1025.2
463.574	1060
463.947	1068.36
464.32	1100.45
464.692	1087.34
465.065	1105.2
465.438	1129.38
465.81	1133.44
466.183	1172.09
466.555	1176.61
466.928	1174.35
467.3	1163.27
467.672	1206.89
468.045	1210.5
468.417	1205.76
468.789	1258.41
469.161	1257.06
469.534	1289.37
469.906	1308.58
470.278	1315.13
470.65	1324.63
471.022	1364.63
471.394	1390.16
471.766	1438.3
472.138	1433.78
472.51	1425.19
472.882	1497.5
473.253	1522.36
473.625	1561.46
473.997	1614.34
474.369	1595.81
474.74	1632.64
475.112	1643.49
475.484	1662.92
475.855	1733.65
476.227	1775.69
476.598	1811.39
476.97	1829.02
477.341	1881.9
477.713	1936.59
478.084	1999.41
478.455	2034.44
478.827	2065.4
479.198	2143.14
479.569	2165.28
479.94	2233.75
480.311	2313.07
480.682	2344.94
481.053	2431.04
481.424	2496.12
481.795	2519.4
482.166	2583.58
482.537	2668.09
482.908	2711.93
483.279	2820.41
483.65	2873.74
484.021	2976.79
484.391	3007.07
484.762	3054.52
485.133	3105.82
485.503	3227.4
485.874	3362.09
486.244	3418.58
486.615	3463.55
486.985	3620.16
487.356	3692.93
487.726	3778.57
488.097	3876.65
488.467	3931.56
488.837	4043.88
489.207	4134.27
489.578	4214.04
489.948	4314.83
490.318	4408.16
490.688	4505.33
491.058	4612.22
491.428	4678.21
491.798	4755.95
492.168	4937.19
492.538	4980.58
492.908	5103.51
493.278	5222.6
493.648	5238.87
494.017	5361.81
494.387	5503.5
494.757	5517.28
495.126	5672.08
495.496	5729.48
495.866	5749.82
496.235	5900.55
496.605	5991.17
496.974	6058.51
497.344	6185.06
497.713	6285.85
498.082	6376.47
498.452	6471.16
498.821	6564.04
499.19	6538.5
499.559	6714.09
499.928	6790.92
500.298	6839.96
500.667	6901.88
501.036	6960.64
501.405	7070.24
501.774	7107.3
502.143	7254.64
502.512	7312.94
502.88	7351.59
503.249	7405.14
503.618	7569.43
503.987	7573.73
504.356	7660.5
504.724	7752.48
505.093	7816.21
505.462	7868.41
505.83	7903.44
506.199	8026.6
506.567	8165.12
506.936	8155.86
507.304	8347.04
507.672	8409.41
508.041	8386.59
508.409	8475.62
508.777	8577.09
509.145	8653.92
509.514	8662.06
509.882	8777.31
510.25	8814.37
510.618	8885.11
510.986	8914.26
511.354	9037.42
511.722	9166
512.09	9208.49
512.458	9207.81
512.826	9303.17
513.193	9365.32
513.561	9403.51
513.929	9458.65
514.297	9510.4
514.664	9570.51
515.032	9688.93
515.4	9740.22
515.767	9808.24
516.135	9808.24
516.502	9785.19
516.869	9979.77
517.237	10073.55
517.604	10045.98
517.972	10134.34
518.339	10197.61
518.706	10243.49
519.073	10258.18
519.44	10379.98
519.808	10437.38
520.175	10449.36
520.542	10588.11
520.909	10656.13
521.276	10655.45
521.643	10764.83
522.009	10867.88
522.376	10943.36
522.743	10946.75
523.11	11057.03
523.477	11145.61
523.843	11222.67
524.21	11327.08
524.577	11421.76
524.943	11507.64
525.31	11524.58
525.676	11650.68
526.043	11707.18
526.409	11671.25
526.776	11817.91
527.142	11824.69
527.508	11939.71
527.874	12084.12
528.241	12126.6
528.607	12219.03
528.973	12263.1
529.339	12234.17
529.705	12436.2
530.071	12510.09
530.437	12532.02
530.803	12683.65
531.169	12597.32
531.535	12706.7
531.901	12763.2
532.267	12789.41
532.632	12983.98
532.998	12992.79
533.364	13057.65
533.73	13080.93
534.095	13163.64
534.461	13171.32
534.826	13260.58
535.192	13260.13
535.557	13482.95
535.923	13375.38
536.288	13529.5
536.653	13609.5
537.019	13533.12
537.384	13679.56
537.749	13687.92
538.114	13706
538.479	13790.74
538.845	13886.33
539.21	13786.67
539.575	13971.3
539.94	13978.3
540.305	14104.4
540.67	14038.64
541.034	14077.29
541.399	14171.97
541.764	14249.71
542.129	14278.86
542.494	14303.49
542.858	14453.55
543.223	14359.54
543.587	14445.41
543.952	14540.55
544.316	14560.89
544.681	14615.58
545.045	14676.59
545.41	14754.33
545.774	14770.83
546.138	14782.13
546.503	14831.62
546.867	14966.75
547.231	15089.91
547.595	15110.7
547.959	15058.73
548.324	15185.5
548.688	15185.05
549.052	15312.06
549.416	15233.64
549.779	15322.45
550.143	15386.63
550.507	15501.43
550.871	15580.97
551.235	15572.16
551.599	15647.87
551.962	15667.98
552.326	15782.78
552.689	15876.79
553.053	15821.42
553.417	15912.27
553.78	15983
554.143	15936.9
554.507	16037.01
554.87	16101.86
555.234	16211.92
555.597	16199.94
555.96	16345.02
556.323	16320.62
556.686	16398.35
557.05	16522.64
557.413	16524
557.776	16540.05
558.139	16637.22
558.502	16656.88
558.865	16667.95
559.228	16777.55
559.59	16888.06
559.953	16906.36
560.316	17193.59
560.679	17026.13
561.041	17217.32
561.404	17229.97
561.767	17373.02
562.129	17344.77
562.492	17554.71
562.854	17478.33
563.217	17510.64
563.579	17596.97
563.941	17626.57
564.304	17817.07
564.666	17837.19
565.028	17838.54
565.39	17952.89
565.753	17983.85
566.115	18009.16
566.477	18194.69
566.839	18163.51
567.201	18319.21
567.563	18329.6
567.925	18460.67
568.287	18469.71
568.648	18530.28
569.01	18709.48
569.372	18730.5
569.734	18746.31
570.095	18826.09
570.457	18980.89
570.819	18900.21
571.18	18988.34
571.542	19214.1
571.903	19222.91
572.265	19264.04
572.626	19317.15
572.987	19508.1
573.349	19426.98
573.71	19521.89
574.071	19606.41
574.432	19768.89
574.794	19876.23
575.155	19971.82
575.516	19986.96
575.877	20144.7
576.238	20184.24
576.599	20328.87
576.96	20433.5
577.32	20434.63
577.681	20649.32
578.042	20737.9
578.403	20834.62
578.763	20894.06
579.124	21006.82
579.485	21071.45
579.845	21293.82
580.206	21379.69
580.566	21419.01
580.927	21602.06
581.287	21771.32
581.648	21819.91
582.008	22076.4
582.368	22122.95
582.728	22309.39
583.089	22328.59
583.449	22472.32
583.809	22663.27
584.169	22808.81
584.529	22954.57
584.889	23269.36
585.249	23266.2
585.609	23470.94
585.969	23812.4
586.329	23719.07
586.688	23957.93
587.048	24020.53
587.408	24132.61
587.768	24343.91
588.127	24501.87
588.487	24690.34
588.846	24960.61
589.206	25012.36
589.565	25146.82
589.925	25539.36
590.284	25549.53
590.643	25822.51
591.003	26045.33
591.362	26363.97
591.721	26454.36
592.08	26528.71
592.44	26805.54
592.799	26947
593.158	27064.51
593.517	27265.86
593.876	27513.54
594.235	27599.64
594.593	27917.6
594.952	28195.11
595.311	28098.16
595.67	28459.73
596.029	28626.51
596.387	28764.81
596.746	29044.8
597.104	29068.76
597.463	29125.48
597.822	29525.24
598.18	29484.11
598.538	29632.13
598.897	29968.62
599.255	29760.94
599.613	30446.12
599.972	30520.02
600.33	30602.95
600.688	30587.59
601.046	30933.11
601.404	31212.88
601.762	31181.24
602.12	31482.48
602.478	31484.29
602.836	31633.43
603.194	31684.96
603.552	31924.73
603.91	31971.73
604.268	32124.72
604.625	32126.3
604.983	32340.53
605.341	32362.45
605.698	32700.98
606.056	32859.62
606.413	32945.49
606.771	33024.58
607.128	33132.38
607.485	33128.08
607.843	33284.46
608.2	33489.2
608.557	33646.04
608.914	33782.08
609.272	33871.79
609.629	33968.51
609.986	34264.1
610.343	34329.63
610.7	34410.08
611.057	34459.12
611.414	34574.6
611.771	34676.29
612.127	34867.25
612.484	34946.79
612.841	35126.68
613.198	35064.3
613.554	35170.29
613.911	35294.13
614.267	35403.28
614.624	35586.32
614.98	35657.06
615.337	35853.89
615.693	35793.78
616.05	35826.09
616.406	36171.17
616.762	35921.23
617.118	35972.53
617.475	36104.5
617.831	36358.06
618.187	36308.57
618.543	36535.9
618.899	36693.41
619.255	36652.96
619.611	36599.18
619.967	36934.09
620.323	36909.91
620.678	36943.8
621.034	36852.28
621.39	36866.06
621.746	36932.5
622.101	37358.48
622.457	37079.84
622.812	37162.78
623.168	37385.6
623.523	37283
623.879	37556.89
624.234	37167.75
624.589	37375.66
624.945	37593.96
625.3	37638.47
625.655	37628.08
626.01	37615.88
626.365	37860.84
626.72	37686.16
627.075	37728.19
627.43	37844.34
627.785	37599.15
628.14	37801.63
628.495	37745.59
628.85	37839.37
629.205	37756.66
629.559	38012.48
629.914	37864.23
630.269	37851.12
630.623	37753.72
630.978	37783.33
631.332	37981.97
631.687	38055.86
632.041	37737.23
632.396	37983.1
632.75	37838.02
633.104	37874.4
633.459	37821.52
633.813	37887.51
634.167	37714.18
634.521	37822.88
634.875	37821.52
635.229	37803.89
635.583	37595.99
635.937	37727.06
636.291	37732.48
636.645	37730.67
636.999	37545.37
637.352	37798.92
637.706	37429.89
638.06	37751.69
638.413	37602.77
638.767	37643.67
639.121	37570.23
639.474	37260.18
639.828	37567.74
640.181	37468.53
640.534	37565.03
640.888	37366.84
641.241	37262.89
641.594	37381.76
641.947	37428.31
642.301	37425.82
642.654	37347.63
643.007	37295.43
643.36	37385.15
643.713	37262.66
644.066	37480.06
644.419	37227.86
644.771	36933.18
645.124	36600.53
645.477	36599.4
645.83	36353.08
646.182	36211.84
646.535	36107.44
646.888	36260.88
647.24	36100.21
647.593	36360.54
647.945	36096.59
648.298	35998.29
648.65	35879.42
649.002	35887.79
649.355	36067.44
649.707	35898.63
650.059	36118.51
650.411	36471.95
650.763	36543.14
651.115	36835.56
651.467	36698.16
651.819	36726.41
652.171	36723.02
652.523	36645.73
652.875	36726.63
653.227	36513.08
653.578	36788.78
653.93	36727.54
654.282	36527.54
654.633	36489.8
654.985	36622.23
655.337	36542.23
655.688	36504.49
656.039	36913.52
656.391	36362.12
656.742	36476.7
657.094	36414.33
657.445	36575.45
657.796	36391.5
658.147	36425.17
658.498	36356.47
658.849	36452.97
659.2	36501.33
659.551	36333.2
659.902	36436.02
660.253	36281.9
660.604	36414.1
660.955	36242.35
661.306	36329.13
661.656	36263.37
662.007	36398.51
662.358	36349.92
662.708	36319.41
663.059	36208.45
663.409	35952.19
663.76	36237.83
664.11	36254.56
664.461	36327.77
664.811	36302.46
665.161	36125.07
665.511	36172.3
665.862	36178.4
666.212	36250.49
666.562	36343.37
666.912	36240.54
667.262	36186.31
667.612	36159.19
667.962	36227.44
668.312	36113.77
668.662	36280.32
669.011	36199.87
669.361	36072.41
669.711	36015.01
670.06	36067.22
670.41	35967.33
670.76	35928.69
671.109	36078.06
671.459	36075.12
671.808	35975.01
672.157	36030.15
672.507	35817.73
672.856	35903.83
673.205	35884.17
673.554	35991.06
673.904	35760.56
674.253	36124.84
674.602	35886.2
674.951	35443.5
675.3	35261.59
675.649	35796.04
675.998	35716.72
676.346	35854.79
676.695	35842.59
677.044	35682.37
677.393	35843.94
677.741	35789.48
678.09	35803.49
678.438	35630.16
678.787	35594.46
679.135	35676.94
679.484	35454.58
679.832	35507.68
680.181	35441.02
680.529	35417.52
680.877	35408.7
681.225	35326.67
681.573	35665.87
681.922	35224.53
682.27	35196.73
682.618	35211.42
682.966	35173.68
683.314	35127.35
683.661	34998.99
684.009	34892.33
684.357	34868.15
684.705	34836.97
685.053	34818.89
685.4	34740.02
685.748	34561.72
686.095	34723.97
686.443	34548.84
686.79	34423.42
687.138	34561.49
687.485	34588.84
687.832	34376.41
688.18	34431.55
688.527	34128.28
688.874	34146.36
689.221	34186.81
689.568	34142.07
689.915	33888.97
690.262	34054.84
690.609	33807.61
690.956	33699.14
691.303	33732.36
691.65	33649.43
691.997	33544.57
692.344	33437.91
692.69	33351.58
693.037	33416.21
693.383	33127.63
693.73	33404.69
694.077	33036.33
694.423	33109.55
694.769	32982.32
695.116	32822.33
695.462	32776
695.808	32667.76
696.155	32684.71
696.501	32429.35
696.847	32559.29
697.193	32369.91
697.539	32438.16
697.885	32149.13
698.231	32094.89
698.577	32160.43
698.923	31994.33
699.269	31933.99
699.614	31634.34
699.96	31650.38
700.306	31695.81
700.651	31623.94
700.997	31489.93
701.342	31471.4
701.688	31446.09
702.033	31232.54
702.379	31227.34
702.724	31235.93
703.069	31161.13
703.415	30767.47
703.76	30837.3
704.105	30806.79
704.45	30823.51
704.795	30628.49
705.14	30499.23
705.485	30495.16
705.83	30389.85
706.175	30429.62
706.52	30301.72
706.865	30235.96
707.209	30121.16
707.554	29988.28
707.899	30257.2
708.243	30086.81
708.588	29966.13
708.932	29682.52
709.277	29711.45
709.621	29729.08
709.966	29562.08
710.31	29710.77
710.654	29360.05
710.998	29528.4
711.342	29459.03
711.687	29327.96
712.031	29237.56
712.375	29054.52
712.719	29317.79
713.063	29123.9
713.407	29164.8
713.75	29044.12
714.094	28956.44
714.438	28886.16
714.782	28914.64
715.125	28662.44
715.469	28726.39
715.812	28693.85
716.156	28553.74
716.499	28636.68
716.843	28621.76
717.186	28343.8
717.53	28393.52
717.873	28485.27
718.216	28421.09
718.559	28304.93
718.902	28081.89
719.246	28272.62
719.589	28004.38
719.932	27935
720.275	27894.55
720.617	27906.75
720.96	27909.24
721.303	27788.79
721.646	27796.92
721.989	27727.32
722.331	27742.69
722.674	27644.61
723.016	27707.44
723.359	27579.98
723.701	27660.43
724.044	27504.5
724.386	27284.85
724.729	27469.25
725.071	27323.04
725.413	27292.3
725.755	27375.01
726.097	27380.89
726.439	27088.24
726.782	27104.51
727.124	27275.13
727.465	27088.47
727.807	27081.92
728.149	26967.34
728.491	26864.75
728.833	26830.85
729.175	26884.63
729.516	26676.5
729.858	26729.16
730.199	26754.47
730.541	26706.11
730.882	26710.17
731.224	26643.73
731.565	26482.83
731.906	26492.78
732.248	26550.63
732.589	26432.89
732.93	26342.95
733.271	26407.58
733.612	26330.52
733.953	26292.33
734.294	26139.57
734.635	26225.67
734.976	26256.17
735.317	26123.52
735.658	26014.6
735.999	25999.23
736.339	25972.34
736.68	26113.13
737.021	25963.75
737.361	25763.31
737.702	25910.19
738.042	25824.55
738.383	25918.33
738.723	25935.96
739.063	25780.48
739.404	25810.31
739.744	25716.3
740.084	25564.67
740.424	25565.12
740.764	25508.62
741.104	25503.65
741.444	25447.38
741.784	25342.07
742.124	25371.9
742.464	25412.13
742.804	25385.24
743.143	25278.8
743.483	25221.62
743.823	25167.84
744.162	25088.97
744.502	25182.3
744.841	25095.98
745.181	25188.86
745.52	25070.89
745.86	25000.84
746.199	24945.7
746.538	24988.41
746.877	24989.54
747.216	24881.52
747.556	24848.3
747.895	24808.08
748.234	24739.83
748.573	24708.87
748.911	24720.4
749.25	24648.08
749.589	24514.3
749.928	24517.69
750.267	24561.76
750.605	24498.71
750.944	24415.77
751.283	24388.43
751.621	24336.45
751.96	24272.72
752.298	24239.28
752.636	24195.89
752.975	24171.26
753.313	24059.17
753.651	24270.92
753.989	24032.5
754.327	24013.75
754.666	23840.64
755.004	23976.69
755.342	23933.07
755.679	23835.45
756.017	23721.55
756.355	23717.26
756.693	23722.23
757.031	23697.15
757.368	23486.98
757.706	23436.59
758.044	23351.39
