Data from hue_260_FLMS001491_00019.txt Node
Date: Tue Feb 07 15:58:39 GMT 2017
User: dcchb
Spectrometer: FLMS00149
Trigger mode: 0
Integration Time (sec): 2.000000E-2
Scans to average: 10
Electric dark correction enabled: true
Nonlinearity correction enabled: false
Boxcar width: 0
XAxis mode: Wavelengths
Number of Pixels in Spectrum: 2048
>>>>>Begin Spectral Data<<<<<
341.393	-4.97
341.776	-4.97
342.16	-4.97
342.543	-54.01
342.927	-57.85
343.31	-75.25
343.693	-55.59
344.077	-64.18
344.46	-57.63
344.843	-63.05
345.226	-50.62
345.61	-32.54
345.993	-7.68
346.376	6.1
346.759	17.85
347.142	14.46
347.525	32.99
347.908	60.79
348.291	83.61
348.674	73.22
349.057	117.51
349.44	124.97
349.823	147.11
350.206	131.3
350.588	192.76
350.971	217.62
351.354	232.31
351.737	215.36
352.119	244.74
352.502	252.2
352.884	272.08
353.267	268.69
353.65	291.07
354.032	282.7
354.414	281.8
354.797	291.74
355.179	316.15
355.562	304.17
355.944	324.29
356.326	317.28
356.709	329.03
357.091	324.96
357.473	336.49
357.855	333.78
358.238	334.68
358.62	334.68
359.002	337.17
359.384	324.96
359.766	320.67
360.148	352.53
360.53	341.69
360.912	337.62
361.294	308.92
361.676	329.03
362.057	306.43
362.439	317.51
362.821	327.22
363.203	312.99
363.584	323.16
363.966	314.34
364.348	309.14
364.729	324.74
365.111	327.67
365.493	327.9
365.874	299.43
366.256	307.56
366.637	303.95
367.019	309.14
367.4	331.52
367.781	300.78
368.163	307.79
368.544	308.69
368.925	305.53
369.306	291.74
369.688	301.24
370.069	310.05
370.45	301.01
370.831	305.53
371.212	306.88
371.593	320.22
371.974	299.88
372.355	304.4
372.736	302.14
373.117	312.08
373.498	305.75
373.879	297.62
374.26	294.68
374.641	311.63
375.021	315.47
375.402	317.51
375.783	317.28
376.163	308.69
376.544	308.24
376.925	324.29
377.305	327
377.686	332.87
378.066	315.25
378.447	330.84
378.827	334.23
379.208	302.59
379.588	327.67
379.968	318.86
380.349	337.39
380.729	333.32
381.109	325.42
381.489	309.6
381.87	333.55
382.25	328.13
382.63	338.75
383.01	327.67
383.39	323.83
383.77	350.5
384.15	355.02
384.53	334.45
384.91	343.27
385.29	341.91
385.67	360.44
386.049	345.98
386.429	336.26
386.809	338.75
387.189	328.58
387.568	364.74
387.948	349.82
388.328	366.09
388.707	364.74
389.087	365.41
389.466	351.4
389.846	350.05
390.225	366.32
390.605	359.76
390.984	349.14
391.363	356.15
391.743	366.77
392.122	362.02
392.501	351.86
392.881	347.34
393.26	381.01
393.639	373.32
394.018	379.43
394.397	385.98
394.776	391.18
395.155	382.36
395.534	387.56
395.913	372.87
396.292	392.98
396.671	390.95
397.05	369.26
397.429	408.35
397.808	393.44
398.186	401.12
398.565	385.07
398.944	399.31
399.323	386.88
399.701	421.01
400.08	400.67
400.458	408.8
400.837	403.83
401.215	428.01
401.594	412.19
401.972	394.79
402.351	435.24
402.729	414
403.107	423.72
403.486	425.53
403.864	437.73
404.242	452.64
404.62	445.41
404.999	434.56
405.377	452.87
405.755	443.38
406.133	450.84
406.511	463.04
406.889	453.55
407.267	465.07
407.645	479.76
408.023	477.95
408.401	469.14
408.779	487.44
409.156	489.03
409.534	508.24
409.912	514.56
410.29	498.52
410.667	514.34
411.045	525.64
411.422	537.84
411.8	542.13
412.178	511.4
412.555	540.1
412.933	553.21
413.31	568.12
413.687	564.73
414.065	573.32
414.442	571.28
414.819	591.85
415.197	585.07
415.574	594.11
415.951	603.83
416.328	613.77
416.705	627.33
417.082	607.89
417.46	641.11
417.837	612.64
418.214	641.34
418.591	667.55
418.967	665.07
419.344	661
419.721	681.11
420.098	671.39
420.475	690.38
420.852	724.5
421.228	731.96
421.605	729.25
421.982	731.96
422.358	745.97
422.735	752.97
423.111	746.65
423.488	763.37
423.864	780.32
424.241	767.66
424.617	792.52
424.994	791.17
425.37	833.42
425.746	818.28
426.123	852.18
426.499	845.18
426.875	841.79
427.251	866.42
427.627	889.69
428.003	901.67
428.379	900.32
428.756	895.8
429.132	915.68
429.507	915.68
429.883	955.46
430.259	946.19
430.635	961.78
431.011	958.84
431.387	998.17
431.763	997.26
432.138	1002.23
432.514	1036.13
432.89	1042.46
433.265	1085.17
433.641	1083.59
434.016	1086.07
434.392	1088.78
434.767	1123.13
435.143	1157.03
435.518	1137.82
435.894	1145.05
436.269	1167.2
436.644	1218.95
437.02	1217.82
437.395	1240.19
437.77	1240.65
438.145	1259.18
438.52	1262.57
438.895	1312.96
439.271	1277.93
439.646	1314.77
440.021	1342.11
440.395	1382.11
440.77	1363.58
441.145	1382.11
441.52	1394.54
441.895	1418.72
442.27	1440.64
442.645	1421.43
443.019	1465.5
443.394	1458.94
443.769	1489.9
444.143	1490.36
444.518	1545.5
444.892	1512.95
445.267	1514.54
445.641	1521.54
446.016	1541.65
446.39	1601.99
446.764	1555.44
447.139	1540.3
447.513	1611.03
447.887	1579.85
448.262	1599.73
448.636	1620.97
449.01	1655.55
449.384	1676.11
449.758	1639.5
450.132	1684.02
450.506	1675.21
450.88	1693.29
451.254	1694.64
451.628	1726.73
452.002	1736.68
452.376	1728.32
452.75	1767.86
453.123	1751.37
453.497	1764.25
453.871	1840.4
454.244	1829.78
454.618	1862.78
454.992	1859.84
455.365	1872.04
455.739	1929.44
456.112	1930.34
456.486	1964.92
456.859	1957.01
457.232	1988.42
457.606	1992.72
457.979	2028.87
458.352	2016.67
458.725	2064.58
459.099	2079.49
459.472	2142.54
459.845	2087.63
460.218	2163.11
460.591	2186.84
460.964	2200.62
461.337	2225.25
461.71	2257.34
462.083	2272.26
462.456	2280.84
462.829	2319.04
463.201	2324.91
463.574	2336.89
463.947	2349.99
464.32	2427.51
464.692	2416.43
465.065	2445.59
465.438	2469.77
465.81	2509.09
466.183	2516.09
466.555	2571.01
466.928	2593.83
467.3	2580.72
467.672	2665.92
468.045	2664.34
468.417	2714.5
468.789	2708.63
469.161	2739.81
469.534	2742.3
469.906	2804.9
470.278	2798.8
470.65	2851.45
471.022	2913.6
471.394	2956.53
471.766	3032.69
472.138	3037.89
472.51	3050.32
472.882	3063.87
473.253	3103.87
473.625	3178.9
473.997	3264.55
474.369	3254.6
474.74	3299.8
475.112	3334.38
475.484	3396.07
475.855	3439.01
476.227	3450.3
476.598	3512.68
476.97	3552.67
477.341	3655.5
477.713	3667.47
478.084	3692.56
478.455	3756.06
478.827	3773.69
479.198	3905.66
479.569	3915.83
479.94	4019.78
480.311	4022.04
480.682	4126.22
481.053	4163.96
481.424	4211.41
481.795	4214.35
482.166	4291.41
482.537	4358.53
482.908	4442.14
483.279	4500.45
483.65	4536.83
484.021	4615.92
484.391	4676.71
484.762	4663.83
485.133	4766.2
485.503	4795.81
485.874	4840.32
486.244	4884.62
486.615	4946.08
486.985	5013.65
487.356	5074.44
487.726	5174.33
488.097	5201.45
488.467	5256.13
488.837	5309.46
489.207	5387.43
489.578	5420.42
489.948	5485.96
490.318	5525.28
490.688	5565.73
491.058	5617.03
491.428	5685.5
491.798	5755.55
492.168	5850.47
492.538	5824.03
492.908	5879.62
493.278	5955.78
493.648	5934.53
494.017	6077.81
494.387	6083
494.757	6064.7
495.126	6164.13
495.496	6128.65
495.866	6192.83
496.235	6216.11
496.605	6303.56
496.974	6378.14
497.344	6401.41
497.713	6412.26
498.082	6478.25
498.452	6467.17
498.821	6538.81
499.19	6470.79
499.559	6536.55
499.928	6621.29
500.298	6551.92
500.667	6685.25
501.036	6678.92
501.405	6726.15
501.774	6708.75
502.143	6878.69
502.512	6784.23
502.88	6863.55
503.249	6823.32
503.618	6882.53
503.987	6923.89
504.356	6899.71
504.724	6910.55
505.093	6963.88
505.462	6999.59
505.83	7007.5
506.199	7055.86
506.567	7070.32
506.936	7063.32
507.304	7203.65
507.672	7188.74
508.041	7140.38
508.409	7211.79
508.777	7293.37
509.145	7264.22
509.514	7248.85
509.882	7362.97
510.25	7381.05
510.618	7343.76
510.986	7361.84
511.354	7379.02
511.722	7431.89
512.09	7475.74
512.458	7464.21
512.826	7461.5
513.193	7529.52
513.561	7511.21
513.929	7565.22
514.297	7597.31
514.664	7589.18
515.032	7652
515.4	7718.67
515.767	7641.83
516.135	7701.72
516.502	7591.21
516.869	7729.74
517.237	7724.09
517.604	7656.3
517.972	7781.49
518.339	7761.83
518.706	7740.81
519.073	7755.05
519.44	7865.33
519.808	7872.79
520.175	7800.47
520.542	7886.57
520.909	7919.57
521.276	7928.83
521.643	7983.07
522.009	7973.8
522.376	7948.72
522.743	8031.2
523.11	8049.05
523.477	8080.92
523.843	8062.39
524.21	8106
524.577	8148.49
524.943	8183.06
525.31	8120.69
525.676	8188.26
526.043	8233.23
526.409	8191.2
526.776	8231.65
527.142	8311.87
527.508	8251.99
527.874	8350.51
528.241	8311.87
528.607	8380.8
528.973	8366.11
529.339	8359.55
529.705	8400.91
530.071	8394.81
530.437	8384.86
530.803	8493.11
531.169	8469.16
531.535	8408.59
531.901	8432.77
532.267	8496.95
532.632	8479.55
532.998	8474.81
533.364	8479.1
533.73	8514.58
534.095	8557.06
534.461	8522.71
534.826	8559.32
535.192	8482.49
535.557	8522.04
535.923	8527.69
536.288	8506.44
536.653	8554.8
537.019	8469.61
537.384	8503.05
537.749	8529.27
538.114	8486.78
538.479	8404.75
538.845	8543.05
539.21	8459.21
539.575	8470.96
539.94	8512.54
540.305	8522.04
540.67	8486.56
541.034	8507.35
541.399	8581.24
541.764	8515.26
542.129	8487.46
542.494	8470.96
542.858	8439.1
543.223	8455.82
543.587	8404.52
543.952	8411.98
544.316	8461.25
544.681	8457.86
545.045	8517.52
545.41	8511.64
545.774	8464.64
546.138	8473
546.503	8416.73
546.867	8388.71
547.231	8465.77
547.595	8499.44
547.959	8458.31
548.324	8447.24
548.688	8409.04
549.052	8446.11
549.416	8414.24
549.779	8448.37
550.143	8387.58
550.507	8408.82
550.871	8365.2
551.235	8447.24
551.599	8423.73
551.962	8349.16
552.326	8398.88
552.689	8433.68
553.053	8362.49
553.417	8273.45
553.78	8462.6
554.143	8360.68
554.507	8401.59
554.87	8349.61
555.234	8453.11
555.597	8412.43
555.96	8428.25
556.323	8416.5
556.686	8380.8
557.05	8467.12
557.413	8474.81
557.776	8480.23
558.139	8508.93
558.502	8538.53
558.865	8508.25
559.228	8514.13
559.59	8494.24
559.953	8492.21
560.316	8580.57
560.679	8611.3
561.041	8589.38
561.404	8643.16
561.767	8621.69
562.129	8590.06
562.492	8653.56
562.854	8698.53
563.217	8642.71
563.579	8663.73
563.941	8691.3
564.304	8722.93
564.666	8733.78
565.028	8826.89
565.39	8768.13
565.753	8794.8
566.115	8833.44
566.477	8805.64
566.839	8850.39
567.201	8811.29
567.563	8845.87
567.925	8939.65
568.287	8901.46
568.648	8908.24
569.01	8967.45
569.372	8974.91
569.734	9040.21
570.095	9058.97
570.457	9065.98
570.819	9072.76
571.18	9010.61
571.542	9099.2
571.903	9104.39
572.265	9119.53
572.626	9189.81
572.987	9231.85
573.349	9230.04
573.71	9273.43
574.071	9281.79
574.432	9353.43
574.794	9322.69
575.155	9333.99
575.516	9331.73
575.877	9357.27
576.238	9393.88
576.599	9379.64
576.96	9450.82
577.32	9439.53
577.681	9498.96
578.042	9521.33
578.403	9502.8
578.763	9519.75
579.124	9480.88
579.485	9604.95
579.845	9616.47
580.206	9571.73
580.566	9623.02
580.927	9582.12
581.287	9701.67
581.648	9611.95
582.008	9675
582.368	9694.66
582.728	9691.5
583.089	9721.1
583.449	9682.91
583.809	9726.98
584.169	9840.42
584.529	9789.57
584.889	9842
585.249	9765.17
585.609	9763.81
585.969	9886.75
586.329	9842
586.688	9902.11
587.048	9837.71
587.408	9835.67
587.768	9841.55
588.127	9853.75
588.487	9869.12
588.846	9923.35
589.206	9919.51
589.565	9946.18
589.925	9966.52
590.284	9968.78
590.643	9990.7
591.003	10004.71
591.362	10050.81
591.721	10085.38
592.08	9973.98
592.44	10137.59
592.799	10106.63
593.158	10078.15
593.517	10030.47
593.876	10093.29
594.235	10077.93
594.593	10079.73
594.952	10135.1
595.311	10080.19
595.67	10179.62
596.029	10204.7
596.387	10155.67
596.746	10230.24
597.104	10108.89
597.463	10147.3
597.822	10298.71
598.18	10187.75
598.538	10152.28
598.897	10209.68
599.255	10162.67
599.613	10249.45
599.972	10218.94
600.33	10318.37
600.688	10240.63
601.046	10192.95
601.404	10299.84
601.762	10294.19
602.12	10333.51
602.478	10265.04
602.836	10338.94
603.194	10324.7
603.552	10294.87
603.91	10298.94
604.268	10291.71
604.625	10315.21
604.983	10250.13
605.341	10304.14
605.698	10287.87
606.056	10381.42
606.413	10353.17
606.771	10429.1
607.128	10366.06
607.485	10362.67
607.843	10344.36
608.2	10385.49
608.557	10403.57
608.914	10388.65
609.272	10406.96
609.629	10479.5
609.986	10446.73
610.343	10428.2
610.7	10502.77
611.057	10519.27
611.414	10441.31
611.771	10508.88
612.127	10606.73
612.484	10498.26
612.841	10598.14
613.198	10515.2
613.554	10479.5
613.911	10566.28
614.267	10602.89
614.624	10540.51
614.98	10583.22
615.337	10643.79
615.693	10592.49
616.05	10602.66
616.406	10686.5
616.762	10604.47
617.118	10638.59
617.475	10600.85
617.831	10672.94
618.187	10723.79
618.543	10689.66
618.899	10777.34
619.255	10716.1
619.611	10669.78
619.967	10679.72
620.323	10726.95
620.678	10722.2
621.034	10724.01
621.39	10657.57
621.746	10680.17
622.101	10792.94
622.457	10607.63
622.812	10718.59
623.168	10721.3
623.523	10728.76
623.879	10835.87
624.234	10733.96
624.589	10700.06
624.945	10711.36
625.3	10792.26
625.655	10692.37
626.01	10697.35
626.365	10729.44
626.72	10669.55
627.075	10735.54
627.43	10704.35
627.785	10660.51
628.14	10720.62
628.495	10705.26
628.85	10736.44
629.205	10546.84
629.559	10667.29
629.914	10601.08
630.269	10679.72
630.623	10579.16
630.978	10606.05
631.332	10679.49
631.687	10632.26
632.041	10535.32
632.396	10663.9
632.75	10559.04
633.104	10521.76
633.459	10486.05
633.813	10534.86
634.167	10518.59
634.521	10416.68
634.875	10466.39
635.229	10493.06
635.583	10406.05
635.937	10408.77
636.291	10404.25
636.645	10376.68
636.999	10361.99
637.352	10395.21
637.706	10356.11
638.06	10411.03
638.413	10418.71
638.767	10303.01
639.121	10395.88
639.474	10305.49
639.828	10277.02
640.181	10265.27
640.534	10306.62
640.888	10245.61
641.241	10221.43
641.594	10192.5
641.947	10299.39
642.301	10243.57
642.654	10227.75
643.007	10286.96
643.36	10225.49
643.713	10198.38
644.066	10206.96
644.419	10147.53
644.771	10123.8
645.124	10039.06
645.477	10052.39
645.83	10015.78
646.182	9900.3
646.535	9863.92
646.888	9963.35
647.24	9836.35
647.593	9852.17
647.945	9866.86
648.298	9814.66
648.65	9757.71
649.002	9778.73
649.355	9846.75
649.707	9851.94
650.059	9873.64
650.411	10051.71
650.763	10008.1
651.115	10143.01
651.467	10102.79
651.819	10029.11
652.171	10051.94
652.523	10065.27
652.875	10055.55
653.227	10053.75
653.578	10050.36
653.93	10101.43
654.282	10009.68
654.633	9983.01
654.985	10027.98
655.337	10039.06
655.688	10060.98
656.039	10019.17
656.391	9979.85
656.742	9975.33
657.094	10053.07
657.445	10040.19
657.796	9965.39
658.147	10042.9
658.498	10067.31
658.849	10002.9
659.2	9987.53
659.551	9880.19
659.902	10036.57
660.253	9992.96
660.604	9981.43
660.955	9972.17
661.306	10006.06
661.656	9982.79
662.007	10020.3
662.358	10078.83
662.708	10034.31
663.059	10019.62
663.409	10012.17
663.76	10042
664.11	10090.58
664.461	10050.58
664.811	10026.85
665.161	10014.43
665.511	10060.3
665.862	9964.26
666.212	10063.92
666.562	10053.07
666.912	10013.52
667.262	9983.47
667.612	9990.92
667.962	10045.84
668.312	9978.04
668.662	10097.59
669.011	10000.64
669.361	9981.66
669.711	10019.85
670.06	9944.15
670.41	9937.82
670.76	9972.39
671.109	9992.28
671.459	9982.11
671.808	9914.77
672.157	9987.99
672.507	9895.11
672.856	9965.16
673.205	9918.16
673.554	9913.64
673.904	9921.77
674.253	9946.41
674.602	9881.32
674.951	9710.93
675.3	9740.08
675.649	9864.37
675.998	9864.6
676.346	9901.21
676.695	9829.35
677.044	9747.09
677.393	9849.68
677.741	9797.71
678.09	9818.5
678.438	9724.49
678.787	9826.41
679.135	9769.69
679.484	9697.15
679.832	9776.69
680.181	9734.66
680.529	9706.64
680.877	9671.84
681.225	9668.45
681.573	9763.81
681.922	9655.57
682.27	9613.98
682.618	9571.05
682.966	9584.61
683.314	9599.97
683.661	9640.88
684.009	9496.93
684.357	9526.76
684.705	9473.65
685.053	9502.58
685.4	9484.04
685.748	9504.83
686.095	9458.28
686.443	9422.8
686.79	9403.14
687.138	9377.61
687.485	9432.97
687.832	9373.09
688.18	9329.92
688.527	9233.66
688.874	9266.87
689.221	9215.8
689.568	9141.45
689.915	9223.94
690.262	9190.04
690.609	9160.89
690.956	9114.79
691.303	9072.53
691.65	9074.11
691.997	8957.96
692.344	9043.38
692.69	8979.42
693.037	8956.83
693.383	8917.73
693.73	8920.9
694.077	8755.25
694.423	8815.59
694.769	8807.68
695.116	8785.53
695.462	8765.65
695.808	8705.99
696.155	8727.45
696.501	8630.73
696.847	8658.53
697.193	8542.15
697.539	8576.05
697.885	8539.44
698.231	8487.91
698.577	8489.04
698.923	8511.41
699.269	8446.33
699.614	8379.89
699.96	8331.76
700.306	8375.15
700.651	8379.21
700.997	8321.59
701.342	8246.79
701.688	8245.66
702.033	8224.87
702.379	8187.13
702.724	8165.66
703.069	8230.07
703.415	8071.2
703.76	8139.22
704.105	8022.16
704.45	8062.61
704.795	8024.2
705.14	8004.76
705.485	7936.29
705.83	7949.17
706.175	7943.07
706.52	7988.49
706.865	7921.15
707.209	7827.36
707.554	7803.41
707.899	7835.95
708.243	7845.44
708.588	7802.96
708.932	7626.92
709.277	7709.85
709.621	7698.78
709.966	7635.96
710.31	7657.65
710.654	7551.21
710.998	7596.86
711.342	7603.19
711.687	7568.61
712.031	7528.84
712.375	7505.57
712.719	7517.77
713.063	7541.72
713.407	7538.33
713.75	7407.49
714.094	7491.55
714.438	7447.49
714.782	7428.96
715.125	7393.48
715.469	7415.17
715.812	7358.45
716.156	7342.63
716.499	7435.06
716.843	7366.13
717.186	7343.31
717.53	7386.92
717.873	7347.83
718.216	7296.76
718.559	7306.7
718.902	7214.95
719.246	7222.18
719.589	7249.3
719.932	7201.62
720.275	7189.19
720.617	7262.86
720.96	7226.25
721.303	7201.17
721.646	7214.27
721.989	7137.44
722.331	7171.56
722.674	7170.43
723.016	7135.41
723.359	7164.11
723.701	7169.3
724.044	7119.81
724.386	7085.46
724.729	7117.33
725.071	7099.7
725.413	7079.81
725.755	7046.14
726.097	7102.41
726.439	7074.62
726.782	7066.48
727.124	7124.33
727.465	7013.37
727.807	7082.75
728.149	7082.3
728.491	7038.68
728.833	7076.65
729.175	7040.04
729.516	6999.82
729.858	7063.09
730.199	7054.73
730.541	7081.62
730.882	6977.67
731.224	7041.4
731.565	7048.63
731.906	7013.15
732.248	7023.09
732.589	6953.72
732.93	6980.38
733.271	6989.87
733.612	6972.47
733.953	6934.28
734.294	6955.3
734.635	6970.44
734.976	6944.68
735.317	6937.67
735.658	6938.57
735.999	6967.5
736.339	6975.86
736.68	7002.53
737.021	6989.65
737.361	6958.46
737.702	6946.48
738.042	6974.28
738.383	6963.43
738.723	6933.83
739.063	6961.62
739.404	6975.86
739.744	7024.22
740.084	6992.36
740.424	7045.01
740.764	7037.33
741.104	7064.45
741.444	6955.75
741.784	7022.41
742.124	7075.29
742.464	7032.13
742.804	7056.09
743.143	7071.68
743.483	7150.32
743.823	7087.5
744.162	7115.52
744.502	7172.69
744.841	7101.51
745.181	7147.83
745.52	7202.52
745.86	7164.56
746.199	7183.99
746.538	7250.43
746.877	7309.86
747.216	7358
747.556	7376.98
747.895	7364.33
748.234	7399.13
748.573	7416.08
748.911	7464.89
749.25	7498.11
749.589	7518.9
749.928	7619.23
750.267	7703.98
750.605	7730.42
750.944	7758.67
751.283	7827.82
751.621	7938.77
751.96	7943.97
752.298	8029.62
752.636	8130.63
752.975	8208.15
753.313	8213.8
753.651	8351.87
753.989	8401.14
754.327	8475.48
754.666	8575.14
755.004	8618.53
755.342	8738.53
755.679	8800.67
756.017	8853.33
756.355	9042.25
756.693	9116.6
757.031	9223.03
757.368	9348.23
757.706	9425.51
758.044	9494.44
758.381	9636.58
758.719	9760.65
759.056	9901.21
759.394	9967.2
759.731	10098.04
760.068	10211.93
760.405	10219.17
760.743	10406.28
761.08	10624.58
761.417	10642.88
761.754	10820.96
762.091	10895.98
762.428	11021.63
762.765	11079.03
763.102	11354.28
763.438	11412.36
763.775	11448.74
764.112	11676.08
764.449	11834.72
764.785	11956.75
765.122	11914.49
765.458	12082.17
