Data from hue_300_FLMS001491_00047.txt Node
Date: Tue Feb 07 15:50:47 GMT 2017
User: dcchb
Spectrometer: FLMS00149
Trigger mode: 0
Integration Time (sec): 2.000000E-2
Scans to average: 10
Electric dark correction enabled: true
Nonlinearity correction enabled: false
Boxcar width: 0
XAxis mode: Wavelengths
Number of Pixels in Spectrum: 2048
>>>>>Begin Spectral Data<<<<<
341.393	1.72
341.776	1.72
342.16	1.72
342.543	-35.79
342.927	-91.16
343.31	-76.24
343.693	-69.69
344.077	-56.81
344.46	-78.5
344.843	-48.45
345.226	-55.22
345.61	-17.49
345.993	-5.06
346.376	5.34
346.759	30.2
347.142	17.77
347.525	41.5
347.908	48.5
348.291	81.27
348.674	78.56
349.057	104.32
349.44	125.11
349.823	143.64
350.206	144.09
350.588	171.66
350.971	203.53
351.354	199.46
351.737	231.32
352.119	239.68
352.502	241.04
352.884	263.19
353.267	277.2
353.65	286.01
354.032	273.13
354.414	312
354.797	302.96
355.179	299.12
355.562	306.8
355.944	324.65
356.326	332.11
356.709	319.91
357.091	334.14
357.473	340.25
357.855	342.28
358.238	332.79
358.62	326.01
359.002	333.24
359.384	352.9
359.766	350.64
360.148	321.04
360.53	320.13
360.912	314.71
361.294	331.21
361.676	338.21
362.057	346.12
362.439	326.01
362.821	317.42
363.203	328.04
363.584	342.51
363.966	307.7
364.348	330.08
364.729	334.14
365.111	307.48
365.493	319.68
365.874	307.03
366.256	317.65
366.637	302.96
367.019	318.1
367.4	298.89
367.781	317.2
368.163	314.94
368.544	299.34
368.925	328.49
369.306	301.38
369.688	324.43
370.069	309.29
370.45	305.44
370.831	303.18
371.212	308.83
371.593	295.73
371.974	317.2
372.355	307.7
372.736	331.21
373.117	326.23
373.498	327.59
373.879	314.71
374.26	293.47
374.641	313.58
375.021	321.94
375.402	317.65
375.783	319.91
376.163	332.56
376.544	324.2
376.925	318.78
377.305	309.74
377.686	329.62
378.066	333.01
378.447	323.52
378.827	319.23
379.208	356.29
379.588	335.5
379.968	316.74
380.349	321.94
380.729	356.52
381.109	337.99
381.489	349.51
381.87	350.41
382.25	333.01
382.63	336.18
383.01	340.02
383.39	344.99
383.77	335.73
384.15	343.18
384.53	322.62
384.91	355.16
385.29	356.06
385.67	375.5
386.049	348.61
386.429	328.95
386.809	358.78
387.189	352.22
387.568	365.1
387.948	355.16
388.328	362.39
388.707	354.48
389.087	381.83
389.466	370.3
389.846	370.75
390.225	383.18
390.605	380.7
390.984	363.3
391.363	392.45
391.743	376.4
392.122	379.79
392.501	379.34
392.881	412.11
393.26	381.15
393.639	379.57
394.018	405.1
394.397	391.77
394.776	387.48
395.155	413.24
395.534	393.35
395.913	406.91
396.292	391.09
396.671	398.55
397.05	407.59
397.429	416.4
397.808	406.23
398.186	404.2
398.565	438.1
398.944	394.26
399.323	412.56
399.701	437.42
400.08	450.98
400.458	428.83
400.837	409.17
401.215	422.28
401.594	413.69
401.972	430.19
402.351	447.36
402.729	435.61
403.107	448.72
403.486	427.7
403.864	441.03
404.242	448.94
404.62	455.72
404.999	473.58
405.377	479
405.755	471.09
406.133	467.93
406.511	487.13
406.889	491.43
407.267	494.82
407.645	493.01
408.023	490.3
408.401	486.68
408.779	515.38
409.156	530.97
409.534	516.51
409.912	527.81
410.29	562.61
410.667	553.12
411.045	553.57
411.422	570.07
411.8	544.08
412.178	585.44
412.555	597.87
412.933	598.54
413.31	589.05
413.687	600.13
414.065	623.4
414.442	648.03
414.819	629.73
415.197	641.93
415.574	644.42
415.951	662.72
416.328	686
416.705	667.69
417.082	695.49
417.46	685.32
417.837	697.52
418.214	723.51
418.591	700.69
418.967	717.86
419.344	747.24
419.721	785.88
420.098	752.66
420.475	763.29
420.852	772.78
421.228	807.58
421.605	765.32
421.982	794.24
422.358	807.8
422.735	840.12
423.111	830.18
423.488	849.84
423.864	852.1
424.241	885.99
424.617	864.98
424.994	864.98
425.37	882.15
425.746	909.72
426.123	914.47
426.499	913.11
426.875	896.39
427.251	933.9
427.627	943.62
428.003	941.81
428.379	980.91
428.756	1011.87
429.132	996.73
429.507	1018.65
429.883	1019.1
430.259	1025.43
430.635	1043.5
431.011	1067.91
431.387	1092.32
431.763	1100.23
432.138	1106.33
432.514	1098.64
432.89	1114.46
433.265	1137.96
433.641	1168.7
434.016	1167.12
434.392	1186.32
434.767	1217.06
435.143	1188.58
435.518	1234.91
435.894	1229.26
436.269	1240.11
436.644	1264.29
437.02	1260.22
437.395	1287.57
437.77	1310.62
438.145	1308.13
438.52	1304.29
438.895	1317.17
439.271	1343.38
439.646	1356.04
440.021	1366.66
440.395	1361.91
440.77	1378.18
441.145	1395.13
441.52	1378.18
441.895	1392.65
442.27	1425.41
442.645	1424.74
443.019	1436.94
443.394	1434
443.769	1426.32
444.143	1427.9
444.518	1479.88
444.892	1421.57
445.267	1466.09
445.641	1452.31
446.016	1450.72
446.39	1485.75
446.764	1514.23
447.139	1487.79
447.513	1514.68
447.887	1498.63
448.262	1523.94
448.636	1520.1
449.01	1518.75
449.384	1532.76
449.758	1554.9
450.132	1539.99
450.506	1587.44
450.88	1542.7
451.254	1582.02
451.628	1572.08
452.002	1572.3
452.376	1613.66
452.75	1614.79
453.123	1602.13
453.497	1625.18
453.871	1613.21
454.244	1659.08
454.618	1694.33
454.992	1720.32
455.365	1692.3
455.739	1748.34
456.112	1741.34
456.486	1688.68
456.859	1788.12
457.232	1771.62
457.606	1780.21
457.979	1798.06
458.352	1836.03
458.725	1836.03
459.099	1842.35
459.472	1870.83
459.845	1875.8
460.218	1881
460.591	1893.42
460.964	1915.35
461.337	1944.04
461.71	1970.48
462.083	1973.2
462.456	1963.93
462.829	1975.23
463.201	1990.6
463.574	2002.57
463.947	2020.65
464.32	2026.98
464.692	2088.22
465.065	2069.24
465.438	2104.94
465.81	2106.07
466.183	2161.44
466.555	2157.15
466.928	2146.3
467.3	2168.22
467.672	2188.11
468.045	2250.93
468.417	2232.62
468.789	2275.34
469.161	2323.92
469.534	2283.25
469.906	2363.24
470.278	2338.16
470.65	2346.75
471.022	2420.19
471.394	2439.63
471.766	2441.43
472.138	2464.94
472.51	2507.87
472.882	2537.25
473.253	2578.83
473.625	2587.42
473.997	2605.95
474.369	2587.19
474.74	2616.8
475.112	2664.48
475.484	2707.41
475.855	2764.59
476.227	2760.97
476.598	2793.51
476.97	2838.48
477.341	2898.82
477.713	2905.38
478.084	2906.05
478.455	2997.35
478.827	2993.28
479.198	3031.02
479.569	3027.18
479.94	3124.8
480.311	3152.15
480.682	3133.62
481.053	3203.22
481.424	3246.61
481.795	3253.39
482.166	3304.46
482.537	3297.91
482.908	3376.78
483.279	3426.27
483.65	3432.82
484.021	3510.11
484.391	3559.6
484.762	3586.26
485.133	3558.69
485.503	3586.94
485.874	3704.22
486.244	3706.94
486.615	3764.11
486.985	3755.3
487.356	3847.95
487.726	3851.34
488.097	3901.96
488.467	3888.4
488.837	3974.05
489.207	4004.78
489.578	4033.93
489.948	4045.68
490.318	4127.49
490.688	4120.03
491.058	4160.94
491.428	4203.65
491.798	4210.88
492.168	4296.53
492.538	4301.5
492.908	4367.26
493.278	4411.55
493.648	4391.66
494.017	4432.57
494.387	4438.89
494.757	4513.47
495.126	4528.84
495.496	4545.11
495.866	4568.16
496.235	4611.32
496.605	4636.18
496.974	4624.88
497.344	4701.26
497.713	4706.46
498.082	4727.93
498.452	4746.01
498.821	4787.59
499.19	4793.69
499.559	4783.52
499.928	4845.21
500.298	4897.64
500.667	4916.85
501.036	4933.8
501.405	4923.63
501.774	4940.35
502.143	4981.93
502.512	4949.84
502.88	4981.48
503.249	5026.45
503.618	5052.66
503.987	5049.95
504.356	5086.34
504.724	5107.13
505.093	5072.32
505.462	5163.85
505.83	5178.54
506.199	5210.85
506.567	5233.45
506.936	5235.94
507.304	5219.67
507.672	5283.62
508.041	5325.88
508.409	5281.81
508.777	5366.33
509.145	5395.25
509.514	5344.41
509.882	5435.03
510.25	5429.38
510.618	5402.49
510.986	5472.54
511.354	5479.55
511.722	5525.65
512.09	5567.23
512.458	5585.76
512.826	5599.77
513.193	5601.58
513.561	5553.22
513.929	5629.37
514.297	5689.71
514.664	5670.95
515.032	5677.73
515.4	5691.07
515.767	5739.2
516.135	5755.02
516.502	5719.09
516.869	5779.42
517.237	5771.97
517.604	5815.36
517.972	5822.36
518.339	5853.77
518.706	5890.38
519.073	5877.5
519.44	5876.14
519.808	5921.57
520.175	5868.24
520.542	5942.58
520.909	5998.63
521.276	5940.78
521.643	6049.7
522.009	6000.21
522.376	6103.48
522.743	6091.05
523.11	6225.06
523.477	6213.76
523.843	6216.93
524.21	6235.91
524.577	6300.99
524.943	6307.32
525.31	6377.6
525.676	6421.22
526.043	6384.61
526.409	6472.74
526.776	6484.49
527.142	6526.52
527.508	6576.01
527.874	6597.03
528.241	6611.27
528.607	6594.77
528.973	6666.41
529.339	6666.86
529.705	6742.56
530.071	6797.93
530.437	6813.97
530.803	6802
531.169	6841.32
531.535	6872.73
531.901	6909.56
532.267	6924.25
532.632	6979.39
532.998	6957.25
533.364	6978.26
533.73	7052.16
534.095	7093.29
534.461	7132.38
534.826	7145.26
535.192	7195.88
535.557	7214.64
535.923	7198.6
536.288	7200.63
536.653	7262.1
537.019	7256.67
537.384	7207.64
537.749	7347.74
538.114	7335.99
538.479	7408.53
538.845	7376.9
539.21	7387.07
539.575	7470.68
539.94	7480.62
540.305	7587.51
540.67	7553.84
541.034	7641.75
541.399	7622.31
541.764	7621.18
542.129	7721.97
542.494	7747.73
542.858	7791.12
543.223	7791.12
543.587	7778.92
543.952	7815.53
544.316	7867.28
544.681	7895.07
545.045	7895.3
545.41	7956.77
545.774	8029.08
546.138	8044.45
546.503	7976.65
546.867	7986.15
547.231	8109.76
547.595	8138.91
547.959	8129.42
548.324	8132.58
548.688	8156.31
549.052	8239.7
549.416	8177.1
549.779	8347.04
550.143	8278.12
550.507	8293.93
550.871	8323.09
551.235	8393.59
551.599	8408.51
551.962	8401.73
552.326	8454.38
552.689	8485.79
553.053	8409.19
553.417	8449.18
553.78	8530.31
554.143	8569.41
554.507	8623.19
554.87	8526.02
555.234	8712
555.597	8638.11
555.96	8623.19
556.323	8710.65
556.686	8712.91
557.05	8768.72
557.413	8795.16
557.776	8770.98
558.139	8926.46
558.502	8833.13
558.865	8894.82
559.228	8865.22
559.59	8968.72
559.953	9048.04
560.316	8981.37
560.679	9024.99
561.041	9093.91
561.404	9102.5
561.767	9201.48
562.129	9180.69
562.492	9198.54
562.854	9197.41
563.217	9236.28
563.579	9274.47
563.941	9312.89
564.304	9386.56
564.666	9363.74
565.028	9486.9
565.39	9429.5
565.753	9505.2
566.115	9541.13
566.477	9544.75
566.839	9580.45
567.201	9657.06
567.563	9599.44
567.925	9616.61
568.287	9671.75
568.648	9711.75
569.01	9785.42
569.372	9811.86
569.734	9820.67
570.095	9876.04
570.457	9883.05
570.819	9918.98
571.18	9940.22
571.542	9984.96
571.903	10103.6
572.265	10072.87
572.626	10205.3
572.987	10180.21
573.349	10271.51
573.71	10326.65
574.071	10412.52
574.432	10477.15
574.794	10605.29
575.155	10566.42
575.516	10621.33
575.877	10704.94
576.238	10785.62
576.599	10895
576.96	10941.1
577.32	10983.81
577.681	11085.5
578.042	11221.77
578.403	11348.32
578.763	11403.91
579.124	11560.97
579.485	11673.73
579.845	11827.85
580.206	11897.46
580.566	12010.45
580.927	12068.75
581.287	12350.78
581.648	12438.91
582.008	12668.28
582.368	12704.89
582.728	12917.09
583.089	13056.3
583.449	13207.93
583.809	13411.99
584.169	13594.36
584.529	13736.96
584.889	14093.56
585.249	14212.42
585.609	14348.92
585.969	14665.07
586.329	14812.63
586.688	15089.69
587.048	15298.95
587.408	15523.35
587.768	15800.86
588.127	15971.92
588.487	16323.33
588.846	16716.99
589.206	16806.93
589.565	17046.47
589.925	17447.59
590.284	17592.22
590.643	17978.43
591.003	18210.51
591.362	18570.05
591.721	18884.16
592.08	19223.82
592.44	19380.65
592.799	19694.09
593.158	20066.73
593.517	20237.35
593.876	20648.41
594.235	20886.82
594.593	21208.17
594.952	21555.51
595.311	21778.33
595.67	22120.01
596.029	22597.97
596.387	22848.35
596.746	23176.03
597.104	23395.46
597.463	23703.02
597.822	24056.23
598.18	24315.21
598.538	24503
598.897	25011.01
599.255	25111.57
599.613	25646.92
599.972	25809.18
600.33	26152.45
600.688	26356.96
601.046	26802.15
601.404	27097.51
601.762	27371.85
602.12	27728
602.478	27956.47
602.836	28230.81
603.194	28350.36
603.552	28660.4
603.91	28899.95
604.268	29174.29
604.625	29374.96
604.983	29832.35
605.341	29924.78
605.698	30271.21
606.056	30595.95
606.413	30811.53
606.771	31094.24
607.128	31270.73
607.485	31362.03
607.843	31614.68
608.2	31945.97
608.557	32366.75
608.914	32281.78
609.272	32720.64
609.629	32930.57
609.986	33244.69
610.343	33258.25
610.7	33669.99
611.057	33945.92
611.414	33889.65
611.771	34252.57
612.127	34484.21
612.484	34519.91
612.841	34891.88
613.198	35001.03
613.554	35064.98
613.911	35470.62
614.267	35545.42
614.624	35591.07
614.98	35859.54
615.337	36187.21
615.693	36210.04
616.05	36373.87
616.406	36754.43
616.762	36770.25
617.118	36824.48
617.475	37029.45
617.831	37223.34
618.187	37400.06
618.543	37505.14
618.899	37717.79
619.255	37762.76
619.611	37893.83
619.967	38188.52
620.323	38319.36
620.678	38211.79
621.034	38277.33
621.39	38381.5
621.746	38519.13
622.101	39014.48
622.457	38780.59
622.812	38956.63
623.168	39109.17
623.523	39099.9
623.879	39350.97
624.234	39219.9
624.589	39423.51
624.945	39436.84
625.3	39547.35
625.655	39559.55
626.01	39827.12
626.365	39767.46
626.72	39736.5
627.075	39784.63
627.43	40028.47
627.785	39893.56
628.14	40139.88
628.495	40214.9
628.85	40057.62
629.205	40233.43
629.559	40454.22
629.914	40206.09
630.269	40326.31
630.623	40406.31
630.978	40291.74
631.332	40461.68
631.687	40560.66
632.041	40339.87
632.396	40493.99
632.75	40442.47
633.104	40613.08
633.459	40393.2
633.813	40508.68
634.167	40488.57
634.521	40505.06
634.875	40691.5
635.229	40441.34
635.583	40398.4
635.937	40505.74
636.291	40419.19
636.645	40517.95
636.999	40486.76
637.352	40712.52
637.706	40305.75
638.06	40609.47
638.413	40547.32
638.767	40414.67
639.121	40556.14
639.474	40348.23
639.828	40449.93
640.181	40621.22
640.534	40557.94
640.888	40246.54
641.241	40216.03
641.594	40384.39
641.947	40372.64
642.301	40378.51
642.654	40378.97
643.007	40341.45
643.36	40292.42
643.713	40272.98
644.066	40408.57
644.419	40246.54
644.771	39962.93
645.124	39757.29
645.477	39607.46
645.83	39453.79
646.182	39302.84
646.535	39244.76
646.888	39240.69
647.24	39003.18
647.593	39294.48
647.945	39250.63
648.298	39135.38
648.65	38966.8
649.002	39032.11
649.355	39298.99
649.707	39162.95
650.059	39446.11
650.411	39655.14
650.763	39785.31
651.115	40210.84
651.467	40011.97
651.819	39976.27
652.171	39952.76
652.523	39999.09
652.875	39949.37
653.227	39758.19
653.578	39997.96
653.93	39947.34
654.282	39762.03
654.633	39662.15
654.985	39825.99
655.337	39921.35
655.688	39780.79
656.039	40081.12
656.391	39630.74
656.742	39676.61
657.094	39718.42
657.445	39825.08
657.796	39739.66
658.147	39644.3
658.498	39749.15
658.849	39778.98
659.2	39635.94
659.551	39710.96
659.902	39796.16
660.253	39654.01
660.604	39862.82
660.955	39594.35
661.306	39763.84
661.656	39628.7
662.007	39743.5
662.358	39599.55
662.708	39610.63
663.059	39607.46
663.409	39499.44
663.76	39781.92
664.11	39529.95
664.461	39688.82
664.811	39619.66
665.161	39608.59
665.511	39580.8
665.862	39627.57
666.212	39829.6
666.562	39767.23
666.912	39643.17
667.262	39722.71
667.612	39635.26
667.962	39624.41
668.312	39543.96
668.662	39713.67
669.011	39488.37
669.361	39533.11
669.711	39527.69
670.06	39579.44
670.41	39376.28
670.76	39433.68
671.109	39597.52
671.459	39461.7
671.808	39389.16
672.157	39428.26
672.507	39200.92
672.856	39205.89
673.205	39324.76
673.554	39433.45
673.904	39194.14
674.253	39416.73
674.602	39235.49
674.951	38796.64
675.3	38698.33
675.649	39219.67
675.998	39146.91
676.346	39096.29
676.695	39138.55
677.044	38863.3
677.393	39116.63
677.741	39099
678.09	38968.61
678.438	39038.66
678.787	39055.84
679.135	38871.89
679.484	38793.02
679.832	38861.27
680.181	38465.57
680.529	38762.74
680.877	38572.23
681.225	38610.88
681.573	38881.83
681.922	38700.82
682.27	38472.8
682.618	38458.57
682.966	38499.69
683.314	38487.26
683.661	38368.4
684.009	38174.73
684.357	38269.64
684.705	37978.13
685.053	38126.6
685.4	38062.19
685.748	38029.42
686.095	37835.3
686.443	37759.83
686.79	37650.22
687.138	37907.62
687.485	37799.15
687.832	37672.82
688.18	37534.07
688.527	37468.76
688.874	37466.05
689.221	37415.88
689.568	37348.54
689.915	37269.44
690.262	37170.46
690.609	37077.58
690.956	36995.78
691.303	37016.8
691.65	36845.73
691.997	36759.17
692.344	36540.88
692.69	36577.94
693.037	36676.69
693.383	36127.33
693.73	36449.13
694.077	36155.12
694.423	36199.42
694.769	36081
695.116	35966.2
695.462	35939.99
695.808	35864.28
696.155	35909.71
696.501	35625.19
696.847	35636.49
697.193	35440.57
697.539	35445.54
697.885	35286.45
698.231	35188.14
698.577	35216.62
698.923	35011.2
699.269	35011.2
699.614	34784.99
699.96	34751.32
700.306	34856.85
700.651	34537.31
700.997	34519.46
701.342	34396.98
701.688	34365.34
702.033	34321.27
702.379	34299.58
702.724	34044.9
703.069	34282.63
703.415	33894.17
703.76	33755.19
704.105	33811.46
704.45	33707.28
704.795	33566.72
705.14	33556.1
705.485	33487.85
705.83	33290.34
706.175	33377.12
706.52	33286.5
706.865	33185.03
707.209	33148.65
707.554	32905.49
707.899	33143.9
708.243	32941.65
708.588	32914.98
708.932	32570.36
709.277	32589.34
709.621	32557.25
709.966	32412.17
710.31	32453.53
710.654	32197.03
710.998	32239.29
711.342	32337.82
711.687	32147.77
712.031	31990.49
712.375	31905.74
712.719	31917.95
713.063	31918.62
713.407	32020.77
713.75	31713.21
714.094	31809.25
714.438	31734.9
714.782	31782.13
715.125	31531.06
715.469	31588.92
715.812	31494
716.156	31214.69
716.499	31268.92
716.843	31292.2
717.186	31182.82
717.53	31221.02
717.873	31266.44
718.216	31232.77
718.559	30958.2
718.902	30938.54
719.246	30901.02
719.589	30790.52
719.932	30657.87
720.275	30875.94
720.617	30723.4
720.96	30690.63
721.303	30597.75
721.646	30602.73
721.989	30389.17
722.331	30619.22
722.674	30462.84
723.016	30453.58
723.359	30323.19
723.701	30360.02
724.044	30071.21
724.386	30042.97
724.729	30195.73
725.071	30025.11
725.413	30011.56
725.755	29876.64
726.097	29969.75
726.439	29762.75
726.782	29765.69
727.124	29954.16
727.465	29701.06
727.807	29722.98
728.149	29626.71
728.491	29544.45
728.833	29571.12
729.175	29514.39
729.516	29455.19
729.858	29342.42
730.199	29397.56
730.541	29406.15
730.882	29231.01
731.224	29409.76
731.565	29180.84
731.906	29093.16
732.248	29161.18
732.589	29013.62
732.93	28849.78
733.271	29033.05
733.612	28932.49
733.953	29116.89
734.294	28870.12
734.635	28825.82
734.976	28869.66
735.317	28652.72
735.658	28830.34
735.999	28752.15
736.339	28696.79
736.68	28733.62
737.021	28648.65
737.361	28427.87
737.702	28692.04
738.042	28556
738.383	28493.63
738.723	28603.68
739.063	28377.93
739.404	28450.01
739.744	28337.48
740.084	28297.25
740.424	28247.31
740.764	28203.92
741.104	28333.18
741.444	28229.46
741.784	28159.63
742.124	28173.41
742.464	28084.37
742.804	28046.86
743.143	27995.79
743.483	28020.2
743.823	27801.22
744.162	27736.36
744.502	27831.73
744.841	27693.88
745.181	27895.45
745.52	27607.1
745.86	27742.01
746.199	27713.08
746.538	27664.95
746.877	27707.21
747.216	27740.88
747.556	27513.32
747.895	27590.15
748.234	27432.87
748.573	27529.13
748.911	27475.8
749.25	27514.45
749.589	27325.3
749.928	27437.61
750.267	27360.1
750.605	27357.16
750.944	27212.53
751.283	27224.96
751.621	27311.97
751.96	27070.62
752.298	27063.16
752.636	27156.04
752.975	26970.73
753.313	26807.35
753.651	27010.73
753.989	26909.26
754.327	26938.64
754.666	26863.84
755.004	26948.36
755.342	26874.01
755.679	26784.3
756.017	26677.41
756.355	26703.17
756.693	26570.52
757.031	26665.65
757.368	26500.46
757.706	26500.91
758.044	26477.41
758.381	26347.47
758.719	26251.65
759.056	26382.72
