Data from hue_36_FLMS001491_00001.txt Node
Date: Tue Feb 07 17:29:18 GMT 2017
User: dcchb
Spectrometer: FLMS00149
Trigger mode: 0
Integration Time (sec): 2.000000E-2
Scans to average: 10
Electric dark correction enabled: true
Nonlinearity correction enabled: false
Boxcar width: 0
XAxis mode: Wavelengths
Number of Pixels in Spectrum: 2048
>>>>>Begin Spectral Data<<<<<
341.393	-31.71
341.776	-31.71
342.16	-31.71
342.543	-35.1
342.927	-62.44
343.31	-78.94
343.693	-94.53
344.077	-67.41
344.46	-42.33
344.843	-51.82
345.226	-37.13
345.61	-44.59
345.993	-21.76
346.376	-9.11
346.759	10.55
347.142	12.13
347.525	43.77
347.908	84.9
348.291	86.93
348.674	100.49
349.057	108.85
349.44	121.28
349.823	144.78
350.206	170.32
350.588	203.99
350.971	224.1
351.354	231.11
351.737	230.66
352.119	256.65
352.502	282.18
352.884	282.63
353.267	310.43
353.65	298.9
354.032	288.96
354.414	313.14
354.797	326.47
355.179	323.76
355.562	333.71
355.944	319.24
356.326	343.88
356.709	348.85
357.091	320.37
357.473	344.55
357.855	362.63
358.238	345.91
358.62	360.37
359.002	351.33
359.384	350.65
359.766	351.56
360.148	351.33
360.53	346.36
360.912	335.06
361.294	356.76
361.676	348.62
362.057	344.55
362.439	332.35
362.821	341.84
363.203	327.83
363.584	350.43
363.966	335.74
364.348	313.82
364.729	326.25
365.111	333.93
365.493	311.33
365.874	315.4
366.256	329.41
366.637	342.07
367.019	318.34
367.4	302.52
367.781	316.31
368.163	331.22
368.544	287.61
368.925	296.42
369.306	319.92
369.688	319.24
370.069	300.71
370.45	327.38
370.831	293.48
371.212	339.58
371.593	323.76
371.974	313.82
372.355	311.33
372.736	321.5
373.117	318.57
373.498	334.61
373.879	335.74
374.26	324.21
374.641	307.94
375.021	306.14
375.402	314.5
375.783	337.1
376.163	330.99
376.544	340.71
376.925	327.83
377.305	316.08
377.686	326.02
378.066	326.02
378.447	325.8
378.827	324.89
379.208	336.42
379.588	345.46
379.968	326.93
380.349	340.49
380.729	345.23
381.109	340.03
381.489	334.84
381.87	338.45
382.25	344.78
382.63	334.38
383.01	341.39
383.39	337.55
383.77	342.97
384.15	335.29
384.53	321.05
384.91	356.76
385.29	357.43
385.67	363.99
386.049	357.89
386.429	360.37
386.809	354.72
387.189	358.34
387.568	343.2
387.948	366.02
388.328	357.43
388.707	373.93
389.087	336.19
389.466	368.51
389.846	360.6
390.225	349.98
390.605	377.32
390.984	356.76
391.363	361.95
391.743	357.21
392.122	377.09
392.501	369.64
392.881	378.68
393.26	372.35
393.639	371.67
394.018	370.77
394.397	374.16
394.776	368.28
395.155	389.07
395.534	379.35
395.913	363.99
396.292	380.26
396.671	360.37
397.05	383.87
397.429	396.08
397.808	383.2
398.186	396.76
398.565	389.52
398.944	393.59
399.323	387.72
399.701	426.58
400.08	388.17
400.458	383.87
400.837	410.54
401.215	394.95
401.594	413.48
401.972	381.39
402.351	392.24
402.729	406.02
403.107	389.52
403.486	417.09
403.864	380.94
404.242	408.51
404.62	416.64
404.999	406.92
405.377	407.83
405.755	431.78
406.133	426.13
406.511	408.51
406.889	415.74
407.267	437.21
407.645	461.16
408.023	443.99
408.401	420.48
408.779	432.91
409.156	476.75
409.534	456.19
409.912	435.17
410.29	418
410.667	457.09
411.045	448.73
411.422	442.63
411.8	435.85
412.178	462.29
412.555	456.19
412.933	463.42
413.31	453.7
413.687	467.71
414.065	479.01
414.442	483.08
414.819	499.8
415.197	479.01
415.574	505.68
415.951	471.33
416.328	475.85
416.705	487.83
417.082	465
417.46	483.53
417.837	498.67
418.214	505
418.591	493.25
418.967	489.18
419.344	507.26
419.721	515.62
420.098	530.31
420.475	527.15
420.852	529.41
421.228	527.15
421.605	506.36
421.982	516.98
422.358	522.4
422.735	532.57
423.111	551.55
423.488	549.29
423.864	533.02
424.241	521.72
424.617	547.49
424.994	544.55
425.37	583.64
425.746	566.47
426.123	561.95
426.499	559.46
426.875	572.57
427.251	554.27
427.627	606.24
428.003	569.41
428.379	556.98
428.756	580.48
429.132	587.48
429.507	589.52
429.883	613.02
430.259	622.74
430.635	589.29
431.011	610.31
431.387	639.01
431.763	629.52
432.138	630.2
432.514	627.48
432.89	657.31
433.265	636.75
433.641	641.04
434.016	661.38
434.392	672.45
434.767	656.18
435.143	658.44
435.518	676.75
435.894	664.77
436.269	680.82
436.644	684.88
437.02	704.32
437.395	696.18
437.77	724.2
438.145	704.77
438.52	697.54
438.895	720.36
439.271	719.68
439.646	713.81
440.021	741.83
440.395	744.09
440.77	723.98
441.145	723.98
441.52	754.26
441.895	741.38
442.27	767.14
442.645	739.12
443.019	777.76
443.394	760.14
443.769	772.34
444.143	754.49
444.518	775.95
444.892	776.63
445.267	808.5
445.641	786.58
446.016	784.32
446.39	829.96
446.764	815.5
447.139	808.95
447.513	810.53
447.887	812.79
448.262	825.67
448.636	817.76
449.01	833.81
449.384	828.38
449.758	820.25
450.132	852.79
450.506	860.92
450.88	875.84
451.254	858.66
451.628	858.21
452.002	858.21
452.376	862.73
452.75	899.57
453.123	879
453.497	891.21
453.871	907.48
454.244	910.87
454.618	926.91
454.992	919
455.365	937.76
455.739	978.21
456.112	986.8
456.486	952.45
456.859	970.53
457.232	990.64
457.606	981.82
457.979	1006.91
458.352	1021.15
458.725	1019.79
459.099	1026.12
459.472	1073.12
459.845	1057.3
460.218	1081.71
460.591	1078.55
460.964	1078.32
461.337	1084.42
461.71	1131.43
462.083	1122.61
462.456	1143.85
462.829	1142.27
463.201	1136.17
463.574	1158.32
463.947	1174.14
464.32	1194.25
464.692	1208.49
465.065	1236.28
465.438	1224.3
465.81	1259.33
466.183	1274.02
466.555	1288.48
466.928	1314.02
467.3	1326
467.672	1334.36
468.045	1361.93
468.417	1403.96
468.789	1400.8
469.161	1396.05
469.534	1448.7
469.906	1448.25
470.278	1450.51
470.65	1509.49
471.022	1531.41
471.394	1560.79
471.766	1591.07
472.138	1596.27
472.51	1623.39
472.882	1661.13
473.253	1674.01
473.625	1732.31
473.997	1736.83
474.369	1762.14
474.74	1808.47
475.112	1839.2
475.484	1920.56
475.855	1928.92
476.227	1974.34
476.598	2014.79
476.97	2005.53
477.341	2098.41
477.713	2123.04
478.084	2180.89
478.455	2220.89
478.827	2265.63
479.198	2324.16
479.569	2385.63
479.94	2490.71
480.311	2510.15
480.682	2568
481.053	2666.75
481.424	2695.23
481.795	2746.75
482.166	2800.76
482.537	2862.45
482.908	2950.81
483.279	3057.48
483.65	3133.41
484.021	3212.95
484.391	3245.27
484.762	3363
485.133	3434.42
485.503	3429.44
485.874	3541.98
486.244	3675.99
486.615	3746.5
486.985	3822.65
487.356	3934.52
487.726	4030.11
488.097	4101.74
488.467	4172.48
488.837	4262.42
489.207	4377.67
489.578	4492.01
489.948	4552.13
490.318	4694.5
490.688	4715.51
491.058	4856.3
491.428	4923.87
491.798	5008.61
492.168	5190.98
492.538	5236.85
492.908	5303.97
493.278	5389.84
493.648	5461.93
494.017	5554.81
494.387	5657.63
494.757	5753
495.126	5877.51
495.496	5930.85
495.866	6057.17
496.235	6122.25
496.605	6225.75
496.974	6316.37
497.344	6411.06
497.713	6459.65
498.082	6555.92
498.452	6681.11
498.821	6771.28
499.19	6806.76
499.559	6904.61
499.928	6962.46
500.298	7041.55
500.667	7167.65
501.036	7138.27
501.405	7288.1
501.774	7275.44
502.143	7412.39
502.512	7492.16
502.88	7568.32
503.249	7612.16
503.618	7719.05
503.987	7840.4
504.356	7821.19
504.724	7964.47
505.093	7997.01
505.462	8068.19
505.83	8144.35
506.199	8162.2
506.567	8319.26
506.936	8304.34
507.304	8458.24
507.672	8524.45
508.041	8595.64
508.409	8620.27
508.777	8748.85
509.145	8781.39
509.514	8876.08
509.882	8918.11
510.25	8935.74
510.618	9098.45
510.986	9131.21
511.354	9205.34
511.722	9232
512.09	9410.98
512.458	9391.77
512.826	9431.32
513.193	9488.04
513.561	9529.62
513.929	9623.41
514.297	9664.76
514.664	9705.44
515.032	9761.25
515.4	9916.28
515.767	9932.55
516.135	10035.82
516.502	9925.54
516.869	10110.4
517.237	10130.51
517.604	10131.41
517.972	10216.61
518.339	10331.41
518.706	10330.28
519.073	10379.77
519.44	10438.98
519.808	10584.96
520.175	10605.98
520.542	10694.79
520.909	10722.13
521.276	10697.05
521.643	10847.33
522.009	10959.42
522.376	11046.19
522.743	11105.4
523.11	11176.36
523.477	11278.73
523.843	11275.11
524.21	11392.62
524.577	11502
524.943	11551.72
525.31	11568.44
525.676	11723.46
526.043	11706.97
526.409	11831.03
526.776	11983.57
527.142	11985.83
527.508	12086.62
527.874	12125.26
528.241	12205.26
528.607	12258.36
528.973	12317.8
529.339	12367.51
529.705	12461.07
530.071	12571.12
530.437	12593.95
530.803	12765.47
531.169	12806.6
531.535	12753.49
531.901	12838.01
532.267	12896.77
532.632	12963.88
532.998	13059.25
533.364	13162.3
533.73	13163.65
534.095	13312.12
534.461	13327.71
534.826	13420.59
535.192	13386.02
535.557	13502.4
535.923	13506.47
536.288	13609.06
536.653	13597.54
537.019	13561.83
537.384	13682.96
537.749	13762.28
538.114	13803.41
538.479	13876.4
538.845	13897.42
539.21	13858.32
539.575	13989.39
539.94	14083.17
540.305	14204.3
540.67	14163.62
541.034	14241.36
541.399	14294.24
541.764	14344.18
542.129	14434.35
542.494	14430.51
542.858	14512.09
543.223	14488.59
543.587	14591.64
543.952	14684.52
544.316	14759.77
544.681	14691.52
545.045	14847.45
545.41	14862.36
545.774	14852.42
546.138	14934.68
546.503	14951.17
546.867	14988.69
547.231	15204.95
547.595	15201.56
547.959	15242.24
548.324	15251.05
548.688	15300.32
549.052	15394.55
549.416	15445.62
549.779	15498.28
550.143	15601.1
550.507	15576.47
550.871	15640.65
551.235	15602.91
551.599	15753.64
551.962	15764.03
552.326	15832.96
552.689	15929.23
553.053	15782.57
553.417	15889.91
553.78	16124.03
554.143	16056.68
554.507	16139.62
554.87	16196.57
555.234	16339.61
555.597	16318.37
555.96	16442.66
556.323	16416.9
556.686	16594.3
557.05	16584.13
557.413	16645.37
557.776	16603.11
558.139	16796.55
558.502	16856.89
558.865	16832.71
559.228	16895.53
559.59	16999.48
559.953	16926.72
560.316	17210.1
560.679	17116.32
561.041	17215.07
561.404	17347.95
561.767	17450.09
562.129	17370.77
562.492	17539.81
562.854	17552.46
563.217	17527.83
563.579	17651.89
563.941	17704.32
564.304	17805.34
564.666	17902.74
565.028	17972.56
565.39	17991.32
565.753	18144.99
566.115	18115.84
566.477	18210.75
566.839	18257.75
567.201	18346.34
567.563	18270.18
567.925	18635.6
568.287	18574.13
568.648	18503.4
569.01	18747.69
569.372	18844.41
569.734	18795.82
570.095	18906.55
570.457	19049.82
570.819	19107.68
571.18	19145.19
571.542	19191.97
571.903	19259.31
572.265	19380.89
572.626	19352.87
572.987	19554.67
573.349	19585.86
573.71	19643.03
574.071	19825.17
574.432	19945.62
574.794	20123.69
575.155	20113.98
575.516	20047.76
575.877	20215.22
576.238	20508.54
576.599	20538.82
576.96	20604.36
577.32	20699.27
577.681	20796.44
578.042	20994.18
578.403	21083.67
578.763	21264.23
579.124	21334.28
579.485	21486.37
579.845	21668.51
580.206	21810.88
580.566	21858.56
580.927	21903.99
581.287	22140.82
581.648	22312.34
582.008	22555.72
582.368	22538.32
582.728	22841.81
583.089	22898.54
583.449	23108.25
583.809	23155.03
584.169	23546.2
584.529	23589.37
584.889	23968.79
585.249	24017.6
585.609	24079.97
585.969	24455.78
586.329	24623.46
586.688	24903.46
587.048	25014.41
587.408	25239.27
587.768	25491.24
588.127	25583.44
588.487	25841.51
588.846	26224.55
589.206	26130.99
589.565	26436.52
589.925	26730.3
590.284	26970.52
590.643	27241.7
591.003	27473.11
591.362	27746.77
591.721	27915.35
592.08	28096.14
592.44	28482.34
592.799	28624.71
593.158	28792.17
593.517	28991.71
593.876	29293.17
594.235	29395.77
594.593	29676.66
594.952	30011.12
595.311	30216.54
595.67	30313.71
596.029	30708.5
596.387	30937.87
596.746	31242.95
597.104	31249.28
597.463	31485.66
597.822	31836.15
598.18	31857.62
598.538	32099.42
598.897	32451.51
599.255	32286.54
599.613	33014.2
599.972	33010.59
600.33	33250.58
600.688	33130.36
601.046	33622.32
601.404	33699.61
601.762	34037.68
602.12	34396.31
602.478	34293.26
602.836	34559.02
603.194	34706.59
603.552	35042.62
603.91	34869.75
604.268	35227.25
604.625	35300.47
604.983	35624.3
605.341	35565.77
605.698	35995.37
606.056	36232.42
606.413	36152.88
606.771	36370.5
607.128	36522.13
607.485	36589.02
607.843	36732.75
608.2	37116.02
608.557	37240.31
608.914	37211.15
609.272	37446.18
609.629	37571.82
609.986	37887.29
610.343	37918.48
610.7	38275.08
611.057	38267.4
611.414	38200.73
611.771	38457.22
612.127	38772.92
612.484	38774.5
612.841	38979.7
613.198	39048.17
613.554	39034.84
613.911	39446.58
614.267	39328.39
614.624	39349.63
614.98	39650.64
615.337	39897.41
615.693	39795.95
616.05	40001.82
616.406	40277.51
616.762	40159.33
617.118	40253.79
617.475	40263.73
617.831	40462.82
618.187	40660.78
618.543	40579.43
618.899	40958.17
619.255	40894.22
619.611	40837.5
619.967	41145.06
620.323	41280.2
620.678	41142.12
621.034	41147.55
621.39	41210.37
621.746	41235.68
622.101	41733.3
622.457	41417.15
622.812	41714.54
623.168	41604.94
623.523	41648.1
623.879	41900.52
624.234	41672.73
624.589	41877.92
624.945	42028.65
625.3	42118.6
625.655	42110.91
626.01	42178.26
626.365	42230.68
626.72	42037.47
627.075	42309.33
627.43	42286.95
627.785	42241.08
628.14	42279.27
628.495	42385.93
628.85	42289.89
629.205	42340.51
629.559	42523.33
629.914	42234.07
630.269	42360.85
630.623	42321.08
630.978	42315.88
631.332	42434.29
631.687	42603.1
632.041	42371.92
632.396	42540.73
632.75	42440.85
633.104	42534.4
633.459	42283.11
633.813	42408.08
634.167	42331.25
634.521	42302.55
634.875	42416.67
635.229	42371.7
635.583	42271.36
635.937	42303
636.291	42302.77
636.645	42346.16
636.999	42182.78
637.352	42343.45
637.706	42201.31
638.06	42428.87
638.413	42213.06
638.767	42152.72
639.121	42288.08
639.474	42068.65
639.828	42146.39
640.181	42151.14
640.534	42150.46
640.888	42006.96
641.241	41881.99
641.594	42060.29
641.947	42128.09
642.301	42028.43
642.654	42074.08
643.007	42063.46
643.36	42065.04
643.713	41949.56
644.066	42080.63
644.419	41846.51
644.771	41599.06
645.124	41195.91
645.477	41141.9
645.83	40893.32
646.182	40877.05
646.535	40863.04
646.888	40897.39
647.24	40591.86
647.593	40894.9
647.945	40782.81
648.298	40637.73
648.65	40645.64
649.002	40314.35
649.355	40661.91
649.707	40673.44
650.059	40903.49
650.411	41214.66
650.763	41231.61
651.115	41722
651.467	41540.53
651.819	41410.14
652.171	41355.68
652.523	41337.15
652.875	41267.09
653.227	41204.95
653.578	41437.94
653.93	41407.2
654.282	41248.34
654.633	41098.74
654.985	41185.06
655.337	41198.85
655.688	41319.07
656.039	41290.6
656.391	41120.66
656.742	41139.64
657.094	41139.64
657.445	41288.34
657.796	41136.47
658.147	41243.82
658.498	40922.47
658.849	41124.5
659.2	41215.34
659.551	41015.12
659.902	41129.7
660.253	41157.04
660.604	41133.76
660.955	40970.6
661.306	41110.49
661.656	41039.98
662.007	41056.7
662.358	40873.43
662.708	40905.97
663.059	40937.16
663.409	40675.92
663.76	41111.62
664.11	40987.55
664.461	40995.69
664.811	41006.08
665.161	41031.39
665.511	40869.59
665.862	40881.57
666.212	40971.51
666.562	40982.35
666.912	40905.75
667.262	40901.23
667.612	40762.25
667.962	41091.05
668.312	40812.42
668.662	41144.84
669.011	41040.43
669.361	40920.44
669.711	40788.01
670.06	40803.38
670.41	40687.67
670.76	40628.92
671.109	40932.86
671.459	40702.36
671.808	40726.54
672.157	40767.67
672.507	40638.86
672.856	40548.69
673.205	40642.25
673.554	40781.23
673.904	40524.51
674.253	40861.23
674.602	40818.74
674.951	40185.09
675.3	39900.12
675.649	40395.93
675.998	40536.72
676.346	40490.62
676.695	40732.64
677.044	40319.1
677.393	40443.16
677.741	40538.52
678.09	40314.58
678.438	40302.82
678.787	40376.72
679.135	40380.79
679.484	40135.15
679.832	40312.09
680.181	40070.29
680.529	40210.85
680.877	39985.77
681.225	40000.01
681.573	40215.37
681.922	39999.78
682.27	39784.87
682.618	39884.76
682.966	39778.77
683.314	39832.55
683.661	39902.38
684.009	39506.24
684.357	39461.72
684.705	39436.18
685.053	39618.55
685.4	39444.77
685.748	39257.88
686.095	39243.19
686.443	39024.67
686.79	39119.35
687.138	39219.46
687.485	39124.1
687.832	38980.37
688.18	39036.19
688.527	38813.6
688.874	38754.16
689.221	38819.47
689.568	38654.51
689.915	38658.57
690.262	38595.98
690.609	38562.76
690.956	38406.6
691.303	38224.69
691.65	38172.26
691.997	38124.12
692.344	38066.73
692.69	37943.34
693.037	37933.4
693.383	37653.18
693.73	37649.11
694.077	37516.23
694.423	37591.71
694.769	37384.26
695.116	37277.37
695.462	37283.47
695.808	37298.38
696.155	37231.72
696.501	37012.29
696.847	36990.6
697.193	36772.52
697.539	36977.94
697.885	36633.99
698.231	36518.97
698.577	36622.24
698.923	36442.81
699.269	36321.46
699.614	36066.55
699.96	35942.94
700.306	36179.77
700.651	35925.54
700.997	35887.57
701.342	35715.37
701.688	35698.65
702.033	35701.36
702.379	35656.62
702.724	35465.66
703.069	35499.79
703.415	35084.88
703.76	35240.36
704.105	35126.92
704.45	35176.63
704.795	34874.72
705.14	34909.07
705.485	34754.95
705.83	34620.26
706.175	34787.49
706.52	34684.44
706.865	34452.13
707.209	34398.57
707.554	34244.23
707.899	34372.81
708.243	34198.13
708.588	34225.92
708.932	33975.53
709.277	33942.31
709.621	33821.19
709.966	33591.59
710.31	33692.15
710.654	33476.79
710.998	33395.44
711.342	33579.16
711.687	33553.17
712.031	33402.67
712.375	33251.26
712.719	33239.96
713.063	33314.08
713.407	33315.89
713.75	33086.29
714.094	33153.63
714.438	33057.37
714.782	33076.12
715.125	32875.68
715.469	33036.8
715.812	32772.85
716.156	32631.84
716.499	32629.81
716.843	32687.21
717.186	32341.68
717.53	32593.87
717.873	32501.22
718.216	32403.37
718.559	32221.23
718.902	32005.19
719.246	32084.28
719.589	32060.78
719.932	31927.23
720.275	32010.16
720.617	31787.34
720.96	31818.53
721.303	31616.05
721.646	31782.37
721.989	31561.81
722.331	31740.56
722.674	31604.75
723.016	31573.79
723.359	31479.55
723.701	31584.64
724.044	31339.22
724.386	31091.99
724.729	31371.53
725.071	31214.93
725.413	31126.79
725.755	31274.59
726.097	31059.45
726.439	30983.52
726.782	30979.68
727.124	31055.61
727.465	30806.35
727.807	30855.39
728.149	30778.56
728.491	30757.99
728.833	30742.4
729.175	30644.32
729.516	30620.37
729.858	30523.87
730.199	30480.71
730.541	30593.02
730.882	30486.36
731.224	30495.4
731.565	30309.87
731.906	30377.89
732.248	30371.56
732.589	30152.58
732.93	30157.1
733.271	30047.05
733.612	30139.48
733.953	30161.17
734.294	29908.3
734.635	29894.74
734.976	30016.54
735.317	29799.15
735.658	29823.55
735.999	29811.8
736.339	29743.1
736.68	29826.72
737.021	29712.14
737.361	29517.35
737.702	29644.57
738.042	29609.09
738.383	29503.11
738.723	29612.26
739.063	29377.24
739.404	29565.93
739.744	29440.29
740.084	29405.94
740.424	29387.18
740.764	29203.46
741.104	29228.77
741.444	29187.64
741.784	28977.02
742.124	29043.23
742.464	29062.44
742.804	28973.63
743.143	28959.62
743.483	28983.35
743.823	28766.86
744.162	28767.76
744.502	28904.03
744.841	28645.05
745.181	28731.6
745.52	28613.19
745.86	28706.52
746.199	28607.09
746.538	28502.91
746.877	28581.1
747.216	28566.86
747.556	28476.92
747.895	28485.51
748.234	28380.43
748.573	28263.37
748.911	28292.52
749.25	28314.89
749.589	28099.53
749.928	28124.16
750.267	28265.4
750.605	28033.77
750.944	27956.48
751.283	27884.85
751.621	28073.32
751.96	27790.84
752.298	27786.32
752.636	27801.46
752.975	27679.2
753.313	27631.97
753.651	27682.37
753.989	27476.5
754.327	27489.83
754.666	27352.66
755.004	27426.55
755.342	27402.15
755.679	27361.02
756.017	27161.7
756.355	27300.23
756.693	27137.52
757.031	27171.19
757.368	26983.63
