Data from hue_60_FLMS001491_40.txt Node
Date: Mon Feb 06 15:17:18 GMT 2017
User: dcchb
Spectrometer: FLMS00149
Trigger mode: 0
Integration Time (sec): 2.000000E-2
Scans to average: 10
Electric dark correction enabled: true
Nonlinearity correction enabled: false
Boxcar width: 0
XAxis mode: Wavelengths
Number of Pixels in Spectrum: 2048
>>>>>Begin Spectral Data<<<<<
341.393	1.43
341.776	1.43
342.16	1.43
342.543	-77.44
342.927	-70.89
343.31	-51.23
343.693	-63.43
344.077	-63.88
344.46	-67.5
344.843	-27.05
345.226	-56.43
345.61	-44.9
345.993	-24.11
346.376	-8.29
346.759	5.04
347.142	36.68
347.525	21.99
347.908	42.56
348.291	86.85
348.674	96.11
349.057	117.58
349.44	116.68
349.823	149.22
350.206	167.3
350.588	182.21
350.971	207.07
351.354	223.57
351.737	252.95
352.119	259.72
352.502	272.15
352.884	285.03
353.267	295.66
353.65	320.97
354.032	290.01
354.414	316.45
354.797	307.86
355.179	335.43
355.562	315.09
355.944	321.19
356.326	336.11
356.709	336.56
357.091	342.89
357.473	326.62
357.855	325.71
358.238	347.18
358.62	341.53
359.002	336.11
359.384	350.12
359.766	317.35
360.148	322.77
360.53	332.27
360.912	352.15
361.294	331.14
361.676	344.92
362.057	336.56
362.439	316.22
362.821	323.45
363.203	324.36
363.584	322.32
363.966	340.63
364.348	318.25
364.729	322.77
365.111	313.73
365.493	345.6
365.874	330.23
366.256	306.28
366.637	320.06
367.019	313.51
367.4	313.51
367.781	330.91
368.163	323.23
368.544	291.14
368.925	300.63
369.306	319.84
369.688	326.84
370.069	313.96
370.45	310.57
370.831	297.69
371.212	331.81
371.593	311.7
371.974	313.73
372.355	310.8
372.736	318.71
373.117	316.67
373.498	325.49
373.879	323.68
374.26	319.61
374.641	297.92
375.021	301.53
375.402	316.67
375.783	332.49
376.163	326.62
376.544	320.51
376.925	323.23
377.305	338.82
377.686	318.25
378.066	327.07
378.447	320.51
378.827	336.33
379.208	343.56
379.588	333.17
379.968	345.82
380.349	339.95
380.729	336.33
381.109	324.58
381.489	314.64
381.87	347.18
382.25	321.64
382.63	321.42
383.01	334.3
383.39	340.17
383.77	342.66
384.15	341.76
384.53	355.32
384.91	345.37
385.29	351.7
385.67	333.4
386.049	344.24
386.429	357.58
386.809	351.7
387.189	342.43
387.568	368.42
387.948	370
388.328	347.41
388.707	343.79
389.087	358.71
389.466	363.22
389.846	338.82
390.225	341.98
390.605	332.27
390.984	361.87
391.363	368.42
391.743	364.58
392.122	348.31
392.501	358.93
392.881	360.29
393.26	368.65
393.639	357.35
394.018	380.17
394.397	356.22
394.776	360.97
395.155	382.89
395.534	362.77
395.913	367.29
396.292	365.26
396.671	362.77
397.05	372.04
397.429	395.31
397.808	389.89
398.186	372.72
398.565	381.76
398.944	371.59
399.323	377.24
399.701	377.46
400.08	396.9
400.458	381.76
400.837	396.67
401.215	372.49
401.594	411.59
401.972	405.03
402.351	390.34
402.729	385.15
403.107	388.53
403.486	383.56
403.864	394.64
404.242	404.81
404.62	393.96
404.999	396.22
405.377	404.13
405.755	387.86
406.133	393.96
406.511	375.65
406.889	398.93
407.267	405.48
407.645	406.61
408.023	418.14
408.401	426.95
408.779	431.02
409.156	419.49
409.534	428.76
409.912	414.75
410.29	443.9
410.667	432.6
411.045	431.25
411.422	414.07
411.8	438.7
412.178	438.25
412.555	444.13
412.933	462.21
413.31	451.58
413.687	438.48
414.065	441.19
414.442	457.69
414.819	462.66
415.197	470.57
415.574	477.8
415.951	464.24
416.328	468.76
416.705	469.21
417.082	485.71
417.46	496.55
417.837	461.75
418.214	482.54
418.591	478.93
418.967	464.69
419.344	503.56
419.721	460.4
420.098	499.94
420.475	486.84
420.852	485.03
421.228	498.36
421.605	505.37
421.982	495.88
422.358	534.29
422.735	502.2
423.111	513.96
423.488	527.74
423.864	524.35
424.241	527.97
424.617	526.84
424.994	531.81
425.37	532.94
425.746	560.06
426.123	535.2
426.499	536.78
426.875	535.88
427.251	557.34
427.627	558.25
428.003	550.79
428.379	552.15
428.756	547.17
429.132	568.19
429.507	560.51
429.883	577.46
430.259	577.91
430.635	589.89
431.011	572.94
431.387	576.55
431.763	598.02
432.138	610
432.514	615.42
432.89	598.25
433.265	612.03
433.641	614.07
434.016	647.74
434.392	635.08
434.767	626.49
435.143	610.22
435.518	618.13
435.894	644.12
436.269	661.52
436.644	648.64
437.02	667.62
437.395	617
437.77	661.3
438.145	696.32
438.52	652.26
438.895	668.75
439.271	670.11
439.646	692.71
440.021	681.41
440.395	689.54
440.77	708.53
441.145	710.11
441.52	702.43
441.895	709.88
442.27	704.23
442.645	717.57
443.019	700.62
443.394	713.05
443.769	748.07
444.143	718.92
444.518	708.3
444.892	744.01
445.267	750.56
445.641	746.72
446.016	742.42
446.39	748.98
446.764	753.27
447.139	745.36
447.513	770.9
447.887	767.06
448.262	786.72
448.636	764.57
449.01	769.99
449.384	768.86
449.758	782.42
450.132	787.62
450.506	793.95
450.88	809.09
451.254	786.49
451.628	810.44
452.002	809.99
452.376	814.96
452.75	821.74
453.123	820.16
453.497	858.13
453.871	854.51
454.244	865.13
454.618	891.8
454.992	879.14
455.365	872.36
455.739	892.25
456.112	878.24
456.486	888.63
456.859	875.3
457.232	912.14
457.606	925.7
457.979	932.93
458.352	933.61
458.725	958.24
459.099	976.09
459.472	961.85
459.845	986.71
460.218	1004.56
460.591	999.59
460.964	1023.55
461.337	1026.03
461.71	1027.84
462.083	1066.26
462.456	1038.24
462.829	1082.98
463.201	1099.25
463.574	1095.41
463.947	1113.49
464.32	1132.02
464.692	1133.83
465.065	1173.83
465.438	1156.88
465.81	1171.34
466.183	1206.82
466.555	1220.38
466.928	1207.95
467.3	1206.37
467.672	1261.96
468.045	1290.66
468.417	1323.65
468.789	1312.13
469.161	1327.49
469.534	1362.29
469.906	1384.89
470.278	1421.05
470.65	1435.74
471.022	1455.63
471.394	1493.14
471.766	1527.71
472.138	1527.26
472.51	1576.53
472.882	1647.26
473.253	1646.58
473.625	1672.57
473.997	1707.37
474.369	1717.77
474.74	1774.04
475.112	1830.76
475.484	1865.56
475.855	1923.41
476.227	1922.96
476.598	2014.93
476.97	2046.8
477.341	2136.96
477.713	2167.25
478.084	2186
478.455	2318.43
478.827	2327.24
479.198	2422.15
479.569	2499.89
479.94	2560.91
480.311	2634.58
480.682	2682.94
481.053	2817.62
481.424	2874.35
481.795	2918.41
482.166	2985.53
482.537	3099.2
482.908	3224.39
483.279	3301.45
483.65	3396.82
484.021	3511.39
484.391	3564.5
484.762	3666.41
485.133	3740.31
485.503	3869.35
485.874	4030.02
486.244	4053.07
486.615	4238.6
486.985	4318.83
487.356	4475.89
487.726	4577.13
488.097	4717.01
488.467	4790.23
488.837	4991.35
489.207	5131.01
489.578	5318.8
489.948	5361.51
490.318	5549.3
490.688	5604.89
491.058	5804.89
491.428	5969.41
491.798	6078.55
492.168	6247.82
492.538	6386.57
492.908	6524.64
493.278	6682.83
493.648	6797.18
494.017	6941.36
494.387	7064.52
494.757	7206.43
495.126	7426.99
495.496	7489.14
495.866	7583.83
496.235	7849.58
496.605	8022.91
496.974	8130.48
497.344	8281.21
497.713	8435.56
498.082	8537.02
498.452	8684.59
498.821	8901.31
499.19	8920.29
499.559	9112.15
499.928	9281.41
500.298	9372.71
500.667	9576.09
501.036	9618.57
501.405	9842.07
501.774	9891.79
502.143	10112.57
502.512	10237.99
502.88	10411.55
503.249	10462.62
503.618	10596.4
503.987	10733.12
504.356	10833.01
504.724	11062.6
505.093	11179.89
505.462	11288.14
505.83	11431.86
506.199	11485.42
506.567	11726.32
506.936	11776.03
507.304	12008.57
507.672	12137.38
508.041	12243.59
508.409	12404.49
508.777	12500.53
509.145	12687.87
509.514	12704.82
509.882	12844.48
510.25	12950.92
510.618	13136.67
510.986	13146.62
511.354	13383.67
511.722	13556.55
512.09	13769.65
512.458	13712.25
512.826	13907.05
513.193	14017.78
513.561	14143.2
513.929	14305.91
514.297	14494.38
514.664	14585
515.032	14702.06
515.4	14952.45
515.767	14952.9
516.135	15144.53
516.502	15026.34
516.869	15427.46
517.237	15490.96
517.604	15453.68
517.972	15680.34
518.339	15782.93
518.706	15843.27
519.073	16069.25
519.44	16146.99
519.808	16301.79
520.175	16312.41
520.542	16563.93
520.909	16778.84
521.276	16777.26
521.643	16904.94
522.009	17111.94
522.376	17233.52
522.743	17303.12
523.11	17496.56
523.477	17721.19
523.843	17810
524.21	18021.97
524.577	18043.89
524.943	18304
525.31	18410.43
525.676	18625.12
526.043	18654.04
526.409	18860.37
526.776	19094.03
527.142	19082.05
527.508	19160.7
527.874	19323.86
528.241	19522.95
528.607	19559.33
528.973	19849.94
529.339	19803.84
529.705	19964.29
530.071	20043.16
530.437	20300.1
530.803	20452.64
531.169	20431.85
531.535	20534.45
531.901	20549.59
532.267	20682.92
532.632	20874.78
532.998	20912.74
533.364	21078.84
533.73	21181.21
534.095	21420.98
534.461	21403.8
534.826	21517.7
535.192	21632.72
535.557	21697.13
535.923	21740.52
536.288	21846.73
536.653	21911.13
537.019	22060.28
537.384	22131.47
537.749	22284
538.114	22300.5
538.479	22311.12
538.845	22394.96
539.21	22437.67
539.575	22541.4
539.94	22574.39
540.305	22738
540.67	22711.11
541.034	22890.77
541.399	22946.59
541.764	23052.8
542.129	23155.62
542.494	23268.84
542.858	23267.26
543.223	23302.51
543.587	23481.26
543.952	23382.28
544.316	23561.48
544.681	23596.29
545.045	23762.61
545.41	23763.74
545.774	23865.88
546.138	23881.48
546.503	23891.42
546.867	24026.56
547.231	24204.63
547.595	24245.31
547.959	24352.2
548.324	24342.93
548.688	24365.53
549.052	24335.02
549.416	24602.36
549.779	24734.11
550.143	24675.35
550.507	24844.84
550.871	24883.48
551.235	24995.8
551.599	25218.16
551.962	25259.52
552.326	25245.73
552.689	25387.88
553.053	25339.97
553.417	25478.72
553.78	25816.79
554.143	25747.42
554.507	25920.74
554.87	25974.08
555.234	26076
555.597	26087.29
555.96	26073.51
556.323	26340.85
556.686	26401.86
557.05	26472.37
557.413	26593.95
557.776	26549.88
558.139	26907.61
558.502	26821.51
558.865	26935.86
559.228	27143.54
559.59	27265.12
559.953	27351.44
560.316	27623.07
560.679	27602.51
561.041	27684.54
561.404	27837.98
561.767	28119.78
562.129	27962.73
562.492	28340.79
562.854	28268.48
563.217	28355.26
563.579	28512.77
563.941	28569.04
564.304	28818.52
564.666	28871.4
565.028	28929.03
565.39	29094.67
565.753	29184.39
566.115	29346.87
566.477	29416.7
566.839	29488.33
567.201	29735.56
567.563	29687.43
567.925	29933.29
568.287	29970.13
568.648	29949.57
569.01	30131.03
569.372	30377.58
569.734	30282.21
570.095	30599.94
570.457	30764.91
570.819	30712.71
571.18	30851.69
571.542	30946.15
571.903	30874.06
572.265	31154.73
572.626	31255.29
572.987	31319.47
573.349	31309.3
573.71	31604.66
574.071	31697.77
574.432	31715.39
574.794	31899.34
575.155	31954.71
575.516	31806.01
575.877	31883.07
576.238	32063.18
576.599	32194.7
576.96	32165.55
577.32	32301.59
577.681	32402.16
578.042	32565.09
578.403	32456.84
578.763	32555.6
579.124	32582.49
579.485	32695.93
579.845	32806.67
580.206	32788.36
580.566	32641.25
580.927	32808.7
581.287	32916.49
581.648	32788.14
582.008	32959.88
582.368	32952.88
582.728	32978.41
583.089	32827.68
583.449	32961.92
583.809	33126.21
584.169	33116.26
584.529	33069.71
584.889	33283.04
585.249	33182.02
585.609	33006.43
585.969	33203.49
586.329	33109.26
586.688	33206.88
587.048	33222.7
587.408	33311.51
587.768	33201.46
588.127	33091.63
588.487	33262.7
588.846	33424.73
589.206	33179.76
589.565	33262.25
589.925	33448.23
590.284	33344.28
590.643	33346.76
591.003	33412.98
591.362	33519.87
591.721	33648.23
592.08	33477.61
592.44	33546.31
592.799	33434.9
593.158	33617.27
593.517	33632.86
593.876	33560.09
594.235	33537.49
594.593	33672.41
594.952	33752.4
595.311	33498.85
595.67	33748.11
596.029	33927.54
596.387	34037.37
596.746	34010.25
597.104	33797.37
597.463	33782.01
597.822	33969.12
598.18	33816.81
598.538	33861.55
598.897	34109.68
599.255	33830.59
599.613	34393.52
599.972	34121.43
600.33	34331.37
600.688	34038.72
601.046	34305.38
601.404	34382.44
601.762	34393.06
602.12	34565.94
602.478	34575.43
602.836	34531.14
603.194	34417.7
603.552	34310.58
603.91	34333.18
604.268	34560.07
604.625	34516
604.983	34771.36
605.341	34538.6
605.698	34667.86
606.056	34814.75
606.413	34897.91
606.771	35001.41
607.128	34919.83
607.485	34884.8
607.843	34778.59
608.2	34938.14
608.557	35168.19
608.914	35016.78
609.272	35200.28
609.629	35298.35
609.986	35459.48
610.343	35325.92
610.7	35669.19
611.057	35546.93
611.414	35588.97
611.771	35651.34
612.127	35779.69
612.484	35740.15
612.841	35959.35
613.198	35749.19
613.554	35750.77
613.911	36020.59
614.267	36091.55
614.624	36151.66
614.98	36218.33
615.337	36342.39
615.693	36298.55
616.05	36209.29
616.406	36548.04
616.762	36320.25
617.118	36312.56
617.475	36434.59
617.831	36588.49
618.187	36586
618.543	36550.07
618.899	36826.22
619.255	36655.15
619.611	36789.16
619.967	36854.47
620.323	36861.93
620.678	36867.35
621.034	36818.54
621.39	36817.18
621.746	36795.94
622.101	37255.59
622.457	36936.27
622.812	37006.1
623.168	37148.25
623.523	37097.17
623.879	37386.88
624.234	37046.1
624.589	37262.59
624.945	37307.56
625.3	37413.1
625.655	37204.06
626.01	37330.84
626.365	37410.16
626.72	37353.89
627.075	37319.09
627.43	37345.76
627.785	37287.23
628.14	37381.69
628.495	37291.52
628.85	37286.77
629.205	37328.58
629.559	37531.06
629.914	37386.43
630.269	37399.77
630.623	37186.66
630.978	37012.88
631.332	37351.18
631.687	37446.32
632.041	37416.71
632.396	37442.02
632.75	37193.22
633.104	37287.45
633.459	37164.74
633.813	37171.07
634.167	37189.6
634.521	37120.45
634.875	37070.96
635.229	37040
635.583	36929.27
635.937	36860.12
636.291	36861.7
636.645	36877.52
636.999	36765.21
637.352	36936.73
637.706	36738.99
638.06	36954.13
638.413	36945.31
638.767	36852.43
639.121	36897.63
639.474	36716.85
639.828	36779.22
640.181	36813.34
640.534	36860.34
640.888	36709.39
641.241	36569.96
641.594	36715.72
641.947	36667.58
642.301	36590.52
642.654	36557.75
643.007	36571.09
643.36	36560.69
643.713	36470.98
644.066	36536.96
644.419	36425.33
644.771	36153.92
645.124	35814.04
645.477	35904.21
645.83	35558.23
646.182	35648.17
646.535	35395.07
646.888	35348.52
647.24	35364.56
647.593	35391.46
647.945	35399.82
648.298	35234.85
648.65	35115.08
649.002	35120.5
649.355	35085.93
649.707	35149.88
650.059	35312.59
650.411	35713.03
650.763	35777.66
651.115	36140.82
651.467	35957.77
651.819	35902.4
652.171	35765.46
652.523	35814.72
652.875	35862.63
653.227	35694.27
653.578	35851.11
653.93	35742.63
654.282	35633.94
654.633	35610.21
654.985	35619.02
655.337	35729.53
655.688	35614.05
656.039	35795.97
656.391	35373.6
656.742	35586.71
657.094	35569.3
657.445	35653.14
657.796	35688.4
658.147	35419.25
658.498	35487.27
658.849	35711.67
659.2	35490.21
659.551	35433.49
659.902	35556.65
660.253	35396.2
660.604	35504
660.955	35414.73
661.306	35511
661.656	35403.43
662.007	35370.44
662.358	35426.26
662.708	35421.06
663.059	35410.66
663.409	35191.46
663.76	35294.51
664.11	35327.96
664.461	35341.06
664.811	35371.8
665.161	35327.5
665.511	35213.38
665.862	35344
666.212	35383.77
666.562	35408.86
666.912	35268.07
667.262	35291.12
667.612	35254.51
667.962	35285.24
668.312	35204.34
668.662	35377.45
669.011	35200.73
669.361	35326.6
669.711	35080.05
670.06	35208.64
670.41	35081.86
670.76	34942.2
671.109	35241.18
671.459	35120.73
671.808	35069.21
672.157	35214.29
672.507	34999.15
672.856	34928.64
673.205	34988.98
673.554	35110.56
673.904	34928.42
674.253	35102.42
674.602	34972.03
674.951	34475.32
675.3	34387.87
675.649	34917.8
675.998	34885.71
676.346	34924.12
676.695	34944.01
677.044	34656.33
677.393	34784.01
677.741	34782.43
678.09	34649.56
678.438	34701.76
678.787	34793.05
679.135	34817.46
679.484	34589.67
679.832	34658.59
680.181	34472.16
680.529	34527.3
680.877	34494.98
681.225	34401.88
681.573	34631.48
681.922	34294.54
682.27	34164.14
682.618	34215.22
682.966	34100.64
683.314	34252.05
683.661	34127.76
684.009	34051.6
684.357	33880.54
684.705	33824.72
685.053	33869.24
685.4	33854.1
685.748	33698.85
686.095	33753.53
686.443	33525.52
686.79	33569.81
687.138	33496.37
687.485	33525.06
687.832	33426.31
688.18	33378.85
688.527	33231.06
688.874	33341.57
689.221	33206.88
689.568	33107.45
689.915	32980.22
690.262	33013.67
690.609	32923.72
690.956	32871.07
691.303	32845.76
691.65	32658.19
691.997	32690.96
692.344	32472.89
692.69	32377.07
693.037	32540.23
693.383	32146.57
693.73	32346.11
694.077	32133.69
694.423	32095.95
694.769	31950.64
695.116	32012.56
695.462	31989.29
695.808	31867.03
696.155	31819.8
696.501	31550.43
696.847	31626.81
697.193	31348.4
697.539	31491.67
697.885	31207.39
698.231	31196.99
698.577	31236.76
698.923	31142.3
699.269	30853.95
699.614	30864.34
699.96	30913.38
700.306	30946.83
700.651	30599.49
700.997	30562.2
701.342	30629.77
701.688	30552.94
702.033	30503
702.379	30336.22
702.724	30315.88
703.069	30264.81
703.415	29935.78
703.76	30060.75
704.105	30022.56
704.45	29999.73
704.795	29814.65
705.14	29708.89
705.485	29773.53
705.83	29558.39
706.175	29698.05
706.52	29606.75
706.865	29465.74
707.209	29392.07
707.554	29319.98
707.899	29296.02
708.243	29229.36
708.588	29125.41
708.932	28880.22
709.277	28877.73
709.621	28958.63
709.966	28689.03
710.31	28811.52
710.654	28515.71
710.998	28614.23
711.342	28661.46
711.687	28431.19
712.031	28511.41
712.375	28270.06
712.719	28361.13
713.063	28174.7
713.407	28407.69
713.75	28180.8
714.094	28253.11
714.438	28041.59
714.782	28147.35
715.125	27972.67
715.469	28009.73
715.812	27835.5
716.156	27718.66
716.499	27834.59
716.843	27718.44
717.186	27486.58
717.53	27744.65
717.873	27671.66
718.216	27627.14
718.559	27452
718.902	27282.29
719.246	27428.73
719.589	27179.02
719.932	27197.32
720.275	27055.86
720.617	27105.12
720.96	27192.12
721.303	27096.53
721.646	27014.05
721.989	26853.83
722.331	26996.2
722.674	26913.71
723.016	26814.73
723.359	26868.29
723.701	26879.59
724.044	26640.73
724.386	26634.62
724.729	26704.45
725.071	26542.88
725.413	26605.92
725.755	26582.65
726.097	26467.17
726.439	26271.02
726.782	26353.05
727.124	26362.99
727.465	26365.71
727.807	26213.39
728.149	26110.57
728.491	26083.9
728.833	26205.71
729.175	26027.86
729.516	25995.77
729.858	25896.56
730.199	26052.94
730.541	25970.01
730.882	25952.16
731.224	25995.32
731.565	25754.65
731.906	25819.73
732.248	25856.11
732.589	25560.53
732.93	25588.55
733.271	25503.13
733.612	25574.09
733.953	25652.05
734.294	25492.51
734.635	25349.01
734.976	25398.72
735.317	25314.89
735.658	25329.12
735.999	25264.49
736.339	25193.76
736.68	25338.39
737.021	25259.29
737.361	25136.36
737.702	25239.63
738.042	25030.6
738.383	24943.82
738.723	25082.8
739.063	24950.83
739.404	25029.24
739.744	24862.92
740.084	24837.84
740.424	24871.73
740.764	24842.13
741.104	24915.8
741.444	24708.12
741.784	24667.9
742.124	24645.07
742.464	24623.6
742.804	24598.97
743.143	24558.75
743.483	24589.93
743.823	24483.27
744.162	24331.18
744.502	24399.88
744.841	24302.03
745.181	24460.9
745.52	24338.64
745.86	24376.15
746.199	24335.48
746.538	24234.91
746.877	24183.62
747.216	24248.92
747.556	24109.04
747.895	24146.78
748.234	24012.77
748.573	24058.65
748.911	23951.31
749.25	23952.89
749.589	23790.86
749.928	23870.4
750.267	23861.14
750.605	23745.66
750.944	23775.26
751.283	23721.71
751.621	23710.18
751.96	23648.71
752.298	23514.25
752.636	23483.07
752.975	23459.79
753.313	23363.75
753.651	23509.51
753.989	23263.19
754.327	23309.97
754.666	23146.58
755.004	23215.28
755.342	23140.25
755.679	23084.21
756.017	22914.72
756.355	22992.46
756.693	22930.09
757.031	22833.82
