Data from hue_180_FLMS001491_00091.txt Node
Date: Tue Feb 07 16:47:43 GMT 2017
User: dcchb
Spectrometer: FLMS00149
Trigger mode: 0
Integration Time (sec): 2.000000E-2
Scans to average: 10
Electric dark correction enabled: true
Nonlinearity correction enabled: false
Boxcar width: 0
XAxis mode: Wavelengths
Number of Pixels in Spectrum: 2048
>>>>>Begin Spectral Data<<<<<
341.393	-19.46
341.776	-19.46
342.16	-19.46
342.543	-57.65
342.927	-54.72
343.31	-61.04
343.693	-79.35
344.077	-66.47
344.46	-68.95
344.843	-45
345.226	-39.58
345.61	-30.99
345.993	-16.52
346.376	19.86
346.759	11.5
347.142	23.7
347.525	35.23
347.908	50.59
348.291	66.41
348.674	84.94
349.057	115.67
349.44	124.71
349.823	159.74
350.206	154.32
350.588	197.25
350.971	195.22
351.354	214.2
351.737	229.34
352.119	245.62
352.502	256.01
352.884	279.74
353.267	275.9
353.65	293.3
354.032	307.99
354.414	300.3
354.797	294.65
355.179	319.29
355.562	301.21
355.944	311.15
356.326	327.19
356.709	352.05
357.091	333.3
357.473	347.31
357.855	342.79
358.238	328.1
358.62	338.95
359.002	339.85
359.384	344.37
359.766	350.25
360.148	317.03
360.53	323.13
360.912	328.55
361.294	321.77
361.676	312.05
362.057	319.51
362.439	329.91
362.821	319.29
363.203	354.99
363.584	322.45
363.966	320.19
364.348	316.8
364.729	300.98
365.111	314.54
365.493	317.48
365.874	302.34
366.256	304.6
366.637	289.68
367.019	302.34
367.4	310.92
367.781	322.45
368.163	316.12
368.544	323.13
368.925	293.98
369.306	318.38
369.688	296.91
370.069	298.72
370.45	284.94
370.831	328.32
371.212	293.07
371.593	300.98
371.974	323.13
372.355	336.46
372.736	311.38
373.117	314.09
373.498	316.35
373.879	291.04
374.26	317.93
374.641	320.64
375.021	310.47
375.402	320.19
375.783	308.44
376.163	320.87
376.544	302.34
376.925	321.09
377.305	317.03
377.686	322.45
378.066	316.57
378.447	316.35
378.827	328.32
379.208	344.37
379.588	309.57
379.968	341.21
380.349	301.43
380.729	318.83
381.109	308.44
381.489	327.42
381.87	309.57
382.25	337.36
382.63	329.91
383.01	317.7
383.39	342.79
383.77	345.05
384.15	330.13
384.53	356.35
384.91	339.4
385.29	361.77
385.67	343.01
386.049	342.56
386.429	371.26
386.809	339.85
387.189	351.37
387.568	351.15
387.948	348.21
388.328	373.75
388.707	358.61
389.087	355.22
389.466	345.27
389.846	377.81
390.225	357.48
390.605	352.28
390.984	356.12
391.363	368.55
391.743	356.35
392.122	369.68
392.501	381.43
392.881	387.53
393.26	356.12
393.639	396.12
394.018	369.68
394.397	372.17
394.776	403.8
395.155	402.45
395.534	365.61
395.913	384.59
396.292	394.09
396.671	378.72
397.05	382.33
397.429	390.92
397.808	391.15
398.186	391.83
398.565	394.31
398.944	378.27
399.323	393.41
399.701	389.11
400.08	392.96
400.458	402
400.837	406.29
401.215	403.35
401.594	401.09
401.972	414.88
402.351	404.03
402.729	412.16
403.107	408.77
403.486	438.38
403.864	432.5
404.242	445.61
404.62	437.93
404.999	424.59
405.377	428.66
405.755	442.22
406.133	432.95
406.511	450.36
406.889	460.07
407.267	453.29
407.645	436.57
408.023	458.26
408.401	458.26
408.779	461.2
409.156	488.77
409.534	494.2
409.912	498.26
410.29	501.88
410.667	511.6
411.045	506.17
411.422	525.16
411.8	523.57
412.178	510.92
412.555	533.29
412.933	540.3
413.31	534.65
413.687	546.85
414.065	571.71
414.442	559.05
414.819	568.77
415.197	577.58
415.574	594.08
415.951	591.14
416.328	576
416.705	610.35
417.082	630.46
417.46	643.12
417.837	649.45
418.214	624.81
418.591	634.31
418.967	632.27
419.344	657.13
419.721	660.29
420.098	646.28
420.475	676.11
420.852	679.95
421.228	690.8
421.605	697.35
421.982	689.9
422.358	722.66
422.735	721.53
423.111	744.81
423.488	759.95
423.864	764.25
424.241	779.61
424.617	786.84
424.994	781.19
425.37	788.88
425.746	805.37
426.123	809.89
426.499	813.96
426.875	863.23
427.251	860.29
427.627	872.72
428.003	872.72
428.379	888.31
428.756	888.31
429.132	901.19
429.507	899.84
429.883	927.63
430.259	955.65
430.635	950
431.011	963.11
431.387	963.11
431.763	993.39
432.138	978.93
432.514	1014.41
432.89	1005.14
433.265	1012.37
433.641	1057.12
434.016	1052.37
434.392	1066.16
434.767	1101.41
435.143	1096.21
435.518	1104.58
435.894	1129.66
436.269	1171.24
436.644	1180.28
437.02	1150.22
437.395	1201.52
437.77	1221.18
438.145	1292.82
438.52	1271.8
438.895	1261.18
439.271	1278.58
439.646	1309.77
440.021	1338.02
440.395	1353.38
440.77	1340.05
441.145	1389.99
441.52	1404.91
441.895	1402.42
442.27	1408.3
442.645	1405.36
443.019	1439.71
443.394	1452.36
443.769	1488.07
444.143	1481.51
444.518	1485.36
444.892	1467.5
445.267	1499.59
445.641	1530.1
446.016	1531.68
446.39	1530.33
446.764	1529.88
447.139	1561.96
447.513	1561.96
447.887	1605.58
448.262	1612.36
448.636	1619.82
449.01	1644.45
449.384	1653.04
449.758	1658.46
450.132	1702.75
450.506	1677.67
450.88	1707.72
451.254	1703.43
451.628	1719.7
452.002	1777.33
452.376	1779.81
452.75	1823.88
453.123	1776.65
453.497	1832.01
453.871	1828.4
454.244	1878.11
454.618	1865.01
454.992	1937.55
455.365	1934.16
455.739	1978.9
456.112	1964.21
456.486	2008.51
456.859	1997.43
457.232	2054.38
457.606	2073.82
457.979	2132.35
458.352	2141.61
458.725	2136.86
459.099	2168.28
459.472	2210.54
459.845	2249.18
460.218	2243.75
460.591	2276.3
460.964	2300.02
461.337	2342.06
461.71	2365.56
462.083	2445.33
462.456	2454.6
462.829	2405.56
463.201	2451.88
463.574	2489.17
463.947	2560.58
464.32	2588.6
464.692	2650.3
465.065	2635.16
465.438	2655.27
465.81	2733.46
466.183	2740.24
466.555	2790.63
466.928	2783.18
467.3	2812.1
467.672	2916.05
468.045	2977.52
468.417	2999.89
468.789	3010.06
469.161	3057.97
469.534	3125.31
469.906	3196.72
470.278	3219.77
470.65	3248.93
471.022	3310.17
471.394	3344.06
471.766	3368.47
472.138	3449.15
472.51	3545.19
472.882	3588.58
473.253	3594.23
473.625	3669.03
473.997	3722.13
474.369	3825.41
474.74	3871.06
475.112	3913.77
475.484	4019.53
475.855	4098.85
476.227	4133.87
476.598	4257.94
476.97	4290.71
477.341	4371.61
477.713	4455.9
478.084	4525.28
478.455	4659.51
478.827	4678.27
479.198	4814.99
479.569	4880.52
479.94	5015.43
480.311	5056.11
480.682	5153.51
481.053	5312.15
481.424	5413.39
481.795	5437.34
482.166	5565.02
482.537	5683.44
482.908	5745.58
483.279	5882.98
483.65	6015.18
484.021	6120.71
484.391	6170.43
484.762	6270.54
485.133	6336.98
485.503	6465.11
485.874	6558.67
486.244	6682.96
486.615	6784.2
486.985	6882.28
487.356	7003.4
487.726	7093.34
488.097	7233.45
488.467	7347.58
488.837	7454.01
489.207	7621.01
489.578	7627.79
489.948	7765.87
490.318	7888.58
490.688	7998.41
491.058	8043.83
491.428	8162.92
491.798	8247.21
492.168	8401.33
492.538	8436.13
492.908	8565.4
493.278	8626.64
493.648	8706.41
494.017	8760.87
494.387	8922.67
494.757	9006.51
495.126	9143.46
495.496	9071.15
495.866	9125.83
496.235	9307.07
496.605	9342.55
496.974	9446.73
497.344	9466.84
497.713	9521.76
498.082	9625.71
498.452	9692.6
498.821	9707.06
499.19	9718.81
499.559	9865.7
499.928	9920.61
500.298	9943.44
500.667	10034.51
501.036	10047.84
501.405	10166.94
501.774	10090.78
502.143	10208.97
502.512	10228.18
502.88	10278.8
503.249	10212.13
503.618	10395.18
503.987	10402.64
504.356	10432.47
504.724	10479.7
505.093	10521.05
505.462	10535.74
505.83	10576.87
506.199	10690.54
506.567	10754.94
506.936	10737.54
507.304	10877.65
507.672	10799.01
508.041	10831.78
508.409	10860.03
508.777	11008.5
509.145	10974.6
509.514	10997.65
509.882	11019.34
510.25	11067.25
510.618	11117.87
510.986	11043.52
511.354	11134.82
511.722	11181.15
512.09	11247.36
512.458	11184.31
512.826	11302.05
513.193	11357.64
513.561	11362.84
513.929	11369.84
514.297	11385.21
514.664	11474.25
515.032	11455.49
515.4	11517.64
515.767	11493.45
516.135	11462.72
516.502	11457.98
516.869	11577.97
517.237	11594.92
517.604	11509.27
517.972	11594.47
518.339	11614.81
518.706	11604.86
519.073	11581.14
519.44	11648.93
519.808	11693
520.175	11730.96
520.542	11708.14
520.909	11806.21
521.276	11750.4
521.643	11857.51
522.009	11832.2
522.376	11810.06
522.743	11783.62
523.11	11878.98
523.477	11934.35
523.843	11867.68
524.21	11982.71
524.577	11961.01
524.943	11990.84
525.31	11993.33
525.676	12063.84
526.043	12039.43
526.409	12063.16
526.776	12092.76
527.142	12081.01
527.508	12027.23
527.874	12075.81
528.241	12091.86
528.607	11993.1
528.973	12087.34
529.339	12056.38
529.705	12029.94
530.071	12096.83
530.437	12017.51
530.803	12050.73
531.169	12039.88
531.535	11967.34
531.901	12010.73
532.267	11971.63
532.632	12016.15
532.998	12002.37
533.364	11948.13
533.73	11961.24
534.095	11963.5
534.461	11855.03
534.826	11813.67
535.192	11858.42
535.557	11846.44
535.923	11806.21
536.288	11672.21
536.653	11673.34
537.019	11626.78
537.384	11583.4
537.749	11553.11
538.114	11567.35
538.479	11503.62
538.845	11511.31
539.21	11405.1
539.575	11428.6
539.94	11376.85
540.305	11391.08
540.67	11322.84
541.034	11286.91
541.399	11284.42
541.764	11278.77
542.129	11254.59
542.494	11157.87
542.858	11085.33
543.223	11092.11
543.587	11099.11
543.952	10972.79
544.316	10940.48
544.681	10884.88
545.045	10929.63
545.41	10897.31
545.774	10890.31
546.138	10846.69
546.503	10792.46
546.867	10753.14
547.231	10725.34
547.595	10705.45
547.959	10667.71
548.324	10550.43
548.688	10506.14
549.052	10423.88
549.416	10462.3
549.779	10345.01
550.143	10432.69
550.507	10348.85
550.871	10310.89
551.235	10244.22
551.599	10274.73
551.962	10149.08
552.326	10178.24
552.689	10193.83
553.053	10114.06
553.417	10102.76
553.78	10119.25
554.143	9938.24
554.507	10058.69
554.87	9905.7
555.234	10055.75
555.597	9884.01
555.96	9909.99
556.323	9884.23
556.686	9800.62
557.05	9846.04
557.413	9830
557.776	9811.69
558.139	9819.83
558.502	9734.63
558.865	9837
559.228	9807.85
559.59	9754.07
559.953	9711.58
560.316	9776.21
560.679	9715.65
561.041	9701.41
561.404	9818.7
561.767	9740.05
562.129	9623.9
562.492	9726.27
562.854	9705.48
563.217	9714.29
563.579	9711.35
563.941	9671.13
564.304	9729.43
564.666	9730.34
565.028	9747.06
565.39	9623.45
565.753	9723.56
566.115	9686.72
566.477	9700.28
566.839	9665.48
567.201	9705.03
567.563	9708.42
567.925	9753.84
568.287	9739.6
568.648	9735.53
569.01	9732.6
569.372	9702.09
569.734	9729.66
570.095	9697.34
570.457	9783.22
570.819	9726.72
571.18	9751.81
571.542	9684.01
571.903	9730.56
572.265	9746.16
572.626	9724.24
572.987	9693.95
573.349	9693.73
573.71	9747.74
574.071	9664.8
574.432	9764.01
574.794	9821.18
575.155	9769.21
575.516	9690.34
575.877	9736.66
576.238	9742.09
576.599	9754.07
576.96	9765.82
577.32	9776.66
577.681	9718.81
578.042	9801.97
578.403	9743.44
578.763	9761.07
579.124	9727.63
579.485	9810.34
579.845	9769.66
580.206	9729.89
580.566	9780.28
580.927	9707.97
581.287	9771.69
581.648	9706.61
582.008	9715.87
582.368	9674.75
582.728	9735.76
583.089	9696.67
583.449	9712.94
583.809	9680.85
584.169	9633.39
584.529	9690.79
584.889	9675.65
585.249	9632.71
585.609	9589.1
585.969	9715.65
586.329	9578.93
586.688	9626.39
587.048	9601.98
587.408	9594.52
587.768	9570.12
588.127	9585.48
588.487	9484.92
588.846	9540.96
589.206	9494.86
589.565	9504.13
589.925	9559.49
590.284	9464.13
590.643	9463.23
591.003	9531.47
591.362	9573.05
591.721	9501.19
592.08	9441.76
592.44	9452.15
592.799	9426.16
593.158	9438.82
593.517	9465.71
593.876	9453.28
594.235	9471.14
594.593	9430.23
594.952	9456.45
595.311	9388.2
595.67	9406.28
596.029	9426.16
596.387	9457.8
596.746	9390.91
597.104	9392.72
597.463	9391.82
597.822	9394.75
598.18	9378.48
598.538	9356.11
598.897	9405.6
599.255	9332.38
599.613	9466.16
599.972	9378.71
600.33	9306.39
600.688	9290.8
601.046	9389.1
601.404	9367.18
601.762	9372.15
602.12	9401.31
602.478	9338.03
602.836	9447.18
603.194	9266.62
603.552	9321.08
603.91	9373.51
604.268	9339.16
604.625	9289.9
604.983	9300.29
605.341	9330.12
605.698	9317.69
606.056	9362.89
606.413	9298.03
606.771	9292.61
607.128	9414.19
607.485	9267.07
607.843	9357.47
608.2	9385.94
608.557	9363.12
608.914	9375.77
609.272	9433.4
609.629	9435.88
609.986	9363.57
610.343	9345.26
610.7	9395.66
611.057	9360.4
611.414	9373.28
611.771	9374.41
612.127	9427.52
612.484	9371.25
612.841	9426.39
613.198	9391.59
613.554	9380.97
613.911	9404.02
614.267	9458.48
614.624	9404.92
614.98	9394.53
615.337	9413.06
615.693	9419.39
616.05	9489.44
616.406	9470.01
616.762	9422.55
617.118	9520.85
617.475	9477.91
617.831	9489.67
618.187	9505.94
618.543	9454.86
618.899	9552.49
619.255	9498.25
619.611	9545.71
619.967	9487.63
620.323	9555.88
620.678	9575.09
621.034	9538.7
621.39	9488.54
621.746	9472.27
622.101	9604.01
622.457	9500.51
622.812	9550.68
623.168	9545.94
623.523	9528.53
623.879	9529.89
624.234	9441.31
624.589	9531.25
624.945	9512.49
625.3	9535.54
625.655	9583
626.01	9506.39
626.365	9482.43
626.72	9504.58
627.075	9521.3
627.43	9525.37
627.785	9490.8
628.14	9534.64
628.495	9505.03
628.85	9462.55
629.205	9453.96
629.559	9553.17
629.914	9472.27
630.269	9473.17
630.623	9471.81
630.978	9464.58
631.332	9430.91
631.687	9392.95
632.041	9446.5
632.396	9382.55
632.75	9396.79
633.104	9378.26
633.459	9299.61
633.813	9346.62
634.167	9306.39
634.521	9311.37
634.875	9299.39
635.229	9335.09
635.583	9200.18
635.937	9239.5
636.291	9247.86
636.645	9216
636.999	9209.22
637.352	9293.74
637.706	9173.52
638.06	9193.4
638.413	9221.65
638.767	9149.34
639.121	9182.56
639.474	9173.97
639.828	9198.6
640.181	9107.3
640.534	9177.13
640.888	9145.27
641.241	9060.52
641.594	9082.9
641.947	9162.89
642.301	9133.97
642.654	9109.34
643.007	9126.96
643.36	9030.02
643.713	9042.45
644.066	9048.1
644.419	9058.49
644.771	9048.1
645.124	8911.83
645.477	8893.07
645.83	8799.51
646.182	8874.31
646.535	8797.93
646.888	8819.4
647.24	8757.71
647.593	8849.23
647.945	8776.69
648.298	8758.84
648.65	8741.21
649.002	8781.66
649.355	8787.54
649.707	8751.15
650.059	8792.06
650.411	8863.92
650.763	8942.11
651.115	9024.59
651.467	8946.86
651.819	8912.73
652.171	8965.84
652.523	8968.32
652.875	8940.75
653.227	8813.53
653.578	9005.16
653.93	8938.27
654.282	8951.6
654.633	8936.46
654.985	8922.45
655.337	8935.78
655.688	8927.65
656.039	8949.79
656.391	8935.56
656.742	8972.62
657.094	8979.17
657.445	8983.92
657.796	9015.1
658.147	8972.62
658.498	8997.25
658.849	8994.54
659.2	8976.01
659.551	8938.27
659.902	8985.27
660.253	8987.76
660.604	8994.31
660.955	8963.58
661.306	9034.76
661.656	9060.98
662.007	9012.16
662.358	8989.79
662.708	9000.19
663.059	9030.92
663.409	9012.62
663.76	9002.67
664.11	9055.55
664.461	9045.16
664.811	9038.15
665.161	9101.43
665.511	9030.92
665.862	9108.88
666.212	9057.36
666.562	9054.2
666.912	9007.19
667.262	9035.67
667.612	9070.92
667.962	9045.38
668.312	9009.68
668.662	9116.34
669.011	8987.53
669.361	9001.77
669.711	9028.89
670.06	9021.66
670.41	9016.68
670.76	9060.07
671.109	9004.03
671.459	8981.43
671.808	8955.67
672.157	9008.77
672.507	8903.69
672.856	8970.58
673.205	8999.96
673.554	8990.47
673.904	8951.15
674.253	8963.35
674.602	8970.81
674.951	8872.28
675.3	8770.14
675.649	8881.55
675.998	8804.26
676.346	8801.55
676.695	8848.78
677.044	8846.29
677.393	8929.45
677.741	8863.47
678.09	8803.58
678.438	8803.13
678.787	8859.63
679.135	8822.11
679.484	8769.68
679.832	8784.83
680.181	8753.87
680.529	8782.34
680.877	8762.68
681.225	8774.2
681.573	8801.32
681.922	8677.48
682.27	8683.13
682.618	8669.57
682.966	8618.95
683.314	8633.42
683.661	8636.13
684.009	8637.03
684.357	8523.59
684.705	8509.8
685.053	8499.86
685.4	8548.45
685.748	8454.44
686.095	8476.59
686.443	8477.94
686.79	8438.85
687.138	8460.09
687.485	8458.51
687.832	8401.33
688.18	8419.41
688.527	8409.92
688.874	8346.19
689.221	8302.8
689.568	8295.35
689.915	8273.2
690.262	8257.38
690.609	8205.86
690.956	8175.8
691.303	8183.49
691.65	8162.69
691.997	8150.94
692.344	8101.91
692.69	8061.68
693.037	8088.12
693.383	7989.82
693.73	7965.86
694.077	7898.3
694.423	7947.33
694.769	7877.73
695.116	7897.39
695.462	7870.73
695.808	7887.45
696.155	7870.95
696.501	7788.47
696.847	7747.34
697.193	7677.06
697.539	7754.8
697.885	7661.24
698.231	7630.28
698.577	7642.26
698.923	7588.02
699.269	7524.75
699.614	7533.11
699.96	7459.66
700.306	7490.4
700.651	7405.2
700.997	7427.35
701.342	7387.12
701.688	7359.1
702.033	7281.81
702.379	7314.81
702.724	7303.06
703.069	7315.49
703.415	7153.23
703.76	7191.2
704.105	7169.27
704.45	7192.78
704.795	7178.31
705.14	7112.55
705.485	7054.7
705.83	7049.28
706.175	7038.66
706.52	6998.88
706.865	7009.96
707.209	6993.23
707.554	6923.86
707.899	6957.3
708.243	6894.93
708.588	6907.36
708.932	6833.69
709.277	6825.33
709.621	6856.97
709.966	6768.83
710.31	6767.93
710.654	6777.19
710.998	6748.72
711.342	6755.5
711.687	6767.25
712.031	6704.88
712.375	6677.31
712.719	6704.43
713.063	6692.23
713.407	6646.58
713.75	6604.54
714.094	6639.8
714.438	6592.57
714.782	6683.19
715.125	6560.93
715.469	6584.21
715.812	6517.31
716.156	6510.08
716.499	6502.4
716.843	6489.07
717.186	6468.95
717.53	6541.72
717.873	6474.15
718.216	6523.64
718.559	6440.93
718.902	6415.17
719.246	6468.28
719.589	6383.76
719.932	6508.95
720.275	6478.67
720.617	6430.76
720.96	6405.91
721.303	6377.88
721.646	6434.83
721.989	6378.56
722.331	6406.36
722.674	6373.14
723.016	6347.83
723.359	6369.3
723.701	6379.01
724.044	6342.18
724.386	6272.8
724.729	6338.56
725.071	6320.03
725.413	6281.16
725.755	6355.74
726.097	6315.06
726.439	6294.5
726.782	6274.16
727.124	6319.35
727.465	6267.83
727.807	6287.94
728.149	6238.68
728.491	6242.29
728.833	6334.95
729.175	6266.25
729.516	6228.96
729.858	6256.3
730.199	6287.26
730.541	6274.38
730.882	6218.79
731.224	6256.3
731.565	6262.41
731.906	6238.45
732.248	6287.26
732.589	6240.03
732.93	6255.17
733.271	6230.09
733.612	6220.15
733.953	6229.86
734.294	6294.95
734.635	6264.67
734.976	6254.04
735.317	6238.9
735.658	6273.25
735.999	6257.43
736.339	6268.51
736.68	6245.46
737.021	6300.82
737.361	6284.33
737.702	6286.36
738.042	6295.85
738.383	6248.62
738.723	6228.06
739.063	6300.37
739.404	6299.02
739.744	6319.81
740.084	6299.02
740.424	6371.1
740.764	6360.48
741.104	6400.03
741.444	6394.61
741.784	6397.09
742.124	6411.55
742.464	6368.62
742.804	6439.35
743.143	6447.49
743.483	6493.36
743.823	6502.85
744.162	6548.05
744.502	6618.78
744.841	6569.52
745.181	6612.23
745.52	6657.2
745.86	6674.37
746.199	6700.59
746.538	6745.33
746.877	6832.79
747.216	6809.51
747.556	6842.05
747.895	6935.38
748.234	6936.06
748.573	6967.47
748.911	7049.5
749.25	7055.38
749.589	7135.15
749.928	7223.74
750.267	7268.48
750.605	7388.7
750.944	7380.79
751.283	7468.7
751.621	7581.24
751.96	7622.37
752.298	7677.96
752.636	7830.95
752.975	7890.61
753.313	7952.53
753.651	8082.02
753.989	8136.03
754.327	8170.15
754.666	8359.75
755.004	8471.39
755.342	8638.16
755.679	8837.48
756.017	8819.17
756.355	8950.24
756.693	9084.25
757.031	9283.57
757.368	9314.08
757.706	9466.84
758.044	9622.09
758.381	9747.96
758.719	9902.31
759.056	10046.49
759.394	10218.01
759.731	10275.63
760.068	10486.93
760.405	10590.43
760.743	10719.69
761.08	11019.34
761.417	11063.41
761.754	11254.37
762.091	11386.79
762.428	11588.14
762.765	11680.57
763.102	11980
763.438	12110.39
763.775	12184.51
764.112	12408.01
764.449	12458.4
764.785	12639.87
765.122	12772.52
765.458	12910.14
765.795	13113.07
766.131	13178.38
