Data from hue_280_FLMS001491_00016.txt Node
Date: Tue Feb 07 15:54:54 GMT 2017
User: dcchb
Spectrometer: FLMS00149
Trigger mode: 0
Integration Time (sec): 2.000000E-2
Scans to average: 10
Electric dark correction enabled: true
Nonlinearity correction enabled: false
Boxcar width: 0
XAxis mode: Wavelengths
Number of Pixels in Spectrum: 2048
>>>>>Begin Spectral Data<<<<<
341.393	-11.43
341.776	-11.43
342.16	-11.43
342.543	-55.49
342.927	-72.67
343.31	-61.14
343.693	-71.76
344.077	-52.33
344.46	-61.59
344.843	-65.21
345.226	-36.74
345.61	-14.36
345.993	-36.74
346.376	-8.94
346.759	7.1
347.142	29.93
347.525	28.35
347.908	52.07
348.291	87.33
348.674	87.1
349.057	116.93
349.44	111.73
349.823	139.53
350.206	161.22
350.588	196.25
350.971	210.94
351.354	232.64
351.737	229.7
352.119	251.84
352.502	253.65
352.884	267.21
353.267	264.27
353.65	286.42
354.032	293.2
354.414	305.18
354.797	312.63
355.179	328
355.562	300.88
355.944	316.25
356.326	297.72
356.709	327.77
357.091	324.16
357.473	337.49
357.855	339.07
358.238	344.95
358.62	350.37
359.002	353.54
359.384	332.75
359.766	327.77
360.148	335.01
360.53	327.1
360.912	339.75
361.294	315.57
361.676	322.12
362.057	313.99
362.439	329.81
362.821	338.85
363.203	331.84
363.584	332.29
363.966	331.16
364.348	325.51
364.729	304.27
365.111	317.15
365.493	332.07
365.874	306.08
366.256	331.84
366.637	330.03
367.019	299.98
367.4	318.73
367.781	307.44
368.163	316.47
368.544	300.2
368.925	317.15
369.306	329.36
369.688	289.36
370.069	306.53
370.45	307.44
370.831	314.89
371.212	317.38
371.593	313.08
371.974	310.83
372.355	309.24
372.736	320.99
373.117	316.02
373.498	306.53
373.879	308.57
374.26	308.79
374.641	307.66
375.021	303.14
375.402	327.55
375.783	328.23
376.163	330.94
376.544	323.48
376.925	318.73
377.305	332.52
377.686	329.36
378.066	316.47
378.447	311.28
378.827	327.55
379.208	332.52
379.588	330.03
379.968	330.71
380.349	339.98
380.729	335.01
381.109	334.78
381.489	319.86
381.87	355.8
382.25	340.65
382.63	344.95
383.01	344.27
383.39	339.52
383.77	341.11
384.15	336.59
384.53	340.2
384.91	331.84
385.29	359.86
385.67	351.95
386.049	343.59
386.429	350.37
386.809	363.03
387.189	348.11
387.568	346.08
387.948	358.28
388.328	351.28
388.707	359.19
389.087	345.85
389.466	361.22
389.846	361.45
390.225	360.77
390.605	355.8
390.984	369.13
391.363	366.42
391.743	365.96
392.122	372.29
392.501	404.61
392.881	381.33
393.26	373.65
393.639	370.48
394.018	376.13
394.397	383.37
394.776	402.8
395.155	390.82
395.534	387.43
395.913	405.74
396.292	391.73
396.671	387.89
397.05	410.48
397.429	411.16
397.808	404.16
398.186	400.54
398.565	408.22
398.944	429.01
399.323	424.04
399.701	403.03
400.08	401.22
400.458	410.03
400.837	416.59
401.215	438.05
401.594	454.78
401.972	422.01
402.351	462.69
402.729	436.02
403.107	452.74
403.486	441.44
403.864	450.26
404.242	436.02
404.62	447.09
404.999	449.8
405.377	460.88
405.755	460.2
406.133	471.05
406.511	470.59
406.889	460.43
407.267	480.54
407.645	494.55
408.023	473.08
408.401	482.57
408.779	502.68
409.156	494.55
409.534	508.33
409.912	505.85
410.29	495.45
410.667	526.41
411.045	526.86
411.422	572.74
411.8	546.98
412.178	545.4
412.555	545.62
412.933	559.41
413.31	553.76
413.687	588.56
414.065	621.55
414.442	597.15
414.819	599.63
415.197	619.07
415.574	603.02
415.951	626.07
416.328	616.13
416.705	660.19
417.082	650.48
417.46	652.96
417.837	656.8
418.214	666.75
418.591	667.2
418.967	684.83
419.344	686.86
419.721	720.08
420.098	716.24
420.475	723.24
420.852	718.27
421.228	742.9
421.605	737.93
421.982	733.64
422.358	760.53
422.735	774.32
423.111	782.23
423.488	779.06
423.864	775.22
424.241	828.78
424.617	825.61
424.994	850.92
425.37	838.49
425.746	871.26
426.123	873.97
426.499	854.77
426.875	899.28
427.251	887.31
427.627	892.05
428.003	912.17
428.379	941.32
428.756	911.49
429.132	949.68
429.507	940.64
429.883	969.34
430.259	991.71
430.635	970.92
431.011	976.57
431.387	1030.81
431.763	1021.54
432.138	1054.08
432.514	1043.24
432.89	1058.15
433.265	1068.32
433.641	1106.28
434.016	1131.82
434.392	1124.14
434.767	1139.5
435.143	1134.08
435.518	1160.07
435.894	1180.41
436.269	1188.54
436.644	1218.82
437.02	1224.47
437.395	1228.09
437.77	1269.44
438.145	1280.52
438.52	1304.92
438.895	1297.69
439.271	1313.51
439.646	1362.1
440.021	1356.9
440.395	1369.78
440.77	1312.38
441.145	1384.92
441.52	1365.26
441.895	1377.01
442.27	1377.24
442.645	1383.34
443.019	1409.1
443.394	1395.32
443.769	1444.35
444.143	1422.66
444.518	1476.44
444.892	1456.33
445.267	1465.6
445.641	1503.11
446.016	1481.64
446.39	1508.31
446.764	1511.02
447.139	1519.38
447.513	1535.43
447.887	1526.61
448.262	1503.79
448.636	1544.24
449.01	1555.76
449.384	1572.94
449.758	1577.91
450.132	1587.4
450.506	1564.35
450.88	1605.03
451.254	1603.22
451.628	1603.67
452.002	1645.25
452.376	1620.4
452.75	1685.7
453.123	1683.9
453.497	1665.59
453.871	1710.34
454.244	1713.95
454.618	1720.05
454.992	1765.7
455.365	1768.87
455.739	1792.14
456.112	1849.77
456.486	1790.11
456.859	1819.03
457.232	1855.64
457.606	1803.89
457.979	1862.87
458.352	1894.29
458.725	1886.15
459.099	1916.88
459.472	1956.21
459.845	1953.95
460.218	1946.71
460.591	1968.86
460.964	2009.31
461.337	2026.03
461.71	2033.49
462.083	2059.48
462.456	2077.56
462.829	2058.58
463.201	2106.94
463.574	2101.96
463.947	2138.12
464.32	2191.23
464.692	2189.87
465.065	2191
465.438	2208.4
465.81	2270.1
466.183	2258.12
466.555	2303.54
466.928	2319.59
467.3	2298.57
467.672	2357.55
468.045	2392.8
468.417	2407.27
468.789	2373.82
469.161	2415.63
469.534	2453.59
469.906	2485.01
470.278	2529.75
470.65	2530.65
471.022	2596.87
471.394	2613.36
471.766	2640.93
472.138	2622.85
472.51	2684.55
472.882	2724.32
473.253	2730.42
473.625	2777.88
473.997	2799.35
474.369	2825.56
474.74	2833.7
475.112	2889.29
475.484	2901.04
475.855	2935.39
476.227	2996.18
476.598	3042.05
476.97	3077.53
477.341	3119.34
477.713	3156.85
478.084	3172.9
478.455	3241.37
478.827	3276.62
479.198	3322.27
479.569	3324.31
479.94	3402.04
480.311	3416.28
480.682	3479.1
481.053	3559.55
481.424	3574.24
481.795	3610.63
482.166	3645.65
482.537	3714.58
482.908	3743.5
483.279	3772.66
483.65	3798.87
484.021	3892.88
484.391	3932.42
484.762	3941.69
485.133	3942.37
485.503	3976.27
485.874	4078.64
486.244	4109.82
486.615	4164.06
486.985	4227.33
487.356	4237.95
487.726	4303.94
488.097	4333.77
488.467	4384.16
488.837	4399.31
489.207	4411.06
489.578	4515.46
489.948	4505.74
490.318	4533.99
490.688	4605.4
491.058	4631.84
491.428	4710.48
491.798	4731.95
492.168	4790.71
492.538	4801.1
492.908	4854.21
493.278	4892.4
493.648	4884.49
494.017	4945.96
494.387	4966.07
494.757	5041.1
495.126	5091.04
495.496	5081.77
495.866	5138.27
496.235	5129.23
496.605	5203.8
496.974	5226.63
497.344	5227.98
497.713	5243.12
498.082	5300.07
498.452	5342.78
498.821	5342.78
499.19	5305.27
499.559	5399.05
499.928	5419.62
500.298	5428.88
500.667	5462.78
501.036	5461.42
501.405	5489.67
501.774	5526.96
502.143	5576.45
502.512	5542.1
502.88	5595.21
503.249	5555.21
503.618	5607.18
503.987	5640.63
504.356	5690.57
504.724	5644.24
505.093	5689.21
505.462	5694.19
505.83	5760.85
506.199	5811.7
506.567	5823.67
506.936	5798.59
507.304	5884.01
507.672	5864.13
508.041	5880.62
508.409	5940.51
508.777	5979.15
509.145	5975.31
509.514	5959.04
509.882	5965.14
510.25	6030.9
510.618	6037
510.986	6089.88
511.354	6110.67
511.722	6088.98
512.09	6147.51
512.458	6133.5
512.826	6192.03
513.193	6208.52
513.561	6201.07
513.929	6243.1
514.297	6237.22
514.664	6269.99
515.032	6271.35
515.4	6353.83
515.767	6339.14
516.135	6308.86
516.502	6292.36
516.869	6445.81
517.237	6358.12
517.604	6430.66
517.972	6420.72
518.339	6448.74
518.706	6439.93
519.073	6496.2
519.44	6471.57
519.808	6559.93
520.175	6475.18
520.542	6587.72
520.909	6616.42
521.276	6619.13
521.643	6655.07
522.009	6713.59
522.376	6702.97
522.743	6693.93
523.11	6766.25
523.477	6781.39
523.843	6902.52
524.21	6916.08
524.577	6882.63
524.943	6892.57
525.31	6921.05
525.676	6945
526.043	6975.51
526.409	6990.88
526.776	7083.98
527.142	7047.15
527.508	7104.32
527.874	7180.7
528.241	7179.8
528.607	7197.65
528.973	7208.95
529.339	7234.03
529.705	7231.55
530.071	7306.57
530.437	7327.14
530.803	7369.85
531.169	7328.95
531.535	7403.97
531.901	7384.09
532.267	7428.38
532.632	7448.94
532.998	7504.53
533.364	7504.53
533.73	7503.18
534.095	7569.84
534.461	7593.8
534.826	7549.05
535.192	7601.48
535.557	7751.31
535.923	7610.29
536.288	7657.07
536.653	7723.06
537.019	7679.67
537.384	7714.25
537.749	7718.31
538.114	7691.65
538.479	7747.69
538.845	7734.58
539.21	7766
539.575	7760.8
539.94	7797.18
540.305	7839.89
540.67	7844.19
541.034	7841.93
541.399	7935.48
541.764	7916.73
542.129	7921.02
542.494	7947.69
542.858	8001.02
543.223	7945.65
543.587	7977.52
543.952	8034.92
544.316	8016.16
544.681	8011.87
545.045	8057.06
545.41	8028.14
545.774	8091.86
546.138	8114.01
546.503	8104.29
546.867	8112.43
547.231	8180.45
547.595	8128.25
547.959	8208.92
548.324	8137.51
548.688	8154.69
549.052	8155.36
549.416	8215.7
549.779	8255.02
550.143	8196.04
550.507	8303.61
550.871	8299.32
551.235	8315.13
551.599	8346.09
551.962	8368.69
552.326	8379.09
552.689	8382.7
553.053	8337.51
553.417	8344.96
553.78	8422.93
554.143	8446.88
554.507	8449.37
554.87	8449.82
555.234	8572.53
555.597	8497.95
555.96	8500.44
556.323	8502.47
556.686	8525.3
557.05	8610.72
557.413	8586.09
557.776	8643.94
558.139	8647.1
558.502	8643.71
558.865	8689.59
559.228	8736.37
559.59	8728
559.953	8751.73
560.316	8821.34
560.679	8850.94
561.041	8823.82
561.404	8911.28
561.767	8992.4
562.129	8948.56
562.492	8959.86
562.854	8965.96
563.217	8994.21
563.579	8988.11
563.941	9046.19
564.304	9103.14
564.666	9111.95
565.028	9185.39
565.39	9173.19
565.753	9200.53
566.115	9190.14
566.477	9271.49
566.839	9272.62
567.201	9365.95
567.563	9361.43
567.925	9430.59
568.287	9402.34
568.648	9451.6
569.01	9466.29
569.372	9573.18
569.734	9589.9
570.095	9557.81
570.457	9600.98
570.819	9666.06
571.18	9640.07
571.542	9686.85
571.903	9655.21
572.265	9811.82
572.626	9798.26
572.987	9801.42
573.349	9828.99
573.71	9916.67
574.071	9888.43
574.432	9941.76
574.794	10101.75
575.155	10051.81
575.516	10021.08
575.877	10125.26
576.238	10156.44
576.599	10177.23
576.96	10233.95
577.32	10216.78
577.681	10318.47
578.042	10362.99
578.403	10330
578.763	10340.84
579.124	10390.79
579.485	10457.68
579.845	10577.9
580.206	10567.5
580.566	10638.24
580.927	10695.64
581.287	10787.16
581.648	10731.57
582.008	10824.45
582.368	10776.09
582.728	10907.16
583.089	10930.21
583.449	11026.93
583.809	10972.92
584.169	11083.88
584.529	11148.05
584.889	11217.66
585.249	11208.62
585.609	11251.1
585.969	11379.46
586.329	11392.12
586.688	11469.85
587.048	11590.53
587.408	11633.01
587.768	11613.58
588.127	11767.02
588.487	11848.15
588.846	11922.27
589.206	11889.5
589.565	11986.45
589.925	12080.23
590.284	12090.85
590.643	12240.45
591.003	12221.7
591.362	12379.89
591.721	12378.76
592.08	12475.7
592.44	12528.13
592.799	12589.82
593.158	12678.18
593.517	12723.38
593.876	12768.58
594.235	12818.74
594.593	12933.09
594.952	12977.38
595.311	12951.17
595.67	13068.68
596.029	13248.34
596.387	13242.24
596.746	13355.68
597.104	13416.7
597.463	13379.18
597.822	13519.07
598.18	13525.39
598.538	13510.25
598.897	13683.35
599.255	13573.3
599.613	13835.67
599.972	13817.59
600.33	13857.36
600.688	13830.7
601.046	14037.7
601.404	14111.82
601.762	14096.68
602.12	14194.98
602.478	14170.12
602.836	14218.03
603.194	14165.6
603.552	14302.55
603.91	14252.15
604.268	14401.08
604.625	14320.17
604.983	14462.32
605.341	14439.49
605.698	14489.89
606.056	14571.69
606.413	14589.55
606.771	14598.81
607.128	14581.41
607.485	14592.71
607.843	14659.15
608.2	14743.89
608.557	14801.97
608.914	14855.3
609.272	14930.33
609.629	14933.72
609.986	14994.05
610.343	14989.08
610.7	15105.01
611.057	15093.04
611.414	15066.37
611.771	15088.74
612.127	15196.99
612.484	15191.11
612.841	15281.5
613.198	15154.5
613.554	15347.72
613.911	15396.3
614.267	15356.08
614.624	15357.89
614.98	15429.52
615.337	15530.54
615.693	15500.48
616.05	15447.15
616.406	15600.59
616.762	15568.96
617.118	15648.73
617.475	15554.27
617.831	15611.89
618.187	15705.45
618.543	15793.58
618.899	15863.64
619.255	15732.57
619.611	15672
619.967	15709.97
620.323	15881.26
620.678	15768.05
621.034	15850.98
621.39	15786.58
621.746	15741.61
622.101	15959.91
622.457	15872
622.812	15950.19
623.168	15951.32
623.523	15895.95
623.879	16019.56
624.234	15833.35
624.589	16023.41
624.945	15991.99
625.3	16025.67
625.655	15987.93
626.01	15911.77
626.365	15919.91
626.72	16011.88
627.075	15985.22
627.43	15994.25
627.785	16001.94
628.14	16006.91
628.495	16076.29
628.85	16042.61
629.205	15893.24
629.559	16065.89
629.914	15888.95
630.269	15955.39
630.623	15899.12
630.978	15842.39
631.332	15933.69
631.687	15926.69
632.041	15918.32
632.396	15944.54
632.75	15849.63
633.104	15846.24
633.459	15830.87
633.813	15815.05
634.167	15773.7
634.521	15829.29
634.875	15762.62
635.229	15840.81
635.583	15683.3
635.937	15782.73
636.291	15734.6
636.645	15747.03
636.999	15641.04
637.352	15681.04
637.706	15635.39
638.06	15665.9
638.413	15559.92
638.767	15682.85
639.121	15697.77
639.474	15530.99
639.828	15531.44
640.181	15599.24
640.534	15582.29
640.888	15576.86
641.241	15494.61
641.594	15496.87
641.947	15512.23
642.301	15473.36
642.654	15452.8
643.007	15437.21
643.36	15451.9
643.713	15434.5
644.066	15532.35
644.419	15385.91
644.771	15297.1
645.124	15118.12
645.477	15129.64
645.83	15049.19
646.182	15016.65
646.535	14893.27
646.888	15039.48
647.24	14869.76
647.593	14985.02
647.945	14945.24
648.298	14899.37
648.65	14903.44
649.002	14822.08
649.355	15056.88
649.707	14971.46
650.059	15092.13
650.411	15205.35
650.763	15260.71
651.115	15357.66
651.467	15330.54
651.819	15310.66
652.171	15283.31
652.523	15271.11
652.875	15275.4
653.227	15223.2
653.578	15321.5
653.93	15340.94
654.282	15250.32
654.633	15292.13
654.985	15255.29
655.337	15293.26
655.688	15296.65
656.039	15348.17
656.391	15283.09
656.742	15297.1
657.094	15290.32
657.445	15353.14
657.796	15266.36
658.147	15302.52
658.498	15198.34
658.849	15264.56
659.2	15243.09
659.551	15268.17
659.902	15421.39
660.253	15304.78
660.604	15325.35
660.955	15206.48
661.306	15348.17
661.656	15274.27
662.007	15308.62
662.358	15351.56
662.708	15318.34
663.059	15345.68
663.409	15292.35
663.76	15423.65
664.11	15385.23
664.461	15462.74
664.811	15418.9
665.161	15338.9
665.511	15354.27
665.862	15316.31
666.212	15319.7
666.562	15389.98
666.912	15409.19
667.262	15330.54
667.612	15379.13
667.962	15444.89
668.312	15307.49
668.662	15493.25
669.011	15342.97
669.361	15341.16
669.711	15356.98
670.06	15378.45
670.41	15296.19
670.76	15299.58
671.109	15389.98
671.459	15271.56
671.808	15302.52
672.157	15282.41
672.507	15114.5
672.856	15246.48
673.205	15284.22
673.554	15318.11
673.904	15147.05
674.253	15309.07
674.602	15197.67
674.951	15110.21
675.3	14968.29
675.649	15188.4
675.998	15106.14
676.346	15224.33
676.695	15186.82
677.044	15014.62
677.393	15158.8
677.741	15078.35
678.09	15029.08
678.438	15035.18
678.787	15019.59
679.135	15121.28
679.484	14869.54
679.832	15047.39
680.181	14974.85
680.529	15044.68
680.877	14860.27
681.225	14934.62
681.573	14990.89
681.922	14887.84
682.27	14818.92
682.618	14866.37
682.966	14834.06
683.314	14859.6
683.661	14765.36
684.009	14672.93
684.357	14694.18
684.705	14566.27
685.053	14631.58
685.4	14597.23
685.748	14582.77
686.095	14582.09
686.443	14494.63
686.79	14500.96
687.138	14443.79
687.485	14458.25
687.832	14445.37
688.18	14464.13
688.527	14336.45
688.874	14324.69
689.221	14282.21
689.568	14203.12
689.915	14138.48
690.262	14134.19
690.609	14071.14
690.956	13993.4
691.303	14147.75
691.65	13924.93
691.997	13935.55
692.344	13854.42
692.69	13828.66
693.037	13827.76
693.383	13758.61
693.73	13732.39
694.077	13664.82
694.423	13622.79
694.769	13650.81
695.116	13627.99
695.462	13548.22
695.808	13550.03
696.155	13507.77
696.501	13292.4
696.847	13332.4
697.193	13251.28
697.539	13317.71
697.885	13099.19
698.231	13115.23
698.577	13108.45
698.923	13069.59
699.269	13063.94
699.614	12903.26
699.96	12818.29
700.306	12844.51
700.651	12833.89
700.997	12720.22
701.342	12711.18
701.688	12735.36
702.033	12578.07
702.379	12585.3
702.724	12593.89
703.069	12532.65
703.415	12377.63
703.76	12414.24
704.105	12438.19
704.45	12371.07
704.795	12256.73
705.14	12231.19
705.485	12260.12
705.83	12152.1
706.175	12164.3
706.52	12135.6
706.865	12052.89
707.209	12093.34
707.554	12024.64
707.899	12031.65
708.243	11922.72
708.588	11924.31
708.932	11734.48
709.277	11832.1
709.621	11855.38
709.966	11798.43
710.31	11736.74
710.654	11689.51
710.998	11632.11
711.342	11665.1
711.687	11623.3
712.031	11539.91
712.375	11537.2
712.719	11583.07
713.063	11524.99
713.407	11593.24
713.75	11574.03
714.094	11474.37
714.438	11482.06
714.782	11428.05
715.125	11368.16
715.469	11399.57
715.812	11307.6
716.156	11274.83
716.499	11350.53
716.843	11341.5
717.186	11294.49
717.53	11275.51
717.873	11281.61
718.216	11212.46
718.559	11215.62
718.902	11156.19
719.246	11148.96
719.589	11125.68
719.932	11091.78
720.275	11066.47
720.617	11056.53
720.96	11064.67
721.303	11005.01
721.646	11044.33
721.989	10943.54
722.331	11035.74
722.674	10959.81
723.016	10919.36
723.359	10913.03
723.701	10935.18
724.044	10906.25
724.386	10859.02
724.729	10879.59
725.071	10840.49
725.413	10844.79
725.755	10910.77
726.097	10794.62
726.439	10768.4
726.782	10795.97
727.124	10915.97
727.465	10806.37
727.807	10776.54
728.149	10818.35
728.491	10791.23
728.833	10779.48
729.175	10699.48
729.516	10733.83
729.858	10734.28
730.199	10744.68
730.541	10788.74
730.882	10739.03
731.224	10857.89
731.565	10686.82
731.906	10726.37
732.248	10733.83
732.589	10693.83
732.93	10668.07
733.271	10704.9
733.612	10717.78
733.953	10724.79
734.294	10707.16
734.635	10623.77
734.976	10732.02
735.317	10685.02
735.658	10734.28
735.999	10729.99
736.339	10732.7
736.68	10721.17
737.021	10729.76
737.361	10648.41
737.702	10773.6
738.042	10720.04
738.383	10750.78
738.723	10806.82
739.063	10650.44
739.404	10822.87
739.744	10808.18
740.084	10742.64
740.424	10756.88
740.764	10775.41
741.104	10769.53
741.444	10792.36
741.784	10784
742.124	10827.84
742.464	10822.41
742.804	10845.92
743.143	10899.93
743.483	10908.96
743.823	10903.99
744.162	10930.43
744.502	10983.99
744.841	10941.96
745.181	11009.98
745.52	11085.23
745.86	11119.58
746.199	11153.93
746.538	11188.51
746.877	11306.24
747.216	11370.65
747.556	11328.16
747.895	11381.95
748.234	11424.66
748.573	11513.69
748.911	11502.4
749.25	11589.4
749.589	11617.42
749.928	11706.23
750.267	11821.26
750.605	11838.66
750.944	12034.36
751.283	11997.3
751.621	12128.82
751.96	12162.49
752.298	12227.12
752.636	12389.38
752.975	12448.13
753.313	12573.78
753.651	12685.19
753.989	12665.75
754.327	12782.59
754.666	12886.77
755.004	13115.23
755.342	13273.65
755.679	13322.91
756.017	13481.55
756.355	13620.76
756.693	13706.63
757.031	13880.19
757.368	13978.94
757.706	14088.77
758.044	14166.73
758.381	14406.5
758.719	14424.35
759.056	14659.6
