Data from hue_20_FLMS001491_6.txt Node
Date: Mon Feb 06 15:33:33 GMT 2017
User: dcchb
Spectrometer: FLMS00149
Trigger mode: 0
Integration Time (sec): 2.000000E-2
Scans to average: 10
Electric dark correction enabled: true
Nonlinearity correction enabled: false
Boxcar width: 0
XAxis mode: Wavelengths
Number of Pixels in Spectrum: 2048
>>>>>Begin Spectral Data<<<<<
341.393	-16.51
341.776	-16.51
342.16	-16.51
342.543	-47.7
342.927	-54.93
343.31	-59.22
343.693	-65.78
344.077	-44.76
344.46	-59.45
344.843	-49.5
345.226	-31.88
345.61	-22.61
345.993	-15.15
346.376	-17.19
346.759	-4.99
347.142	6.99
347.525	41.34
347.908	61.45
348.291	63.26
348.674	93.09
349.057	104.39
349.44	113.43
349.823	151.17
350.206	173.31
350.588	195.46
350.971	198.17
351.354	226.19
351.737	212.64
352.119	262.35
352.502	249.92
352.884	273.43
353.267	279.07
353.65	301.45
354.032	300.54
354.414	290.83
354.797	310.03
355.179	331.95
355.562	327.89
355.944	311.39
356.326	344.16
356.709	330.82
357.091	348.45
357.473	352.29
357.855	329.24
358.238	354.78
358.62	324.95
359.002	363.37
359.384	340.99
359.766	340.09
360.148	337.83
360.53	329.24
360.912	338.06
361.294	342.58
361.676	346.87
362.057	352.74
362.439	330.15
362.821	343.71
363.203	323.82
363.584	330.37
363.966	311.62
364.348	327.43
364.729	316.14
365.111	313.2
365.493	294.89
365.874	328.79
366.256	303.25
366.637	314.33
367.019	311.39
367.4	311.84
367.781	304.16
368.163	327.21
368.544	298.28
368.925	315.23
369.306	314.1
369.688	312.75
370.069	306.64
370.45	328.56
370.831	308.68
371.212	326.53
371.593	320.66
371.974	333.08
372.355	317.94
372.736	303.03
373.117	310.03
373.498	304.16
373.879	317.49
374.26	308.9
374.641	306.19
375.021	312.07
375.402	328.56
375.783	321.11
376.163	317.72
376.544	335.12
376.925	322.01
377.305	329.02
377.686	326.98
378.066	301.67
378.447	307.55
378.827	323.37
379.208	326.53
379.588	337.38
379.968	316.81
380.349	318.85
380.729	337.83
381.109	326.08
381.489	344.16
381.87	323.14
382.25	343.25
382.63	334.89
383.01	320.88
383.39	344.61
383.77	337.6
384.15	348.23
384.53	342.58
384.91	330.37
385.29	323.82
385.67	343.25
386.049	343.71
386.429	366.76
386.809	354.33
387.189	350.94
387.568	329.24
387.948	366.76
388.328	354.78
388.707	355.46
389.087	343.25
389.466	351.16
389.846	333.76
390.225	372.86
390.605	349.13
390.984	371.5
391.363	351.84
391.743	340.99
392.122	349.13
392.501	350.26
392.881	348.45
393.26	345.06
393.639	375.34
394.018	377.83
394.397	376.02
394.776	371.28
395.155	381.44
395.534	371.28
395.913	367.66
396.292	378.73
396.671	372.41
397.05	377.6
397.429	375.34
397.808	372.18
398.186	381.67
398.565	366.98
398.944	376.93
399.323	393.65
399.701	390.48
400.08	374.44
400.458	362.91
400.837	383.7
401.215	403.59
401.594	386.19
401.972	385.06
402.351	384.83
402.729	413.08
403.107	378.51
403.486	397.94
403.864	409.92
404.242	382.57
404.62	416.47
404.999	419.41
405.377	419.18
405.755	397.26
406.133	408.11
406.511	419.18
406.889	405.4
407.267	418.05
407.645	420.31
408.023	425.06
408.401	416.25
408.779	435.45
409.156	420.54
409.534	415.34
409.912	432.52
410.29	417.38
410.667	427.09
411.045	418.05
411.422	431.61
411.8	438.17
412.178	453.08
412.555	449.47
412.933	430.03
413.31	452.18
413.687	442.23
414.065	452.4
414.442	434.55
414.819	458.96
415.197	454.44
415.574	460.76
415.951	460.99
416.328	457.83
416.705	448.56
417.082	479.07
417.46	454.89
417.837	487.88
418.214	475.91
418.591	484.72
418.967	475.68
419.344	487.88
419.721	506.19
420.098	501.22
420.475	497.6
420.852	481.33
421.228	494.66
421.605	491.95
421.982	519.07
422.358	486.3
422.735	502.35
423.111	501.89
423.488	527.43
423.864	505.96
424.241	515.68
424.617	544.15
424.994	502.35
425.37	513.64
425.746	542.34
426.123	535.79
426.499	524.04
426.875	544.38
427.251	541.67
427.627	535.57
428.003	527.88
428.379	575.79
428.756	560.42
429.132	557.49
429.507	560.42
429.883	558.62
430.259	585.73
430.635	569.46
431.011	559.75
431.387	576.47
431.763	599.07
432.138	596.81
432.514	603.81
432.89	618.5
433.265	590.03
433.641	606.52
434.016	598.61
434.392	622.12
434.767	613.08
435.143	609.69
435.518	629.8
435.894	659.86
436.269	634.55
436.644	650.82
437.02	646.52
437.395	640.42
437.77	657.82
438.145	649.23
438.52	643.58
438.895	667.76
439.271	671.15
439.646	678.84
440.021	658.5
440.395	668.67
440.77	672.96
441.145	693.98
441.52	676.8
441.895	711.61
442.27	685.84
442.645	696.69
443.019	714.09
443.394	688.33
443.769	707.99
444.143	708.67
444.518	735.56
444.892	735.33
445.267	723.13
445.641	742.34
446.016	751.15
446.39	725.62
446.764	753.19
447.139	728.78
447.513	754.77
447.887	742.79
448.262	754.77
448.636	736.24
449.01	776.24
449.384	760.64
449.758	772.62
450.132	765.62
450.506	791.6
450.88	771.72
451.254	766.97
451.628	801.77
452.002	784.37
452.376	815.56
452.75	796.35
453.123	827.99
453.497	839.06
453.871	828.21
454.244	820.98
454.618	829.79
454.992	845.39
455.365	868.66
455.739	860.98
456.112	846.29
456.486	856.46
456.859	868.44
457.232	900.98
457.606	877.02
457.979	902.56
458.352	911.6
458.725	937.81
459.099	920.87
459.472	941.66
459.845	921.54
460.218	941.2
460.591	953.63
460.964	989.11
461.337	984.37
461.71	998.15
462.083	992.95
462.456	996.57
462.829	975.33
463.201	1027.53
463.574	1035.89
463.947	1062.78
464.32	1065.95
464.692	1076.34
465.065	1091.93
465.438	1060.52
465.81	1080.64
466.183	1116.79
466.555	1106.4
466.928	1136.23
467.3	1143.91
467.672	1138.94
468.045	1173.06
468.417	1173.97
468.789	1186.85
469.161	1206.73
469.534	1223.46
469.906	1237.92
470.278	1226.62
470.65	1251.25
471.022	1287.64
471.394	1292.61
471.766	1335.77
472.138	1324.7
472.51	1347.97
472.882	1377.58
473.253	1420.51
473.625	1418.03
473.997	1452.15
474.369	1426.62
474.74	1444.92
475.112	1497.57
475.484	1498.93
475.855	1546.84
476.227	1566.5
476.598	1596.78
476.97	1634.52
477.341	1657.34
477.713	1685.37
478.084	1691.01
478.455	1713.61
478.827	1721.97
479.198	1766.04
479.569	1790
479.94	1831.12
480.311	1870.9
480.682	1908.18
481.053	1971.46
481.424	1987.5
481.795	2013.72
482.166	2030.44
482.537	2060.04
482.908	2136.88
483.279	2150.89
483.65	2162.87
484.021	2215.52
484.391	2258.46
484.762	2299.13
485.133	2298
485.503	2334.61
485.874	2382.97
486.244	2421.84
486.615	2487.6
486.985	2476.08
487.356	2539.35
487.726	2597.66
488.097	2636.3
488.467	2658.22
488.837	2725.79
489.207	2763.76
489.578	2787.03
489.948	2814.38
490.318	2861.38
490.688	2926.46
491.058	2949.51
491.428	2957.65
491.798	3012.79
492.168	3078.1
492.538	3078.55
492.908	3076.06
493.278	3149.28
493.648	3177.3
494.017	3212.56
494.387	3273.8
494.757	3334.14
495.126	3313.12
495.496	3362.38
495.866	3360.8
496.235	3380.69
496.605	3446.9
496.974	3451.19
497.344	3517.41
497.713	3534.58
498.082	3596.95
498.452	3626.78
498.821	3631.08
499.19	3625.43
499.559	3682.83
499.928	3695.48
500.298	3693.45
500.667	3775.71
501.036	3795.37
501.405	3820
501.774	3790.62
502.143	3862.71
502.512	3836.72
502.88	3877.17
503.249	3918.07
503.618	3947.68
503.987	3994.23
504.356	3998.52
504.724	3982.03
505.093	4012.76
505.462	4063.16
505.83	4101.8
506.199	4098.41
506.567	4133.44
506.936	4169.37
507.304	4167.79
507.672	4180.89
508.041	4215.02
508.409	4190.61
508.777	4300.89
509.145	4333.21
509.514	4290.27
509.882	4369.36
510.25	4308.35
510.618	4361.68
510.986	4374.11
511.354	4413.88
511.722	4450.04
512.09	4533.43
512.458	4441.68
512.826	4491.39
513.193	4485.07
513.561	4538.4
513.929	4559.19
514.297	4548.11
514.664	4629.92
515.032	4632.63
515.4	4652.97
515.767	4687.09
516.135	4682.57
516.502	4637.15
516.869	4723.03
517.237	4779.52
517.604	4767.32
517.972	4761.44
518.339	4783.36
518.706	4815
519.073	4800.31
519.44	4805.74
519.808	4886.19
520.175	4883.93
520.542	4926.41
520.909	4930.48
521.276	4946.97
521.643	5043.24
522.009	5053.19
522.376	5020.42
522.743	5092.28
523.11	5110.36
523.477	5170.7
523.843	5157.36
524.21	5147.42
524.577	5170.7
524.943	5222.9
525.31	5224.71
525.676	5311.71
526.043	5319.39
526.409	5343.57
526.776	5414.08
527.142	5402.1
527.508	5424.02
527.874	5435.32
528.241	5478.49
528.607	5547.64
528.973	5554.87
529.339	5548.77
529.705	5600.29
530.071	5602.1
530.437	5650.91
530.803	5699.72
531.169	5695.66
531.535	5609.33
531.901	5705.37
532.267	5752.38
532.632	5767.74
532.998	5821.98
533.364	5861.75
533.73	5858.59
534.095	5971.35
534.461	5868.53
534.826	5984.46
535.192	5985.59
535.557	6004.57
535.923	6006.83
536.288	6061.97
536.653	6115.53
537.019	6086.61
537.384	6134.97
537.749	6139.49
538.114	6155.3
538.479	6181.74
538.845	6158.24
539.21	6169.99
539.575	6235.53
539.94	6231.69
540.305	6324.34
540.67	6299.03
541.034	6338.12
541.399	6351.23
541.764	6400.95
542.129	6403.43
542.494	6395.98
542.858	6461.74
543.223	6433.26
543.587	6516.2
543.952	6464.9
544.316	6555.97
544.681	6571.56
545.045	6581.96
545.41	6605.91
545.774	6657.21
546.138	6681.62
546.503	6688.17
546.867	6665.12
547.231	6783.54
547.595	6816.76
547.959	6800.26
548.324	6797.1
548.688	6822.41
549.052	6842.74
549.416	6887.94
549.779	6822.86
550.143	6920.03
550.507	6932.46
550.871	6992.34
551.235	6985.34
551.599	7040.03
551.962	7030.54
552.326	7049.74
552.689	7119.8
553.053	7113.7
553.417	7156.41
553.78	7210.64
554.143	7105.34
554.507	7212.68
554.87	7230.08
555.234	7274.82
555.597	7230.98
555.96	7313.47
556.323	7306.69
556.686	7329.96
557.05	7396.63
557.413	7428.72
557.776	7439.11
558.139	7428.27
558.502	7477.76
558.865	7452.22
559.228	7535.15
559.59	7546.68
559.953	7576.28
560.316	7653.57
560.679	7609.73
561.041	7678.65
561.404	7641.59
561.767	7737.86
562.129	7720.91
562.492	7797.75
562.854	7760.46
563.217	7800.23
563.579	7765.21
563.941	7903.51
564.304	7905.77
564.666	7963.84
565.028	7951.64
565.39	7968.82
565.753	8001.58
566.115	8103.5
566.477	8085.65
566.839	8098.98
567.201	8208.58
567.563	8148.47
567.925	8263.72
568.287	8272.54
568.648	8279.09
569.01	8337.39
569.372	8337.85
569.734	8387.11
570.095	8383.49
570.457	8464.4
570.819	8424.4
571.18	8480.21
571.542	8555.92
571.903	8544.85
572.265	8646.09
572.626	8683.15
572.987	8670.49
573.349	8722.02
573.71	8766.31
574.071	8842.47
574.432	8821
574.794	8987.32
575.155	8980.54
575.516	8936.93
575.877	9083.59
576.238	9060.09
576.599	9227.54
576.96	9275.45
577.32	9244.04
577.681	9437.25
578.042	9455.78
578.403	9542.56
578.763	9575.78
579.124	9616.23
579.485	9832.95
579.845	9819.84
580.206	9867.97
580.566	9976.67
580.927	10074.52
581.287	10214.18
581.648	10341.63
582.008	10425.02
582.368	10572.14
582.728	10745.24
583.089	10798.8
583.449	11010.32
583.809	11105
584.169	11200.37
584.529	11352.68
584.889	11657.08
585.249	11732.33
585.609	11873.8
585.969	12110.63
586.329	12301.58
586.688	12533.89
587.048	12676.49
587.408	12833.55
587.768	13031.28
588.127	13266.3
588.487	13457.94
588.846	13755.56
589.206	13877.81
589.565	14107.64
589.925	14398.25
590.284	14601.41
590.643	14817.9
591.003	15070.55
591.362	15420.6
591.721	15647.26
592.08	15902.84
592.44	16111.2
592.799	16470.51
593.158	16719.77
593.517	17034.34
593.876	17218.06
594.235	17500.09
594.593	17778.95
594.952	18098.72
595.311	18270.47
595.67	18650.79
596.029	18995.87
596.387	19365.8
596.746	19644.22
597.104	19765.12
597.463	20063.64
597.822	20414.59
598.18	20597.64
598.538	20956.27
598.897	21272.19
599.255	21391.51
599.613	21982.91
599.972	22259.74
600.33	22462.9
600.688	22727.07
601.046	23085.93
601.404	23362.54
601.762	23685.01
602.12	24008.85
602.478	24229.41
602.836	24579.68
603.194	24710.75
603.552	25071.19
603.91	25190.96
604.268	25585.75
604.625	25711.63
604.983	26061
605.341	26165.4
605.698	26672.73
606.056	26897.13
606.413	27036.79
606.771	27359.72
607.128	27620.95
607.485	27797.67
607.843	28015.75
608.2	28437.2
608.557	28631.55
608.914	28773.24
609.272	29037.41
609.629	29347.46
609.986	29574.12
610.343	29664.06
610.7	30124.39
611.057	30202.81
611.414	30426.76
611.771	30563.25
612.127	31081.43
612.484	31071.49
612.841	31580.85
613.198	31478.03
613.554	31697.68
613.911	31988.52
614.267	32072.59
614.624	32336.99
614.98	32470.09
615.337	32740.82
615.693	32755.28
616.05	32894.26
616.406	33351.65
616.762	33267.59
617.118	33409.5
617.475	33589.39
617.831	33794.13
618.187	33873.9
618.543	34085.64
618.899	34354.11
619.255	34493.99
619.611	34445.41
619.967	34787.09
620.323	34840.65
620.678	34959.97
621.034	34876.36
621.39	35091.94
621.746	35209.23
622.101	35633.85
622.457	35391.6
622.812	35473.86
623.168	35626.17
623.523	35801.98
623.879	36041.07
624.234	35910.91
624.589	36171.24
624.945	36075.65
625.3	36279.03
625.655	36290.78
626.01	36391.35
626.365	36556.09
626.72	36483.32
627.075	36580.04
627.43	36635.18
627.785	36679.93
628.14	36923.99
628.495	36934.16
628.85	36946.36
629.205	36912.69
629.559	37175.51
629.914	36994.95
630.269	37162.17
630.623	37014.15
630.978	37088.95
631.332	37250.31
631.687	37314.03
632.041	37166.24
632.396	37256.63
632.75	37170.99
633.104	37382.51
633.459	37198.56
633.813	37244.66
634.167	37190.65
634.521	37344.77
634.875	37444.43
635.229	37308.61
635.583	37293.69
635.937	37323.52
636.291	37260.48
636.645	37321.04
636.999	37441.04
637.352	37468.15
637.706	37222.06
638.06	37299.57
638.413	37267.03
638.767	37282.4
639.121	37290.98
639.474	37215.73
639.828	37159.46
640.181	37312.23
640.534	37236.52
640.888	37213.02
641.241	37114.04
641.594	37211.44
641.947	37377.08
642.301	37128.95
642.654	37307.71
643.007	37307.71
643.36	37194.71
643.713	37200.36
644.066	37242.4
644.419	37102.29
644.771	36892.8
645.124	36587.5
645.477	36439.93
645.83	36370.78
646.182	36260.05
646.535	36260.28
646.888	36289.43
647.24	36003.56
647.593	36260.05
647.945	36187.28
648.298	36074.29
648.65	35868.87
649.002	35997.23
649.355	36084.01
649.707	35971.24
650.059	36142.99
650.411	36613.94
650.763	36634.95
651.115	36963.99
651.467	36875.4
651.819	36842.41
652.171	36745.23
652.523	36707.72
652.875	36781.17
653.227	36529.19
653.578	36894.61
653.93	36912.01
654.282	36573.49
654.633	36606.71
654.985	36702.75
655.337	36705.01
655.688	36672.24
656.039	36753.82
656.391	36427.5
656.742	36528.74
657.094	36558.12
657.445	36784.1
657.796	36592.02
658.147	36526.94
658.498	36568.06
658.849	36613.26
659.2	36560.83
659.551	36382.53
659.902	36525.35
660.253	36371.68
660.604	36501.17
660.955	36317.45
661.306	36611.9
661.656	36478.57
662.007	36414.17
662.358	36458.01
662.708	36453.94
663.059	36427.73
663.409	36180.05
663.76	36500.95
664.11	36462.53
664.461	36427.95
664.811	36369.43
665.161	36390.22
665.511	36435.86
665.862	36397.9
666.212	36466.15
666.562	36404.23
666.912	36308.86
667.262	36316.77
667.612	36309.54
667.962	36445.58
668.312	36265.7
668.662	36456.2
669.011	36448.29
669.361	36391.12
669.711	36309.31
670.06	36303.21
670.41	36156.32
670.76	36251.46
671.109	36216.21
671.459	36250.56
671.808	36311.57
672.157	36234.06
672.507	36130.34
672.856	36042.65
673.205	36093.05
673.554	36204.91
673.904	36076.55
674.253	36243.33
674.602	36099.15
674.951	35676.79
675.3	35544.36
675.649	36092.6
675.998	36077
676.346	35974.63
676.695	36119.94
677.044	35835.43
677.393	35969.89
677.741	35990.68
678.09	35932.6
678.438	35748.42
678.787	35900.51
679.135	35889.66
679.484	35636.34
679.832	35811.02
680.181	35525.15
680.529	35812.6
680.877	35636.34
681.225	35607.41
681.573	35858.25
681.922	35492.39
682.27	35336.23
682.618	35356.8
682.966	35313.41
683.314	35509.11
683.661	35321.99
684.009	35189.8
684.357	35051.27
684.705	34972.63
685.053	35052.62
685.4	35019.4
685.748	34893.31
686.095	34901.89
686.443	34593.43
686.79	34649.7
687.138	34806.98
687.485	34750.94
687.832	34536.93
688.18	34595.46
688.527	34458.29
688.874	34482.47
689.221	34364.96
689.568	34217.84
689.915	34111.41
690.262	34178.07
690.609	34113.21
690.956	33899.21
691.303	33992.09
691.65	33775.82
691.997	33822.15
692.344	33544.19
692.69	33591.42
693.037	33596.84
693.383	33332.44
693.73	33529.5
694.077	33317.08
694.423	33207.02
694.769	33226.46
695.116	33120.47
695.462	32965.9
695.808	32943.98
696.155	33009.74
696.501	32690.2
696.847	32764.1
697.193	32523.65
697.539	32576.98
697.885	32372.92
698.231	32359.81
698.577	32381.51
698.923	32192.59
699.269	32236.43
699.614	31936.32
699.96	31967.73
700.306	31882.31
700.651	31818.36
700.997	31693.62
701.342	31623.34
701.688	31642.32
702.033	31545.82
702.379	31468.99
702.724	31399.61
703.069	31470.34
703.415	31000.53
703.76	31152.84
704.105	31132.95
704.45	31084.59
704.795	30918.95
705.14	30861.55
705.485	30668.56
705.83	30528.9
706.175	30647.32
706.52	30574.32
706.865	30466.76
707.209	30411.16
707.554	30277.61
707.899	30409.13
708.243	30254.78
708.588	30181.34
708.932	29921.68
709.277	29977.95
709.621	30007.56
709.966	29802.59
710.31	29866.55
710.654	29559.66
710.998	29714.01
711.342	29642.82
711.687	29616.38
712.031	29536.16
712.375	29445.09
712.719	29512.43
713.063	29344.3
713.407	29453.45
713.75	29296.16
714.094	29231.76
714.438	28994.48
714.782	29120.12
715.125	28874.71
715.469	29095.72
715.812	28922.84
716.156	28593.36
716.499	28790.19
716.843	28759.91
717.186	28550.65
717.53	28738.21
717.873	28702.51
718.216	28557.65
718.559	28489.86
718.902	28295.51
719.246	28274.04
719.589	28265.46
719.932	28191.79
720.275	28163.09
720.617	28201.28
720.96	28109.08
721.303	27951.79
721.646	27964.22
721.989	27896.65
722.331	27978.91
722.674	27840.38
723.016	27897.33
723.359	27806.26
723.701	27813.94
724.044	27614.85
724.386	27379.15
724.729	27711.35
725.071	27560.17
725.413	27490.11
725.755	27573.5
726.097	27439.72
726.439	27239.95
726.782	27330.34
727.124	27346.61
727.465	27252.6
727.807	27205.6
728.149	27048.09
728.491	27014.19
728.833	27101.19
729.175	27019.84
729.516	26901.65
729.858	26911.14
730.199	26845.16
730.541	26817.81
730.882	26881.76
731.224	26906.85
731.565	26781.88
731.906	26748.44
732.248	26646.29
732.589	26643.13
732.93	26574.2
733.271	26478.61
733.612	26553.41
733.953	26549.34
734.294	26502.57
734.635	26449.23
734.976	26490.81
735.317	26364.26
735.658	26261.89
735.999	26348.67
736.339	26338.05
736.68	26297.6
737.021	26206.53
737.361	25950.04
737.702	26233.42
738.042	26037.72
738.383	26046.53
738.723	26068.9
739.063	25934.67
739.404	25983.71
739.744	25952.75
740.084	25873.88
740.424	25926.54
740.764	25724.73
741.104	25875.46
741.444	25652.87
741.784	25625.3
742.124	25737.16
742.464	25645.87
742.804	25585.08
743.143	25529.71
743.483	25595.7
743.823	25404.29
744.162	25400.22
744.502	25475.93
744.841	25388.7
745.181	25403.84
745.52	25153.67
745.86	25358.42
746.199	25203.16
746.538	25256.5
746.877	25208.59
747.216	25216.72
747.556	25061.93
747.895	25129.72
748.234	25015.83
748.573	24957.07
748.911	24913.23
749.25	24903.96
749.589	24786.45
749.928	24800.24
750.267	24963.62
750.605	24833.01
750.944	24734.02
751.283	24618.32
751.621	24715.72
751.96	24557.76
752.298	24513.24
752.636	24630.52
752.975	24389.18
753.313	24400.93
753.651	24449.74
753.989	24357.31
754.327	24400.25
754.666	24107.15
755.004	24245.68
755.342	24216.3
755.679	24142.18
756.017	24014.5
756.355	24143.76
756.693	23920.71
757.031	24011.11
757.368	23890.21
757.706	23948.96
758.044	23724.33
758.381	23806.37
758.719	23653.38
759.056	23769.3
759.394	23634.39
759.731	23415.87
760.068	23486.37
760.405	23302.2
760.743	23325.02
