Data from hue_320_FLMS001491_57.txt Node
Date: Mon Feb 06 15:47:24 GMT 2017
User: dcchb
Spectrometer: FLMS00149
Trigger mode: 0
Integration Time (sec): 2.000000E-2
Scans to average: 10
Electric dark correction enabled: true
Nonlinearity correction enabled: false
Boxcar width: 0
XAxis mode: Wavelengths
Number of Pixels in Spectrum: 2048
>>>>>Begin Spectral Data<<<<<
341.393	-12.12
341.776	-12.12
342.16	-12.12
342.543	-88.27
342.927	-86.47
343.31	-97.99
343.693	-70.2
344.077	-75.62
344.46	-61.83
344.843	-46.47
345.226	-45.79
345.61	-29.07
345.993	-3.76
346.376	4.6
346.759	7.32
347.142	27.43
347.525	37.6
347.908	60.2
348.291	76.24
348.674	101.55
349.057	115.79
349.44	125.28
349.823	128.22
350.206	170.25
350.588	202.11
350.971	216.35
351.354	202.79
351.737	241.89
352.119	240.98
352.502	252.28
352.884	270.36
353.267	270.59
353.65	291.6
354.032	292.73
354.414	313.07
354.797	312.17
355.179	334.77
355.562	322.79
355.944	324.6
356.326	328.66
356.709	355.33
357.091	335.22
357.473	356.23
357.855	332.96
358.238	339.06
358.62	347.42
359.002	346.29
359.384	340.41
359.766	331.38
360.148	340.41
360.53	343.35
360.912	349.23
361.294	344.48
361.676	330.25
362.057	344.93
362.439	342
362.821	319.17
363.203	328.44
363.584	326.4
363.966	325.27
364.348	313.97
364.729	327.53
365.111	328.66
365.493	325.73
365.874	325.05
366.256	313.97
366.637	306.29
367.019	316.23
367.4	304.48
367.781	306.07
368.163	324.37
368.544	300.64
368.925	305.39
369.306	301.77
369.688	329.12
370.069	318.27
370.45	304.94
370.831	318.49
371.212	308.1
371.593	310.36
371.974	313.52
372.355	299.51
372.736	320.53
373.117	310.81
373.498	289.57
373.879	330.92
374.26	308.55
374.641	330.7
375.021	317.82
375.402	323.01
375.783	306.07
376.163	331.6
376.544	315.56
376.925	319.85
377.305	332.96
377.686	319.17
378.066	329.57
378.447	326.63
378.827	326.4
379.208	314.43
379.588	317.59
379.968	311.04
380.349	317.36
380.729	336.8
381.109	321.66
381.489	320.98
381.87	340.41
382.25	346.29
382.63	322.79
383.01	341.32
383.39	347.65
383.77	336.8
384.15	325.73
384.53	357.36
384.91	335.22
385.29	341.09
385.67	344.48
386.049	349
386.429	347.42
386.809	341.32
387.189	354.43
387.568	346.06
387.948	358.95
388.328	351.26
388.707	377.7
389.087	344.71
389.466	342
389.846	363.01
390.225	372.96
390.605	374.54
390.984	371.6
391.363	345.39
391.743	380.19
392.122	352.17
392.501	385.39
392.881	369.11
393.26	362.79
393.639	385.16
394.018	370.02
394.397	367.76
394.776	407.31
395.155	377.48
395.534	366.18
395.913	386.52
396.292	372.96
396.671	391.03
397.05	372.96
397.429	393.97
397.808	418.38
398.186	374.09
398.565	381.32
398.944	393.75
399.323	407.31
399.701	397.81
400.08	386.29
400.458	387.87
400.837	407.53
401.215	416.57
401.594	379.51
401.972	393.97
402.351	418.6
402.729	413.63
403.107	429
403.486	411.6
403.864	433.29
404.242	422.67
404.62	433.07
404.999	436.68
405.377	430.81
405.755	443.24
406.133	425.61
406.511	435.55
406.889	433.97
407.267	437.36
407.645	436.46
408.023	437.81
408.401	464.03
408.779	453.86
409.156	458.6
409.534	440.3
409.912	456.8
410.29	480.07
410.667	503.35
411.045	505.61
411.422	469.9
411.8	505.16
412.178	489.34
412.555	527.53
412.933	511.03
413.31	527.75
413.687	533.4
414.065	543.12
414.442	535.44
414.819	526.4
415.197	534.08
415.574	562.33
415.951	572.27
416.328	571.14
416.705	598.04
417.082	567.98
417.46	596.23
417.837	596.45
418.214	582.44
418.591	606.4
418.967	614.98
419.344	613.4
419.721	627.64
420.098	632.84
420.475	634.64
420.852	634.42
421.228	648.2
421.605	646.85
421.982	654.08
422.358	652.72
422.735	658.15
423.111	680.52
423.488	679.84
423.864	699.05
424.241	696.34
424.617	702.44
424.994	700.63
425.37	718.03
425.746	709.44
426.123	729.33
426.499	732.27
426.875	756
427.251	748.09
427.627	772.27
428.003	774.3
428.379	781.76
428.756	780.63
429.132	772.49
429.507	797.35
429.883	818.14
430.259	820.63
430.635	820.85
431.011	784.7
431.387	835.54
431.763	820.85
432.138	861.31
432.514	844.81
432.89	870.12
433.265	884.81
433.641	902.66
434.016	911.93
434.392	913.28
434.767	942.21
435.143	940.62
435.518	929.55
435.894	935.43
436.269	958.03
436.644	970.68
437.02	964.81
437.395	984.47
437.77	993.73
438.145	988.99
438.52	1000.96
438.895	1016.56
439.271	1007.06
439.646	1054.97
440.021	1059.94
440.395	1043.45
440.77	1028.53
441.145	1050.45
441.52	1069.44
441.895	1071.69
442.27	1074.63
442.645	1074.41
443.019	1078.25
443.394	1091.36
443.769	1090.68
444.143	1124.57
444.518	1110.79
444.892	1094.29
445.267	1125.03
445.641	1087.74
446.016	1120.96
446.39	1118.47
446.764	1132.94
447.139	1135.65
447.513	1130
447.887	1104.46
448.262	1157.12
448.636	1130.68
449.01	1155.53
449.384	1143.11
449.758	1137
450.132	1153.73
450.506	1170
450.88	1165.25
451.254	1193.5
451.628	1207.28
452.002	1200.51
452.376	1209.32
452.75	1217.68
453.123	1238.47
453.497	1222.65
453.871	1205.48
454.244	1241.63
454.618	1276.21
454.992	1293.16
455.365	1285.25
455.739	1287.96
456.112	1311.69
456.486	1287.51
456.859	1314.17
457.232	1306.72
457.606	1337.45
457.979	1343.78
458.352	1385.81
458.725	1367.96
459.099	1343.55
459.472	1368.64
459.845	1392.82
460.218	1415.64
460.591	1407.96
460.964	1430.1
461.337	1450.44
461.71	1466.94
462.083	1465.36
462.456	1462.65
462.829	1464.23
463.201	1498.8
463.574	1491.34
463.947	1502.42
464.32	1548.97
464.692	1534.96
465.065	1556.65
465.438	1548.07
465.81	1589.42
466.183	1597.56
466.555	1629.87
466.928	1635.52
467.3	1618.35
467.672	1607.27
468.045	1698.57
468.417	1681.62
468.789	1690.44
469.161	1693.83
469.534	1736.99
469.906	1724.56
470.278	1778.57
470.65	1760.94
471.022	1812.01
471.394	1816.99
471.766	1801.85
472.138	1834.84
472.51	1847.72
472.882	1861.96
473.253	1878.45
473.625	1903.76
473.997	1931.56
474.369	1958.68
474.74	1972.91
475.112	2003.65
475.484	2010.43
475.855	2071.44
476.227	2048.62
476.598	2114.83
476.97	2094.49
477.341	2159.35
477.713	2176.98
478.084	2192.8
478.455	2195.06
478.827	2252.68
479.198	2293.13
479.569	2308.27
479.94	2327.93
480.311	2352.79
480.682	2401.83
481.053	2438.89
481.424	2446.8
481.795	2488.61
482.166	2501.71
482.537	2498.32
482.908	2604.31
483.279	2573.8
483.65	2631.2
484.021	2666.68
484.391	2673.69
484.762	2666.23
485.133	2714.59
485.503	2762.05
485.874	2770.86
486.244	2799.79
486.615	2824.87
486.985	2894.25
487.356	2900.35
487.726	2947.58
488.097	2973.79
488.467	3004.3
488.837	3049.5
489.207	3081.36
489.578	3096.95
489.948	3124.97
490.318	3168.36
490.688	3169.72
491.058	3200.45
491.428	3222.82
491.798	3247.01
492.168	3276.38
492.538	3307.57
492.908	3342.14
493.278	3362.71
493.648	3377.4
494.017	3374.69
494.387	3426.21
494.757	3485.19
495.126	3519.99
495.496	3515.25
495.866	3510.27
496.235	3543.95
496.605	3588.24
496.974	3595.7
497.344	3581.46
497.713	3610.39
498.082	3643.38
498.452	3641.34
498.821	3694
499.19	3661.01
499.559	3719.53
499.928	3768.57
500.298	3774
500.667	3751.17
501.036	3790.49
501.405	3802.47
501.774	3769.7
502.143	3804.73
502.512	3834.33
502.88	3843.37
503.249	3864.16
503.618	3890.15
503.987	3878.63
504.356	3919.08
504.724	3959.53
505.093	3938.51
505.462	3914.11
505.83	3979.64
506.199	4011.5
506.567	4019.19
506.936	4000.43
507.304	4077.72
507.672	4084.05
508.041	4068.23
508.409	4095.8
508.777	4139.18
509.145	4120.88
509.514	4161.33
509.882	4155
510.25	4169.69
510.618	4154.78
510.986	4177.15
511.354	4225.74
511.722	4253.76
512.09	4267.09
512.458	4228.9
512.826	4276.36
513.193	4297.6
513.561	4259.86
513.929	4322.91
514.297	4350.03
514.664	4360.42
515.032	4352.06
515.4	4348.67
515.767	4372.63
516.135	4409.01
516.502	4371.04
516.869	4439.74
517.237	4459.4
517.604	4401.78
517.972	4434.77
518.339	4487.2
518.706	4470.7
519.073	4468.22
519.44	4519.29
519.808	4496.24
520.175	4507.08
520.542	4596.12
520.909	4629.57
521.276	4570.13
521.643	4585.05
522.009	4625.5
522.376	4634.09
522.743	4663.69
523.11	4684.03
523.477	4745.27
523.843	4729.45
524.21	4750.24
524.577	4799.28
524.943	4811.03
525.31	4845.83
525.676	4855.1
526.043	4838.38
526.409	4889.22
526.776	4948.88
527.142	4962.67
527.508	4940.52
527.874	4978.26
528.241	5011.48
528.607	5040.86
528.973	5053.51
529.339	5067.3
529.705	5078.14
530.071	5104.58
530.437	5166.28
530.803	5143.45
531.169	5262.55
531.535	5203.56
531.901	5221.42
532.267	5267.06
532.632	5267.52
532.998	5332.15
533.364	5305.93
533.73	5333.5
534.095	5368.31
534.461	5417.34
534.826	5403.56
535.192	5462.09
535.557	5481.75
535.923	5505.02
536.288	5519.04
536.653	5528.98
537.019	5535.08
537.384	5576.66
537.749	5578.92
538.114	5590.9
538.479	5610.33
538.845	5615.53
539.21	5653.5
539.575	5658.92
539.94	5665.7
540.305	5742.31
540.67	5776.88
541.034	5737.34
541.399	5796.09
541.764	5798.8
542.129	5855.3
542.494	5818.46
542.858	5904.11
543.223	5931.45
543.587	5937.78
543.952	5926.03
544.316	5911.79
544.681	6015.52
545.045	6054.39
545.41	6075.18
545.774	6065.24
546.138	6117.21
546.503	6074.28
546.867	6100.72
547.231	6193.14
547.595	6203.09
547.959	6235.4
548.324	6221.16
548.688	6218.68
549.052	6269.98
549.416	6252.58
549.779	6333.25
550.143	6352.91
550.507	6359.92
550.871	6419.8
551.235	6324.66
551.599	6414.38
551.962	6408.73
552.326	6477.88
552.689	6471.33
553.053	6472.68
553.417	6457.09
553.78	6526.47
554.143	6544.55
554.507	6606.92
554.87	6618.44
555.234	6660.7
555.597	6584.77
555.96	6705.45
556.323	6682.85
556.686	6636.97
557.05	6732.79
557.413	6689.85
557.776	6739.57
558.139	6751.77
558.502	6789.74
558.865	6777.99
559.228	6869.28
559.59	6867.93
559.953	6894.14
560.316	6938.21
560.679	6990.64
561.041	6969.62
561.404	6993.8
561.767	6997.87
562.129	6982.5
562.492	7071.31
562.854	7044.65
563.217	7091.42
563.579	7095.49
563.941	7126.45
564.304	7123.51
564.666	7169.84
565.028	7196.05
565.39	7268.37
565.753	7216.62
566.115	7276.73
566.477	7342.26
566.839	7371.19
567.201	7402.38
567.563	7404.18
567.925	7453
568.287	7397.63
568.648	7427.91
569.01	7593.11
569.372	7522.6
569.734	7517.63
570.095	7563.05
570.457	7620.45
570.819	7723.95
571.18	7673.1
571.542	7713.55
571.903	7720.11
572.265	7786.55
572.626	7876.71
572.987	7898.63
573.349	7878.97
573.71	7935.02
574.071	7983.83
574.432	8043.49
574.794	8163.94
575.155	8174.79
575.516	8176.59
575.877	8262.47
576.238	8322.8
576.599	8400.54
576.96	8468.56
577.32	8544.72
577.681	8565.06
578.042	8704.71
578.403	8711.95
578.763	8874.65
579.124	8921.66
579.485	8990.58
579.845	9125.49
580.206	9245.49
580.566	9335.88
580.927	9462.43
581.287	9619.49
581.648	9694.29
582.008	9841.41
582.368	9938.81
582.728	10168.18
583.089	10209.76
583.449	10372.92
583.809	10522.75
584.169	10740.82
584.529	10889.52
584.889	11076.86
585.249	11259.9
585.609	11395.04
585.969	11656.05
586.329	11760.23
586.688	12032.31
587.048	12294
587.408	12417.61
587.768	12710.26
588.127	12874.1
588.487	13086.75
588.846	13534.87
589.206	13567.86
589.565	13915.2
589.925	14180.28
590.284	14398.58
590.643	14627.27
591.003	14967.83
591.362	15254.6
591.721	15448.49
592.08	15745.21
592.44	16053.9
592.799	16249.6
593.158	16503.83
593.517	16862.24
593.876	17144.27
594.235	17346.07
594.593	17765.95
594.952	18073.51
595.311	18193.28
595.67	18697.45
596.029	18948.51
596.387	19310.99
596.746	19626.01
597.104	19821.94
597.463	20075.04
597.822	20481.35
598.18	20625.53
598.538	20961.57
598.897	21433.42
599.255	21473.42
599.613	22056
599.972	22147.3
600.33	22519.94
600.688	22751.35
601.046	23055.98
601.404	23329.41
601.762	23713.59
602.12	24094.59
602.478	24241.03
602.836	24564.86
603.194	24655.93
603.552	25013.66
603.91	25162.36
604.268	25574.55
604.625	25713.08
604.983	26114.43
605.341	26191.71
605.698	26631.02
606.056	26913.28
606.413	27044.12
606.771	27455.86
607.128	27648.17
607.485	27667.38
607.843	28060.59
608.2	28377.87
608.557	28625.09
608.914	28826.67
609.272	29158.64
609.629	29269.82
609.986	29558.63
610.343	29682.47
610.7	30081.78
611.057	30238.84
611.414	30406.74
611.771	30620.3
612.127	30894.87
612.484	31147.51
612.841	31319.26
613.198	31487.39
613.554	31578.92
613.911	31921.28
614.267	32007.38
614.624	32079.69
614.98	32289.41
615.337	32584.99
615.693	32702.5
616.05	32870.41
616.406	33218.65
616.762	33119.67
617.118	33299.77
617.475	33537.06
617.831	33556.49
618.187	33915.13
618.543	34012.98
618.899	34355.34
619.255	34393.53
619.611	34422
619.967	34662.9
620.323	34987.64
620.678	34932.73
621.034	34961.43
621.39	34906.06
621.746	35151.25
622.101	35581.75
622.457	35342.88
622.812	35565.03
623.168	35641.63
623.523	35670.11
623.879	35972.7
624.234	35891.12
624.589	36085.01
624.945	36111.68
625.3	36319.36
625.655	36250.66
626.01	36346.93
626.365	36603.42
626.72	36509.18
627.075	36617.65
627.43	36571.78
627.785	36571.1
628.14	36822.39
628.495	36976.74
628.85	37016.74
629.205	36777.65
629.559	37040.69
629.914	36996.85
630.269	37136.06
630.623	37081.82
630.978	37037.98
631.332	37044.99
631.687	37328.82
632.041	37209.5
632.396	37268.26
632.75	37127.92
633.104	37265.77
633.459	37150.97
633.813	37249.5
634.167	37291.08
634.521	37227.13
634.875	37335.6
635.229	37331.98
635.583	37128.6
635.937	37218.09
636.291	37273.23
636.645	37325.66
636.999	37234.81
637.352	37495.37
637.706	37179.22
638.06	37442.26
638.413	37298.54
638.767	37402.49
639.121	37425.32
639.474	37155.49
639.828	37338.54
640.181	37351.42
640.534	37335.37
640.888	37334.02
641.241	37127.02
641.594	37231.2
641.947	37327.92
642.301	37228.26
642.654	37494.47
643.007	37227.35
643.36	37196.39
643.713	37194.14
644.066	37344.64
644.419	37044.08
644.771	36918.89
645.124	36633.47
645.477	36667.6
645.83	36369.3
646.182	36279.58
646.535	36243.2
646.888	36206.82
647.24	35995.75
647.593	36205.46
647.945	36148.51
648.298	36077.33
648.65	35984.22
649.002	36008.86
649.355	36054.5
649.707	35963.66
650.059	36207.04
650.411	36679.12
650.763	36721.61
651.115	37093.57
651.467	36891.54
651.819	36939.9
652.171	36780.13
652.523	36692.45
652.875	36818.78
653.227	36624.66
653.578	36878.66
653.93	36725.45
654.282	36603.42
654.633	36593.7
654.985	36733.58
655.337	36595.96
655.688	36660.36
656.039	36777.65
656.391	36491.55
656.742	36605.68
657.094	36647.03
657.445	36743.75
657.796	36535.85
658.147	36597.54
658.498	36602.06
658.849	36683.19
659.2	36525.68
659.551	36506.24
659.902	36609.07
660.253	36612.68
660.604	36583.98
660.955	36400.03
661.306	36629.18
661.656	36559.35
662.007	36665.79
662.358	36637.99
662.708	36602.06
663.059	36470.76
663.409	36231.67
663.76	36386.25
664.11	36549.63
664.461	36658.1
664.811	36568.61
665.161	36578.11
665.511	36510.09
665.862	36358.22
666.212	36500.59
666.562	36575.39
666.912	36493.14
667.262	36411.33
667.612	36306.02
667.962	36380.82
668.312	36400.03
668.662	36478.45
669.011	36423.31
669.361	36325.68
669.711	36416.75
670.06	36390.31
670.41	36337.89
670.76	36312.12
671.109	36513.93
671.459	36457.21
671.808	36333.37
672.157	36398.45
672.507	36252.92
672.856	36159.13
673.205	36224.44
673.554	36354.61
673.904	36132.24
674.253	36395.74
674.602	36257.89
674.951	35763.44
675.3	35412.94
675.649	36127.27
675.998	36150.55
676.346	36071.23
676.695	36158.23
677.044	35847.05
677.393	36014.73
677.741	36038.91
678.09	35999.59
678.438	36012.92
678.787	35910.78
679.135	35972.92
679.484	35751.46
679.832	35960.95
680.181	35747.39
680.529	35902.64
680.877	35758.69
681.225	35815.64
681.573	35787.39
681.922	35617.68
682.27	35513.73
682.618	35527.74
682.966	35325.94
683.314	35488.42
683.661	35322.77
684.009	35190.35
684.357	35185.83
684.705	35122.55
685.053	35156.22
685.4	35070.35
685.748	34962.56
686.095	34976.79
686.443	34781.77
686.79	34735.44
687.138	34822.9
687.485	34974.98
687.832	34753.52
688.18	34635.78
688.527	34588.78
688.874	34548.33
689.221	34411.84
689.568	34491.38
689.915	34306.08
690.262	34439.18
690.609	34198.73
690.956	34097.72
691.303	34102.92
691.65	33860.44
691.997	33986.76
692.344	33698.18
692.69	33712.42
693.037	33763.94
693.383	33447.79
693.73	33622.25
694.077	33358.53
694.423	33309.72
694.769	33501.35
695.116	33205.77
695.462	33137.74
695.808	33037.86
696.155	33049.84
696.501	32989.95
696.847	32890.75
697.193	32562.17
697.539	32839
697.885	32491.21
698.231	32467.25
698.577	32472.9
698.923	32295.28
699.269	32220.48
699.614	32026.59
699.96	32041.95
700.306	32041.95
700.651	31720.38
700.997	31777.78
701.342	31873.82
701.688	31771.45
702.033	31710.66
702.379	31641.96
702.724	31492.59
703.069	31538.46
703.415	31183.67
703.76	31328.53
704.105	31305.48
704.45	31194.52
704.795	30992.26
705.14	30852.61
705.485	30848.09
705.83	30904.58
706.175	30928.99
706.52	30667.53
706.865	30543.91
707.209	30625.95
707.554	30439.28
707.899	30607.19
708.243	30478.61
708.588	30461.88
708.932	30269.57
709.277	30159.29
709.621	30184.38
709.966	29957.72
710.31	30157.94
710.654	29802.69
710.998	29893.99
711.342	29824.39
711.687	29712.07
712.031	29732.64
712.375	29503.49
712.719	29526.09
713.063	29493.32
713.407	29572.64
713.75	29428.01
714.094	29383.04
714.438	29124.29
714.782	29291.74
715.125	29038.42
715.469	29232.31
715.812	28907.35
716.156	28758.65
716.499	28838.2
716.843	28871.87
717.186	28761.81
717.53	28778.54
717.873	28734.7
718.216	28657.64
718.559	28642.04
718.902	28502.39
719.246	28523.4
719.589	28466.23
719.932	28297.19
720.275	28254.48
720.617	28241.83
720.96	28218.1
721.303	28242.05
721.646	28224.43
721.989	28029.63
722.331	28110.76
722.674	28166.35
723.016	28007.94
723.359	27900.14
723.701	27992.57
724.044	27780.6
724.386	27637.1
724.729	27800.48
725.071	27713.71
725.413	27737.43
725.755	27745.57
726.097	27668.96
726.439	27445.69
726.782	27414.96
727.124	27626.03
727.465	27389.65
727.807	27445.69
728.149	27224.45
728.491	27276.2
728.833	27371.34
729.175	27156.66
729.516	27180.84
729.858	26989.43
730.199	27172.93
730.541	27031.24
730.882	27022.2
731.224	27153.5
731.565	26927.29
731.906	26870.79
732.248	26929.55
732.589	26728.87
732.93	26779.04
733.271	26656.33
733.612	26792.15
733.953	26556.9
734.294	26545.15
734.635	26490.24
734.976	26489.78
735.317	26404.81
735.658	26512.16
735.999	26375.89
736.339	26312.39
736.68	26355.55
737.021	26342.89
737.361	26331.6
737.702	26372.72
738.042	26298.15
738.383	26180.41
738.723	26244.37
739.063	26155.78
739.404	26082.11
739.744	26015.45
740.084	25844.83
740.424	25946.07
740.764	25977.93
741.104	26055.44
741.444	25755.11
741.784	25734.1
742.124	25746.3
742.464	25671.95
742.804	25683.7
743.143	25779.52
743.483	25612.97
743.823	25578.85
744.162	25568
744.502	25617.04
744.841	25402.58
745.181	25500.43
745.52	25340.44
745.86	25428.79
746.199	25401
746.538	25351.28
746.877	25436.03
747.216	25312.64
747.556	25229.25
747.895	25152.42
748.234	25095.47
748.573	25103.61
748.911	25059.09
749.25	24993.55
749.589	24946.77
749.928	24991.07
750.267	24984.96
750.605	24809.15
750.944	24771.18
751.283	24768.25
751.621	24808.92
751.96	24552.66
752.298	24616.39
752.636	24601.25
752.975	24469.05
753.313	24411.19
753.651	24498.88
753.989	24386.79
754.327	24375.94
754.666	24272.67
755.004	24235.38
755.342	24132.56
755.679	24242.84
756.017	23995.84
756.355	24203.06
756.693	23893.92
757.031	24060.02
757.368	23819.8
757.706	23736.41
758.044	23733.47
758.381	23841.94
758.719	23626.36
759.056	23607.83
759.394	23611.89
759.731	23309.3
760.068	23375.06
760.405	23253.26
