Data from hue_300_FLMS001491_00019.txt Node
Date: Tue Feb 07 15:50:23 GMT 2017
User: dcchb
Spectrometer: FLMS00149
Trigger mode: 0
Integration Time (sec): 2.000000E-2
Scans to average: 10
Electric dark correction enabled: true
Nonlinearity correction enabled: false
Boxcar width: 0
XAxis mode: Wavelengths
Number of Pixels in Spectrum: 2048
>>>>>Begin Spectral Data<<<<<
341.393	-13.06
341.776	-13.06
342.16	-13.06
342.543	-49.22
342.927	-69.56
343.31	-63.01
343.693	-78.6
344.077	-54.19
344.46	-59.84
344.843	-58.04
345.226	-51.71
345.61	-36.34
345.993	-26.17
346.376	-9.22
346.759	15.41
347.142	7.73
347.525	65.8
347.908	59.93
348.291	81.17
348.674	99.25
349.057	107.84
349.44	120.04
349.823	117.33
350.206	160.94
350.588	202.3
350.971	213.14
351.354	218.12
351.737	211.11
352.119	217.66
352.502	261.96
352.884	270.54
353.267	261.73
353.65	270.32
354.032	290.43
354.414	282.52
354.797	285.46
355.179	298.34
355.562	297.66
355.944	299.92
356.326	325.91
356.709	324.1
357.091	328.4
357.473	332.46
357.855	325.68
358.238	334.27
358.62	298.79
359.002	303.54
359.384	316.64
359.766	335.85
360.148	332.24
360.53	330.66
360.912	337.89
361.294	321.39
361.676	310.54
362.057	328.17
362.439	303.09
362.821	312.12
363.203	313.25
363.584	339.47
363.966	296.98
364.348	307.6
364.729	305.35
365.111	318.23
365.493	306.7
365.874	313.71
366.256	311.9
366.637	304.44
367.019	302.41
367.4	313.03
367.781	285.46
368.163	298.57
368.544	297.89
368.925	308.51
369.306	303.76
369.688	313.48
370.069	314.61
370.45	309.64
370.831	343.08
371.212	290.2
371.593	298.11
371.974	306.47
372.355	300.6
372.736	298.34
373.117	304.67
373.498	290.43
373.879	307.15
374.26	307.83
374.641	311.22
375.021	315.29
375.402	305.8
375.783	321.39
376.163	314.84
376.544	321.39
376.925	305.57
377.305	305.8
377.686	319.13
378.066	301.05
378.447	306.47
378.827	301.73
379.208	310.54
379.588	340.15
379.968	324.55
380.349	330.66
380.729	315.29
381.109	334.95
381.489	331.56
381.87	334.04
382.25	321.39
382.63	331.56
383.01	316.19
383.39	323.42
383.77	323.2
384.15	322.75
384.53	336.98
384.91	334.5
385.29	344.21
385.67	344.21
386.049	334.27
386.429	329.3
386.809	331.33
387.189	313.25
387.568	357.77
387.948	368.85
388.328	330.88
388.707	345.34
389.087	329.3
389.466	352.8
389.846	341.05
390.225	349.41
390.605	358.68
390.984	379.47
391.363	352.58
391.743	361.16
392.122	358
392.501	355.29
392.881	351.9
393.26	375.85
393.639	354.84
394.018	346.93
394.397	359.81
394.776	391.67
395.155	386.47
395.534	378.79
395.913	368.17
396.292	360.94
396.671	372.69
397.05	366.59
397.429	387.38
397.808	380.6
398.186	381.5
398.565	379.69
398.944	375.85
399.323	381.28
399.701	375.4
400.08	403.65
400.458	371.11
400.837	393.48
401.215	395.51
401.594	418.11
401.972	403.87
402.351	399.81
402.729	400.94
403.107	415.4
403.486	409.07
403.864	408.39
404.242	404.33
404.62	419.92
404.999	428.96
405.377	420.37
405.755	436.19
406.133	431.22
406.511	435.96
406.889	445
407.267	421.73
407.645	451.56
408.023	447.49
408.401	464.66
408.779	461.95
409.156	473.48
409.534	459.01
409.912	471.67
410.29	464.89
410.667	479.58
411.045	500.14
411.422	501.72
411.8	515.74
412.178	536.53
412.555	525.68
412.933	532.23
413.31	558.22
413.687	529.75
414.065	534.94
414.442	537.2
414.819	568.61
415.197	581.27
415.574	581.5
415.951	582.17
416.328	583.08
416.705	600.03
417.082	617.65
417.46	635.51
417.837	628.73
418.214	627.82
418.591	644.32
418.967	638.67
419.344	658.33
419.721	670.76
420.098	657.88
420.475	707.82
420.852	676.41
421.228	681.61
421.605	678.67
421.982	712.57
422.358	718.44
422.735	739.01
423.111	718.44
423.488	733.58
423.864	757.31
424.241	765.9
424.617	758.21
424.994	752.79
425.37	797.76
425.746	784.88
426.123	791.43
426.499	813.58
426.875	786.46
427.251	821.04
427.627	818.1
428.003	837.53
428.379	847.93
428.756	862.84
429.132	876.86
429.507	856.97
429.883	870.08
430.259	893.35
430.635	916.63
431.011	946.91
431.387	924.09
431.763	967.25
432.138	942.39
432.514	963.86
432.89	964.99
433.265	1003.63
433.641	992.56
434.016	1010.86
434.392	1026.91
434.767	1034.37
435.143	1026
435.518	1031.43
435.894	1035.27
436.269	1020.81
436.644	1063.07
437.02	1094.02
437.395	1089.51
437.77	1094.93
438.145	1117.08
438.52	1144.42
438.895	1151.88
439.271	1150.52
439.646	1152.78
440.021	1167.24
440.395	1169.96
440.77	1169.96
441.145	1172.21
441.52	1167.02
441.895	1202.72
442.27	1197.3
442.645	1239.78
443.019	1211.31
443.394	1200.46
443.769	1218.77
444.143	1217.86
444.518	1260.12
444.892	1242.72
445.267	1255.83
445.641	1246.34
446.016	1258.77
446.39	1278.88
446.764	1241.59
447.139	1240.46
447.513	1264.87
447.887	1271.42
448.262	1294.7
448.636	1266.68
449.01	1286.56
449.384	1289.27
449.758	1271.87
450.132	1316.62
450.506	1304.41
450.88	1299.67
451.254	1353.91
451.628	1317.3
452.002	1339.22
452.376	1337.41
452.75	1362.49
453.123	1376.05
453.497	1360.68
453.871	1341.02
454.244	1378.54
454.618	1380.12
454.992	1379.44
455.365	1386.67
455.739	1433
456.112	1435.71
456.486	1433
456.859	1438.42
457.232	1479.78
457.606	1448.37
457.979	1467.12
458.352	1474.81
458.725	1467.12
459.099	1526.33
459.472	1526.33
459.845	1538.53
460.218	1538.53
460.591	1557.97
460.964	1567.23
461.337	1575.14
461.71	1597.74
462.083	1599.1
462.456	1612.66
462.829	1601.58
463.201	1632.32
463.574	1596.16
463.947	1644.52
464.32	1646.1
464.692	1666.89
465.065	1690.17
465.438	1645.2
465.81	1694.24
466.183	1721.58
466.555	1728.58
466.928	1726.55
467.3	1750.73
467.672	1767.45
468.045	1807.68
468.417	1773.78
468.789	1784.18
469.161	1811.07
469.534	1844.74
469.906	1842.48
470.278	1847.23
470.65	1879.54
471.022	1851.29
471.394	1899.2
471.766	1897.39
472.138	1922.48
472.51	1945.3
472.882	1974.23
473.253	1953.66
473.625	2002.93
473.997	2019.88
474.369	2034.79
474.74	2028.01
475.112	2055.13
475.484	2082.7
475.855	2110.04
476.227	2124.28
476.598	2160.66
476.97	2186.43
477.341	2193.88
477.713	2212.64
478.084	2210.83
478.455	2265.07
478.827	2275.91
479.198	2319.98
479.569	2332.86
479.94	2351.62
480.311	2343.03
480.682	2438.17
481.053	2393.88
481.424	2494.21
481.795	2463.25
482.166	2478.4
482.537	2505.29
482.908	2508
483.279	2563.36
483.65	2581.9
484.021	2615.57
484.391	2626.19
484.762	2631.39
485.133	2657.37
485.503	2675.45
485.874	2692.17
486.244	2728.33
486.615	2775.56
486.985	2800.19
487.356	2801.78
487.726	2837.26
488.097	2882.68
488.467	2867.99
488.837	2911.83
489.207	2917.93
489.578	2971.72
489.948	2960.42
490.318	2981.43
490.688	3013.3
491.058	3037.02
491.428	3052.84
491.798	3064.82
492.168	3086.74
492.538	3131.03
492.908	3143.01
493.278	3197.25
493.648	3174.42
494.017	3209.45
494.387	3201.99
494.757	3202.22
495.126	3256.68
495.496	3251.93
495.866	3285.83
496.235	3316.11
496.605	3333.29
496.974	3329.9
497.344	3315.44
497.713	3345.94
498.082	3342.78
498.452	3392.5
498.821	3405.83
499.19	3395.66
499.559	3420.29
499.928	3445.15
500.298	3471.36
500.667	3535.09
501.036	3430.23
501.405	3490.12
501.774	3509.78
502.143	3498.48
502.512	3540.29
502.88	3526.73
503.249	3537.58
503.618	3563.34
503.987	3572.6
504.356	3550.68
504.724	3578.48
505.093	3580.06
505.462	3536.22
505.83	3640.4
506.199	3617.12
506.567	3608.99
506.936	3619.83
507.304	3667.97
507.672	3652.38
508.041	3680.17
508.409	3692.15
508.777	3680.62
509.145	3719.49
509.514	3715.2
509.882	3738.93
510.25	3744.35
510.618	3768.76
510.986	3780.28
511.354	3775.76
511.722	3848.3
512.09	3816.89
512.458	3794.07
512.826	3838.13
513.193	3859.83
513.561	3838.81
513.929	3851.01
514.297	3885.82
514.664	3926.94
515.032	3872.48
515.4	3873.39
515.767	3909.32
516.135	3889.21
516.502	3910
516.869	3915.87
517.237	3877.68
517.604	3911.58
517.972	3944.12
518.339	3978.02
518.706	3972.82
519.073	3916.32
519.44	3993.61
519.808	3976.66
520.175	4015.53
520.542	4029.77
520.909	4063.21
521.276	4034.06
521.643	4037.22
522.009	3999.94
522.376	4100.73
522.743	4113.61
523.11	4157.22
523.477	4114.28
523.843	4151.57
524.21	4170.1
524.577	4178.69
524.943	4196.09
525.31	4258.46
525.676	4226.37
526.043	4233.15
526.409	4284.9
526.776	4279.25
527.142	4269.31
527.508	4292.81
527.874	4348.85
528.241	4366.93
528.607	4365.8
528.973	4401.73
529.339	4359.48
529.705	4405.8
530.071	4430.89
530.437	4467.72
530.803	4441.73
531.169	4482.41
531.535	4528.06
531.901	4543.88
532.267	4544.56
532.632	4578.45
532.998	4593.82
533.364	4598.34
533.73	4605.57
534.095	4657.77
534.461	4667.94
534.826	4664.55
535.192	4699.35
535.557	4739.8
535.923	4734.61
536.288	4743.65
536.653	4712.69
537.019	4724.21
537.384	4765.57
537.749	4830.65
538.114	4777.32
538.479	4770.09
538.845	4825.23
539.21	4876.52
539.575	4857.32
539.94	4909.07
540.305	4894.38
540.67	4931.89
541.034	4943.64
541.399	4980.93
541.764	5019.35
542.129	4984.77
542.494	5003.98
542.858	5060.7
543.223	5019.35
543.587	5056.41
543.952	5099.34
544.316	5122.85
544.681	5122.39
545.045	5150.87
545.41	5138.44
545.774	5182.96
546.138	5218.44
546.503	5234.03
546.867	5222.28
547.231	5281.26
547.595	5276.06
547.959	5303.86
548.324	5286.68
548.688	5294.59
549.052	5351.31
549.416	5354.48
549.779	5344.08
550.143	5359.22
550.507	5422.95
550.871	5414.59
551.235	5448.49
551.599	5500.24
551.962	5472.44
552.326	5516.51
552.689	5519.22
553.053	5490.29
553.417	5523.06
553.78	5596.05
554.143	5605.77
554.507	5632.44
554.87	5616.84
555.234	5648.48
555.597	5629.05
555.96	5614.81
556.323	5689.61
556.686	5707.69
557.05	5660.23
557.413	5688.25
557.776	5742.72
558.139	5748.59
558.502	5764.86
558.865	5805.31
559.228	5735.48
559.59	5840.11
559.953	5793.56
560.316	5843.96
560.679	5823.84
561.041	5913.56
561.404	5889.15
561.767	5919.21
562.129	5903.62
562.492	5968.02
562.854	5984.74
563.217	5980.9
563.579	5961.47
563.941	6023.39
564.304	6000.56
564.666	6035.36
565.028	6069.94
565.39	6071.97
565.753	6115.14
566.115	6119.2
566.477	6155.36
566.839	6182.48
567.201	6185.87
567.563	6215.02
567.925	6189.94
568.287	6290.72
568.648	6240.1
569.01	6311.29
569.372	6330.5
569.734	6357.16
570.095	6399.65
570.457	6417.5
570.819	6410.5
571.18	6485.52
571.542	6463.15
571.903	6516.03
572.265	6500.66
572.626	6599.19
572.987	6613.43
573.349	6695.69
573.71	6643.03
574.071	6751.28
574.432	6765.06
574.794	6878.73
575.155	6925.51
575.516	6962.8
575.877	6972.97
576.238	7003.93
576.599	7127.99
576.96	7161.89
577.32	7257.93
577.681	7277.82
578.042	7396.91
578.403	7496.79
578.763	7554.87
579.124	7715.32
579.485	7744.7
579.845	7822.21
580.206	7983.56
580.566	8045.25
580.927	8140.85
581.287	8289.99
581.648	8348.07
582.008	8523.89
582.368	8661.06
582.728	8788.51
583.089	8937.21
583.449	9109.86
583.809	9243.64
584.169	9470.98
584.529	9584.88
584.889	9827.81
585.249	9962.49
585.609	10169.27
585.969	10435.7
586.329	10543.04
586.688	10842.02
587.048	10948
587.408	11155
587.768	11496.69
588.127	11674.76
588.487	11919.5
588.846	12237.69
589.206	12387.74
589.565	12606.49
589.925	12971
590.284	13185.91
590.643	13504.77
591.003	13752
591.362	14089.84
591.721	14276.96
592.08	14581.58
592.44	14985.19
592.799	15149.47
593.158	15482.57
593.517	15716.47
593.876	16021.09
594.235	16277.13
594.593	16641.86
594.952	16913.95
595.311	17108.97
595.67	17512.8
596.029	17855.17
596.387	18187.59
596.746	18521.59
597.104	18745.31
597.463	19023.95
597.822	19429.14
598.18	19617.83
598.538	19963.36
598.897	20383.01
599.255	20455.32
599.613	21062.99
599.972	21173.72
600.33	21508.4
600.688	21693.03
601.046	22020.25
601.404	22410.53
601.762	22548.15
602.12	23018.42
602.478	23267.68
602.836	23541.57
603.194	23576.82
603.552	24050.71
603.91	24135.45
604.268	24558.49
604.625	24728.66
604.983	25019.95
605.341	25180.4
605.698	25562.08
606.056	25879.59
606.413	26083.42
606.771	26385.79
607.128	26574.94
607.485	26686.12
607.843	27011.31
608.2	27362.26
608.557	27709.82
608.914	27657.39
609.272	28058.74
609.629	28226.87
609.986	28574.66
610.343	28646.52
610.7	29008.32
611.057	29120.63
611.414	29368.31
611.771	29468.87
612.127	29792.93
612.484	29930.78
612.841	30119.25
613.198	30187.5
613.554	30276.08
613.911	30738.44
614.267	30942.28
614.624	30922.17
614.98	31154.48
615.337	31402.61
615.693	31612.54
616.05	31607.12
616.406	32012.53
616.762	31986.09
617.118	32158.07
617.475	32282.81
617.831	32464.73
618.187	32649.13
618.543	32788.56
618.899	33001.89
619.255	33079.62
619.611	33063.35
619.967	33326.17
620.323	33455.43
620.678	33402.33
621.034	33485.04
621.39	33639.16
621.746	33654.98
622.101	34156.21
622.457	34049.32
622.812	34158.69
623.168	34247.73
623.523	34426.26
623.879	34652.24
624.234	34397.78
624.589	34760.26
624.945	34717.55
625.3	34797.09
625.655	34968.39
626.01	34992.12
626.365	35128.84
626.72	35030.53
627.075	35094.71
627.43	35158.67
627.785	35236.63
628.14	35253.8
628.495	35364.31
628.85	35413.35
629.205	35369.51
629.559	35501.26
629.914	35491.31
630.269	35599.56
630.623	35527.7
630.978	35444.08
631.332	35617.86
631.687	35749.38
632.041	35830.74
632.396	35721.36
632.75	35675.94
633.104	35729.27
633.459	35694.02
633.813	35562.95
634.167	35692.44
634.521	35577.86
634.875	35832.55
635.229	35784.19
635.583	35714.58
635.937	35666.22
636.291	35851.53
636.645	35869.61
636.999	35696.05
637.352	35817.18
637.706	35604.98
638.06	35912.09
638.413	35882.49
638.767	35770.4
639.121	35844.07
639.474	35576.96
639.828	35710.29
640.181	35747.13
640.534	35796.62
640.888	35683.17
641.241	35541.71
641.594	35531.54
641.947	35825.99
642.301	35729.05
642.654	35752.77
643.007	35851.53
643.36	35738.76
643.713	35762.94
644.066	35833.9
644.419	35691.53
644.771	35452.9
645.124	35155.05
645.477	34946.02
645.83	34801.16
646.182	34668.96
646.535	34722.97
646.888	34760.26
647.24	34512.81
647.593	34787.15
647.945	34631
648.298	34613.14
648.65	34519.13
649.002	34378.8
649.355	34715.51
649.707	34566.14
650.059	34798.68
650.411	35189.17
650.763	35200.47
651.115	35627.58
651.467	35584.64
651.819	35457.87
652.171	35496.06
652.523	35303.75
652.875	35305.1
653.227	35255.16
653.578	35561.37
653.93	35403.86
654.282	35235.73
654.633	35239.34
654.985	35211.77
655.337	35293.8
655.688	35215.16
656.039	35325.89
656.391	35046.13
656.742	35227.36
657.094	35313.46
657.445	35241.83
657.796	35263.07
658.147	35165.9
658.498	35096.52
658.849	35191.66
659.2	35143.3
659.551	35032.79
659.902	35139.23
660.253	35271.43
660.604	35313.24
660.955	35132.9
661.306	35167.25
661.656	35073.47
662.007	35141.49
662.358	35091.55
662.708	35073.24
663.059	35117.31
663.409	34930.2
663.76	35191.89
664.11	35080.48
664.461	35072.79
664.811	35143.53
665.161	35130.64
665.511	35029.4
665.862	35117.31
666.212	35140.36
666.562	35097.65
666.912	35193.02
667.262	35085.45
667.612	35061.49
667.962	35149.4
668.312	34979.01
668.662	35116.63
669.011	35139.46
669.361	35040.48
669.711	35057.88
670.06	35003.42
670.41	34922.06
670.76	34954.15
671.109	35023.53
671.459	35058.56
671.808	34889.52
672.157	34868.28
672.507	34646.14
672.856	34946.24
673.205	34932.68
673.554	34940.82
673.904	34783.76
674.253	35077.76
674.602	34904.44
674.951	34385.13
675.3	34209.54
675.649	34717.32
675.998	34724.55
676.346	34629.41
676.695	34797.55
677.044	34623.09
677.393	34692.24
677.741	34750.09
678.09	34607.27
678.438	34540.6
678.787	34541.51
679.135	34613.14
679.484	34449.08
679.832	34485.46
680.181	34304.23
680.529	34452.92
680.877	34415.86
681.225	34342.42
681.573	34466.93
681.922	34261.06
682.27	34151.01
682.618	34195.53
682.966	34003.89
683.314	34212.25
683.661	34014.74
684.009	33861.98
684.357	33740.17
684.705	33787.63
685.053	33851.13
685.4	33805.48
685.748	33665.37
686.095	33592.83
686.443	33491.14
686.79	33438.94
687.138	33543.57
687.485	33374.76
687.832	33337.47
688.18	33279.62
688.527	33102.67
688.874	33113.75
689.221	33048.89
689.568	33023.35
689.915	33002.56
690.262	33063.58
690.609	32848.67
690.956	32757.6
691.303	32698.62
691.65	32646.64
691.997	32605.74
692.344	32450.26
692.69	32423.37
693.037	32337.27
693.383	32281.23
693.73	32260.44
694.077	32118.52
694.423	32120.1
694.769	31923.04
695.116	31789.04
695.462	31839.21
695.808	31667.23
696.155	31810.05
696.501	31476.5
696.847	31544.98
697.193	31234.02
697.539	31468.37
697.885	31206.91
698.231	31067.7
698.577	31159.68
698.923	31101.15
699.269	30887.14
699.614	30725.79
699.96	30681.72
700.306	30730.31
700.651	30624.1
700.997	30438.34
701.342	30511.33
701.688	30398.57
702.033	30259.59
702.379	30267.27
702.724	30238.57
703.069	30258.68
703.415	29860.73
703.76	30054.85
704.105	29953.61
704.45	29775.08
704.795	29759.71
705.14	29580.51
705.485	29646.49
705.83	29533.96
706.175	29536.67
706.52	29427.29
706.865	29413.51
707.209	29255.09
707.554	29227.97
707.899	29282.66
708.243	29063.46
708.588	29154.53
708.932	28855.33
709.277	28803.13
709.621	28855.33
709.966	28655.79
710.31	28759.74
710.654	28597.48
710.998	28634.32
711.342	28573.75
711.687	28559.52
712.031	28334.21
712.375	28195.69
712.719	28372.63
713.063	28277.72
713.407	28345.06
713.75	28278.85
714.094	28146.87
714.438	27981.23
714.782	28207.89
715.125	27994.11
715.469	28080.66
715.812	27876.6
716.156	27688.35
716.499	27743.49
716.843	27664.63
717.186	27526.78
717.53	27746.21
717.873	27552.09
718.216	27590.73
718.559	27453.33
718.902	27241.81
719.246	27390.73
719.589	27242.04
719.932	27146.45
720.275	27155.49
720.617	27123.17
720.96	27075.49
721.303	27066
721.646	27105.77
721.989	26771.09
722.331	26934.7
722.674	26861.03
723.016	26951.42
723.359	26680.24
723.701	26774.93
724.044	26631.43
724.386	26523.86
724.729	26622.17
725.071	26569.51
725.413	26464.66
725.755	26467.6
726.097	26448.39
726.439	26269.18
726.782	26327.49
727.124	26499.68
727.465	26310.54
727.807	26296.75
728.149	26204.33
728.491	26061.96
728.833	26154.61
729.175	25974.05
729.516	25947.38
729.858	25990.77
730.199	25996.19
730.541	25980.15
730.882	26020.83
731.224	26130.43
731.565	25831.91
731.906	25773.15
732.248	25857.22
732.589	25720.27
732.93	25650.67
733.271	25711.23
733.612	25571.12
733.953	25668.52
734.294	25590.56
734.635	25497.68
734.976	25543.78
735.317	25386.27
735.658	25510.33
735.999	25314.86
736.339	25291.58
736.68	25411.8
737.021	25307.4
737.361	25159.61
737.702	25282.77
738.042	25219.27
738.383	25236.44
738.723	25219.94
739.063	25177.46
739.404	25176.1
739.744	25154.18
740.084	24974.07
740.424	25124.13
740.764	24929.33
741.104	25034.19
741.444	24864.02
741.784	24838.94
742.124	24897.01
742.464	24892.27
742.804	24845.72
743.143	24730.92
743.483	24770.92
743.823	24619.51
744.162	24604.37
744.502	24678.26
744.841	24651.82
745.181	24764.14
745.52	24574.54
745.86	24581.32
746.199	24584.93
746.538	24622.67
746.877	24540.87
747.216	24491.15
747.556	24467.42
747.895	24567.31
748.234	24497.03
748.573	24374.77
748.911	24339.74
749.25	24278.5
749.589	24306.3
749.928	24311.72
750.267	24305.17
750.605	24295.9
750.944	24102.46
751.283	24085.74
751.621	24207.99
751.96	24052.52
752.298	24015.68
752.636	23988.56
752.975	23965.51
753.313	23943.59
753.651	23955.57
753.989	23858.4
754.327	23864.73
754.666	23737.27
755.004	23843.03
755.342	23932.97
755.679	23879.41
756.017	23634.9
756.355	23854.33
756.693	23587.22
757.031	23645.52
757.368	23539.99
757.706	23635.81
758.044	23450.5
758.381	23553.1
758.719	23436.71
759.056	23493.21
759.394	23409.14
759.731	23299.99
