Data from hue_50_FLMS001491_81.txt Node
Date: Mon Feb 06 15:11:08 GMT 2017
User: dcchb
Spectrometer: FLMS00149
Trigger mode: 0
Integration Time (sec): 2.000000E-2
Scans to average: 10
Electric dark correction enabled: true
Nonlinearity correction enabled: false
Boxcar width: 0
XAxis mode: Wavelengths
Number of Pixels in Spectrum: 2048
>>>>>Begin Spectral Data<<<<<
341.393	-35.18
341.776	-35.18
342.16	-35.18
342.543	-73.15
342.927	-77.89
343.31	-58.01
343.693	-71.57
344.077	-64.79
344.46	-67.05
344.843	-58.46
345.226	-51.68
345.61	-38.57
345.993	7.08
346.376	5.04
346.759	3.91
347.142	23.35
347.525	56.79
347.908	38.71
348.291	72.39
348.674	71.03
349.057	131.82
349.44	150.12
349.823	130.91
350.206	162.55
350.588	200.07
350.971	219.05
351.354	226.28
351.737	248.2
352.119	261.31
352.502	273.28
352.884	303.57
353.267	283.23
353.65	304.02
354.032	285.94
354.414	304.92
354.797	318.25
355.179	320.74
355.562	319.38
355.944	331.36
356.326	348.31
356.709	342.66
357.091	326.39
357.473	345.6
357.855	338.82
358.238	337.24
358.62	349.21
359.002	337.69
359.384	351.93
359.766	337.01
360.148	348.99
360.53	352.15
360.912	330.23
361.294	344.47
361.676	348.08
362.057	336.11
362.439	324.81
362.821	346.5
363.203	338.59
363.584	318.03
363.966	331.59
364.348	352.83
364.729	335.2
365.111	306.96
365.493	310.34
365.874	323.9
366.256	307.86
366.637	308.99
367.019	325.71
367.4	319.61
367.781	317.35
368.163	336.56
368.544	312.15
368.925	308.76
369.306	337.91
369.688	299.05
370.069	325.71
370.45	311.7
370.831	330.46
371.212	320.06
371.593	327.29
371.974	316.22
372.355	299.05
372.736	312.38
373.117	318.03
373.498	338.59
373.879	312.15
374.26	316.67
374.641	321.19
375.021	339.27
375.402	318.03
375.783	325.26
376.163	349.44
376.544	331.14
376.925	319.16
377.305	346.95
377.686	329.78
378.066	311.25
378.447	354.86
378.827	341.98
379.208	331.81
379.588	333.62
379.968	336.33
380.349	339.95
380.729	321.87
381.109	361.42
381.489	344.69
381.87	338.14
382.25	329.1
382.63	339.27
383.01	360.29
383.39	348.76
383.77	337.46
384.15	349.67
384.53	356.67
384.91	338.82
385.29	346.73
385.67	359.84
386.049	341.08
386.429	362.09
386.809	370.23
387.189	358.25
387.568	375.2
387.948	336.56
388.328	341.3
388.707	373.62
389.087	376.78
389.466	380.17
389.846	372.94
390.225	363.68
390.605	372.04
390.984	372.72
391.363	353.73
391.743	378.82
392.122	378.14
392.501	369.78
392.881	371.59
393.26	379.95
393.639	375.65
394.018	389.89
394.397	382.21
394.776	369.55
395.155	398.48
395.534	383.56
395.913	379.04
396.292	377.01
396.671	392.38
397.05	382.89
397.429	375.43
397.808	389.89
398.186	382.89
398.565	379.95
398.944	392.6
399.323	411.36
399.701	396.22
400.08	388.08
400.458	399.83
400.837	402.77
401.215	400.74
401.594	415.2
401.972	406.61
402.351	393.73
402.729	413.85
403.107	419.95
403.486	405.71
403.864	402.09
404.242	398.03
404.62	409.1
404.999	416.33
405.377	435.77
405.755	439.38
406.133	406.84
406.511	444.13
406.889	406.61
407.267	422.88
407.645	435.99
408.023	429.66
408.401	424.24
408.779	448.42
409.156	440.29
409.534	439.61
409.912	432.83
410.29	447.97
410.667	456.1
411.045	457.69
411.422	452.04
411.8	464.69
412.178	466.73
412.555	479.61
412.933	473.28
413.31	447.52
413.687	468.31
414.065	479.38
414.442	467.63
414.819	484.13
415.197	475.09
415.574	488.65
415.951	503.33
416.328	481.19
416.705	489.32
417.082	504.92
417.46	506.27
417.837	503.33
418.214	516.22
418.591	509.66
418.967	501.75
419.344	519.15
419.721	529.1
420.098	522.77
420.475	523.22
420.852	486.16
421.228	535.42
421.605	532.94
421.982	518.25
422.358	538.36
422.735	552.82
423.111	541.3
423.488	572.71
423.864	539.27
424.241	535.65
424.617	555.54
424.994	560.51
425.37	565.48
425.746	567.74
426.123	552.6
426.499	584.24
426.875	581.3
427.251	569.1
427.627	596.67
428.003	608.19
428.379	605.25
428.756	595.99
429.132	577
429.507	603.22
429.883	598.02
430.259	586.95
430.635	603.44
431.011	624.91
431.387	639.38
431.763	624.01
432.138	631.24
432.514	626.49
432.89	636.66
433.265	651.58
433.641	642.09
434.016	643.9
434.392	649.09
434.767	672.6
435.143	668.3
435.518	689.77
435.894	692.48
436.269	690.67
436.644	720.73
437.02	652.71
437.395	696.32
437.77	697.91
438.145	693.84
438.52	725.7
438.895	707.4
439.271	716.89
439.646	713.95
440.021	722.76
440.395	737.45
440.77	728.64
441.145	732.93
441.52	727.51
441.895	772.03
442.27	753.27
442.645	762.08
443.019	760.28
443.394	777.23
443.769	787.62
444.143	779.03
444.518	788.3
444.892	791.91
445.267	790.33
445.641	777.45
446.016	808.64
446.39	804.8
446.764	805.25
447.139	803.89
447.513	806.6
447.887	820.61
448.262	801.18
448.636	833.04
449.01	817.22
449.384	827.17
449.758	836.43
450.132	847.73
450.506	830.56
450.88	843.89
451.254	872.14
451.628	855.87
452.002	866.49
452.376	889.09
452.75	880.5
453.123	863.78
453.497	900.16
453.871	872.59
454.244	927.73
454.618	914.62
454.992	940.16
455.365	963.66
455.739	953.94
456.112	975.19
456.486	948.07
456.859	969.99
457.232	998.46
457.606	993.94
457.979	1004.79
458.352	1008.41
458.725	1008.86
459.099	1040.95
459.472	1034.85
459.845	1030.33
460.218	1063.77
460.591	1078.01
460.964	1086.6
461.337	1103.54
461.71	1096.09
462.083	1137.22
462.456	1118.69
462.829	1138.8
463.201	1147.16
463.574	1158.91
463.947	1169.98
464.32	1209.53
464.692	1199.14
465.065	1208.63
465.438	1222.64
465.81	1283.2
466.183	1270.32
466.555	1287.49
466.928	1293.37
467.3	1334.5
467.672	1343.76
468.045	1364.55
468.417	1377.66
468.789	1390.32
469.161	1408.85
469.534	1450.2
469.906	1465.12
470.278	1466.92
470.65	1515.96
471.022	1526.36
471.394	1571.78
471.766	1616.07
472.138	1610.2
472.51	1646.81
472.882	1687.48
473.253	1739.23
473.625	1729.97
473.997	1803.64
474.369	1836.86
474.74	1875.73
475.112	1916.86
475.484	1956.4
475.855	2016.74
476.227	2042.5
476.598	2079.56
476.97	2156.62
477.341	2222.61
477.713	2247.7
478.084	2299.22
478.455	2404.08
478.827	2444.3
479.198	2493.11
479.569	2549.38
479.94	2653.11
480.311	2727.23
480.682	2829.6
481.053	2891.07
481.424	2967.22
481.795	3025.75
482.166	3105.3
482.537	3202.92
482.908	3315.24
483.279	3344.62
483.65	3510.94
484.021	3539.64
484.391	3676.13
484.762	3764.49
485.133	3849.46
485.503	3959.29
485.874	4028.67
486.244	4186.18
486.615	4338.04
486.985	4371.71
487.356	4543.45
487.726	4642.66
488.097	4796.55
488.467	4896.44
488.837	5044.68
489.207	5172.82
489.578	5314.51
489.948	5408.97
490.318	5596.99
490.688	5656.87
491.058	5809.18
491.428	5947.48
491.798	6069.06
492.168	6234.03
492.538	6329.4
492.908	6521.26
493.278	6640.8
493.648	6781.81
494.017	6935.48
494.387	7048.25
494.757	7173.89
495.126	7385.87
495.496	7403.72
495.866	7530.49
496.235	7759.64
496.605	7858.62
496.974	7985.85
497.344	8172.51
497.713	8251.38
498.082	8437.59
498.452	8594.19
498.821	8648.88
499.19	8741.08
499.559	8950.34
499.928	9024.69
500.298	9166.16
500.667	9370.45
501.036	9348.98
501.405	9517.33
501.774	9639.82
502.143	9757.55
502.512	9834.39
502.88	10027.38
503.249	10059.02
503.618	10148.05
503.987	10358.89
504.356	10490.87
504.724	10584.65
505.093	10720.24
505.462	10742.84
505.83	10935.15
506.199	11065.99
506.567	11193.67
506.936	11159.55
507.304	11365.2
507.672	11532.65
508.041	11518.41
508.409	11775.58
508.777	11880.89
509.145	11984.84
509.514	12021.22
509.882	12188.45
510.25	12303.25
510.618	12341.89
510.986	12439.52
511.354	12653.07
511.722	12743.46
512.09	12925.38
512.458	12906.4
512.826	13009.67
513.193	13067.3
513.561	13175.32
513.929	13361.53
514.297	13480.62
514.664	13626.83
515.032	13588.87
515.4	13850.78
515.767	13905.92
516.135	13991.34
516.502	13990.44
516.869	14161.96
517.237	14292.35
517.604	14295.74
517.972	14491.89
518.339	14562.85
518.706	14641.04
519.073	14709.29
519.44	14864.54
519.808	14986.34
520.175	15024.53
520.542	15260.23
520.909	15236.51
521.276	15377.97
521.643	15500.45
522.009	15623.16
522.376	15723.95
522.743	15909.93
523.11	15915.81
523.477	16119.65
523.843	16202.13
524.21	16414.55
524.577	16534.55
524.943	16644.15
525.31	16772.74
525.676	16858.38
526.043	16929.57
526.409	17043.69
526.776	17217.92
527.142	17322.33
527.508	17429.22
527.874	17568.65
528.241	17669.66
528.607	17673.73
528.973	17952.14
529.339	17885.93
529.705	18015.87
530.071	18300.15
530.437	18277.1
530.803	18448.63
531.169	18475.97
531.535	18481.84
531.901	18556.42
532.267	18737.21
532.632	18888.39
532.998	18836.86
533.364	19069.85
533.73	19115.95
534.095	19242.95
534.461	19313.01
534.826	19365.89
535.192	19509.84
535.557	19578.99
535.923	19609.72
536.288	19716.16
536.653	19803.17
537.019	19748.25
537.384	19841.36
537.749	19961.81
538.114	20125.87
538.479	20094.91
538.845	20195.25
539.21	20183.27
539.575	20317.95
539.94	20379.65
540.305	20516.82
540.67	20527.89
541.034	20722.24
541.399	20681.33
541.764	20746.19
542.129	20840.2
542.494	20858.05
542.858	21045.17
543.223	21021.44
543.587	21159.29
543.952	21129.91
544.316	21238.38
544.681	21315.89
545.045	21430.47
545.41	21544.59
545.774	21539.17
546.138	21597.24
546.503	21681.53
546.867	21752.72
547.231	21896.22
547.595	21950.23
547.959	22009.21
548.324	22183.67
548.688	22059.15
549.052	22177.79
549.416	22213.5
549.779	22282.65
550.143	22339.14
550.507	22603.54
550.871	22577.1
551.235	22591.79
551.599	22808.06
551.962	22868.62
552.326	22814.61
552.689	22910.65
553.053	22885.57
553.417	23023.19
553.78	23286.01
554.143	23131.44
554.507	23375.05
554.87	23354.94
555.234	23596.29
555.597	23495.05
555.96	23607.13
556.323	23640.35
556.686	23850.06
557.05	23867.24
557.413	24002.83
557.776	24102.94
558.139	24084.64
558.502	24278.98
558.865	24327.11
559.228	24559.65
559.59	24563.49
559.953	24672.19
560.316	24877.38
560.679	24872.41
561.041	25052.07
561.404	25144.72
561.767	25299.29
562.129	25182.46
562.492	25423.58
562.854	25339.97
563.217	25485.95
563.579	25697.47
563.941	25741.09
564.304	25822.22
564.666	26118.25
565.028	25991.25
565.39	26144.69
565.753	26374.07
566.115	26350.34
566.477	26471.46
566.839	26547.4
567.201	26622.42
567.563	26706.71
567.925	26929.53
568.287	26863.77
568.648	26896.99
569.01	27202.07
569.372	27361.16
569.734	27182.63
570.095	27550.08
570.457	27579.68
570.819	27623.07
571.18	27785.55
571.542	27867.59
571.903	27915.72
572.265	28155.04
572.626	28184.87
572.987	28091.54
573.349	28319.78
573.71	28461.02
574.071	28529.49
574.432	28706.43
574.794	28812.87
575.155	28794.57
575.516	28784.85
575.877	29020.78
576.238	29135.35
576.599	29299.41
576.96	29155.69
577.32	29483.14
577.681	29559.29
578.042	29764.94
578.403	29677.48
578.763	29802.68
579.124	29922.22
579.485	30096.23
579.845	30244.25
580.206	30297.13
580.566	30248.99
580.927	30297.81
581.287	30615.76
581.648	30541.41
582.008	30869.99
582.368	30882.42
582.728	31089.42
583.089	31049.65
583.449	31148.18
583.809	31368.06
584.169	31450.77
584.529	31451.9
584.889	31900.25
585.249	31688.28
585.609	31665.45
585.969	32123.75
586.329	32203.74
586.688	32265.44
587.048	32320.8
587.408	32285.78
587.768	32544.53
588.127	32622.49
588.487	32672.43
588.846	33022.48
589.206	32874.01
589.565	33106.77
589.925	33278.52
590.284	33207.11
590.643	33507.89
591.003	33698.17
591.362	33787.43
591.721	33830.14
592.08	33921.44
592.44	34132.73
592.799	34195.33
593.158	34239.62
593.517	34400.52
593.876	34540.18
594.235	34578.6
594.593	34656.33
594.952	34817.01
595.311	34921.64
595.67	35145.81
596.029	35291.8
596.387	35462.64
596.746	35501.51
597.104	35548.97
597.463	35670.32
597.822	35758.68
598.18	35668.96
598.538	35847.26
598.897	36123.41
599.255	35912.57
599.613	36448.15
599.972	36344.65
600.33	36374.93
600.688	36427.36
601.046	36648.37
601.404	36730.86
601.762	36912.77
602.12	36997.29
602.478	37042.03
602.836	37093.33
603.194	37105.31
603.552	37303.72
603.91	37155.25
604.268	37526.54
604.625	37414.45
604.983	37641.34
605.341	37464.85
605.698	37984.83
606.056	37761.79
606.413	37911.39
606.771	38204.94
607.128	38121.33
607.485	37942.58
607.843	38126.98
608.2	38337.37
608.557	38510.47
608.914	38504.14
609.272	38639.96
609.629	38718.37
609.986	39023.45
610.343	38820.74
610.7	39118.59
611.057	39174.41
611.414	39230.45
611.771	39230
612.127	39346.15
612.484	39466.38
612.841	39548.86
613.198	39501.86
613.554	39490.78
613.911	39932.58
614.267	39837.44
614.624	39756.54
614.98	40037.89
615.337	40218
615.693	40074.5
616.05	40102.74
616.406	40253.93
616.762	40194.27
617.118	40349.74
617.475	40253.25
617.831	40495.05
618.187	40683.07
618.543	40687.81
618.899	40932.1
619.255	40772.33
619.611	40818.43
619.967	40975.49
620.323	41080.8
620.678	40859.11
621.034	40843.74
621.39	40950.63
621.746	40830.41
622.101	41358.08
622.457	41046.45
622.812	41271.53
623.168	41253
623.523	41425.87
623.879	41383.84
624.234	41226.56
624.589	41290.06
624.945	41422.26
625.3	41489.6
625.655	41460.68
626.01	41553.33
626.365	41554.23
626.72	41456.83
627.075	41420.9
627.43	41650.27
627.785	41346.55
628.14	41479.66
628.495	41566.66
628.85	41590.39
629.205	41431.52
629.559	41769.37
629.914	41568.02
630.269	41593.78
630.623	41568.02
630.978	41573.21
631.332	41729.14
631.687	41718.3
632.041	41542.48
632.396	41771.63
632.75	41496.15
633.104	41497.96
633.459	41439.43
633.813	41421.58
634.167	41349.72
634.521	41454.35
634.875	41350.62
635.229	41523.05
635.583	41182.94
635.937	41351.07
636.291	41321.7
636.645	41335.48
636.999	41222.04
637.352	41237.4
637.706	41121.25
638.06	41363.28
638.413	41206.22
638.767	41245.99
639.121	41254.13
639.474	41036.73
639.828	40959.67
640.181	41039.67
640.534	41044.42
640.888	40959.45
641.241	40852.56
641.594	40753.12
641.947	40971.42
642.301	40885.55
642.654	40854.36
643.007	40798.55
643.36	40784.53
643.713	40854.36
644.066	40859.11
644.419	40582.96
644.771	40493.47
645.124	39981.84
645.477	40035.85
645.83	39793.83
646.182	39573.04
646.535	39517.9
646.888	39533.49
647.24	39388.64
647.593	39557.9
647.945	39443.1
648.298	39314.07
648.65	39266.38
649.002	39193.39
649.355	39311.13
649.707	39307.51
650.059	39360.62
650.411	39996.99
650.763	39953.37
651.115	40287.37
651.467	40246.02
651.819	40225.23
652.171	40204.89
652.523	40041.5
652.875	40131.67
653.227	39842.19
653.578	40090.54
653.93	40078.11
654.282	39851
654.633	39731.68
654.985	39940.04
655.337	39900.49
655.688	39939.13
656.039	40142.97
656.391	39591.57
656.742	39706.15
657.094	39681.74
657.445	39835.63
657.796	39752.02
658.147	39667.28
658.498	39805.35
658.849	39592.7
659.2	39587.05
659.551	39632.02
659.902	39571.46
660.253	39519.48
660.604	39665.24
660.955	39346.83
661.306	39585.92
661.656	39585.47
662.007	39670.44
662.358	39614.17
662.708	39514.06
663.059	39505.92
663.409	39293.27
663.76	39564.91
664.11	39545.7
664.461	39684
664.811	39600.39
665.161	39476.77
665.511	39460.28
665.862	39604.23
666.212	39543.66
666.562	39641.97
666.912	39458.02
667.262	39442.2
667.612	39509.77
667.962	39422.31
668.312	39406.04
668.662	39630.44
669.011	39446.04
669.361	39427.28
669.711	39310.9
670.06	39397.9
670.41	39340.28
670.76	39314.52
671.109	39323.1
671.459	39247.85
671.808	39127.4
672.157	39202.2
672.507	38987.97
672.856	39001.53
673.205	39118.82
673.554	39222.54
673.904	38980.51
674.253	39223.67
674.602	39291.69
674.951	38617.81
675.3	38381.43
675.649	39040.63
675.998	39097.12
676.346	39023.45
676.695	39112.26
677.044	38806.96
677.393	38987.29
677.741	39122.21
678.09	38692.84
678.438	38805.6
678.787	38937.8
679.135	38834.3
679.484	38606.29
679.832	38770.12
680.181	38497.36
680.529	38653.97
680.877	38426.63
681.225	38256.92
681.573	38657.13
681.922	38306.63
682.27	38373.98
682.618	38263.92
682.966	38227.77
683.314	38356.12
683.661	38196.13
684.009	37997.72
684.357	37978.73
684.705	37750.26
685.053	38015.12
685.4	37811.28
685.748	37725.18
686.095	37816.7
686.443	37601.12
686.79	37522.02
687.138	37645.86
687.485	37550.04
687.832	37519.54
688.18	37402.03
688.527	37199.77
688.874	37136.95
689.221	37247.68
689.568	37113.67
689.915	36990.51
690.262	36930.4
690.609	36792.78
690.956	36846.11
691.303	36666
691.65	36507.81
691.997	36590.52
692.344	36400.47
692.69	36173.58
693.037	36368.83
693.383	36090.42
693.73	36198.21
694.077	35968.16
694.423	35944.44
694.769	35875.96
695.116	35599.36
695.462	35718
695.808	35600.04
696.155	35563.66
696.501	35314.4
696.847	35414.73
697.193	35195.98
697.539	35172.25
697.885	35030.79
698.231	34973.84
698.577	35031.92
698.923	34971.13
699.269	34644.58
699.614	34537.02
699.96	34492.72
700.306	34523.46
700.651	34297.02
700.997	34130.02
701.342	34251.37
701.688	34162.34
702.033	33920.76
702.379	33974.09
702.724	33860.65
703.069	33956.92
703.415	33526.87
703.76	33593.99
704.105	33644.61
704.45	33432.19
704.795	33359.19
705.14	33205.98
705.485	33271.51
705.83	33142.25
706.175	33216.37
706.52	33102.25
706.865	32901.35
707.209	32972.99
707.554	32899.54
707.899	32899.77
708.243	32657.52
708.588	32639.66
708.932	32528.25
709.277	32429.73
709.621	32416.17
709.966	32188.15
710.31	32276.28
710.654	32118.77
710.998	32077.87
711.342	32067.25
711.687	31976.86
712.031	31810.76
712.375	31667.49
712.719	31867.71
713.063	31748.84
713.407	31702.97
713.75	31641.5
714.094	31553.14
714.438	31472.46
714.782	31546.36
715.125	31342.98
715.469	31400.83
715.812	31233.83
716.156	31095.07
716.499	31083.77
716.843	31060.72
717.186	30961.52
717.53	30993.61
717.873	30903.21
718.216	30796.32
718.559	30655.76
718.902	30552.49
719.246	30598.36
719.589	30521.98
719.932	30553.84
720.275	30415.99
720.617	30273.85
720.96	30181.42
721.303	30227.52
721.646	30304.13
721.989	30118.37
722.331	30314.75
722.674	30149.11
723.016	30177.36
723.359	30089.22
723.701	30129.45
724.044	29955.89
724.386	29850.81
724.729	29832.96
725.071	29912.05
725.413	29735.33
725.755	29712.28
726.097	29663.02
726.439	29501.44
726.782	29589.58
727.124	29584.6
727.465	29420.99
727.807	29283.82
728.149	29312.97
728.491	29240.66
728.833	29251.96
729.175	29087.89
729.516	29142.36
729.858	29149.81
730.199	29189.13
730.541	29079.53
730.882	28881.8
731.224	29075.46
731.565	28839.76
731.906	28757.28
732.248	28833.89
732.589	28673.44
732.93	28666.89
733.271	28745.76
733.612	28636.38
733.953	28700.78
734.294	28584.63
734.635	28456.27
734.976	28618.3
735.317	28399.32
735.658	28451.07
735.999	28321.36
736.339	28240.23
736.68	28280.23
737.021	28220.35
737.361	28150.52
737.702	28192.55
738.042	28171.31
738.383	28031.2
738.723	28096.96
739.063	27963.63
739.404	28054.93
739.744	27894.93
740.084	27882.05
740.424	27861.71
740.764	27756.4
741.104	27917.75
741.444	27703.97
741.784	27770.64
742.124	27662.62
742.464	27620.14
742.804	27609.97
743.143	27630.08
743.483	27595.96
743.823	27440.48
744.162	27384.44
744.502	27376.07
744.841	27265.34
745.181	27378.56
745.52	27257.66
745.86	27303.08
746.199	27323.65
746.538	27157.77
746.877	27188.96
747.216	27118.68
747.556	27050.66
747.895	27105.35
748.234	27005.01
748.573	26927.05
748.911	26793.72
749.25	26828.74
749.589	26761.4
749.928	26717.11
750.267	26733.83
750.605	26635.08
750.944	26513.72
751.283	26434.4
751.621	26622.65
751.96	26387.63
752.298	26407.51
752.636	26319.15
752.975	26261.3
753.313	26138.59
753.651	26259.72
753.989	26149.67
754.327	26032.83
754.666	25947.86
755.004	25992.38
755.342	26020.4
755.679	26038.26
756.017	25781.54
756.355	25793.29
