Data from hue_40_FLMS001491_98.txt Node
Date: Mon Feb 06 15:08:51 GMT 2017
User: dcchb
Spectrometer: FLMS00149
Trigger mode: 0
Integration Time (sec): 2.000000E-2
Scans to average: 10
Electric dark correction enabled: true
Nonlinearity correction enabled: false
Boxcar width: 0
XAxis mode: Wavelengths
Number of Pixels in Spectrum: 2048
>>>>>Begin Spectral Data<<<<<
341.393	-28.98
341.776	-28.98
342.16	-28.98
342.543	-62.65
342.927	-70.11
343.31	-67.17
343.693	-69.21
344.077	-54.29
344.46	-52.03
344.843	-42.32
345.226	-40.28
345.61	-36.44
345.993	-28.76
346.376	-7.06
346.759	-10.68
347.142	26.38
347.525	45.82
347.908	55.54
348.291	77.23
348.674	88.3
349.057	114.97
349.44	140.73
349.823	144.8
350.206	152.48
350.588	202.65
350.971	202.2
351.354	231.8
351.737	253.27
352.119	257.79
352.502	260.73
352.884	287.17
353.267	295.75
353.65	281.52
354.032	310.67
354.414	331.23
354.797	319.26
355.179	329.43
355.562	350.67
355.944	323.55
356.326	350.44
356.709	348.18
357.091	322.65
357.473	362.65
357.855	347.73
358.238	354.28
358.62	341.18
359.002	348.86
359.384	358.8
359.766	345.47
360.148	346.6
360.53	356.09
360.912	343.44
361.294	350.22
361.676	361.52
362.057	347.05
362.439	345.25
362.821	325.58
363.203	312.93
363.584	335.98
363.966	357.9
364.348	323.78
364.729	321.97
365.111	342.31
365.493	332.59
365.874	320.84
366.256	338.01
366.637	313.61
367.019	349.09
367.4	314.29
367.781	299.6
368.163	312.48
368.544	325.36
368.925	312.7
369.306	331.91
369.688	316.32
370.069	320.39
370.45	323.1
370.831	331.23
371.212	319.71
371.593	335.08
371.974	330.1
372.355	331.91
372.736	321.29
373.117	316.77
373.498	305.7
373.879	311.57
374.26	297.56
374.641	327.84
375.021	325.36
375.402	337.34
375.783	354.06
376.163	342.99
376.544	319.03
376.925	340.95
377.305	341.63
377.686	327.62
378.066	333.04
378.447	336.66
378.827	328.3
379.208	352.93
379.588	337.34
379.968	331.46
380.349	349.09
380.729	339.82
381.109	345.02
381.489	356.32
381.87	333.04
382.25	358.58
382.63	355.87
383.01	353.38
383.39	367.17
383.77	351.12
384.15	367.84
384.53	350.22
384.91	365.81
385.29	347.5
385.67	350.67
386.049	379.59
386.429	357.67
386.809	368.3
387.189	358.58
387.568	368.3
387.948	387.05
388.328	378.69
388.707	375.3
389.087	355.41
389.466	381.85
389.846	377.33
390.225	371.01
390.605	373.72
390.984	362.42
391.363	370.56
391.743	389.09
392.122	374.85
392.501	387.73
392.881	401.51
393.26	385.24
393.639	392.25
394.018	374.17
394.397	387.05
394.776	397
395.155	399.03
395.534	391.12
395.913	411.46
396.292	385.24
396.671	403.77
397.05	393.38
397.429	385.92
397.808	394.51
398.186	406.94
398.565	408.29
398.944	421.63
399.323	427.05
399.701	395.41
400.08	426.6
400.458	415.07
400.837	431.57
401.215	418.24
401.594	400.38
401.972	416.2
402.351	416.43
402.729	417.56
403.107	422.76
403.486	431.12
403.864	441.06
404.242	421.63
404.62	431.34
404.999	419.82
405.377	431.57
405.755	461.63
406.133	443.1
406.511	446.49
406.889	443.55
407.267	441.97
407.645	467.05
408.023	460.27
408.401	463.21
408.779	459.37
409.156	469.99
409.534	471.12
409.912	466.6
410.29	469.99
410.667	480.38
411.045	477.67
411.422	477.9
411.8	474.73
412.178	484
412.555	482.87
412.933	483.77
413.31	481.29
413.687	486.26
414.065	506.14
414.442	509.08
414.819	498.91
415.197	524.22
415.574	518.12
415.951	507.27
416.328	540.49
416.705	532.36
417.082	541.85
417.46	541.62
417.837	537.56
418.214	538.69
418.591	562.64
418.967	522.64
419.344	539.82
419.721	551.12
420.098	543.88
420.475	554.51
420.852	558.12
421.228	579.36
421.605	569.42
421.982	552.02
422.358	573.26
422.735	569.65
423.111	576.2
423.488	581.17
423.864	594.73
424.241	593.6
424.617	603.77
424.994	597.22
425.37	606.71
425.746	604.45
426.123	614.84
426.499	596.54
426.875	597.22
427.251	636.31
427.627	619.36
428.003	641.96
428.379	633.15
428.756	638.34
429.132	638.8
429.507	643.77
429.883	653.03
430.259	671.34
430.635	661.4
431.011	668.63
431.387	678.12
431.763	671.79
432.138	704.33
432.514	705.24
432.89	712.69
433.265	700.26
433.641	723.54
434.016	699.36
434.392	742.07
434.767	722.41
435.143	719.02
435.518	740.04
435.894	745.01
436.269	757.44
436.644	776.42
437.02	755.18
437.395	771.45
437.77	751.79
438.145	778.91
438.52	789.53
438.895	771.9
439.271	774.39
439.646	828.4
440.021	806.7
440.395	814.39
440.77	805.35
441.145	802.86
441.52	846.93
441.895	845.35
442.27	847.15
442.645	853.03
443.019	843.99
443.394	863.42
443.769	834.05
444.143	865.91
444.518	868.17
444.892	869.3
445.267	864.78
445.641	882.63
446.016	898.68
446.39	888.28
446.764	894.84
447.139	891.9
447.513	905.23
447.887	912.01
448.262	913.37
448.636	918.56
449.01	915.17
449.384	914.95
449.758	971.22
450.132	919.47
450.506	959.01
450.88	968.73
451.254	947.26
451.628	959.92
452.002	935.51
452.376	968.28
452.75	970.54
453.123	994.72
453.497	993.14
453.871	1001.95
454.244	1038.11
454.618	1040.82
454.992	1043.98
455.365	1044.89
455.739	1077.2
456.112	1069.29
456.486	1103.42
456.859	1126.02
457.232	1105
457.606	1110.2
457.979	1135.05
458.352	1168.95
458.725	1154.04
459.099	1164.88
459.472	1173.92
459.845	1213.47
460.218	1211.89
460.591	1204.66
460.964	1226.8
461.337	1231.1
461.71	1274.94
462.083	1275.16
462.456	1293.47
462.829	1279.23
463.201	1312.45
463.574	1326.01
463.947	1339.8
464.32	1369.85
464.692	1376.86
465.065	1391.09
465.438	1433.13
465.81	1435.39
466.183	1434.48
466.555	1488.49
466.928	1480.58
467.3	1507.7
467.672	1517.64
468.045	1555.83
468.417	1536.63
468.789	1566
469.161	1581.6
469.534	1600.13
469.906	1639
470.278	1664.08
470.65	1711.99
471.022	1729.84
471.394	1769.16
471.766	1806.9
472.138	1810.97
472.51	1842.15
472.882	1889.84
473.253	1913.79
473.625	1957.41
473.997	1974.35
474.369	1984.52
474.74	2026.78
475.112	2101.13
475.484	2177.06
475.855	2165.99
476.227	2234.24
476.598	2276.49
476.97	2331.18
477.341	2362.37
477.713	2415.47
478.084	2472.87
478.455	2532.53
478.827	2577.28
479.198	2685.07
479.569	2728.23
479.94	2784.05
480.311	2843.94
480.682	2947.89
481.053	2991.73
481.424	3097.49
481.795	3136.13
482.166	3209.35
482.537	3235.34
482.908	3402.57
483.279	3483.47
483.65	3542.45
484.021	3640.53
484.391	3756.91
484.762	3759.39
485.133	3855.44
485.503	3967.52
485.874	4041.65
486.244	4115.77
486.615	4254.97
486.985	4341.98
487.356	4491.8
487.726	4528.19
488.097	4661.74
488.467	4732.25
488.837	4879.36
489.207	4920.72
489.578	5138.79
489.948	5169.3
490.318	5286.36
490.688	5378.79
491.058	5516.41
491.428	5598.21
491.798	5693.13
492.168	5844.08
492.538	5924.31
492.908	6040.46
493.278	6183.51
493.648	6200.91
494.017	6321.36
494.387	6425.54
494.757	6538.53
495.126	6696.94
495.496	6676.83
495.866	6864.62
496.235	6979.42
496.605	7054.67
496.974	7175.8
497.344	7254.44
497.713	7368.56
498.082	7397.94
498.452	7635.9
498.821	7633.64
499.19	7779.17
499.559	7836.12
499.928	7939.4
500.298	7968.1
500.667	8123.35
501.036	8104.82
501.405	8299.84
501.774	8321.98
502.143	8435.65
502.512	8517.91
502.88	8620.73
503.249	8685.82
503.618	8742.31
503.987	8797.23
504.356	8882.87
504.724	9047.84
505.093	9055.3
505.462	9200.83
505.83	9293.48
506.199	9341.84
506.567	9474.95
506.936	9475.63
507.304	9607.6
507.672	9678.79
508.041	9729.63
508.409	9851.89
508.777	9910.42
509.145	10004.2
509.514	10092.33
509.882	10139.11
510.25	10176.85
510.618	10234.48
510.986	10311.08
511.354	10500.68
511.722	10525.99
512.09	10604.64
512.458	10698.42
512.826	10720.11
513.193	10808.7
513.561	10842.37
513.929	10927.34
514.297	11054.57
514.664	11153.32
515.032	11124.17
515.4	11234
515.767	11334.33
516.135	11419.3
516.502	11337.72
516.869	11539.75
517.237	11594.89
517.604	11561.22
517.972	11676.92
518.339	11835.11
518.706	11832.17
519.073	11846.64
519.44	11949.23
519.808	12056.58
520.175	12042.34
520.542	12226.29
520.909	12350.13
521.276	12327.08
521.643	12450.92
522.009	12553.96
522.376	12590.8
522.743	12761.64
523.11	12791.7
523.477	12923.9
523.843	13001.41
524.21	13134.51
524.577	13202.08
524.943	13264.45
525.31	13311.46
525.676	13443.43
526.043	13513.49
526.409	13652.24
526.776	13789.19
527.142	13793.71
527.508	13915.74
527.874	13886.81
528.241	14031.66
528.607	14086.8
528.973	14147.14
529.339	14131.55
529.705	14308.27
530.071	14375.61
530.437	14543.52
530.803	14578.32
531.169	14621.93
531.535	14629.16
531.901	14698.99
532.267	14807.46
532.632	14893.79
532.998	14970.4
533.364	15068.7
533.73	15007.91
534.095	15149.83
534.461	15173.78
534.826	15290.39
535.192	15364.51
535.557	15450.84
535.923	15549.37
536.288	15479.08
536.653	15582.58
537.019	15633.88
537.384	15675.92
537.749	15822.8
538.114	15887.21
538.479	15916.14
538.845	16046.75
539.21	16016.25
539.575	16105.06
539.94	16034.78
540.305	16217.14
540.67	16292.17
541.034	16387.54
541.399	16394.54
541.764	16418.72
542.129	16456.91
542.494	16629.79
542.858	16681.99
543.223	16665.72
543.587	16937.35
543.952	16873.62
544.316	16874.75
544.681	16965.6
545.045	17082.88
545.41	17068.65
545.774	17140.06
546.138	17162.2
546.503	17258.47
546.867	17228.19
547.231	17389.54
547.595	17408.3
547.959	17557.22
548.324	17493.04
548.688	17576.88
549.052	17719.03
549.416	17707.27
549.779	17790.66
550.143	17809.87
550.507	17984.33
550.871	18006.48
551.235	17964.67
551.599	18194.49
551.962	18086.25
552.326	18304.32
552.689	18337.31
553.053	18273.36
553.417	18310.87
553.78	18530.53
554.143	18494.15
554.507	18601.04
554.87	18678.32
555.234	18776.4
555.597	18643.3
555.96	18746.12
556.323	18942.27
556.686	18948.15
557.05	19122.6
557.413	19055.71
557.776	19116.73
558.139	19163.73
558.502	19276.72
558.865	19262.04
559.228	19455.03
559.59	19519.88
559.953	19486.21
560.316	19723.49
560.679	19777.05
561.041	19822.7
561.404	19840.55
561.767	20032.19
562.129	19918.74
562.492	20162.58
562.854	20211.39
563.217	20161.9
563.579	20350.37
563.941	20420.65
564.304	20443.7
564.666	20611.15
565.028	20595.56
565.39	20685.5
565.753	20814.76
566.115	20887.08
566.477	20967.98
566.839	21091.14
567.201	21080.75
567.563	21085.49
567.925	21386.95
568.287	21298.37
568.648	21362.09
569.01	21433.28
569.372	21580.39
569.734	21612.26
570.095	21574.74
570.457	21844.57
570.819	21888.41
571.18	21809.09
571.542	22121.62
571.903	22189.19
572.265	22310.54
572.626	22295.4
572.987	22392.58
573.349	22485.68
573.71	22510.76
574.071	22658.33
574.432	22733.36
574.794	22999.79
575.155	22842.96
575.516	23007.25
575.877	23242.95
576.238	23335.6
576.599	23505.77
576.96	23534.01
577.32	23614.69
577.681	23731.97
578.042	24072.08
578.403	24032.53
578.763	24065.75
579.124	24280.21
579.485	24452.63
579.845	24588
580.206	24684.27
580.566	24811.27
580.927	24940.3
581.287	25228.43
581.648	25312.5
582.008	25557.24
582.368	25675.65
582.728	25842.43
583.089	25921.75
583.449	26095.98
583.809	26278.12
584.169	26507.27
584.529	26737.32
584.889	26948.84
585.249	27031.78
585.609	27140.7
585.969	27576.39
586.329	27557.41
586.688	27798.31
587.048	28060.45
587.408	28127.79
587.768	28394.9
588.127	28550.15
588.487	28697.72
588.846	29135.22
589.206	29092.96
589.565	29415.22
589.925	29754.64
590.284	29974.52
590.643	30014.3
591.003	30276.89
591.362	30616.09
591.721	30598.46
592.08	30917.77
592.44	31200.93
592.799	31418.78
593.158	31439.34
593.517	31735.83
593.876	32089.27
594.235	32103.96
594.593	32387.79
594.952	32676.6
595.311	32736.26
595.67	32818.06
596.029	33239.97
596.387	33477.93
596.746	33585.05
597.104	33684.48
597.463	33869.56
597.822	34176.9
598.18	34088.76
598.538	34413.28
598.897	34624.8
599.255	34619.82
599.613	35325.79
599.972	35133.03
600.33	35486.92
600.688	35462.06
601.046	35673.13
601.404	35977.98
601.762	35993.35
602.12	36389.72
602.478	36428.59
602.836	36741.8
603.194	36649.83
603.552	36792.65
603.91	36740.45
604.268	37142.92
604.625	37163.26
604.983	37454.55
605.341	37455
605.698	37713.08
606.056	37916.01
606.413	37991.26
606.771	38132.27
607.128	38374.98
607.485	38201.42
607.843	38379.27
608.2	38780.17
608.557	38881.86
608.914	38936.77
609.272	39302.64
609.629	39257.89
609.986	39473.48
610.343	39474.16
610.7	39661.73
611.057	39830.99
611.414	39774.94
611.771	39942.4
612.127	40198.21
612.484	40198.21
612.841	40409.28
613.198	40307.81
613.554	40335.38
613.911	40677.29
614.267	40833.9
614.624	40816.27
614.98	41017.4
615.337	41117.51
615.693	41192.31
616.05	41242.47
616.406	41498.74
616.762	41340.1
617.118	41395.92
617.475	41619.64
617.831	41642.01
618.187	41879.29
618.543	42015.34
618.899	42195.44
619.255	42084.03
619.611	42179.17
619.967	42235.9
620.323	42514.31
620.678	42386.63
621.034	42314.99
621.39	42325.38
621.746	42335.1
622.101	42891.02
622.457	42486.96
622.812	42743.9
623.168	42853.28
623.523	42888.31
623.879	42868.42
624.234	42787.75
624.589	43008.53
624.945	42969.44
625.3	43143.44
625.655	43025.7
626.01	43140.73
626.365	43175.98
626.72	43213.95
627.075	43225.47
627.43	43288.07
627.785	43236.55
628.14	43231.35
628.495	43481.74
628.85	43443.32
629.205	43220.05
629.559	43556.31
629.914	43270.9
630.269	43438.58
630.623	43405.13
630.978	43248.75
631.332	43442.87
631.687	43553.83
632.041	43330.78
632.396	43381.85
632.75	43445.35
633.104	43459.59
633.459	43165.36
633.813	43347.05
634.167	43325.81
634.521	43323.78
634.875	43365.81
635.229	43365.58
635.583	43194.29
635.937	43201.97
636.291	43059.38
636.645	43168.3
636.999	43063.67
637.352	43230.45
637.706	42853.73
638.06	43102.31
638.413	43085.59
638.767	42996.33
639.121	43029.55
639.474	42921.75
639.828	42795.43
640.181	43112.03
640.534	42987.29
640.888	42847.18
641.241	42699.39
641.594	42866.84
641.947	42924.46
642.301	42840.62
642.654	42843.34
643.007	42788.42
643.36	42683.79
643.713	42796.78
644.066	42855.09
644.419	42606.51
644.771	42408.77
645.124	41923.13
645.477	42003.36
645.83	41697.15
646.182	41729.69
646.535	41430.49
646.888	41404.05
647.24	41275.02
647.593	41656.48
647.945	41516.82
648.298	41253.55
648.65	41164.28
649.002	41153.66
649.355	41298.07
649.707	41265.75
650.059	41452.64
650.411	41804.49
650.763	41915.68
651.115	42359.96
651.467	42114.09
651.819	42100.31
652.171	42161.09
652.523	42063.24
652.875	42034.09
653.227	41931.72
653.578	42065.5
653.93	42002.45
654.282	41844.49
654.633	41794.78
654.985	41885.85
655.337	41835.68
655.688	41748.22
656.039	41853.98
656.391	41573.09
656.742	41888.79
657.094	41651.5
657.445	41755
657.796	41847.66
658.147	41685.85
658.498	41793.65
658.849	41770.37
659.2	41678.4
659.551	41524.5
659.902	41682.92
660.253	41603.14
660.604	41737.38
660.955	41555.24
661.306	41573.54
661.656	41594.33
662.007	41592.97
662.358	41545.07
662.708	41630.94
663.059	41492.86
663.409	41308.69
663.76	41586.42
664.11	41541.45
664.461	41601.11
664.811	41589.81
665.161	41555.24
665.511	41491.73
665.862	41412.64
666.212	41740.99
666.562	41512.52
666.912	41569.7
667.262	41441.34
667.612	41545.74
667.962	41570.15
668.312	41442.02
668.662	41562.01
669.011	41487.89
669.361	41356.37
669.711	41371.74
670.06	41498.06
670.41	41270.72
670.76	41199.54
671.109	41410.83
671.459	41271.4
671.808	41122.25
672.157	41262.59
672.507	40993.89
672.856	41107.34
673.205	41174.45
673.554	41188.01
673.904	41043.38
674.253	41279.31
674.602	41121.8
674.951	40568.37
675.3	40412.21
675.649	41032.08
675.998	41033.67
676.346	41009.94
676.695	40933.1
677.044	40675.71
677.393	40946.66
677.741	41025.08
678.09	40860.56
678.438	40671.87
678.787	40850.39
679.135	40777.4
679.484	40651.08
679.832	40697.18
680.181	40469.39
680.529	40610.85
680.877	40418.77
681.225	40409.5
681.573	40669.38
681.922	40355.94
682.27	40213.35
682.618	40357.3
682.966	40216.97
683.314	40327.24
683.661	40193.46
684.009	39942.62
684.357	39966.8
684.705	39848.84
685.053	39933.81
685.4	39827.37
685.748	39586.25
686.095	39638.68
686.443	39628.96
686.79	39558.68
687.138	39570.88
687.485	39547.83
687.832	39449.08
688.18	39446.59
688.527	39273.49
688.874	39209.99
689.221	39031.46
689.568	39030.78
689.915	38911.01
690.262	38946.04
690.609	38781.97
690.956	38576.1
691.303	38618.36
691.65	38455.43
691.997	38503.56
692.344	38294.76
692.69	38302.89
693.037	38346.73
693.383	37922.11
693.73	38247.53
694.077	37834.43
694.423	37853.41
694.769	37758.05
695.116	37669.24
695.462	37577.94
695.808	37440.77
696.155	37628.33
696.501	37281.68
696.847	37359.64
697.193	37029.48
697.539	37086.2
697.885	36926.43
698.231	36815.92
698.577	36825.64
698.923	36603.73
699.269	36545.2
699.614	36378.42
699.96	36327.12
700.306	36369.83
700.651	36184.3
700.997	36184.98
701.342	35986.57
701.688	35976.17
702.033	35759
702.379	35846.68
702.724	35724.43
703.069	35758.78
703.415	35336.87
703.76	35381.39
704.105	35269.75
704.45	35184.78
704.795	34989.76
705.14	34940.27
705.485	35017.55
705.83	34832.7
706.175	34852.13
706.52	34742.53
706.865	34683.33
707.209	34661.86
707.554	34486.72
707.899	34581.63
708.243	34338.7
708.588	34324.69
708.932	34075.43
709.277	34220.29
709.621	34074.3
709.966	33867.75
710.31	34105.71
710.654	33642.22
710.998	33861.2
711.342	33861.2
711.687	33679.51
712.031	33437.48
712.375	33383.25
712.719	33498.72
713.063	33307.54
713.407	33508.44
713.75	33337.37
714.094	33214.21
714.438	33093.99
714.782	33143.48
715.125	32883.15
715.469	33051.73
715.812	32825.3
716.156	32683.6
716.499	32742.13
716.843	32713.21
717.186	32501.69
717.53	32717.5
717.873	32668.69
718.216	32464.17
718.559	32445.42
718.902	32167.23
719.246	32278.64
719.589	32232.09
719.932	31966.79
720.275	32032.1
720.617	31870.97
720.96	31970.18
721.303	31995.94
721.646	31827.58
721.989	31760.46
722.331	31840.46
722.674	31718.66
723.016	31684.76
723.359	31474.37
723.701	31611.09
724.044	31424.65
724.386	31320.7
724.729	31464.65
725.071	31270.76
725.413	31378.78
725.755	31243.42
726.097	31187.37
726.439	30967.94
726.782	31118
727.124	31205
727.465	30985.12
727.807	30931.33
728.149	30912.13
728.491	30716.2
728.833	30786.93
729.175	30731.79
729.516	30698.8
729.858	30626.48
730.199	30677.1
730.541	30623.55
730.882	30532.93
731.224	30551.46
731.565	30540.38
731.906	30435.75
732.248	30413.61
732.589	30215.42
732.93	30147.17
733.271	30116.89
733.612	30250.22
733.953	30273.5
734.294	29984.01
734.635	29929.55
734.976	30097.68
735.317	29803
735.658	29984.69
735.999	29850.46
736.339	29835.32
736.68	29892.49
737.021	29763.91
737.361	29638.94
737.702	29869.44
738.042	29689.33
738.383	29579.28
738.723	29728.88
739.063	29550.8
739.404	29533.18
739.744	29536.34
740.084	29300.42
740.424	29320.53
740.764	29316.46
741.104	29488.89
741.444	29199.4
741.784	29118.27
742.124	29132.96
742.464	29119.63
742.804	29105.84
743.143	28995.79
743.483	29040.54
743.823	28875.34
744.162	28713.31
744.502	28932.74
744.841	28778.17
745.181	28909.01
745.52	28663.14
745.86	28797.83
746.199	28722.35
746.538	28561.23
746.877	28663.6
747.216	28680.77
747.556	28569.59
747.895	28599.64
748.234	28403.49
748.573	28523.49
748.911	28344.51
749.25	28417.95
749.589	28207.34
749.928	28277.39
750.267	28131.41
750.605	28267.9
750.944	28027.68
751.283	27885.76
751.621	28033.56
751.96	27877.85
752.298	27841.47
752.636	27909.72
752.975	27758.99
753.313	27516.73
753.651	27763.73
753.989	27575.04
754.327	27508.82
754.666	27244.88
755.004	27472.89
755.342	27458.43
755.679	27257.31
756.017	27257.53
756.355	27296.17
756.693	27079.91
757.031	27324.2
757.368	26977.99
