Data from hue_340_FLMS001491_25.txt Node
Date: Mon Feb 06 15:42:41 GMT 2017
User: dcchb
Spectrometer: FLMS00149
Trigger mode: 0
Integration Time (sec): 2.000000E-2
Scans to average: 10
Electric dark correction enabled: true
Nonlinearity correction enabled: false
Boxcar width: 0
XAxis mode: Wavelengths
Number of Pixels in Spectrum: 2048
>>>>>Begin Spectral Data<<<<<
341.393	-0.81
341.776	-0.81
342.16	-0.81
342.543	-50.3
342.927	-83.29
343.31	-83.97
343.693	-70.41
344.077	-78.54
344.46	-60.24
344.843	-36.51
345.226	-47.36
345.61	-7.36
345.993	-11.65
346.376	-3.29
346.759	3.94
347.142	30.15
347.525	53.43
347.908	59.76
348.291	80.55
348.674	90.49
349.057	81
349.44	115.58
349.823	124.39
350.206	142.02
350.588	179.76
350.971	200.09
351.354	205.52
351.737	216.36
352.119	251.62
352.502	267.44
352.884	276.93
353.267	290.71
353.65	277.61
354.032	283.48
354.414	291.62
354.797	296.81
355.179	314.67
355.562	317.6
355.944	300.43
356.326	332.07
356.709	324.38
357.091	350.37
357.473	320.54
357.855	334.78
358.238	325.06
358.62	328.23
359.002	321.45
359.384	329.81
359.766	328.9
360.148	329.13
360.53	326.87
360.912	332.75
361.294	327.32
361.676	306.76
362.057	321.67
362.439	321.67
362.821	300.2
363.203	316.25
363.584	328.68
363.966	326.19
364.348	325.51
364.729	323.93
365.111	310.6
365.493	320.32
365.874	295.46
366.256	304.27
366.637	307.44
367.019	309.24
367.4	313.08
367.781	307.21
368.163	317.6
368.544	314.67
368.925	310.37
369.306	314.44
369.688	325.97
370.069	300.88
370.45	313.08
370.831	306.76
371.212	310.83
371.593	311.5
371.974	321.67
372.355	290.94
372.736	301.33
373.117	319.86
373.498	290.94
373.879	320.32
374.26	301.11
374.641	310.6
375.021	332.97
375.402	301.33
375.783	314.44
376.163	326.19
376.544	310.83
376.925	327.55
377.305	320.09
377.686	315.57
378.066	319.64
378.447	329.58
378.827	328.68
379.208	345.17
379.588	319.19
379.968	300.88
380.349	312.86
380.729	322.8
381.109	307.21
381.489	332.29
381.87	355.8
382.25	325.97
382.63	328.9
383.01	331.62
383.39	344.04
383.77	325.29
384.15	309.02
384.53	321.9
384.91	343.59
385.29	346.3
385.67	362.35
386.049	329.81
386.429	330.71
386.809	328.68
387.189	337.27
387.568	350.6
387.948	334.55
388.328	358.73
388.707	341.11
389.087	361.22
389.466	356.25
389.846	350.82
390.225	355.8
390.605	376.81
390.984	355.12
391.363	355.12
391.743	336.36
392.122	344.5
392.501	358.51
392.881	329.13
393.26	340.2
393.639	364.61
394.018	381.78
394.397	369.58
394.776	360.09
395.155	367.77
395.534	382.24
395.913	355.8
396.292	386.98
396.671	391.73
397.05	374.78
397.429	378.39
397.808	366.42
398.186	389.92
398.565	367.09
398.944	373.65
399.323	379.07
399.701	386.3
400.08	384.5
400.458	375.46
400.837	362.8
401.215	406.42
401.594	375.46
401.972	391.73
402.351	384.95
402.729	399.64
403.107	399.64
403.486	404.61
403.864	407.77
404.242	410.26
404.62	398.51
404.999	397.83
405.377	397.38
405.755	427.21
406.133	417.72
406.511	408.9
406.889	409.13
407.267	407.32
407.645	418.62
408.023	418.39
408.401	417.26
408.779	425.85
409.156	429.92
409.534	442.35
409.912	440.77
410.29	456.58
410.667	437.38
411.045	450.03
411.422	470.82
411.8	455.91
412.178	438.96
412.555	464.49
412.933	460.88
413.31	456.58
413.687	495.23
414.065	487.54
414.442	471.05
414.819	488.9
415.197	499.97
415.574	520.76
415.951	505.62
416.328	513.31
416.705	520.31
417.082	517.15
417.46	516.92
417.837	530.93
418.214	500.42
418.591	542.91
418.967	549.69
419.344	536.36
419.721	548.56
420.098	547.43
420.475	542.68
420.852	537.03
421.228	548.79
421.605	563.25
421.982	545.62
422.358	562.8
422.735	559.63
423.111	581.78
423.488	568.9
423.864	585.85
424.241	593.98
424.617	555.79
424.994	595.34
425.37	589.69
425.746	593.53
426.123	620.87
426.499	629.23
426.875	622.23
427.251	629.01
427.627	637.14
428.003	636.24
428.379	659.97
428.756	666.75
429.132	661.55
429.507	664.04
429.883	641.21
430.259	671.27
430.635	691.15
431.011	671.72
431.387	692.51
431.763	698.16
432.138	694.77
432.514	711.49
432.89	731.83
433.265	717.37
433.641	727.99
434.016	755.56
434.392	748.33
434.767	746.97
435.143	750.14
435.518	755.33
435.894	767.76
436.269	793.3
436.644	786.29
437.02	795.78
437.395	803.69
437.77	767.08
438.145	803.47
438.52	807.08
438.895	799.17
439.271	822
439.646	827.65
440.021	846.4
440.395	856.12
440.77	832.17
441.145	845.95
441.52	838.04
441.895	861.77
442.27	864.48
442.645	858.16
443.019	892.73
443.394	880.98
443.769	884.37
444.143	873.75
444.518	895.22
444.892	890.24
445.267	880.08
445.641	917.14
446.016	938.61
446.39	908.1
446.764	906.06
447.139	895.89
447.513	923.01
447.887	895.67
448.262	945.84
448.636	954.42
449.01	937.48
449.384	927.98
449.758	930.7
450.132	954.42
450.506	951.94
450.88	967.98
451.254	943.58
451.628	971.15
452.002	955.55
452.376	968.66
452.75	961.66
453.123	984.48
453.497	998.04
453.871	976.12
454.244	1025.16
454.618	1040.98
454.992	1027.64
455.365	1013.63
455.739	1067.64
456.112	1068.09
456.486	1037.13
456.859	1071.03
457.232	1070.13
457.606	1080.07
457.979	1096.34
458.352	1113.97
458.725	1113.74
459.099	1131.14
459.472	1139.5
459.845	1139.28
460.218	1153.74
460.591	1157.81
460.964	1145.38
461.337	1186.51
461.71	1191.93
462.083	1220.86
462.456	1174.31
462.829	1210.01
463.201	1228.54
463.574	1230.57
463.947	1244.36
464.32	1238.71
464.692	1267.86
465.065	1258.6
465.438	1281.2
465.81	1294.98
466.183	1327.52
466.555	1311.7
466.928	1330.46
467.3	1318.48
467.672	1355.77
468.045	1409.1
468.417	1401.64
468.789	1375.2
469.161	1408.65
469.534	1429.44
469.906	1453.39
470.278	1466.28
470.65	1453.62
471.022	1472.15
471.394	1502.88
471.766	1538.36
472.138	1535.43
472.51	1548.31
472.882	1579.49
473.253	1602.54
473.625	1643.45
473.997	1629.89
474.369	1653.16
474.74	1660.39
475.112	1707.85
475.484	1728.42
475.855	1730
476.227	1741.07
476.598	1772.26
476.97	1808.86
477.341	1861.29
477.713	1855.19
478.084	1890.67
478.455	1918.47
478.827	1932.48
479.198	1961.86
479.569	1977.9
479.94	1982.65
480.311	2061.51
480.682	2061.29
481.053	2110.33
481.424	2158.91
481.795	2181.06
482.166	2179.7
482.537	2193.04
482.908	2264.67
483.279	2298.12
483.65	2318
484.021	2329.98
484.391	2389.41
484.762	2383.31
485.133	2427.38
485.503	2447.94
485.874	2500.6
486.244	2516.64
486.615	2583.31
486.985	2620.14
487.356	2652.46
487.726	2662.85
488.097	2712.8
488.467	2713.02
488.837	2764.09
489.207	2780.36
489.578	2826.01
489.948	2866.46
490.318	2919.57
490.688	2925.9
491.058	2950.98
491.428	2974.48
491.798	2989.17
492.168	3050.19
492.538	3073.46
492.908	3114.37
493.278	3127.02
493.648	3146.91
494.017	3174.03
494.387	3200.69
494.757	3225.1
495.126	3261.71
495.496	3267.13
495.866	3294.93
496.235	3331.54
496.605	3377.64
496.974	3376.73
497.344	3414.92
497.713	3431.42
498.082	3421.25
498.452	3498.31
498.821	3502.83
499.19	3475.71
499.559	3536.05
499.928	3528.59
500.298	3597.97
500.667	3631.64
501.036	3552.55
501.405	3649.27
501.774	3625.09
502.143	3651.53
502.512	3647.91
502.88	3695.37
503.249	3695.82
503.618	3717.52
503.987	3760.23
504.356	3743.96
504.724	3774.24
505.093	3806.55
505.462	3832.99
505.83	3819.21
506.199	3856.04
506.567	3838.42
506.936	3872.09
507.304	3867.34
507.672	3889.04
508.041	3934.91
508.409	3901.24
508.777	3983.04
509.145	4003.61
509.514	4006.1
509.882	4026.43
510.25	4058.75
510.618	4032.54
510.986	4047.68
511.354	4084.51
511.722	4099.88
512.09	4114.57
512.458	4081.12
512.826	4143.49
513.193	4212.64
513.561	4126.09
513.929	4183.27
514.297	4224.85
514.664	4200.67
515.032	4249.48
515.4	4258.52
515.767	4260.78
516.135	4272.53
516.502	4228.69
516.869	4303.71
517.237	4359.31
517.604	4316.37
517.972	4368.35
518.339	4371.51
518.706	4364.5
519.073	4385.07
519.44	4376.48
519.808	4449.7
520.175	4453.32
520.542	4458.06
520.909	4502.35
521.276	4431.17
521.643	4482.01
522.009	4532.41
522.376	4559.08
522.743	4579.87
523.11	4555.69
523.477	4610.37
523.843	4620.99
524.21	4661.67
524.577	4690.6
524.943	4707.32
525.31	4693.76
525.676	4739.86
526.043	4766.98
526.409	4764.72
526.776	4877.94
527.142	4827.99
527.508	4870.48
527.874	4935.34
528.241	4940.53
528.607	4941.21
528.973	4951.16
529.339	4983.92
529.705	4995.22
530.071	5049.23
530.437	5133.07
530.803	5088.1
531.169	5118.38
531.535	5147.76
531.901	5118.61
532.267	5176.23
532.632	5173.07
532.998	5286.29
533.364	5255.55
533.73	5249.23
534.095	5310.24
534.461	5324.25
534.826	5388.66
535.192	5336.46
535.557	5456.23
535.923	5369.45
536.288	5421.88
536.653	5408.09
537.019	5460.29
537.384	5463.46
537.749	5554.53
538.114	5507.3
538.479	5504.59
538.845	5569.44
539.21	5522.21
539.575	5559.95
539.94	5619.16
540.305	5649.67
540.67	5629.33
541.034	5705.26
541.399	5684.24
541.764	5721.3
542.129	5712.04
542.494	5748.65
542.858	5779.16
543.223	5811.02
543.587	5842.21
543.952	5833.84
544.316	5863.9
544.681	5925.14
545.045	5914.97
545.41	5997.68
545.774	5949.77
546.138	5953.39
546.503	5974.18
546.867	6026.16
547.231	6103.89
547.595	6073.84
547.959	6075.87
548.324	6100.28
548.688	6119.03
549.052	6147.51
549.416	6161.07
549.779	6205.36
550.143	6164.91
550.507	6207.62
550.871	6310.44
551.235	6248.97
551.599	6267.5
551.962	6267.05
552.326	6354.28
552.689	6365.36
553.053	6384.34
553.417	6405.81
553.78	6415.98
554.143	6423.43
554.507	6458.23
554.87	6486.26
555.234	6559.02
555.597	6511.34
555.96	6553.15
556.323	6575.29
556.686	6513.37
557.05	6617.1
557.413	6663.2
557.776	6620.94
558.139	6669.08
558.502	6678.79
558.865	6743.2
559.228	6766.47
559.59	6762.18
559.953	6706.36
560.316	6845.12
560.679	6780.71
561.041	6886.92
561.404	6888.51
561.767	6933.25
562.129	6867.04
562.492	6921.05
562.854	7023.42
563.217	6928.28
563.579	7013.93
563.941	6997.43
564.304	7061.16
564.666	7054.15
565.028	7060.03
565.39	7122.85
565.753	7138.44
566.115	7217.99
566.477	7224.54
566.839	7216.41
567.201	7308.16
567.563	7246.24
567.925	7332.11
568.287	7293.47
568.648	7364.88
569.01	7392.22
569.372	7457.98
569.734	7406.23
570.095	7452.56
570.457	7558.77
570.819	7573.01
571.18	7576.17
571.542	7586.57
571.903	7634.47
572.265	7678.09
572.626	7743.62
572.987	7721.25
573.349	7821.59
573.71	7840.57
574.071	7854.13
574.432	7949.72
574.794	8024.52
575.155	8015.48
575.516	8033.79
575.877	8147.68
576.238	8165.99
576.599	8221.58
576.96	8334.34
577.32	8343.38
577.681	8449.82
578.042	8478.75
578.403	8586.99
578.763	8645.75
579.124	8688.91
579.485	8790.15
579.845	8959.41
580.206	9011.61
580.566	9097.03
580.927	9193.53
581.287	9295.9
581.648	9395.78
582.008	9502.22
582.368	9679.62
582.728	9824.02
583.089	9995.32
583.449	9981.76
583.809	10205.25
584.169	10350.11
584.529	10450.67
584.889	10725.24
585.249	10863.77
585.609	10994.61
585.969	11190.09
586.329	11265.34
586.688	11558.44
587.048	11758.89
587.408	11944.42
587.768	12087.46
588.127	12324.75
588.487	12458.08
588.846	12844.05
589.206	12886.09
589.565	13164.5
589.925	13520.65
590.284	13664.37
590.643	13830.47
591.003	14245.15
591.362	14489.44
591.721	14607.4
592.08	14864.79
592.44	15204.44
592.799	15461.61
593.158	15670.42
593.517	16062.28
593.876	16169.39
594.235	16468.14
594.593	16722.6
594.952	17135.24
595.311	17261.34
595.67	17680.31
596.029	17981.1
596.387	18306.28
596.746	18478.26
597.104	18750.79
597.463	19040.95
597.822	19262.87
598.18	19581.05
598.538	19795.06
598.897	20200.7
599.255	20256.06
599.613	20926.1
599.972	20887.23
600.33	21202.71
600.688	21353.66
601.046	21783.71
601.404	22193.87
601.762	22386.85
602.12	22608.77
602.478	22855.54
602.836	23185.48
603.194	23244.69
603.552	23509.99
603.91	23726.71
604.268	24159.01
604.625	24127.15
604.983	24639.9
605.341	24805.1
605.698	25104.07
606.056	25309.72
606.413	25494.8
606.771	25753.55
607.128	26172.74
607.485	26085.06
607.843	26330.25
608.2	26710.13
608.557	27012.27
608.914	27131.36
609.272	27502.2
609.629	27635.53
609.986	27832.36
610.343	27947.84
610.7	28310.77
611.057	28464.44
611.414	28618.1
611.771	28841.15
612.127	29009.96
612.484	29185.55
612.841	29421.47
613.198	29501.02
613.554	29863.04
613.911	29992.08
614.267	30205.86
614.624	30259.64
614.98	30426.19
615.337	30718.39
615.693	30741.44
616.05	30844.94
616.406	31166.96
616.762	31103.24
617.118	31224.36
617.475	31465.03
617.831	31647.18
618.187	31883.1
618.543	32025.02
618.899	32246.26
619.255	32290.32
619.611	32364.22
619.967	32523.54
620.323	32658
620.678	32662.29
621.034	32740.71
621.39	32866.58
621.746	32947.71
622.101	33401.48
622.457	33122.62
622.812	33364.42
623.168	33497.52
623.523	33594.7
623.879	33733.68
624.234	33537.07
624.589	33772.54
624.945	33921.24
625.3	34013.89
625.655	34045.08
626.01	34052.31
626.365	34161.91
626.72	34319.87
627.075	34276.71
627.43	34338.41
627.785	34227.67
628.14	34446.88
628.495	34526.42
628.85	34483.49
629.205	34474.9
629.559	34767.77
629.914	34672.63
630.269	34823.36
630.623	34631.05
630.978	34615.46
631.332	34826.08
631.687	35069.46
632.041	34743.82
632.396	34980.2
632.75	34793.31
633.104	34880.54
633.459	34844.38
633.813	34853.87
634.167	34988.78
634.521	34863.81
634.875	35092.74
635.229	34882.12
635.583	34864.27
635.937	34961.67
636.291	35054.54
636.645	35015.68
636.999	34888.67
637.352	35201.43
637.706	34974.32
638.06	34999.4
638.413	35019.52
638.767	34894.77
639.121	35007.99
639.474	34764.83
639.828	34775.23
640.181	34942
640.534	34905.85
640.888	34915.11
641.241	34786.3
641.594	34943.81
641.947	35027.2
642.301	34832.63
642.654	34842.35
643.007	34884.15
643.36	34753.99
643.713	34743.14
644.066	34928.67
644.419	34773.87
644.771	34549.92
645.124	34161.46
645.477	34205.08
645.83	33991.97
646.182	33883.28
646.535	33709.04
646.888	33974.35
647.24	33665.43
647.593	33893.22
647.945	33869.94
648.298	33690.51
648.65	33619.33
649.002	33620.23
649.355	33687.8
649.707	33741.13
650.059	33818.19
650.411	34230.84
650.763	34259.31
651.115	34583.6
651.467	34544.5
651.819	34446.42
652.171	34467.89
652.523	34349.7
652.875	34365.52
653.227	34263.83
653.578	34559.42
653.93	34315.35
654.282	34237.62
654.633	34265.41
654.985	34344.05
655.337	34280.55
655.688	34331.85
656.039	34423.83
656.391	34151.97
656.742	34092.08
657.094	34220.22
657.445	34399.87
657.796	34294.34
658.147	34250.72
658.498	34259.31
658.849	34210.05
659.2	34264.51
659.551	34292.08
659.902	34296.6
660.253	34156.49
660.604	34166.43
660.955	34123.72
661.306	34201.23
661.656	34108.58
662.007	34099.99
662.358	34016.61
662.708	34047.79
663.059	34088.69
663.409	33989.71
663.76	34162.59
664.11	34093.89
664.461	34140.44
664.811	34174.79
665.161	34083.95
665.511	34034.68
665.862	34198.3
666.212	34161.46
666.562	34239.42
666.912	34095.25
667.262	34047.79
667.612	34100.67
667.962	34231.52
668.312	33916.04
668.662	34155.36
669.011	34127.56
669.361	33930.51
669.711	34005.31
670.06	33940.22
670.41	33875.14
670.76	33880.79
671.109	34008.92
671.459	33954.91
671.808	33829.94
672.157	33942.94
672.507	33734.35
672.856	33854.58
673.205	33865.88
673.554	33921.47
673.904	33722.83
674.253	33956.72
674.602	33788.14
674.951	33308.83
675.3	33241.26
675.649	33810.96
675.998	33806.89
676.346	33741.13
676.695	33842.37
677.044	33657.52
677.393	33756.5
677.741	33723.28
678.09	33599.89
678.438	33579.55
678.787	33575.71
679.135	33606.67
679.484	33468.37
679.832	33379.11
680.181	33367.36
680.529	33462.5
680.877	33370.75
681.225	33398.99
681.573	33499.11
681.922	33293.69
682.27	33167.14
682.618	33107.02
682.966	33182.05
683.314	33255.04
683.661	32971.89
684.009	32822.29
684.357	32962.17
684.705	32796.75
685.053	32886.47
685.4	32845.56
685.748	32733.48
686.095	32655.29
686.443	32395.41
686.79	32442.64
687.138	32533.03
687.485	32703.42
687.832	32403.99
688.18	32510.43
688.527	32281.51
688.874	32222.53
689.221	32192.25
689.568	32193.38
689.915	32032.25
690.262	32041.06
690.609	32000.16
690.956	31869.32
691.303	31833.39
691.65	31623.67
691.997	31710
692.344	31584.13
692.69	31453.74
693.037	31473.17
693.383	31275.21
693.73	31321.08
694.077	31282.44
694.423	31225.27
694.769	30978.49
695.116	31048.1
695.462	30961.32
695.808	30829.12
696.155	30852.39
696.501	30672.96
696.847	30725.62
697.193	30437.26
697.539	30614.89
697.885	30285.63
698.231	30350.71
698.577	30261.22
698.923	30086.31
699.269	30060.33
699.614	29963.83
699.96	29843.61
700.306	29959.54
700.651	29672.09
700.997	29683.61
701.342	29713.44
701.688	29639.09
702.033	29543.95
702.379	29574.91
702.724	29351.42
703.069	29543.28
703.415	29199.56
703.76	29205.66
704.105	29073.23
704.45	29134.7
704.795	28902.62
705.14	28806.35
705.485	28862.39
705.83	28732.68
706.175	28750.3
706.52	28580.14
706.865	28542.4
707.209	28641.15
707.554	28375.85
707.899	28436.87
708.243	28345.79
708.588	28416.53
708.932	28091.34
709.277	28118.68
709.621	28012.02
709.966	27900.16
710.31	27949.87
710.654	27727.05
710.998	27805.7
711.342	27750.1
711.687	27766.6
712.031	27526.38
712.375	27520.05
712.719	27669.2
713.063	27511.47
713.407	27544.69
713.75	27356.22
714.094	27351.92
714.438	27233.28
714.782	27317.12
715.125	27096.79
715.469	27243.45
715.812	27145.83
716.156	26918.26
716.499	26995.32
716.843	26985.83
717.186	26761.43
717.53	26915.1
717.873	26967.3
718.216	26806.4
718.559	26623.58
718.902	26492.06
719.246	26639.17
719.589	26442.79
719.932	26396.69
720.275	26410.03
720.617	26356.47
720.96	26344.04
721.303	26357.15
721.646	26298.16
721.989	26132.75
722.331	26279.41
722.674	26092.29
723.016	26093.65
723.359	26104.27
723.701	26098.4
724.044	25927.55
724.386	25771.62
724.729	25918.51
725.071	25725.3
725.413	25732.76
725.755	25807.56
726.097	25643.72
726.439	25502.48
726.782	25550.61
727.124	25717.39
727.465	25597.62
727.807	25434.91
728.149	25342.26
728.491	25438.3
728.833	25403.27
729.175	25317.85
729.516	25360.56
729.858	25237.85
730.199	25229.94
730.541	25184.3
730.882	25097.52
731.224	25273.33
731.565	25100.23
731.906	25118.99
732.248	25165.99
732.589	24918.54
732.93	24841.03
733.271	24941.14
733.612	24992.21
733.953	24986.33
734.294	24933.91
734.635	24746.57
734.976	24740.92
735.317	24718.09
735.658	24672.9
735.999	24660.47
736.339	24516.06
736.68	24498.44
737.021	24435.16
737.361	24414.82
737.702	24650.98
738.042	24414.37
738.383	24334.15
738.723	24478.1
739.063	24314.04
739.404	24412.34
739.744	24292.57
740.084	24174.38
740.424	24285.11
740.764	24172.8
741.104	24170.31
741.444	24103.19
741.784	24014.38
742.124	24071.56
742.464	24080.37
742.804	23970.77
743.143	23924.44
743.483	23997.21
743.823	23782.07
744.162	23811
744.502	23846.93
744.841	23815.97
745.181	23888.96
745.52	23726.93
745.86	23786.37
746.199	23692.81
746.538	23625.24
746.877	23733.71
747.216	23675.18
747.556	23505.47
747.895	23531.91
748.234	23390.22
748.573	23511.8
748.911	23388.18
749.25	23243.1
749.589	23308.64
749.928	23306.83
750.267	23388.64
750.605	23168.98
750.944	23191.35
751.283	23107.06
751.621	23062.54
751.96	23008.99
752.298	23023.22
752.636	23078.14
752.975	22920.4
753.313	22835.43
753.651	22876.33
753.989	22669.79
754.327	22665.94
754.666	22678.37
755.004	22625.04
755.342	22569.22
755.679	22598.15
756.017	22529.68
756.355	22648.99
756.693	22492.84
757.031	22516.79
757.368	22280.19
757.706	22353.41
758.044	22196.58
758.381	22283.13
758.719	22135.56
759.056	22172.85
759.394	22078.39
759.731	21990.71
760.068	21930.14
760.405	21836.36
760.743	21813.08
