Data from hue_270_FLMS001491_00063.txt Node
Date: Tue Feb 07 15:57:32 GMT 2017
User: dcchb
Spectrometer: FLMS00149
Trigger mode: 0
Integration Time (sec): 2.000000E-2
Scans to average: 10
Electric dark correction enabled: true
Nonlinearity correction enabled: false
Boxcar width: 0
XAxis mode: Wavelengths
Number of Pixels in Spectrum: 2048
>>>>>Begin Spectral Data<<<<<
341.393	3.38
341.776	3.38
342.16	3.38
342.543	-55.83
342.927	-57.87
343.31	-53.12
343.693	-60.8
344.077	-80.69
344.46	-51.99
344.843	-44.31
345.226	-53.57
345.61	-37.53
345.993	-16.74
346.376	-9.96
346.759	16.26
347.142	23.26
347.525	35.01
347.908	58.06
348.291	83.83
348.674	81.34
349.057	110.94
349.44	124.05
349.823	139.42
350.206	167.67
350.588	202.24
350.971	214.67
351.354	229.81
351.737	224.39
352.119	256.25
352.502	256.02
352.884	259.64
353.267	261
353.65	295.12
354.032	295.57
354.414	301.45
354.797	304.84
355.179	308.23
355.562	320.66
355.944	325.63
356.326	342.35
356.709	329.92
357.091	319.75
357.473	343.48
357.855	323.14
358.238	337.38
358.62	329.69
359.002	339.41
359.384	330.15
359.766	338.28
360.148	315.01
360.53	334.89
360.912	316.81
361.294	353.42
361.676	355
362.057	344.61
362.439	330.15
362.821	313.88
363.203	325.18
363.584	310.94
363.966	320.66
364.348	341.22
364.729	319.3
365.111	304.38
365.493	321.79
365.874	315.23
366.256	314.55
366.637	326.76
367.019	311.16
367.4	332.18
367.781	317.72
368.163	315.01
368.544	338.06
368.925	304.38
369.306	328.79
369.688	294.67
370.069	316.14
370.45	317.04
370.831	329.69
371.212	316.81
371.593	323.14
371.974	330.15
372.355	312.29
372.736	308.45
373.117	313.88
373.498	311.84
373.879	326.3
374.26	291.05
374.641	334.21
375.021	305.06
375.402	314.1
375.783	336.25
376.163	330.82
376.544	344.61
376.925	324.05
377.305	312.52
377.686	335.12
378.066	307.77
378.447	324.05
378.827	323.59
379.208	324.27
379.588	328.34
379.968	333.76
380.349	324.95
380.729	341.22
381.109	347.32
381.489	330.37
381.87	323.59
382.25	331.95
382.63	326.98
383.01	318.4
383.39	369.69
383.77	332.63
384.15	343.25
384.53	349.81
384.91	348.23
385.29	339.41
385.67	346.87
386.049	329.02
386.429	344.38
386.809	347.77
387.189	350.49
387.568	336.02
387.948	361.33
388.328	364.95
388.707	358.17
389.087	359.07
389.466	379.18
389.846	368.34
390.225	381.9
390.605	383.25
390.984	367.21
391.363	359.07
391.743	380.31
392.122	368.11
392.501	370.6
392.881	379.64
393.26	377.15
393.639	366.3
394.018	381.67
394.397	383.93
394.776	373.31
395.155	388.68
395.534	395.23
395.913	392.97
396.292	416.7
396.671	385.96
397.05	419.41
397.429	392.74
397.808	402.91
398.186	397.94
398.565	424.61
398.944	418.96
399.323	428.68
399.701	397.04
400.08	388.45
400.458	414.44
400.837	422.35
401.215	425.51
401.594	425.74
401.972	434.1
402.351	437.71
402.729	417.15
403.107	435.45
403.486	425.96
403.864	434.78
404.242	421.44
404.62	451.05
404.999	420.54
405.377	439.97
405.755	446.08
406.133	463.02
406.511	451.27
406.889	466.64
407.267	443.14
407.645	458.28
408.023	496.24
408.401	499.18
408.779	477.94
409.156	482.23
409.534	493.53
409.912	522.91
410.29	508.45
410.667	514.32
411.045	545.51
411.422	540.08
411.8	531.95
412.178	550.03
412.555	537.37
412.933	538.05
413.31	545.73
413.687	564.04
414.065	561.33
414.442	569.91
414.819	568.11
415.197	590.03
415.574	588.44
415.951	605.39
416.328	616.24
416.705	636.81
417.082	630.7
417.46	625.51
417.837	632.96
418.214	628.9
418.591	650.82
418.967	635.9
419.344	639.07
419.721	645.84
420.098	668.44
420.475	655.79
420.852	685.62
421.228	715.22
421.605	686.3
421.982	695.56
422.358	724.71
422.735	724.71
423.111	749.34
423.488	742.79
423.864	766.52
424.241	771.27
424.617	762.9
424.994	788.21
425.37	789.12
425.746	810.13
426.123	814.2
426.499	824.82
426.875	821.21
427.251	853.07
427.627	868.89
428.003	890.81
428.379	893.97
428.756	874.09
429.132	907.53
429.507	875.22
429.883	902.79
430.259	916.12
430.635	921.54
431.011	946.85
431.387	988.89
431.763	995.67
432.138	966.97
432.514	1002.67
432.89	1009.45
433.265	1008.32
433.641	1049.68
434.016	1043.35
434.392	1053.29
434.767	1066.62
435.143	1112.05
435.518	1077.47
435.894	1118.37
436.269	1139.39
436.644	1156.79
437.02	1159.05
437.395	1174.19
437.77	1208.77
438.145	1212.84
438.52	1260.52
438.895	1239.05
439.271	1264.36
439.646	1275.88
440.021	1309.33
440.395	1304.58
440.77	1288.31
441.145	1337.58
441.52	1351.14
441.895	1353.17
442.27	1388.42
442.645	1356.11
443.019	1389.55
443.394	1378.93
443.769	1428.42
444.143	1376.9
444.518	1418.03
444.892	1429.33
445.267	1434.52
445.641	1450.8
446.016	1462.55
446.39	1471.13
446.764	1490.57
447.139	1491.47
447.513	1514.07
447.887	1509.1
448.262	1520.62
448.636	1505.48
449.01	1554.52
449.384	1544.13
449.758	1567.85
450.132	1559.04
450.506	1570.79
450.88	1588.19
451.254	1631.36
451.628	1630.68
452.002	1602.2
452.376	1658.25
452.75	1649.89
453.123	1663.67
453.497	1681.07
453.871	1701.41
454.244	1739.38
454.618	1749.09
454.992	1719.71
455.365	1745.02
455.739	1789.32
456.112	1785.7
456.486	1799.03
456.859	1814.18
457.232	1861.86
457.606	1837.23
457.979	1849.43
458.352	1886.49
458.725	1928.07
459.099	1905.02
459.472	1961.06
459.845	1975.75
460.218	1987.73
460.591	1999.71
460.964	2010.1
461.337	2053.27
461.71	2054.4
462.083	2090.78
462.456	2141.62
462.829	2100.04
463.201	2098.69
463.574	2120.38
463.947	2113.38
464.32	2202.41
464.692	2206.71
465.065	2189.31
465.438	2249.64
465.81	2282.64
466.183	2286.03
466.555	2321.96
466.928	2328.06
467.3	2317.21
467.672	2375.06
468.045	2432.69
468.417	2424.78
468.789	2419.13
469.161	2450.09
469.534	2478.11
469.906	2510.65
470.278	2518.56
470.65	2546.13
471.022	2620.93
471.394	2617.09
471.766	2692.34
472.138	2699.35
472.51	2724.21
472.882	2773.25
473.253	2791.32
473.625	2822.28
473.997	2885.33
474.369	2902.06
474.74	2867.71
475.112	2947.03
475.484	2984.77
475.855	3043.75
476.227	3017.08
476.598	3129.4
476.97	3136.85
477.341	3189.28
477.713	3198.09
478.084	3215.04
478.455	3306.79
478.827	3317.19
479.198	3367.58
479.569	3403.74
479.94	3486.67
480.311	3510.18
480.682	3549.27
481.053	3636.05
481.424	3648.03
481.795	3650.96
482.166	3740.9
482.537	3726.89
482.908	3810.28
483.279	3884.86
483.65	3914.01
484.021	3994.68
484.391	3977.28
484.762	4016.6
485.133	4080.33
485.503	4065.42
485.874	4199.2
486.244	4219.08
486.615	4252.53
486.985	4287.56
487.356	4395.58
487.726	4365.29
488.097	4468.12
488.467	4483.26
488.837	4530.94
489.207	4575.01
489.578	4592.41
489.948	4669.69
490.318	4685.51
490.688	4730.48
491.058	4772.52
491.428	4794.66
491.798	4864.49
492.168	4972.51
492.538	4928.9
492.908	4989.69
493.278	5038.72
493.648	5020.87
494.017	5094.99
494.387	5140.64
494.757	5184.48
495.126	5213.18
495.496	5205.5
495.866	5211.83
496.235	5271.03
496.605	5319.62
496.974	5351.03
497.344	5342.44
497.713	5364.59
498.082	5407.75
498.452	5444.59
498.821	5426.96
499.19	5474.42
499.559	5505.6
499.928	5551.25
500.298	5556.22
500.667	5595.77
501.036	5541.54
501.405	5608.2
501.774	5670.12
502.143	5668.99
502.512	5694.98
502.88	5738.14
503.249	5714.41
503.618	5744.24
503.987	5765.03
504.356	5776.11
504.724	5815.2
505.093	5794.64
505.462	5852.04
505.83	5854.07
506.199	5899.27
506.567	5929.32
506.936	5939.26
507.304	5994.63
507.672	6000.73
508.041	5982.65
508.409	6041.41
508.777	6025.82
509.145	6098.58
509.514	6098.36
509.882	6066.94
510.25	6098.81
510.618	6117.34
510.986	6118.02
511.354	6129.32
511.722	6226.26
512.09	6218.35
512.458	6173.16
512.826	6244.79
513.193	6276.21
513.561	6309.42
513.929	6303.1
514.297	6343.55
514.664	6360.5
515.032	6348.07
515.4	6351.01
515.767	6347.84
516.135	6420.61
516.502	6352.59
516.869	6479.14
517.237	6436.65
517.604	6404.79
517.972	6495.18
518.339	6496.31
518.706	6450.89
519.073	6483.43
519.44	6524.33
519.808	6534.5
520.175	6523.2
520.542	6592.35
520.909	6605.01
521.276	6582.41
521.643	6616.54
522.009	6630.77
522.376	6660.15
522.743	6695.86
523.11	6702.86
523.477	6716.42
523.843	6729.75
524.21	6798.68
524.577	6817.21
524.943	6832.12
525.31	6891.78
525.676	6853.82
526.043	6883.19
526.409	6959.8
526.776	7001.84
527.142	6972.01
527.508	6967.03
527.874	6972.01
528.241	7008.62
528.607	6992.12
528.973	7085.9
529.339	7080.93
529.705	7160.25
530.071	7145.56
530.437	7115.28
530.803	7181.49
531.169	7209.51
531.535	7204.54
531.901	7208.84
532.267	7219.68
532.632	7286.12
532.998	7279.57
533.364	7259.91
533.73	7284.31
534.095	7316.86
534.461	7279.57
534.826	7372.22
535.192	7312.56
535.557	7374.71
535.923	7431.2
536.288	7393.24
536.653	7379.45
537.019	7398.21
537.384	7324.54
537.749	7368.83
538.114	7423.52
538.479	7370.64
538.845	7447.02
539.21	7430.98
539.575	7483.4
539.94	7479.34
540.305	7493.8
540.67	7435.95
541.034	7431.88
541.399	7536.51
541.764	7494.48
542.129	7501.48
542.494	7501.94
542.858	7579.22
543.223	7532.22
543.587	7619.9
543.952	7503.74
544.316	7578.32
544.681	7596.4
545.045	7579.9
545.41	7628.26
545.774	7570.18
546.138	7621.03
546.503	7581.71
546.867	7577.19
547.231	7582.39
547.595	7680.01
547.959	7640.69
548.324	7663.06
548.688	7679.78
549.052	7644.08
549.416	7673.68
549.779	7710.29
550.143	7621.93
550.507	7759.56
550.871	7683.17
551.235	7693.34
551.599	7749.39
551.962	7806.33
552.326	7758.43
552.689	7781.93
553.053	7746
553.417	7788.03
553.78	7853.79
554.143	7742.61
554.507	7877.29
554.87	7846.79
555.234	7907.35
555.597	7853.11
555.96	7851.76
556.323	7837.75
556.686	7934.47
557.05	7882.94
557.413	7954.35
557.776	7934.47
558.139	7999.32
558.502	8003.39
558.865	7943.73
559.228	8054.01
559.59	8009.04
559.953	8078.19
560.316	8163.39
560.679	8133.11
561.041	8166.78
561.404	8172.65
561.767	8243.38
562.129	8222.82
562.492	8260.33
562.854	8282.03
563.217	8260.79
563.579	8309.15
563.941	8349.14
564.304	8469.82
564.666	8438.63
565.028	8401.12
565.39	8470.72
565.753	8486.99
566.115	8512.53
566.477	8571.29
566.839	8526.09
567.201	8655.58
567.563	8609.25
567.925	8625.52
568.287	8624.39
568.648	8688.34
569.01	8762.24
569.372	8738.51
569.734	8832.3
570.095	8805.18
570.457	8862.13
570.819	8874.1
571.18	8860.77
571.542	8919.98
571.903	8976.7
572.265	8948.68
572.626	8956.81
572.987	9036.58
573.349	9078.17
573.71	9134.66
574.071	9081.55
574.432	9128.11
574.794	9195
575.155	9219.4
575.516	9193.87
575.877	9176.69
576.238	9244.49
576.599	9352.06
576.96	9371.26
577.32	9313.87
577.681	9363.58
578.042	9372.85
578.403	9494.2
578.763	9467.08
579.124	9493.07
579.485	9486.29
579.845	9573.97
580.206	9604.03
580.566	9589.56
580.927	9651.03
581.287	9716.11
581.648	9611.71
582.008	9647.87
582.368	9738.71
582.728	9755.89
583.089	9767.86
583.449	9823.68
583.809	9826.39
584.169	9875.66
584.529	9830.69
584.889	9886.05
585.249	9913.17
585.609	9953.85
585.969	9978.25
586.329	9967.63
586.688	10039.95
587.048	10009.21
587.408	10043.79
587.768	10122.43
588.127	10174.41
588.487	10142.77
588.846	10287.4
589.206	10205.37
589.565	10116.78
589.925	10238.36
590.284	10233.39
590.643	10319.26
591.003	10286.04
591.362	10337.34
591.721	10358.13
592.08	10339.38
592.44	10378.24
592.799	10431.35
593.158	10454.4
593.517	10429.77
593.876	10514.06
594.235	10472.25
594.593	10532.82
594.952	10573.49
595.311	10540.95
595.67	10604.23
596.029	10696.88
596.387	10713.83
596.746	10722.42
597.104	10692.81
597.463	10657.11
597.822	10725.81
598.18	10658.69
598.538	10759.03
598.897	10774.17
599.255	10715.18
599.613	10907.27
599.972	10810.55
600.33	10787.72
600.688	10853.03
601.046	10823.88
601.404	10912.69
601.762	10900.94
602.12	10920.15
602.478	10984.1
602.836	10921.51
603.194	10898.68
603.552	10960.15
603.91	10961.96
604.268	10980.71
604.625	10923.31
604.983	10985.01
605.341	10928.74
605.698	11041.28
606.056	10994.27
606.413	10993.37
606.771	11022.97
607.128	11055.51
607.485	10986.82
607.843	11055.74
608.2	11073.82
608.557	11171.67
608.914	11039.92
609.272	11246.92
609.629	11133.7
609.986	11182.52
610.343	11153.14
610.7	11250.99
611.057	11239.24
611.414	11191.1
611.771	11250.99
612.127	11272.23
612.484	11207.15
612.841	11288.73
613.198	11302.29
613.554	11200.14
613.911	11314.26
614.267	11326.24
614.624	11276.3
614.98	11313.36
615.337	11444.43
615.693	11421.38
616.05	11337.77
616.406	11419.35
616.762	11432.91
617.118	11383.64
617.475	11375.96
617.831	11468.38
618.187	11409.18
618.543	11452.57
618.899	11555.16
619.255	11467.71
619.611	11533.24
619.967	11548.61
620.323	11619.79
620.678	11477.88
621.034	11463.41
621.39	11445.79
621.746	11469.74
622.101	11610.08
622.457	11524.43
622.812	11482.62
623.168	11598.55
623.523	11515.62
623.879	11579.34
624.234	11424.54
624.589	11534.82
624.945	11573.24
625.3	11488.5
625.655	11540.25
626.01	11561.04
626.365	11489.18
626.72	11528.27
627.075	11521.26
627.43	11494.15
627.785	11493.24
628.14	11545.67
628.495	11486.01
628.85	11489.18
629.205	11465.45
629.559	11463.19
629.914	11486.92
630.269	11556.74
630.623	11409.18
630.978	11453.47
631.332	11467.48
631.687	11489.4
632.041	11337.99
632.396	11446.69
632.75	11387.03
633.104	11452.57
633.459	11355.17
633.813	11309.97
634.167	11349.07
634.521	11370.76
634.875	11338.9
635.229	11287.82
635.583	11293.47
635.937	11206.47
636.291	11271.55
636.645	11239.92
636.999	11241.5
637.352	11219.35
637.706	11229.97
638.06	11149.52
638.413	11210.76
638.767	11183.42
639.121	11246.47
639.474	11072.92
639.828	11112.69
640.181	11141.84
640.534	11105
640.888	11155.62
641.241	11104.1
641.594	11097.77
641.947	11134.16
642.301	11082.86
642.654	11105.23
643.007	11086.93
643.36	11068.17
643.713	11035.18
644.066	11127.83
644.419	11022.29
644.771	10973.03
645.124	10850.55
645.477	10849.87
645.83	10803.54
646.182	10750.44
646.535	10665.92
646.888	10741.62
647.24	10680.38
647.593	10717.22
647.945	10719.48
648.298	10643.32
648.65	10614.85
649.002	10593.83
649.355	10689.42
649.707	10620.5
650.059	10671.8
650.411	10849.19
650.763	10847.84
651.115	10928.29
651.467	10945.69
651.819	10850.1
652.171	10908.85
652.523	10880.38
652.875	10805.8
653.227	10821.17
653.578	10922.18
653.93	10857.78
654.282	10828.18
654.633	10784.79
654.985	10762.19
655.337	10840.15
655.688	10926.7
656.039	10776.65
656.391	10847.38
656.742	10805.58
657.094	10857.1
657.445	10867.27
657.796	10795.41
658.147	10797.67
658.498	10843.54
658.849	10863.66
659.2	10851.45
659.551	10812.81
659.902	10843.09
660.253	10771
660.604	10867.04
660.955	10830.44
661.306	10811.23
661.656	10833.15
662.007	10858.23
662.358	10789.76
662.708	10949.98
663.059	10813.94
663.409	10790.66
663.76	10896.42
664.11	10876.08
664.461	10916.76
664.811	10900.49
665.161	10795.63
665.511	10808.06
665.862	10838.34
666.212	10808.97
666.562	10808.29
666.912	10798.8
667.262	10848.06
667.612	10744.34
667.962	10839.93
668.312	10796.54
668.662	10877.89
669.011	10810.1
669.361	10828.63
669.711	10835.63
670.06	10739.82
670.41	10743.88
670.76	10764
671.109	10867.95
671.459	10734.39
671.808	10808.97
672.157	10829.08
672.507	10774.84
672.856	10663.21
673.205	10708.18
673.554	10746.6
673.904	10687.39
674.253	10754.73
674.602	10687.39
674.951	10605.58
675.3	10584.79
675.649	10699.37
675.998	10642.42
676.346	10709.08
676.695	10714.28
677.044	10608.07
677.393	10630.44
677.741	10640.84
678.09	10591.57
678.438	10603.32
678.787	10638.58
679.135	10602.19
679.484	10566.26
679.832	10557.9
680.181	10525.13
680.529	10483.55
680.877	10522.42
681.225	10510.67
681.573	10493.95
681.922	10458.47
682.27	10417.34
682.618	10376.21
682.966	10376.21
683.314	10407.17
683.661	10364.69
684.009	10344.12
684.357	10287.62
684.705	10260.96
685.053	10327.4
685.4	10337.57
685.748	10244.01
686.095	10151.58
686.443	10192.26
686.79	10125.6
687.138	10183.67
687.485	10148.65
687.832	10215.08
688.18	10077.46
688.527	10018.48
688.874	10056.67
689.221	9980.29
689.568	9986.84
689.915	9904.13
690.262	9858.48
690.609	9863.23
690.956	9843.12
691.303	9882.89
691.65	9786.85
691.997	9770.35
692.344	9770.35
692.69	9731.71
693.037	9707.98
693.383	9649.22
693.73	9644.48
694.077	9594.54
694.423	9564.03
694.769	9518.83
695.116	9530.36
695.462	9539.62
695.808	9487.19
696.155	9528.77
696.501	9387.54
696.847	9377.37
697.193	9316.35
697.539	9348.21
697.885	9300.76
698.231	9212.17
698.577	9211.04
698.923	9230.93
699.269	9140.54
699.614	9102.57
699.96	9076.36
700.306	9097.15
700.651	9110.71
700.997	9011.27
701.342	8986.42
701.688	9008.11
702.033	8995.68
702.379	8929.47
702.724	8838.62
703.069	8901.9
703.415	8822.8
703.76	8787.78
704.105	8799.08
704.45	8830.49
704.795	8747.78
705.14	8691.28
705.485	8694.22
705.83	8610.61
706.175	8601.57
706.52	8609.7
706.865	8568.57
707.209	8583.26
707.554	8496.94
707.899	8518.63
708.243	8454.9
708.588	8455.81
708.932	8381.69
709.277	8385.3
709.621	8420.33
709.966	8332.42
710.31	8391.63
710.654	8260.79
710.998	8327.9
711.342	8263.5
711.687	8306.43
712.031	8218.53
712.375	8223.27
712.719	8209.26
713.063	8205.19
713.407	8184.86
713.75	8139.21
714.094	8122.71
714.438	8141.24
714.782	8118.87
715.125	8082.26
715.469	8080.9
715.812	8065.76
716.156	8089.72
716.499	8001.58
716.843	8044.52
717.186	7986.44
717.53	8044.52
717.873	8031.41
718.216	8011.53
718.559	7948.25
718.902	7929.04
719.246	7915.26
719.589	7916.61
719.932	7843.85
720.275	7898.99
720.617	7876.61
720.96	7880.46
721.303	7872.77
721.646	7832.77
721.989	7870.29
722.331	7865.54
722.674	7855.82
723.016	7814.7
723.359	7823.28
723.701	7838.2
724.044	7784.87
724.386	7724.98
724.729	7797.07
725.071	7788.26
725.413	7744.42
725.755	7815.6
726.097	7764.3
726.439	7719.78
726.782	7809.05
727.124	7744.42
727.465	7781.7
727.807	7844.3
728.149	7724.75
728.491	7703.74
728.833	7710.07
729.175	7676.62
729.516	7669.16
729.858	7678.88
730.199	7700.57
730.541	7702.83
730.882	7647.92
731.224	7653.12
731.565	7613.35
731.906	7616.73
732.248	7589.84
732.589	7583.74
732.93	7580.35
733.271	7567.7
733.612	7581.71
733.953	7621.71
734.294	7645.21
734.635	7545.1
734.976	7590.75
735.317	7567.24
735.658	7565.21
735.999	7632.55
736.339	7570.86
736.68	7586.91
737.021	7620.8
737.361	7620.12
737.702	7649.95
738.042	7625.77
738.383	7605.89
738.723	7659.45
739.063	7621.48
739.404	7652.67
739.744	7612.44
740.084	7633.01
740.424	7666.9
740.764	7643.63
741.104	7750.97
741.444	7736.05
741.784	7690.86
742.124	7719.1
742.464	7727.01
742.804	7722.49
743.143	7715.72
743.483	7731.99
743.823	7716.39
744.162	7724.98
744.502	7838.42
744.841	7769.27
745.181	7792.1
745.52	7800.01
745.86	7875.71
746.199	7884.98
746.538	7909.61
746.877	7968.36
747.216	8022.83
747.556	8021.7
747.895	8048.36
748.234	8070.73
748.573	8124.52
748.911	8114.57
749.25	8159.55
749.589	8244.06
749.928	8336.94
750.267	8407
750.605	8412.19
750.944	8463.04
751.283	8568.12
751.621	8632.3
751.96	8629.59
752.298	8730.6
752.636	8892.63
752.975	8873.88
753.313	8929.69
753.651	9067.54
753.989	9111.38
754.327	9202.91
754.666	9248.1
755.004	9380.08
755.342	9569.9
755.679	9645.83
756.017	9731.93
756.355	9867.07
756.693	9993.17
757.031	10127.86
757.368	10194.97
757.706	10277.46
758.044	10479.26
758.381	10621.18
758.719	10751.12
759.056	10900.94
759.394	11017.32
759.731	11061.16
760.068	11204.66
760.405	11430.42
760.743	11524.88
761.08	11708.15
761.417	11804.65
761.754	11969.61
762.091	12153.56
762.428	12314.01
762.765	12367.57
763.102	12589.49
