Data from hue_190_FLMS001491_00059.txt Node
Date: Tue Feb 07 16:45:29 GMT 2017
User: dcchb
Spectrometer: FLMS00149
Trigger mode: 0
Integration Time (sec): 2.000000E-2
Scans to average: 10
Electric dark correction enabled: true
Nonlinearity correction enabled: false
Boxcar width: 0
XAxis mode: Wavelengths
Number of Pixels in Spectrum: 2048
>>>>>Begin Spectral Data<<<<<
341.393	-4.17
341.776	-4.17
342.16	-4.17
342.543	-70.83
342.927	-94.79
343.31	-61.11
343.693	-53.2
344.077	-61.11
344.46	-60.89
344.843	-71.28
345.226	-36.26
345.61	-45.52
345.993	-38.74
346.376	-9.14
346.759	31.54
347.142	31.31
347.525	38.54
347.908	50.52
348.291	87.36
348.674	90.52
349.057	107.47
349.44	117.86
349.823	116.28
350.206	145.43
350.588	192.21
350.971	203.29
351.354	213.45
351.737	233.57
352.119	245.09
352.502	253.45
352.884	266.11
353.267	278.99
353.65	270.85
354.032	291.64
354.414	273.57
354.797	303.4
355.179	333.9
355.562	308.37
355.944	319.89
356.326	318.31
356.709	324.64
357.091	328.25
357.473	327.8
357.855	343.39
358.238	329.16
358.62	322.83
359.002	356.95
359.384	318.08
359.766	359.67
360.148	319.89
360.53	326.22
360.912	324.41
361.294	301.59
361.676	338.65
362.057	328.93
362.439	337.52
362.821	347.24
363.203	326.9
363.584	307.69
363.966	337.75
364.348	311.76
364.729	310.4
365.111	309.72
365.493	290.97
365.874	312.89
366.256	310.85
366.637	313.79
367.019	310.63
367.4	297.97
367.781	302.27
368.163	298.2
368.544	300.68
368.925	302.49
369.306	329.61
369.688	304.07
370.069	303.17
370.45	308.37
370.831	305.43
371.212	289.84
371.593	288.71
371.974	301.59
372.355	302.94
372.736	316.73
373.117	295.26
373.498	316.5
373.879	314.24
374.26	335.26
374.641	332.55
375.021	305.88
375.402	321.47
375.783	317.18
376.163	301.81
376.544	328.48
376.925	309.27
377.305	309.5
377.686	308.14
378.066	303.62
378.447	327.58
378.827	312.44
379.208	328.25
379.588	336.16
379.968	320.34
380.349	315.37
380.729	335.49
381.109	339.1
381.489	332.32
381.87	327.35
382.25	322.6
382.63	331.19
383.01	340.23
383.39	337.07
383.77	331.19
384.15	330.06
384.53	340.91
384.91	335.71
385.29	346.11
385.67	335.94
386.049	332.77
386.429	323.51
386.809	354.47
387.189	360.12
387.568	349.27
387.948	362.6
388.328	335.71
388.707	354.69
389.087	362.38
389.466	355.6
389.846	318.08
390.225	344.52
390.605	357.41
390.984	365.54
391.363	349.72
391.743	337.75
392.122	367.12
392.501	367.35
392.881	377.29
393.26	366.67
393.639	355.6
394.018	359.89
394.397	374.13
394.776	377.07
395.155	359.44
395.534	384.98
395.913	373.45
396.292	372.55
396.671	391.53
397.05	379.78
397.429	405.31
397.808	384.3
398.186	396.95
398.565	381.36
398.944	403.28
399.323	395.14
399.701	396.27
400.08	406.67
400.458	427.01
400.837	401.02
401.215	430.17
401.594	424.97
401.972	403.28
402.351	399.44
402.729	428.36
403.107	433.34
403.486	399.66
403.864	402.38
404.242	402.38
404.62	411.87
404.999	412.09
405.377	439.89
405.755	431.08
406.133	427.23
406.511	454.35
406.889	458.42
407.267	451.19
407.645	443.05
408.023	458.87
408.401	488.48
408.779	500.68
409.156	474.92
409.534	488.25
409.912	481.24
410.29	510.85
410.667	508.59
411.045	494.35
411.422	518.31
411.8	548.59
412.178	532.77
412.555	549.04
412.933	555.14
413.31	563.05
413.687	567.8
414.065	591.52
414.442	577.51
414.819	614.35
415.197	608.7
415.574	598.08
415.951	635.59
416.328	641.01
416.705	609.6
417.082	646.66
417.46	634.91
417.837	652.54
418.214	655.03
418.591	674.23
418.967	695.25
419.344	668.13
419.721	695.02
420.098	685.98
420.475	708.36
420.852	725.08
421.228	733.44
421.605	710.16
421.982	750.16
422.358	779.99
422.735	772.99
423.111	803.27
423.488	812.76
423.864	822.93
424.241	839.43
424.617	858.18
424.994	837.39
425.37	877.17
425.746	873.1
426.123	890.05
426.499	900.22
426.875	921.23
427.251	920.1
427.627	950.61
428.003	953.32
428.379	997.84
428.756	975.02
429.132	987.45
429.507	1004.85
429.883	1017.5
430.259	1011.85
430.635	1026.99
431.011	1045.07
431.387	1070.16
431.763	1076.93
432.138	1090.95
432.514	1121.45
432.89	1129.81
433.265	1168.91
433.641	1171.85
434.016	1180.21
434.392	1215.69
434.767	1239.42
435.143	1235.12
435.518	1275.8
435.894	1305.18
436.269	1308.57
436.644	1326.19
437.02	1344.27
437.395	1371.16
437.77	1395.57
438.145	1404.38
438.52	1423.37
438.895	1444.16
439.271	1459.52
439.646	1524.15
440.021	1495.91
440.395	1572.74
440.77	1541.56
441.145	1550.37
441.52	1600.76
441.895	1611.61
442.27	1631.04
442.645	1617.49
443.019	1660.42
443.394	1678.05
443.769	1701.33
444.143	1704.72
444.518	1723.25
444.892	1730.48
445.267	1766.18
445.641	1775.22
446.016	1783.36
446.39	1814.32
446.764	1839.4
447.139	1807.76
447.513	1838.27
447.887	1859.06
448.262	1864.26
448.636	1917.59
449.01	1891.83
449.384	1937.48
449.758	1973.41
450.132	1967.08
450.506	2024.71
450.88	1999.17
451.254	1999.62
451.628	2057.02
452.002	2069.45
452.376	2071.49
452.75	2120.3
453.123	2132.73
453.497	2143.8
453.871	2152.84
454.244	2218.83
454.618	2237.13
454.992	2256.79
455.365	2247.3
455.739	2357.13
456.112	2347.41
456.486	2370.69
456.859	2424.24
457.232	2432.83
457.606	2460.18
457.979	2459.5
458.352	2476.67
458.725	2546.95
459.099	2555.54
459.472	2618.36
459.845	2641.19
460.218	2624.92
460.591	2664.92
460.964	2690.68
461.337	2756.21
461.71	2807.74
462.083	2835.76
462.456	2859.49
462.829	2904.68
463.201	2943.33
463.574	2954.63
463.947	3014.51
464.32	3055.64
464.692	3069.88
465.065	3113.94
465.438	3169.76
465.81	3192.81
466.183	3224
466.555	3279.14
466.928	3358.68
467.3	3329.53
467.672	3387.38
468.045	3480.94
468.417	3531.11
468.789	3537.66
469.161	3572.24
469.534	3632.8
469.906	3701.27
470.278	3738.33
470.65	3785.56
471.022	3866.92
471.394	3923.19
471.766	3964.54
472.138	4009.06
472.51	4084.77
472.882	4139.68
473.253	4232.78
473.625	4253.35
473.997	4344.87
474.369	4392.55
474.74	4423.06
475.112	4526.11
475.484	4682.26
475.855	4673.22
476.227	4689.95
476.598	4885.42
476.97	4923.61
477.341	4997.51
477.713	5118.18
478.084	5137.62
478.455	5250.84
478.827	5339.65
479.198	5485.41
479.569	5534.44
479.94	5628
480.311	5697.38
480.682	5833.87
481.053	5985.73
481.424	6004.04
481.795	6149.12
482.166	6201.55
482.537	6304.82
482.908	6385.27
483.279	6505.27
483.65	6636.79
484.021	6720.63
484.391	6784.36
484.762	6930.79
485.133	6991.58
485.503	7118.81
485.874	7220.73
486.244	7251.69
486.615	7415.3
486.985	7480.16
487.356	7662.52
487.726	7719.02
488.097	7886.02
488.467	7907.26
488.837	8044.89
489.207	8221.61
489.578	8233.36
489.948	8321.04
490.318	8453.46
490.688	8476.51
491.058	8631.09
491.428	8720.35
491.798	8802.83
492.168	9003.28
492.538	9046.89
492.908	9060
493.278	9249.38
493.648	9243.27
494.017	9332.99
494.387	9380.9
494.757	9448.01
495.126	9568.69
495.496	9598.07
495.866	9603.94
496.235	9665.41
496.605	9805.74
496.974	9930.71
497.344	9964.84
497.713	9989.24
498.082	10046.42
498.452	10171.61
498.821	10116.92
499.19	10148.11
499.559	10281.21
499.928	10287.77
500.298	10326.41
500.667	10461.09
501.036	10361.89
501.405	10510.81
501.774	10517.59
502.143	10558.95
502.512	10591.04
502.88	10683.24
503.249	10711.94
503.618	10716.46
503.987	10777.7
504.356	10789.9
504.724	10823.12
505.093	10814.76
505.462	10835.77
505.83	10922.78
506.199	10936.79
506.567	11150.79
506.936	11018.37
507.304	11108.99
507.672	11074.41
508.041	11140.63
508.409	11263.79
508.777	11306.5
509.145	11279.83
509.514	11259.04
509.882	11339.49
510.25	11275.31
510.618	11319.38
510.986	11388.08
511.354	11407.51
511.722	11424.23
512.09	11465.14
512.458	11484.8
512.826	11482.76
513.193	11538.81
513.561	11510.56
513.929	11632.14
514.297	11696.54
514.664	11645.92
515.032	11642.08
515.4	11737.67
515.767	11664.45
516.135	11725.24
516.502	11640.27
516.869	11763.66
517.237	11721.4
517.604	11768.63
517.972	11727.73
518.339	11828.52
518.706	11774.05
519.073	11788.97
519.44	11829.65
519.808	11833.49
520.175	11830.55
520.542	11851.11
520.909	11866.26
521.276	11819.48
521.643	11893.6
522.009	11926.37
522.376	11975.41
522.743	11885.69
523.11	12027.38
523.477	12079.36
523.843	12096.08
524.21	12045.91
524.577	12122.07
524.943	12033.93
525.31	12084.1
525.676	12050.88
526.043	12126.14
526.409	12082.97
526.776	12159.36
527.142	12112.13
527.508	12147.38
527.874	12168.62
528.241	12138.11
528.607	12077.78
528.973	12075.97
529.339	12088.17
529.705	12046.82
530.071	12105.12
530.437	11965.01
530.803	12152.35
531.169	12065.12
531.535	12042.3
531.901	11923.2
532.267	11954.16
532.632	11946.71
532.998	11965.69
533.364	11846.37
533.73	11882.07
534.095	11799.14
534.461	11848.18
534.826	11769.76
535.192	11792.81
535.557	11782.19
535.923	11647.05
536.288	11632.14
536.653	11590.78
537.019	11456.55
537.384	11547.17
537.749	11508.75
538.114	11423.78
538.479	11388.98
538.845	11410.22
539.21	11285.03
539.575	11255.88
539.94	11229.21
540.305	11190.12
540.67	11133.62
541.034	11180.85
541.399	11115.09
541.764	11038.48
542.129	11006.62
542.494	10964.36
542.858	10916.22
543.223	10872.16
543.587	10756.45
543.952	10731.37
544.316	10747.19
544.681	10653.18
545.045	10576.8
545.41	10626.29
545.774	10547.42
546.138	10504.48
546.503	10450.93
546.867	10421.55
547.231	10365.05
547.595	10314.21
547.959	10302
548.324	10234.43
548.688	10159.18
549.052	10144.49
549.416	10149.01
549.779	10072.86
550.143	9979.75
550.507	10003.71
550.871	9952.18
551.235	9878.06
551.599	9881
551.962	9890.94
552.326	9726.65
552.689	9722.58
553.053	9648.24
553.417	9605.52
553.78	9683.94
554.143	9590.38
554.507	9615.69
554.87	9526.88
555.234	9549.93
555.597	9478.07
555.96	9409.82
556.323	9368.92
556.686	9343.61
557.05	9375.47
557.413	9354.01
557.776	9312.88
558.139	9311.29
558.502	9312.2
558.865	9209.83
559.228	9226.1
559.59	9201.02
559.953	9177.96
560.316	9260
560.679	9182.03
561.041	9183.61
561.404	9123.96
561.767	9157.63
562.129	9050.28
562.492	9136.38
562.854	9085.31
563.217	9105.2
563.579	9031.53
563.941	9084.63
564.304	9048.25
564.666	9087.12
565.028	9013.22
565.39	9043.05
565.753	9020.45
566.115	9055.71
566.477	9016.61
566.839	9059.78
567.201	9015.71
567.563	8963.51
567.925	9014.81
568.287	9019.1
568.648	9024.07
569.01	9031.53
569.372	9084.63
569.734	9038.53
570.095	8955.82
570.457	9091.19
570.819	8985.2
571.18	8928.48
571.542	8997.4
571.903	8950.63
572.265	8996.5
572.626	9024.52
572.987	9020.91
573.349	9028.36
573.71	9060.91
574.071	9004.18
574.432	9036.95
574.794	9069.72
575.155	9028.82
575.516	8981.81
575.877	9055.93
576.238	8966.9
576.599	9058.87
576.96	9005.09
577.32	9007.35
577.681	8989.27
578.042	9019.32
578.403	8999.44
578.763	8999.66
579.124	9017.52
579.485	9014.81
579.845	9052.77
580.206	9004.86
580.566	8925.99
580.927	8991.3
581.287	8986.78
581.648	8960.57
582.008	8939.1
582.368	8972.09
582.728	9004.41
583.089	8933.9
583.449	8877.18
583.809	8876.5
584.169	8907.46
584.529	8919.89
584.889	8927.58
585.249	8803.74
585.609	8792.21
585.969	8874.7
586.329	8871.98
586.688	8851.42
587.048	8856.39
587.408	8832.89
587.768	8800.57
588.127	8803.96
588.487	8786.11
588.846	8838.31
589.206	8744.76
589.565	8726.9
589.925	8767.58
590.284	8819.56
590.643	8782.27
591.003	8760.35
591.362	8755.15
591.721	8826.56
592.08	8779.33
592.44	8707.92
592.799	8780.46
593.158	8768.94
593.517	8732.78
593.876	8702.72
594.235	8645.78
594.593	8681.48
594.952	8684.42
595.311	8664.53
595.67	8655.49
596.029	8681.03
596.387	8679.9
596.746	8660.46
597.104	8646.68
597.463	8592.9
597.822	8617.53
598.18	8564.2
598.538	8589.05
598.897	8614.14
599.255	8622.95
599.613	8631.31
599.972	8624.99
600.33	8586.34
600.688	8568.49
601.046	8570.3
601.404	8616.85
601.762	8627.24
602.12	8615.72
602.478	8599
602.836	8626.11
603.194	8540.69
603.552	8632.44
603.91	8521.26
604.268	8549.51
604.625	8497.53
604.983	8552.22
605.341	8508.6
605.698	8646.68
606.056	8584.08
606.413	8566.91
606.771	8570.98
607.128	8555.38
607.485	8595.38
607.843	8568.04
608.2	8578.88
608.557	8698.66
608.914	8572.56
609.272	8558.32
609.629	8616.85
609.986	8706.56
610.343	8580.01
610.7	8679.9
611.057	8647.13
611.414	8590.64
611.771	8676.06
612.127	8606.68
612.484	8678.09
612.841	8662.72
613.198	8617.98
613.554	8632.22
613.911	8698.43
614.267	8690.07
614.624	8643.74
614.98	8618.88
615.337	8701.37
615.693	8660.92
616.05	8625.44
616.406	8702.5
616.762	8656.17
617.118	8682.16
617.475	8640.35
617.831	8681.71
618.187	8738.43
618.543	8709.28
618.899	8727.81
619.255	8674.02
619.611	8715.15
619.967	8710.18
620.323	8735.04
620.678	8736.39
621.034	8756.06
621.39	8674.02
621.746	8687.36
622.101	8744.08
622.457	8693.01
622.812	8710.41
623.168	8692.33
623.523	8740.69
623.879	8751.31
624.234	8663.18
624.589	8715.6
624.945	8778.88
625.3	8680.35
625.655	8702.5
626.01	8705.21
626.365	8701.14
626.72	8697.75
627.075	8716.06
627.43	8654.81
627.785	8703.18
628.14	8710.41
628.495	8619.11
628.85	8646.91
629.205	8611.43
629.559	8616.17
629.914	8612.56
630.269	8662.05
630.623	8566.23
630.978	8637.87
631.332	8592.22
631.687	8721.03
632.041	8568.72
632.396	8658.66
632.75	8576.62
633.104	8621.37
633.459	8508.83
633.813	8558.55
634.167	8511.54
634.521	8517.19
634.875	8485.33
635.229	8497.3
635.583	8479
635.937	8476.06
636.291	8477.19
636.645	8520.81
636.999	8387.7
637.352	8510.86
637.706	8435.16
638.06	8499.79
638.413	8383.86
638.767	8415.73
639.121	8364.88
639.474	8367.14
639.828	8356.07
640.181	8427.93
640.534	8330.98
640.888	8306.58
641.241	8302.96
641.594	8284.66
641.947	8369.62
642.301	8290.76
642.654	8275.62
643.007	8322.85
643.36	8311.55
643.713	8329.17
644.066	8389.74
644.419	8292.11
644.771	8264.54
645.124	8108.16
645.477	8109.97
645.83	8170.31
646.182	8095.28
646.535	8070.88
646.888	8093.25
647.24	8015.28
647.593	8078.56
647.945	8024.1
648.298	8040.14
648.65	8003.76
649.002	7996.53
649.355	7960.37
649.707	7990.2
650.059	8052.34
650.411	8143.19
650.763	8181.83
651.115	8198.78
651.467	8219.8
651.819	8209.63
652.171	8274.71
652.523	8183.41
652.875	8153.13
653.227	8172.57
653.578	8239.68
653.93	8203.53
654.282	8199.46
654.633	8221.15
654.985	8135.51
655.337	8180.7
655.688	8206.92
656.039	8158.1
656.391	8177.77
656.742	8218.22
657.094	8173.7
657.445	8196.52
657.796	8182.74
658.147	8181.38
658.498	8236.29
658.849	8241.72
659.2	8227.48
659.551	8245.11
659.902	8235.39
660.253	8186.8
660.604	8236.75
660.955	8185.67
661.306	8203.08
661.656	8208.5
662.007	8279.91
662.358	8288.72
662.708	8307.93
663.059	8274.49
663.409	8222.51
663.76	8221.38
664.11	8268.16
664.461	8271.1
664.811	8241.94
665.161	8271.32
665.511	8272.68
665.862	8201.49
666.212	8288.27
666.562	8261.38
666.912	8275.16
667.262	8215.73
667.612	8299.12
667.962	8328.5
668.312	8261.38
668.662	8295.5
669.011	8265.22
669.361	8241.49
669.711	8254.6
670.06	8241.49
670.41	8237.65
670.76	8256.18
671.109	8219.35
671.459	8233.36
671.808	8234.94
672.157	8269.51
672.507	8156.52
672.856	8191.55
673.205	8125.79
673.554	8239.68
673.904	8196.75
674.253	8194.71
674.602	8133.25
674.951	8013.25
675.3	8084.21
675.649	8169.86
675.998	8136.86
676.346	8128.73
676.695	8163.08
677.044	8101.61
677.393	8144.32
677.741	8078.78
678.09	8128.5
678.438	8050.76
678.787	8069.97
679.135	8057.54
679.484	8004.89
679.832	8041.5
680.181	7963.31
680.529	8052.34
680.877	7977.77
681.225	7942.52
681.573	8010.09
681.922	7991.56
682.27	7938.22
682.618	7977.77
682.966	7910.65
683.314	7927.6
683.661	7873.14
684.009	7851.45
684.357	7781.17
684.705	7857.1
685.053	7807.61
685.4	7781.39
685.748	7844.67
686.095	7704.78
686.443	7732.58
686.79	7732.35
687.138	7674.73
687.485	7645.12
687.832	7732.13
688.18	7674.95
688.527	7580.04
688.874	7617.1
689.221	7568.52
689.568	7532.81
689.915	7540.95
690.262	7514.28
690.609	7473.83
690.956	7498.46
691.303	7475.86
691.65	7409.65
691.997	7431.34
692.344	7418.46
692.69	7368.52
693.037	7349.76
693.383	7285.13
693.73	7321.29
694.077	7245.13
694.423	7213.27
694.769	7229.99
695.116	7195.64
695.462	7151.35
695.808	7151.8
696.155	7089.66
696.501	7052.37
696.847	6999.94
697.193	7053.73
697.539	7020.73
697.885	7006.95
698.231	6913.62
698.577	6922.43
698.923	6922.43
699.269	6837.01
699.614	6764.02
699.96	6834.75
700.306	6804.47
700.651	6702.55
700.997	6832.94
701.342	6761.31
701.688	6768.99
702.033	6695.09
702.379	6696.9
702.724	6641.53
703.069	6667.07
703.415	6540.07
703.76	6552.05
704.105	6604.7
704.45	6543.23
704.795	6535.77
705.14	6498.49
705.485	6508.2
705.83	6438.83
706.175	6467.53
706.52	6409
706.865	6375.33
707.209	6356.34
707.554	6338.94
707.899	6338.94
708.243	6356.12
708.588	6297.36
708.932	6256.01
709.277	6254.43
709.621	6259.85
709.966	6220.3
710.31	6168.55
710.654	6183.02
710.998	6213.75
711.342	6235.9
711.687	6187.08
712.031	6107.99
712.375	6141.43
712.719	6115.22
713.063	6073.87
713.407	6122.68
713.75	6074.77
714.094	6063.92
714.438	6055.79
714.782	6047.43
715.125	6035.67
715.469	6042.23
715.812	5974.89
716.156	5962.91
716.499	5976.69
716.843	5971.5
717.186	5933.53
717.53	6000.87
717.873	5980.53
718.216	5971.04
718.559	5933.76
718.902	5884.72
719.246	5922.23
719.589	5884.72
719.932	5910.93
720.275	5868
720.617	5836.58
720.96	5905.73
721.303	5873.64
721.646	5861.22
721.989	5833.19
722.331	5933.76
722.674	5851.95
723.016	5812.86
723.359	5852.4
723.701	5847.66
724.044	5830.93
724.386	5757.94
724.729	5849.46
725.071	5833.42
725.413	5818.73
725.755	5808.79
726.097	5762.91
726.439	5750.03
726.782	5764.5
727.124	5766.08
727.465	5753.65
727.807	5753.65
728.149	5736.25
728.491	5720.43
728.833	5715.46
729.175	5768.79
729.516	5749.35
729.858	5755
730.199	5755.23
730.541	5744.61
730.882	5758.17
731.224	5801.33
731.565	5757.26
731.906	5790.26
732.248	5784.83
732.589	5742.12
732.93	5753.87
733.271	5718.39
733.612	5755.46
733.953	5782.12
734.294	5722.91
734.635	5741.45
734.976	5792.07
735.317	5751.84
735.658	5778.51
735.999	5810.37
736.339	5718.62
736.68	5777.6
737.021	5758.17
737.361	5727.66
737.702	5787.09
738.042	5760.65
738.383	5811.5
738.723	5798.39
739.063	5801.56
739.404	5833.65
739.744	5859.63
740.084	5832.97
740.424	5865.96
740.764	5890.14
741.104	5865.51
741.444	5853.31
741.784	5855.79
742.124	5940.31
742.464	5932.63
742.804	5991.83
743.143	5964.26
743.483	5976.24
743.823	5973.53
744.162	6008.1
744.502	6088.78
744.841	6065.96
745.181	6124.71
745.52	6073.41
745.86	6181.89
746.199	6219.17
746.538	6227.08
746.877	6319.96
747.216	6306.63
747.556	6358.15
747.895	6432.73
748.234	6432.73
748.573	6507.53
748.911	6499.39
749.25	6644.92
749.589	6660.97
749.928	6716.11
750.267	6783.68
750.605	6828.87
750.944	6949.32
751.283	7022.99
751.621	7052.15
751.96	7084.69
752.298	7245.36
752.636	7361.74
752.975	7429.99
753.313	7463.21
753.651	7588.18
753.989	7711.56
754.327	7831.56
754.666	7930.09
755.004	8037.43
755.342	8180.48
755.679	8318.55
756.017	8404.2
756.355	8597.64
756.693	8697.07
757.031	8878.31
757.368	8950.17
757.706	9093.22
758.044	9235.82
758.381	9443.95
758.719	9557.62
759.056	9751.28
759.394	9856.82
759.731	10049.58
760.068	10223.59
760.405	10296.35
760.743	10514.2
761.08	10662.45
761.417	10815.21
761.754	11045.71
762.091	11230.79
762.428	11418.13
762.765	11474.18
763.102	11709.88
763.438	11784
763.775	12015.63
764.112	12200.26
764.449	12505.11
764.785	12585.11
765.122	12645.9
765.458	12842.28
765.795	12941.03
766.131	13243.85
