Data from hue_260_FLMS001491_00088.txt Node
Date: Tue Feb 07 15:59:43 GMT 2017
User: dcchb
Spectrometer: FLMS00149
Trigger mode: 0
Integration Time (sec): 2.000000E-2
Scans to average: 10
Electric dark correction enabled: true
Nonlinearity correction enabled: false
Boxcar width: 0
XAxis mode: Wavelengths
Number of Pixels in Spectrum: 2048
>>>>>Begin Spectral Data<<<<<
341.393	-25.62
341.776	-25.62
342.16	-25.62
342.543	-72.85
342.927	-65.62
343.31	-65.62
343.693	-68.33
344.077	-55.45
344.46	-71.04
344.843	-44.6
345.226	-28.11
345.61	-34.89
345.993	-17.03
346.376	-9.58
346.759	-3.7
347.142	31.78
347.525	45.34
347.908	45.34
348.291	77.2
348.674	86.24
349.057	112.45
349.44	102.74
349.823	137.31
350.206	141.83
350.588	185
350.971	211.21
351.354	192
351.737	234.49
352.119	223.19
352.502	242.39
352.884	266.57
353.267	261.83
353.65	269.96
354.032	281.04
354.414	308.16
354.797	281.94
355.179	307.7
355.562	320.81
355.944	325.56
356.326	311.09
356.709	327.82
357.091	317.87
357.473	345.89
357.855	353.13
358.238	339.34
358.62	314.03
359.002	326.23
359.384	339.57
359.766	341.6
360.148	326.01
360.53	302.51
360.912	303.86
361.294	314.94
361.676	314.26
362.057	325.78
362.439	319.91
362.821	300.25
363.203	319.68
363.584	317.2
363.966	290.08
364.348	329.62
364.729	301.15
365.111	326.01
365.493	317.65
365.874	304.09
366.256	319
366.637	308.38
367.019	321.04
367.4	306.12
367.781	301.15
368.163	305.44
368.544	315.61
368.925	311.77
369.306	304.77
369.688	294.82
370.069	297.76
370.45	319.23
370.831	324.43
371.212	298.21
371.593	297.08
371.974	319
372.355	296.63
372.736	328.49
373.117	340.02
373.498	300.7
373.879	290.3
374.26	317.42
374.641	301.15
375.021	301.15
375.402	296.18
375.783	321.94
376.163	317.2
376.544	335.5
376.925	333.01
377.305	313.81
377.686	309.74
378.066	313.13
378.447	340.25
378.827	319.45
379.208	325.56
379.588	335.27
379.968	320.81
380.349	340.7
380.729	317.87
381.109	330.08
381.489	304.77
381.87	319.45
382.25	316.07
382.63	332.56
383.01	335.27
383.39	339.79
383.77	330.75
384.15	335.27
384.53	329.17
384.91	343.41
385.29	339.57
385.67	347.25
386.049	313.13
386.429	319.91
386.809	351.77
387.189	347.25
387.568	351.77
387.948	347.02
388.328	344.76
388.707	354.93
389.087	338.66
389.466	363.97
389.846	352.67
390.225	368.04
390.605	347.02
390.984	361.26
391.363	353.35
391.743	364.88
392.122	379.11
392.501	380.47
392.881	359.91
393.26	371.43
393.639	389.28
394.018	379.11
394.397	385.89
394.776	381.15
395.155	398.1
395.534	379.34
395.913	372.11
396.292	375.72
396.671	396.51
397.05	372.79
397.429	377.08
397.808	394.71
398.186	384.09
398.565	391.32
398.944	380.24
399.323	411.66
399.701	410.53
400.08	390.64
400.458	416.4
400.837	417.53
401.215	406.68
401.594	415.72
401.972	411.43
402.351	413.69
402.729	439.68
403.107	437.87
403.486	419.79
403.864	427.25
404.242	430.19
404.62	436.29
404.999	459.56
405.377	463.86
405.755	451.43
406.133	449.17
406.511	455.95
406.889	474.25
407.267	455.04
407.645	460.47
408.023	469.73
408.401	498.89
408.779	457.53
409.156	481.03
409.534	481.03
409.912	497.76
410.29	531.2
410.667	518.55
411.045	529.62
411.422	520.81
411.8	514.93
412.178	550.18
412.555	555.38
412.933	568.26
413.31	547.92
413.687	581.37
414.065	574.14
414.442	575.72
414.819	580.46
415.197	566.91
415.574	581.59
415.951	616.4
416.328	603.74
416.705	633.12
417.082	610.75
417.46	622.27
417.837	622.5
418.214	631.76
418.591	662.95
418.967	663.85
419.344	660.91
419.721	672.44
420.098	669.73
420.475	685.77
420.852	710.63
421.228	713.12
421.605	711.31
421.982	705.66
422.358	718.54
422.735	733.23
423.111	752.89
423.488	784.98
423.864	780.46
424.241	784.3
424.617	793.34
424.994	816.16
425.37	827.24
425.746	809.84
426.123	817.75
426.499	890.51
426.875	845.54
427.251	857.97
427.627	871.08
428.003	874.47
428.379	914.69
428.756	892.1
429.132	918.99
429.507	915.6
429.883	932.09
430.259	952.21
430.635	964.86
431.011	965.99
431.387	1000.34
431.763	997.4
432.138	997.18
432.514	1039.66
432.89	1016.61
433.265	1052.09
433.641	1106.78
434.016	1090.73
434.392	1106.1
434.767	1118.98
435.143	1137.06
435.518	1160.56
435.894	1164.18
436.269	1203.95
436.644	1237.62
437.02	1223.16
437.395	1220.9
437.77	1286.21
438.145	1272.42
438.52	1265.19
438.895	1277.62
439.271	1292.08
439.646	1359.65
440.021	1368.01
440.395	1364.85
440.77	1387.9
441.145	1379.09
441.52	1429.26
441.895	1440.1
442.27	1454.79
442.645	1445.53
443.019	1482.81
443.394	1468.58
443.769	1480.78
444.143	1482.36
444.518	1522.14
444.892	1506.99
445.267	1537.28
445.641	1563.94
446.016	1547.22
446.39	1561.46
446.764	1566.88
447.139	1564.62
447.513	1595.13
447.887	1591.29
448.262	1601.23
448.636	1632.87
449.01	1639.87
449.384	1661.57
449.758	1688.23
450.132	1713.54
450.506	1701.34
450.88	1694.79
451.254	1728.01
451.628	1741.11
452.002	1718.29
452.376	1760.77
452.75	1754.22
453.123	1777.95
453.497	1849.58
453.871	1819.3
454.244	1869.24
454.618	1885.74
454.992	1898.85
455.365	1920.09
455.739	1936.81
456.112	1950.15
456.486	1957.38
456.859	1977.94
457.232	2000.09
457.606	2008.68
457.979	2014.1
458.352	2072.18
458.725	2102.01
459.099	2130.25
459.472	2134.55
459.845	2126.41
460.218	2152.63
460.591	2223.81
460.964	2186.98
461.337	2268.78
461.71	2264.04
462.083	2293.64
462.456	2320.76
462.829	2319.4
463.201	2388.1
463.574	2381.1
463.947	2403.92
464.32	2409.57
464.692	2455.67
465.065	2462.68
465.438	2511.71
465.81	2542.45
466.183	2556.68
466.555	2579.51
466.928	2639.62
467.3	2627.64
467.672	2660.18
468.045	2739.73
468.417	2737.7
468.789	2763.91
469.161	2778.15
469.534	2799.84
469.906	2864.47
470.278	2872.16
470.65	2936.79
471.022	2939.27
471.394	3005.03
471.766	3058.14
472.138	3083.68
472.51	3122.77
472.882	3147.4
473.253	3185.37
473.625	3220.17
473.997	3291.13
474.369	3279.38
474.74	3339.04
475.112	3379.71
475.484	3442.54
475.855	3454.97
476.227	3508.3
476.598	3575.19
476.97	3622.64
477.341	3643.66
477.713	3688.63
478.084	3745.58
478.455	3829.42
478.827	3864.67
479.198	3947.16
479.569	3924.33
479.94	4085.01
480.311	4063.76
480.682	4141.95
481.053	4236.87
481.424	4239.35
481.795	4298.79
482.166	4340.59
482.537	4409.74
482.908	4448.16
483.279	4555.73
483.65	4583.75
484.021	4645.44
484.391	4723.63
484.762	4701.94
485.133	4727.93
485.503	4823.07
485.874	4928.6
486.244	4907.36
486.615	4997.3
486.985	5082.49
487.356	5127.01
487.726	5190.74
488.097	5267.35
488.467	5276.16
488.837	5405.2
489.207	5472.77
489.578	5494.69
489.948	5552.31
490.318	5581.01
490.688	5590.28
491.058	5699.43
491.428	5777.39
491.798	5785.98
492.168	5880.21
492.538	5893.77
492.908	5979.19
493.278	6011.73
493.648	5997.05
494.017	6107.55
494.387	6117.27
494.757	6211.05
495.126	6215.12
495.496	6177.38
495.866	6284.04
496.235	6327.88
496.605	6343.25
496.974	6373.31
497.344	6447.43
497.713	6465.06
498.082	6540.53
498.452	6558.16
498.821	6602
499.19	6605.17
499.559	6676.12
499.928	6651.04
500.298	6691.72
500.667	6750.7
501.036	6767.87
501.405	6830.92
501.774	6815.33
502.143	6877.47
502.512	6885.38
502.88	6896.68
503.249	6929
503.618	6968.77
503.987	6947.76
504.356	6975.33
504.724	6982.78
505.093	7047.19
505.462	7078.37
505.83	7044.48
506.199	7120.18
506.567	7184.81
506.936	7178.03
507.304	7267.07
507.672	7260.29
508.041	7239.72
508.409	7285.83
508.777	7291.93
509.145	7369.89
509.514	7360.63
509.882	7401.3
510.25	7329.67
510.618	7326.95
510.986	7420.74
511.354	7413.05
511.722	7531.69
512.09	7566.72
512.458	7515.88
512.826	7554.07
513.193	7558.59
513.561	7604.24
513.929	7580.96
514.297	7631.13
514.664	7679.94
515.032	7678.58
515.4	7714.51
515.767	7737.11
516.135	7771.24
516.502	7664.12
516.869	7808.07
517.237	7839.71
517.604	7768.98
517.972	7860.5
518.339	7871.35
518.706	7806.94
519.073	7922.87
519.44	7869.31
519.808	7885.36
520.175	7951.34
520.542	7984.56
520.909	7970.55
521.276	7973.04
521.643	8007.61
522.009	7975.52
522.376	8015.75
522.743	8057.33
523.11	8085.58
523.477	8179.81
523.843	8174.84
524.21	8215.74
524.577	8248.96
524.943	8270.43
525.31	8306.82
525.676	8253.71
526.043	8339.13
526.409	8338.23
526.776	8350.88
527.142	8450.31
527.508	8408.51
527.874	8432.01
528.241	8423.2
528.607	8379.36
528.973	8486.7
529.339	8434.95
529.705	8476.53
530.071	8550.2
530.437	8586.58
530.803	8552.01
531.169	8556.3
531.535	8522.63
531.901	8449.41
532.267	8542.52
532.632	8587.26
532.998	8554.94
533.364	8531.44
533.73	8648.05
534.095	8642.4
534.461	8661.61
534.826	8642.85
535.192	8628.39
535.557	8613.25
535.923	8673.81
536.288	8646.47
536.653	8703.64
537.019	8594.94
537.384	8665.9
537.749	8659.57
538.114	8616.41
538.479	8681.95
538.845	8638.78
539.21	8578.9
539.575	8605.56
539.94	8646.02
540.305	8652.57
540.67	8583.19
541.034	8609.63
541.399	8592.91
541.764	8639.01
542.129	8636.3
542.494	8587.26
542.858	8606.47
543.223	8589.07
543.587	8589.97
543.952	8575.28
544.316	8665.9
544.681	8560.59
545.045	8653.47
545.41	8597.66
545.774	8612.8
546.138	8599.69
546.503	8618.67
546.867	8522.18
547.231	8595.85
547.595	8599.01
547.959	8599.92
548.324	8578.22
548.688	8582.51
549.052	8558.11
549.416	8623.87
549.779	8597.88
550.143	8536.64
550.507	8571.22
550.871	8564.66
551.235	8538.67
551.599	8562.85
551.962	8559.24
552.326	8562.4
552.689	8567.37
553.053	8538.45
553.417	8473.36
553.78	8636.3
554.143	8608.95
554.507	8578.9
554.87	8616.41
555.234	8698.67
555.597	8514.27
555.96	8554.72
556.323	8617.54
556.686	8622.74
557.05	8638.56
557.413	8683.98
557.776	8624.32
558.139	8649.41
558.502	8677.88
558.865	8631.33
559.228	8691.44
559.59	8700.93
559.953	8672.68
560.316	8834.26
560.679	8788.38
561.041	8747.26
561.404	8801.94
561.767	8841.04
562.129	8841.26
562.492	8881.26
562.854	8789.29
563.217	8814.37
563.579	8824.54
563.941	8885.78
564.304	8865.44
564.666	8941.15
565.028	8970.3
565.39	8946.12
565.753	9001.94
566.115	8973.24
566.477	8947.25
566.839	9001.49
567.201	9095.27
567.563	9153.57
567.925	9153.35
568.287	9187.92
568.648	9139.79
569.01	9175.27
569.372	9241.03
569.734	9212.55
570.095	9248.03
570.457	9333.68
570.819	9314.7
571.18	9296.62
571.542	9374.81
571.903	9341.36
572.265	9342.49
572.626	9373.68
572.987	9409.39
573.349	9430.85
573.71	9464.75
574.071	9501.36
574.432	9506.33
574.794	9519.66
575.155	9543.62
575.516	9543.85
575.877	9588.36
576.238	9610.06
576.599	9636.05
576.96	9635.59
577.32	9667.68
577.681	9712.65
578.042	9703.61
578.403	9792.2
578.763	9764.18
579.124	9687.57
579.485	9848.7
579.845	9816.15
580.206	9787.45
580.566	9798.3
580.927	9851.18
581.287	9903.16
581.648	9863.84
582.008	9965.08
582.368	9903.38
582.728	9962.37
583.089	9942.03
583.449	9888.02
583.809	10006.88
584.169	9980.67
584.529	10015.47
584.889	10165.3
585.249	10045.98
585.609	10063.15
585.969	10095.24
586.329	10124.62
586.688	10090.05
587.048	10081.23
587.408	10081.91
587.768	10071.97
588.127	10185.86
588.487	10151.29
588.846	10206.43
589.206	10163.26
589.565	10177.73
589.925	10264.5
590.284	10130.04
590.643	10267.22
591.003	10213.43
591.362	10267.22
591.721	10178.4
592.08	10288.68
592.44	10245.52
592.799	10325.75
593.158	10310.83
593.517	10317.61
593.876	10330.49
594.235	10342.69
594.593	10313.54
594.952	10394.22
595.311	10334.33
595.67	10367.1
596.029	10477.61
596.387	10408
596.746	10398.51
597.104	10362.13
597.463	10408.46
597.822	10441
598.18	10356.48
598.538	10345.86
598.897	10479.19
599.255	10356.03
599.613	10538.17
599.972	10386.76
600.33	10490.03
600.688	10481
601.046	10459.3
601.404	10546.3
601.762	10520.09
602.12	10547.21
602.478	10565.51
602.836	10582.69
603.194	10557.6
603.552	10570.71
603.91	10495.68
604.268	10560.99
604.625	10572.52
604.983	10573.87
605.341	10594.44
605.698	10551.95
606.056	10561.67
606.413	10603.25
606.771	10608.22
607.128	10576.36
607.485	10560.32
607.843	10602.8
608.2	10605.06
608.557	10677.83
608.914	10683.7
609.272	10634.44
609.629	10720.31
609.986	10671.05
610.343	10631.27
610.7	10690.03
611.057	10731.38
611.414	10709.01
611.771	10719.41
612.127	10798.5
612.484	10815.9
612.841	10835.34
613.198	10719.18
613.554	10783.59
613.911	10780.65
614.267	10798.5
614.624	10860.42
614.98	10833.75
615.337	10903.13
615.693	10890.48
616.05	10835.11
616.406	10896.35
616.762	10926.18
617.118	10802.34
617.475	10882.34
617.831	10932.51
618.187	10963.69
618.543	10872.85
618.899	10995.56
619.255	10967.76
619.611	10920.76
619.967	10953.98
620.323	11052.51
620.678	11001.43
621.034	10915.11
621.39	10959.85
621.746	10913.98
622.101	11047.99
622.457	11015.67
622.812	10956.69
623.168	11004.6
623.523	11027.65
623.879	10979.51
624.234	10980.87
624.589	11016.57
624.945	11036.69
625.3	11010.7
625.655	10963.69
626.01	10903.58
626.365	10974.54
626.72	10946.29
627.075	10995.33
627.43	10916.24
627.785	10908.55
628.14	10886.18
628.495	10977.48
628.85	10893.19
629.205	10907.2
629.559	10970.7
629.914	10915.79
630.269	10887.54
630.623	10809.35
630.978	10851.61
631.332	10978.84
631.687	10872.17
632.041	10846.86
632.396	10860.87
632.75	10804.38
633.104	10778.39
633.459	10807.31
633.813	10826.98
634.167	10769.35
634.521	10716.24
634.875	10831.27
635.229	10711.5
635.583	10717.6
635.937	10704.49
636.291	10627.66
636.645	10631.95
636.999	10698.17
637.352	10672.63
637.706	10601.22
638.06	10638.96
638.413	10558.28
638.767	10553.76
639.121	10608.45
639.474	10556.93
639.828	10617.26
640.181	10565.51
640.534	10608.45
640.888	10511.96
641.241	10434.67
641.594	10461.11
641.947	10533.42
642.301	10513.76
642.654	10483.93
643.007	10503.14
643.36	10490.94
643.713	10503.82
644.066	10439.19
644.419	10465.4
644.771	10408.23
645.124	10366.42
645.477	10252.75
645.83	10248.69
646.182	10198.97
646.535	10091.85
646.888	10110.61
647.24	10034
647.593	10073.1
647.945	10073.77
648.298	10068.8
648.65	10001.46
649.002	10048.69
649.355	10052.98
649.707	10117.84
650.059	10062.48
650.411	10276.48
650.763	10219.31
651.115	10343.82
651.467	10258.63
651.819	10284.16
652.171	10309.47
652.523	10304.96
652.875	10276.26
653.227	10205.07
653.578	10297.5
653.93	10298.63
654.282	10217.05
654.633	10233.54
654.985	10217.95
655.337	10303.6
655.688	10225.41
656.039	10316.48
656.391	10271.51
656.742	10211.85
657.094	10232.87
657.445	10264.28
657.796	10273.32
658.147	10229.48
658.498	10221.79
658.849	10238.97
659.2	10219.53
659.551	10201
659.902	10283.49
660.253	10243.49
660.604	10255.24
660.955	10177.73
661.306	10187.44
661.656	10205.52
662.007	10150.38
662.358	10246.65
662.708	10279.64
663.059	10208.69
663.409	10195.35
663.76	10256.82
664.11	10200.33
664.461	10293.88
664.811	10221.12
665.161	10226.99
665.511	10237.39
665.862	10300.89
666.212	10299.31
666.562	10254.11
666.912	10279.42
667.262	10218.4
667.612	10242.13
667.962	10221.12
668.312	10165.98
668.662	10259.08
669.011	10161.46
669.361	10179.08
669.711	10209.14
670.06	10156.48
670.41	10185.41
670.76	10131.63
671.109	10205.07
671.459	10206.88
671.808	10144.96
672.157	10085.07
672.507	10095.47
672.856	10085.98
673.205	10094.11
673.554	10179.76
673.904	10159.65
674.253	10117.16
674.602	10090.72
674.951	9942.25
675.3	9904.97
675.649	10152.42
675.998	10099.54
676.346	10027
676.695	10069.26
677.044	10013.66
677.393	10047.79
677.741	9964.4
678.09	9964.4
678.438	10000.33
678.787	9930.73
679.135	9991.74
679.484	9983.16
679.832	9969.14
680.181	9831.75
680.529	9947.45
680.877	9904.29
681.225	9895.93
681.573	9946.77
681.922	9861.8
682.27	9797.62
682.618	9751.98
682.966	9803.27
683.314	9818.64
683.661	9799.88
684.009	9780.45
684.357	9714.01
684.705	9686.89
685.053	9740.22
685.4	9711.3
685.748	9624.07
686.095	9622.71
686.443	9586.78
686.79	9641.92
687.138	9540.91
687.485	9588.36
687.832	9555.82
688.18	9532.77
688.527	9511.3
688.874	9426.11
689.221	9409.61
689.568	9424.75
689.915	9404.19
690.262	9406.67
690.609	9329.16
690.956	9326
691.303	9265.21
691.65	9201.71
691.997	9257.3
692.344	9110.18
692.69	9154.48
693.037	9156.28
693.383	9032.45
693.73	9115.61
694.077	9062.95
694.423	9067.93
694.769	8993.13
695.116	9006.01
695.462	8958.55
695.808	8878.78
696.155	8974.82
696.501	8839.46
696.847	8869.06
697.193	8806.24
697.539	8860.93
697.885	8728.95
698.231	8745.22
698.577	8731.89
698.923	8690.76
699.269	8648.28
699.614	8528.05
699.96	8618.45
700.306	8563.08
700.651	8502.97
700.997	8526.7
701.342	8443.08
701.688	8406.7
702.033	8323.54
702.379	8404.67
702.724	8346.36
703.069	8383.88
703.415	8301.62
703.76	8309.3
704.105	8260.71
704.45	8267.04
704.795	8189.08
705.14	8173.94
705.485	8180.49
705.83	8127.16
706.175	8119.25
706.52	8130.1
706.865	8025.69
707.209	8003.77
707.554	8061.62
707.899	8008.52
708.243	7960.61
708.588	7952.25
708.932	7914.06
709.277	7902.98
709.621	7925.36
709.966	7844.23
710.31	7888.75
710.654	7707.51
710.998	7730.79
711.342	7822.99
711.687	7770.78
712.031	7758.58
712.375	7697.79
712.719	7771.91
713.063	7691.24
713.407	7677.45
713.75	7676.55
714.094	7637.91
714.438	7654.18
714.782	7590.9
715.125	7602.2
715.469	7632.26
715.812	7545.71
716.156	7554.07
716.499	7497.12
716.843	7545.71
717.186	7519.49
717.53	7534.86
717.873	7540.73
718.216	7418.93
718.559	7485.82
718.902	7417.35
719.246	7336.67
719.589	7407.86
719.932	7365.6
720.275	7410.57
720.617	7360.63
720.96	7425.26
721.303	7312.72
721.646	7449.66
721.989	7354.52
722.331	7364.92
722.674	7363.79
723.016	7340.06
723.359	7318.14
723.701	7280.4
724.044	7265.26
724.386	7244.02
724.729	7264.58
725.071	7220.74
725.413	7277.01
725.755	7264.13
726.097	7189.56
726.439	7230.46
726.782	7156.79
727.124	7216.22
727.465	7212.15
727.807	7204.47
728.149	7167.41
728.491	7212.38
728.833	7185.94
729.175	7166.73
729.516	7143.91
729.858	7110.91
730.199	7131.93
730.541	7089.45
730.882	7131.71
731.224	7166.51
731.565	7087.86
731.906	7151.82
732.248	7159.95
732.589	7124.02
732.93	7126.51
733.271	7127.86
733.612	7131.03
733.953	7111.14
734.294	7091.93
734.635	7129.67
734.976	7124.47
735.317	7111.37
735.658	7141.42
735.999	7105.94
736.339	7132.84
736.68	7143.46
737.021	7147.07
737.361	7141.42
737.702	7154.98
738.042	7147.98
738.383	7132.84
738.723	7141.2
739.063	7112.27
739.404	7153.4
739.744	7111.82
740.084	7169.9
740.424	7159.5
740.764	7159.05
741.104	7185.04
741.444	7140.97
741.784	7204.92
742.124	7192.04
742.464	7156.56
742.804	7184.81
743.143	7216
743.483	7241.76
743.823	7179.16
744.162	7242.44
744.502	7240.85
744.841	7215.54
745.181	7329.21
745.52	7309.1
745.86	7359.27
746.199	7383.45
746.538	7420.29
746.877	7446.27
747.216	7538.25
747.556	7495.54
747.895	7532.6
748.234	7520.4
748.573	7566.95
748.911	7606.49
749.25	7740.05
749.589	7658.24
749.928	7764.91
750.267	7810.56
750.605	7866.83
750.944	7842.65
751.283	7944.79
751.621	8064.11
751.96	8066.14
752.298	8146.37
752.636	8265.01
752.975	8277.21
753.313	8293.93
753.651	8399.24
753.989	8493.25
754.327	8617.32
754.666	8603.76
755.004	8746.58
755.342	8808.27
755.679	8869.96
756.017	9008.94
756.355	9169.62
756.693	9164.42
757.031	9294.59
757.368	9469.72
757.706	9550.85
758.044	9657.74
758.381	9746.1
758.719	9831.52
759.056	10000.33
759.394	10121.01
759.731	10164.17
760.068	10290.04
760.405	10391.05
760.743	10519.64
761.08	10711.5
761.417	10788.78
761.754	10924.15
762.091	11101.32
762.428	11139.28
762.765	11255.44
763.102	11378.6
763.438	11515.32
763.775	11608.88
764.112	11696.56
