Data from hue_150_FLMS001491_00035.txt Node
Date: Tue Feb 07 16:53:57 GMT 2017
User: dcchb
Spectrometer: FLMS00149
Trigger mode: 0
Integration Time (sec): 2.000000E-2
Scans to average: 10
Electric dark correction enabled: true
Nonlinearity correction enabled: false
Boxcar width: 0
XAxis mode: Wavelengths
Number of Pixels in Spectrum: 2048
>>>>>Begin Spectral Data<<<<<
341.393	-6.19
341.776	-6.19
342.16	-6.19
342.543	-65.85
342.927	-68.11
343.31	-76.24
343.693	-74.66
344.077	-62.91
344.46	-54.32
344.843	-56.58
345.226	-59.29
345.61	-29.69
345.993	-27.43
346.376	-3.47
346.759	22.97
347.142	42.4
347.525	45.11
347.908	62.29
348.291	61.16
348.674	93.02
349.057	117.65
349.44	113.58
349.823	151.78
350.206	161.27
350.588	184.77
350.971	213.92
351.354	248.72
351.737	238.55
352.119	247.14
352.502	253.92
352.884	287.82
353.267	289.85
353.65	291.21
354.032	301.38
354.414	307.7
354.797	328.95
355.179	297.76
355.562	328.04
355.944	290.98
356.326	324.65
356.709	313.58
357.091	316.97
357.473	336.18
357.855	340.47
358.238	344.99
358.62	345.22
359.002	341.15
359.384	334.82
359.766	335.73
360.148	330.98
360.53	340.25
360.912	337.53
361.294	332.79
361.676	324.43
362.057	346.57
362.439	321.94
362.821	316.29
363.203	334.82
363.584	314.71
363.966	299.34
364.348	308.83
364.729	312.68
365.111	319.23
365.493	330.75
365.874	328.04
366.256	318.1
366.637	304.31
367.019	302.05
367.4	319.45
367.781	311.32
368.163	297.99
368.544	327.14
368.925	325.56
369.306	310.19
369.688	314.26
370.069	330.98
370.45	307.93
370.831	308.38
371.212	311.55
371.593	313.35
371.974	311.55
372.355	312.22
372.736	303.18
373.117	301.38
373.498	324.2
373.879	304.99
374.26	305.67
374.641	301.38
375.021	320.81
375.402	320.36
375.783	302.51
376.163	319.91
376.544	335.95
376.925	339.12
377.305	329.85
377.686	332.79
378.066	337.99
378.447	332.79
378.827	326.01
379.208	330.08
379.588	334.6
379.968	326.91
380.349	341.38
380.729	337.53
381.109	320.36
381.489	332.11
381.87	336.18
382.25	335.95
382.63	346.12
383.01	331.66
383.39	350.87
383.77	358.78
384.15	354.71
384.53	335.5
384.91	335.73
385.29	335.95
385.67	329.17
386.049	344.99
386.429	349.74
386.809	351.09
387.189	334.14
387.568	362.84
387.948	365.33
388.328	356.29
388.707	340.02
389.087	360.13
389.466	343.86
389.846	375.5
390.225	361.71
390.605	356.52
390.984	368.04
391.363	368.95
391.743	362.17
392.122	358.1
392.501	362.17
392.881	384.76
393.26	388.38
393.639	377.31
394.018	384.76
394.397	370.08
394.776	355.61
395.155	381.37
395.534	377.98
395.913	391.09
396.292	366.46
396.671	373.46
397.05	375.5
397.429	398.55
397.808	384.99
398.186	387.7
398.565	389.06
398.944	400.58
399.323	396.29
399.701	393.35
400.08	411.2
400.458	379.79
400.837	398.77
401.215	403.75
401.594	396.06
401.972	419.79
402.351	420.02
402.729	409.85
403.107	406.01
403.486	412.56
403.864	440.13
404.242	406.68
404.62	408.72
404.999	431.32
405.377	430.19
405.755	410.98
406.133	436.06
406.511	424.54
406.889	443.07
407.267	439.23
407.645	445.33
408.023	462.73
408.401	451.88
408.779	429.73
409.156	463.86
409.534	459.11
409.912	462.5
410.29	461.37
410.667	456.17
411.045	483.97
411.422	467.7
411.8	484.42
412.178	477.42
412.555	496.17
412.933	485.78
413.31	467.7
413.687	479.22
414.065	493.69
414.442	488.94
414.819	493.01
415.197	512.22
415.574	508.15
415.951	494.59
416.328	511.54
416.705	514.93
417.082	522.39
417.46	539.11
417.837	530.75
418.214	532.33
418.591	535.04
418.967	533.69
419.344	534.59
419.721	559.67
420.098	538.66
420.475	550.86
420.852	570.52
421.228	564.65
421.605	568.49
421.982	540.01
422.358	566.68
422.735	579.11
423.111	563.06
423.488	589.05
423.864	591.99
424.241	588.37
424.617	608.71
424.994	585.44
425.37	586.11
425.746	613.91
426.123	605.32
426.499	594.93
426.875	608.94
427.251	619.11
427.627	633.34
428.003	643.51
428.379	636.51
428.756	650.97
429.132	647.36
429.507	639.45
429.883	660.46
430.259	689.61
430.635	669.28
431.011	659.78
431.387	688.94
431.763	727.13
432.138	698.65
432.514	688.48
432.89	707.24
433.265	708.15
433.641	706.56
434.016	731.65
434.392	733.68
434.767	724.87
435.143	732.33
435.518	751.08
435.894	744.98
436.269	766.9
436.644	770.97
437.02	785.66
437.395	789.95
437.77	818.88
438.145	764.87
438.52	770.52
438.895	806
439.271	798.09
439.646	836.05
440.021	834.02
440.395	847.12
440.77	816.39
441.145	821.81
441.52	855.71
441.895	847.58
442.27	880.57
442.645	868.14
443.019	857.75
443.394	863.62
443.769	860.91
444.143	889.84
444.518	888.93
444.892	897.29
445.267	892.77
445.641	898.2
446.016	909.5
446.39	940.68
446.764	923.96
447.139	931.87
447.513	963.05
447.887	956.95
448.262	959.21
448.636	931.42
449.01	961.25
449.384	998.53
449.758	980
450.132	983.62
450.506	998.99
450.88	1001.02
451.254	1005.99
451.628	1004.18
452.002	1027.01
452.376	1036.05
452.75	1047.35
453.123	1053.45
453.497	1062.49
453.871	1068.81
454.244	1096.61
454.618	1084.41
454.992	1131.86
455.365	1125.31
455.739	1117.63
456.112	1166.21
456.486	1163.73
456.859	1183.84
457.232	1170.51
457.606	1188.36
457.979	1174.12
458.352	1201.24
458.725	1242.59
459.099	1252.31
459.472	1272.2
459.845	1288.47
460.218	1309.71
460.591	1303.84
460.964	1314.68
461.337	1334.57
461.71	1354.46
462.083	1366.66
462.456	1386.55
462.829	1405.08
463.201	1446.2
463.574	1431.74
463.947	1481.91
464.32	1478.52
464.692	1506.99
465.065	1531.63
465.438	1523.04
465.81	1573.21
466.183	1565.52
466.555	1599.65
466.928	1638.52
467.3	1617.27
467.672	1655.24
468.045	1715.12
468.417	1717.61
468.789	1763.71
469.161	1767.33
469.534	1823.37
469.906	1885.29
470.278	1889.36
470.65	1909.24
471.022	1931.84
471.394	1986.08
471.766	2029.47
472.138	2074.21
472.51	2098.39
472.882	2177.03
473.253	2180.87
473.625	2229.91
473.997	2262.45
474.369	2310.59
474.74	2357.82
475.112	2400.76
475.484	2500.19
475.855	2530.24
476.227	2547.19
476.598	2660.86
476.97	2675.78
477.341	2804.36
477.713	2834.42
478.084	2896.79
478.455	2966.39
478.827	3064.92
479.198	3186.95
479.569	3205.03
479.94	3301.3
480.311	3366.83
480.682	3443.44
481.053	3579.03
481.424	3681.4
481.795	3779.93
482.166	3854.5
482.537	3943.09
482.908	4086.36
483.279	4127.94
483.65	4289.07
484.021	4412
484.391	4490.42
484.762	4610.42
485.133	4637.76
485.503	4818.09
485.874	4927.47
486.244	5034.13
486.615	5157.29
486.985	5270.06
487.356	5421.02
487.726	5522.26
488.097	5736.04
488.467	5735.58
488.837	5932.87
489.207	6078.85
489.578	6232.75
489.948	6401.55
490.318	6511.83
490.688	6581.66
491.058	6769.23
491.428	6911.15
491.798	7042.44
492.168	7213.28
492.538	7334.19
492.908	7404.69
493.278	7691.92
493.648	7641.97
494.017	7912.02
494.387	7948.41
494.757	8083.77
495.126	8276.53
495.496	8331.22
495.866	8450.77
496.235	8593.36
496.605	8668.84
496.974	8794.26
497.344	8958.32
497.713	9052.56
498.082	9204.42
498.452	9326.45
498.821	9374.36
499.19	9516.05
499.559	9659.32
499.928	9784.97
500.298	9836.49
500.667	10033.78
501.036	9949.03
501.405	10152.19
501.774	10152.19
502.143	10245.07
502.512	10449.36
502.88	10496.36
503.249	10525.74
503.618	10660.2
503.987	10765.96
504.356	10782.23
504.724	10914.66
505.093	10946.75
505.462	11070.81
505.83	11111.26
506.199	11166.18
506.567	11400.75
506.936	11331.37
507.304	11508.77
507.672	11544.92
508.041	11559.84
508.409	11675.77
508.777	11746.95
509.145	11801.41
509.514	11839.15
509.882	11960.05
510.25	11943.78
510.618	12026.72
510.986	12115.75
511.354	12192.81
511.722	12284.34
512.09	12319.59
512.458	12334.51
512.826	12434.16
513.193	12408.4
513.561	12523.88
513.929	12614.05
514.297	12735.4
514.664	12693.59
515.032	12704.89
515.4	12816.98
515.767	12845.45
516.135	12898.56
516.502	12765.68
516.869	12932.68
517.237	13042.74
517.604	12932.46
517.972	13043.19
518.339	13103.53
518.706	13123.41
519.073	13128.61
519.44	13238.66
519.808	13233.24
520.175	13230.53
520.542	13293.13
520.909	13353.24
521.276	13307.14
521.643	13451.99
522.009	13471.43
522.376	13516.4
522.743	13569.73
523.11	13655.38
523.477	13693.57
523.843	13733.11
524.21	13812.89
524.577	13842.26
524.943	13920.68
525.31	13842.49
525.676	13932.43
526.043	13945.76
526.409	13971.07
526.776	14084.06
527.142	13972.66
527.508	14000.23
527.874	14142.14
528.241	14116.61
528.607	14151.86
528.973	14174.91
529.339	14083.16
529.705	14172.65
530.071	14249.94
530.437	14236.6
530.803	14291.97
531.169	14317.96
531.535	14236.15
531.901	14259.43
532.267	14312.31
532.632	14288.58
532.998	14275.92
533.364	14307.79
533.73	14202.03
534.095	14324.06
534.461	14221.46
534.826	14206.55
535.192	14159.54
535.557	14304.17
535.923	14227.79
536.288	14200.22
536.653	14241.35
537.019	14134.23
537.384	14094.69
537.749	14208.58
538.114	14091.07
538.479	14075.48
538.845	14087.45
539.21	14002.26
539.575	13991.64
539.94	13915.71
540.305	13994.58
540.67	13828.03
541.034	13947.12
541.399	13870.06
541.764	13849.49
542.129	13811.53
542.494	13820.79
542.858	13734.92
543.223	13825.31
543.587	13687.92
543.952	13704.64
544.316	13593.46
544.681	13625.09
545.045	13586.22
545.41	13613.12
545.774	13564.3
546.138	13501.93
546.503	13446.34
546.867	13425.78
547.231	13485.21
547.595	13447.25
547.959	13424.87
548.324	13325.44
548.688	13340.81
549.052	13265.1
549.416	13291.32
549.779	13267.81
550.143	13172.68
550.507	13261.26
550.871	13237.53
551.235	13101.49
551.599	13139.68
551.962	13124.32
552.326	13105.33
552.689	13088.16
553.053	13045.67
553.417	13029.63
553.78	13063.53
554.143	13066.24
554.507	12995.96
554.87	13012
555.234	13065.56
555.597	12976.07
555.96	12991.89
556.323	12928.84
556.686	12958.67
557.05	12950.54
557.413	12951.89
557.776	12888.16
558.139	12927.03
558.502	12888.62
558.865	12884.77
559.228	12930.65
559.59	12885.23
559.953	12940.59
560.316	12949.63
560.679	12944.89
561.041	12891.55
561.404	12995.73
561.767	12889.07
562.129	12902.63
562.492	12958.22
562.854	12935.85
563.217	12895.85
563.579	12963.87
563.941	12915.73
564.304	12922.51
564.666	12932
565.028	12987.14
565.39	12982.85
565.753	13112.56
566.115	13096.29
566.477	13109.4
566.839	12981.27
567.201	13129.29
567.563	13082.96
567.925	13096.52
568.287	13064.2
568.648	13169.96
569.01	13154.82
569.372	13283.86
569.734	13135.84
570.095	13263.75
570.457	13250.41
570.819	13246.57
571.18	13225.56
571.542	13308.94
571.903	13271.43
572.265	13289.74
572.626	13322.5
572.987	13295.61
573.349	13396.63
573.71	13358.66
574.071	13348.72
574.432	13357.08
574.794	13479.33
575.155	13382.39
575.516	13320.69
575.877	13459.67
576.238	13293.35
576.599	13449.51
576.96	13352.56
577.32	13401.82
577.681	13438.66
578.042	13493.57
578.403	13378.77
578.763	13380.13
579.124	13454.48
579.485	13496.51
579.845	13569.5
580.206	13450.64
580.566	13400.92
580.927	13400.24
581.287	13491.09
581.648	13480.46
582.008	13529.5
582.368	13475.72
582.728	13450.64
583.089	13421.48
583.449	13373.12
583.809	13426
584.169	13410.41
584.529	13362.05
584.889	13503.97
585.249	13379.22
585.609	13359.34
585.969	13455.15
586.329	13390.52
586.688	13432.33
587.048	13419.22
587.408	13294.93
587.768	13346.68
588.127	13283.63
588.487	13383.07
588.846	13395.27
589.206	13317.98
589.565	13207.48
589.925	13350.75
590.284	13300.13
590.643	13287.93
591.003	13326.8
591.362	13298.77
591.721	13268.72
592.08	13284.54
592.44	13294.48
592.799	13327.93
593.158	13203.86
593.517	13241.37
593.876	13269.85
594.235	13260.36
594.593	13231.66
594.952	13300.81
595.311	13269.17
595.67	13206.35
596.029	13320.92
596.387	13292.9
596.746	13260.58
597.104	13291.09
597.463	13240.7
597.822	13116.41
598.18	13237.53
598.538	13108.95
598.897	13312.33
599.255	13066.46
599.613	13276.85
599.972	13113.24
600.33	13166.57
600.688	13179.91
601.046	13209.96
601.404	13284.09
601.762	13205.44
602.12	13210.64
602.478	13259.23
602.836	13181.94
603.194	13143.98
603.552	13190.75
603.91	13191.43
604.268	13210.87
604.625	13099.91
604.983	13198.44
605.341	13132.68
605.698	13204.31
606.056	13206.8
606.413	13163.86
606.771	13234.37
607.128	13269.17
607.485	13179.23
607.843	13221.71
608.2	13286.8
608.557	13354.59
608.914	13226.46
609.272	13366.57
609.629	13345.1
609.986	13387.13
610.343	13329.51
610.7	13325.89
611.057	13350.52
611.414	13363.63
611.771	13324.99
612.127	13386.91
612.484	13381.94
612.841	13420.58
613.198	13367.93
613.554	13365.21
613.911	13509.16
614.267	13461.03
614.624	13444.08
614.98	13476.4
615.337	13505.77
615.693	13470.52
616.05	13475.04
616.406	13548.26
616.762	13501.03
617.118	13515.49
617.475	13572.21
617.831	13516.4
618.187	13575.83
618.543	13502.39
618.899	13631.87
619.255	13595.49
619.611	13543.29
619.967	13628.94
620.323	13587.35
620.678	13568.37
621.034	13622.83
621.39	13506.68
621.746	13506.68
622.101	13750.29
622.457	13580.58
622.812	13613.57
623.168	13626.9
623.523	13714.81
623.879	13707.35
624.234	13536.96
624.589	13597.75
624.945	13604.08
625.3	13649.5
625.655	13600.69
626.01	13595.49
626.365	13581.48
626.72	13594.59
627.075	13614.02
627.43	13575.15
627.785	13620.8
628.14	13594.36
628.495	13618.54
628.85	13576.96
629.205	13526.79
629.559	13629.39
629.914	13547.81
630.269	13550.29
630.623	13510.97
630.978	13513.46
631.332	13552.33
631.687	13574.7
632.041	13480.01
632.396	13504.42
632.75	13443.63
633.104	13443.4
633.459	13344.65
633.813	13380.58
634.167	13441.82
634.521	13416.06
634.875	13408.6
635.229	13348.49
635.583	13392.78
635.937	13273.24
636.291	13366.12
636.645	13333.58
636.999	13248.38
637.352	13234.14
637.706	13182.85
638.06	13263.52
638.413	13282.5
638.767	13262.17
639.121	13137.2
639.474	13101.27
639.828	13080.02
640.181	13197.99
640.534	13070.08
640.888	13086.8
641.241	13031.89
641.594	13073.92
641.947	12999.35
642.301	13018.56
642.654	13080.02
643.007	13020.14
643.36	12969.52
643.713	12957.31
644.066	13101.27
644.419	13006.8
644.771	12907.37
645.124	12902.4
645.477	12847.94
645.83	12771.1
646.182	12709.86
646.535	12608.4
646.888	12603.88
647.24	12565.23
647.593	12639.36
647.945	12537.89
648.298	12462.64
648.65	12591.45
649.002	12503.99
649.355	12547.38
649.707	12602.97
650.059	12716.42
650.411	12787.83
650.763	12800.71
651.115	12877.77
651.467	12872.35
651.819	12844.32
652.171	12831.22
652.523	12840.26
652.875	12894.72
653.227	12739.92
653.578	12928.84
653.93	12920.93
654.282	12784.89
654.633	12788.51
654.985	12843.19
655.337	12855.62
655.688	12814.72
656.039	12831.44
656.391	12771.78
656.742	12801.61
657.094	12829.41
657.445	12823.53
657.796	12840.48
658.147	12884.32
658.498	12715.51
658.849	12804.32
659.2	12815.62
659.551	12817.21
659.902	12824.66
660.253	12786.7
660.604	12898.56
660.955	12806.13
661.306	12864.89
661.656	12840.48
662.007	12887.26
662.358	12870.09
662.708	12820.14
663.059	12883.64
663.409	12763.2
663.76	12929.52
664.11	12902.17
664.461	12836.87
664.811	12894.49
665.161	12862.4
665.511	12812.91
665.862	12885
666.212	12841.39
666.562	12866.7
666.912	12812.01
667.262	12887.03
667.612	12877.99
667.962	12818.34
668.312	12779.47
668.662	12917.32
669.011	12858.56
669.361	12878.22
669.711	12772.91
670.06	12826.24
670.41	12776.75
670.76	12815.17
671.109	12819.47
671.459	12768.62
671.808	12745.57
672.157	12853.59
672.507	12778.34
672.856	12678.68
673.205	12782.18
673.554	12790.77
673.904	12705.57
674.253	12863.08
674.602	12792.35
674.951	12605.46
675.3	12604.56
675.649	12652.92
675.998	12700.37
676.346	12734.27
676.695	12734.27
677.044	12596.65
677.393	12689.75
677.741	12569.08
678.09	12612.92
678.438	12604.78
678.787	12613.59
679.135	12560.26
679.484	12473.94
679.832	12490.89
680.181	12454.28
680.529	12436.42
680.877	12458.12
681.225	12491.34
681.573	12500.83
681.922	12445.92
682.27	12334.96
682.618	12358.01
682.966	12360.95
683.314	12384.67
683.661	12309.42
684.009	12292.7
684.357	12272.81
684.705	12198.46
685.053	12164.57
685.4	12187.17
685.748	12094.29
686.095	12183.78
686.443	12068.75
686.79	12124.34
687.138	12101.74
687.485	12089.09
687.832	12075.98
688.18	12020.62
688.527	11951.24
688.874	11935.65
689.221	11865.37
689.568	11924.8
689.915	11822.2
690.262	11830.79
690.609	11767.06
690.956	11789.21
691.303	11711.25
691.65	11635.09
691.997	11621.3
692.344	11575.66
692.69	11558.48
693.037	11576.11
693.383	11420.18
693.73	11433.74
694.077	11345.38
694.423	11303.12
694.769	11320.75
695.116	11344.93
695.462	11247.3
695.808	11281.43
696.155	11258.15
696.501	11163.46
696.847	11041.88
697.193	11105.16
697.539	11081.88
697.885	10972.73
698.231	10949.46
698.577	10996.01
698.923	10875.56
699.269	10859.97
699.614	10772.51
699.96	10785.85
700.306	10757.6
700.651	10633.53
700.997	10673.31
701.342	10613.65
701.688	10596.25
702.033	10586.53
702.379	10529.13
702.724	10569.81
703.069	10513.99
703.415	10377.72
703.76	10417.49
704.105	10375.69
704.45	10405.74
704.795	10305.18
705.14	10190.83
705.485	10200.55
705.83	10217.5
706.175	10115.58
706.52	10124.62
706.865	10107.45
707.209	10111.29
707.554	10059.76
707.899	10026.32
708.243	10017.28
708.588	9950.61
708.932	9914.23
709.277	9888.47
709.621	9909.49
709.966	9854.35
710.31	9885.76
710.654	9765.08
710.998	9758.53
711.342	9736.83
711.687	9769.38
712.031	9631.53
712.375	9639.89
712.719	9621.13
713.063	9674.01
713.407	9636.5
713.75	9614.58
714.094	9585.88
714.438	9535.48
714.782	9524.18
715.125	9511.98
715.469	9587.91
715.812	9503.62
716.156	9471.76
716.499	9512.21
716.843	9404.19
717.186	9428.59
717.53	9499.78
717.873	9447.12
718.216	9378.2
718.559	9400.57
718.902	9318.99
719.246	9305.89
719.589	9283.06
719.932	9269.28
720.275	9276.73
720.617	9280.35
720.96	9226.79
721.303	9215.04
721.646	9249.62
721.989	9154.48
722.331	9256.4
722.674	9163.52
723.016	9224.76
723.359	9165.32
723.701	9166.45
724.044	9149.51
724.386	9113.12
724.729	9128.26
725.071	9071.32
725.413	9123.52
725.755	9122.39
726.097	9098.43
726.439	9056.4
726.782	9145.66
727.124	9078.77
727.465	9095.04
727.807	9048.26
728.149	9064.31
728.491	9114.93
728.833	9059.56
729.175	9034.03
729.516	9033.58
729.858	9056.85
730.199	8951.54
730.541	8901.38
730.882	9025.21
731.224	8952
731.565	8959.68
731.906	8962.84
732.248	9041.94
732.589	9031.77
732.93	8978.44
733.271	8883.52
733.612	8965.78
733.953	8917.19
734.294	8973.24
734.635	8944.76
734.976	8929.85
735.317	8938.89
735.658	8924.65
735.999	8940.02
736.339	8953.13
736.68	8942.28
737.021	9011.88
737.361	8951.77
737.702	8965.1
738.042	8934.37
738.383	8992
738.723	8977.53
739.063	8985.67
739.404	8998.32
739.744	8997.87
740.084	8969.62
740.424	9019.79
740.764	9021.6
741.104	9078.32
741.444	9001.71
741.784	9036.97
742.124	9087.13
742.464	9113.57
742.804	9111.77
743.143	9107.02
743.483	9152.22
743.823	9054.14
744.162	9180.01
744.502	9238.77
744.841	9149.73
745.181	9218.66
745.52	9239.45
745.86	9360.8
746.199	9361.03
746.538	9355.6
746.877	9466.11
747.216	9494.13
747.556	9509.27
747.895	9592.88
748.234	9608.25
748.573	9655.25
748.911	9683.95
749.25	9791.07
749.589	9858.19
749.928	9870.39
750.267	9968.01
750.605	9990.39
750.944	10063.38
751.283	10060.22
751.621	10202.58
751.96	10238.29
752.298	10329.14
752.636	10475.57
752.975	10556.93
753.313	10652.52
753.651	10785.39
753.989	10723.48
754.327	10883.92
754.666	10936.58
755.004	11072.39
755.342	11221.77
755.679	11365.49
756.017	11402.78
756.355	11698.59
756.693	11720.74
757.031	11945.14
757.368	11963.89
757.706	12146.94
758.044	12283.89
