Data from hue_32_FLMS001491_00023.txt Node
Date: Tue Feb 07 17:23:06 GMT 2017
User: dcchb
Spectrometer: FLMS00149
Trigger mode: 0
Integration Time (sec): 2.000000E-2
Scans to average: 10
Electric dark correction enabled: true
Nonlinearity correction enabled: false
Boxcar width: 0
XAxis mode: Wavelengths
Number of Pixels in Spectrum: 2048
>>>>>Begin Spectral Data<<<<<
341.393	-18.46
341.776	-18.46
342.16	-18.46
342.543	-60.27
342.927	-59.81
343.31	-67.72
343.693	-72.24
344.077	-69.08
344.46	-57.78
344.843	-48.29
345.226	-30.44
345.61	-30.21
345.993	-19.36
346.376	-23.43
346.759	24.93
347.142	21.09
347.525	41.2
347.908	53.4
348.291	89.56
348.674	100.63
349.057	87.75
349.44	139.5
349.823	147.64
350.206	158.26
350.588	190.12
350.971	206.84
351.354	225.15
351.737	252.72
352.119	273.28
352.502	265.6
352.884	295.2
353.267	280.29
353.65	304.92
354.032	296.11
354.414	306.05
354.797	334.75
355.179	341.76
355.562	355.54
355.944	312.38
356.326	317.8
356.709	337.91
357.091	353.28
357.473	325.03
357.855	341.98
358.238	359.38
358.62	334.98
359.002	351.25
359.384	344.47
359.766	332.72
360.148	323.9
360.53	352.15
360.912	342.43
361.294	339.5
361.676	330.23
362.057	319.61
362.439	317.35
362.821	355.32
363.203	325.94
363.584	324.13
363.966	314.86
364.348	322.55
364.729	339.04
365.111	320.51
365.493	325.26
365.874	333.17
366.256	310.57
366.637	332.94
367.019	330.46
367.4	327.97
367.781	320.06
368.163	321.87
368.544	313.96
368.925	315.54
369.306	312.15
369.688	332.49
370.069	325.71
370.45	301.76
370.831	321.87
371.212	316.22
371.593	323.68
371.974	306.5
372.355	322.1
372.736	314.41
373.117	311.02
373.498	316.67
373.879	322.32
374.26	333.17
374.641	332.72
375.021	311.47
375.402	322.77
375.783	323.9
376.163	342.89
376.544	321.42
376.925	343.56
377.305	332.27
377.686	333.4
378.066	317.8
378.447	314.41
378.827	342.21
379.208	345.15
379.588	348.54
379.968	348.31
380.349	334.98
380.729	336.33
381.109	355.99
381.489	343.56
381.87	341.3
382.25	330.68
382.63	343.56
383.01	339.72
383.39	344.92
383.77	339.04
384.15	340.17
384.53	372.72
384.91	345.82
385.29	338.37
385.67	361.42
386.049	338.82
386.429	368.42
386.809	365.03
387.189	344.24
387.568	369.1
387.948	365.03
388.328	372.26
388.707	370.46
389.087	352.15
389.466	366.61
389.846	371.59
390.225	374.75
390.605	351.25
390.984	383.79
391.363	381.3
391.743	364.13
392.122	362.09
392.501	387.86
392.881	394.86
393.26	337.24
393.639	376.11
394.018	364.81
394.397	374.98
394.776	395.31
395.155	382.43
395.534	371.59
395.913	407.52
396.292	369.78
396.671	380.63
397.05	393.28
397.429	387.63
397.808	388.08
398.186	388.08
398.565	401.42
398.944	391.92
399.323	404.58
399.701	392.6
400.08	404.81
400.458	431.25
400.837	410.23
401.215	418.59
401.594	423.56
401.972	435.77
402.351	403
402.729	422.88
403.107	395.77
403.486	427.63
403.864	412.04
404.242	422.21
404.62	417.69
404.999	419.04
405.377	444.58
405.755	443.22
406.133	427.86
406.511	447.29
406.889	419.27
407.267	445.93
407.645	453.62
408.023	456.33
408.401	447.29
408.779	452.94
409.156	473.73
409.534	451.81
409.912	455.2
410.29	447.74
410.667	459.95
411.045	473.96
411.422	488.87
411.8	474.86
412.178	481.87
412.555	469.89
412.933	494.07
413.31	479.83
413.687	515.99
414.065	504.24
414.442	509.21
414.819	501.75
415.197	485.03
415.574	497.23
415.951	483.22
416.328	499.49
416.705	503.11
417.082	512.83
417.46	519.6
417.837	513.05
418.214	513.5
418.591	517.8
418.967	522.54
419.344	515.54
419.721	522.54
420.098	554.18
420.475	535.42
420.852	544.69
421.228	523.67
421.605	568.42
421.982	564.58
422.358	560.73
422.735	570.9
423.111	572.48
423.488	572.94
423.864	594.63
424.241	570
424.617	587.63
424.994	574.97
425.37	589.66
425.746	597.34
426.123	592.15
426.499	577
426.875	587.17
427.251	604.35
427.627	614.07
428.003	635.31
428.379	624.23
428.756	606.61
429.132	623.78
429.507	660.62
429.883	670.79
430.259	661.3
430.635	662.2
431.011	648.87
431.387	662.88
431.763	664.46
432.138	674.63
432.514	661.97
432.89	669.21
433.265	679.6
433.641	701.3
434.016	695.87
434.392	685.25
434.767	725.48
435.143	685.48
435.518	715.08
435.894	721.86
436.269	734.74
436.644	762.54
437.02	744.68
437.395	727.06
437.77	755.53
438.145	765.7
438.52	756.21
438.895	765.02
439.271	765.02
439.646	772.25
440.021	788.3
440.395	786.04
440.77	809.99
441.145	787.17
441.52	767.51
441.895	777.9
442.27	792.37
442.645	811.57
443.019	812.93
443.394	826.26
443.769	806.83
444.143	827.17
444.518	869.65
444.892	837.11
445.267	834.17
445.641	853.38
446.016	845.92
446.39	877.11
446.764	846.83
447.139	842.08
447.513	884.34
447.887	857.68
448.262	870.33
448.636	882.53
449.01	899.26
449.384	883.44
449.758	876.88
450.132	900.39
450.506	920.95
450.88	909.2
451.254	932.25
451.628	941.06
452.002	899.71
452.376	926.37
452.75	965.02
453.123	977.67
453.497	977.45
453.871	981.29
454.244	1002.3
454.618	1020.16
454.992	997.33
455.365	1008.63
455.739	1007.95
456.112	1023.32
456.486	1051.57
456.859	1068.07
457.232	1083.43
457.606	1074.39
457.979	1082.3
458.352	1097.67
458.725	1102.87
459.099	1121.62
459.472	1148.74
459.845	1130.66
460.218	1161.17
460.591	1161.62
460.964	1172.47
461.337	1170.89
461.71	1181.06
462.083	1225.8
462.456	1227.83
462.829	1222.86
463.201	1249.53
463.574	1232.58
463.947	1284.1
464.32	1303.31
464.692	1274.16
465.065	1341.05
465.438	1329.75
465.81	1358.45
466.183	1368.4
466.555	1366.59
466.928	1397.55
467.3	1427.38
467.672	1435.06
468.045	1470.09
468.417	1487.26
468.789	1506.25
469.161	1519.35
469.534	1543.31
469.906	1581.05
470.278	1598.67
470.65	1600.03
471.022	1662.63
471.394	1678.9
471.766	1696.07
472.138	1682.96
472.51	1728.39
472.882	1782.17
473.253	1814.26
473.625	1800.93
473.997	1856.52
474.369	1871.89
474.74	1928.38
475.112	1964.54
475.484	2001.15
475.855	2038.21
476.227	2075.27
476.598	2129.51
476.97	2170.18
477.341	2212.44
477.713	2222.84
478.084	2290.86
478.455	2331.08
478.827	2390.74
479.198	2448.14
479.569	2484.3
479.94	2549.38
480.311	2592.54
480.682	2703.05
481.053	2735.14
481.424	2823.27
481.795	2857.17
482.166	2915.47
482.537	2969.26
482.908	3069.37
483.279	3112.31
483.65	3179.65
484.021	3251.51
484.391	3358.17
484.762	3381.22
485.133	3426.87
485.503	3495.35
485.874	3630.48
486.244	3693.98
486.615	3769.24
486.985	3874.55
487.356	3972.85
487.726	4013.07
488.097	4126.52
488.467	4152.96
488.837	4233.63
489.207	4362.44
489.578	4412.38
489.948	4541.87
490.318	4625.03
490.688	4645.82
491.058	4757.69
491.428	4858.47
491.798	4990.9
492.168	5084.23
492.538	5120.39
492.908	5219.82
493.278	5234.74
493.648	5318.12
494.017	5477.67
494.387	5548.85
494.757	5580.04
495.126	5714.27
495.496	5721.05
495.866	5830.65
496.235	5951.33
496.605	5984.32
496.974	6071.78
497.344	6105.22
497.713	6183.86
498.082	6309.96
498.452	6319.9
498.821	6362.62
499.19	6443.52
499.559	6530.29
499.928	6628.82
500.298	6704.75
500.667	6732.32
501.036	6776.62
501.405	6836.5
501.774	6871.98
502.143	6947.46
502.512	6996.5
502.88	7029.26
503.249	7074.01
503.618	7184.97
503.987	7215.02
504.356	7235.36
504.724	7407.56
505.093	7385.87
505.462	7459.08
505.83	7522.36
506.199	7590.38
506.567	7675.35
506.936	7713.54
507.304	7817.04
507.672	7865.85
508.041	7887.77
508.409	7946.08
508.777	8043.25
509.145	8035.11
509.514	8112.17
509.882	8117.82
510.25	8186.07
510.618	8241.21
510.986	8298.61
511.354	8423.35
511.722	8410.24
512.09	8558.94
512.458	8558.04
512.826	8634.19
513.193	8661.09
513.561	8701.76
513.929	8748.32
514.297	8804.58
514.664	8873.28
515.032	8935.43
515.4	8927.07
515.767	9073.05
516.135	9060.85
516.502	9021.53
516.869	9148.98
517.237	9178.59
517.604	9146.27
517.972	9309.2
518.339	9353.95
518.706	9317.11
519.073	9357.11
519.44	9441.18
519.808	9526.6
520.175	9524.79
520.542	9572.25
520.909	9675.52
521.276	9704.22
521.643	9769.76
522.009	9829.64
522.376	9931.33
522.743	9916.42
523.11	10053.14
523.477	10133.14
523.843	10192.34
524.21	10280.7
524.577	10303.98
524.943	10356.86
525.31	10349.4
525.676	10473.47
526.043	10532.45
526.409	10541.26
526.776	10693.12
527.142	10686.8
527.508	10805.66
527.874	10866
528.241	10882.04
528.607	10903.74
528.973	11041.81
529.339	11012.66
529.705	11154.13
530.071	11163.17
530.437	11265.54
530.803	11327.46
531.169	11357.74
531.535	11362.71
531.901	11463.5
532.267	11445.87
532.632	11552.31
532.998	11543.27
533.364	11601.57
533.73	11638.18
534.095	11758.63
534.461	11848.12
534.826	11914.79
535.192	11904.16
535.557	12007.44
535.923	12020.32
536.288	12044.05
536.653	12167.89
537.019	12179.64
537.384	12190.48
537.749	12311.16
538.114	12280.2
538.479	12291.95
538.845	12406.3
539.21	12383.7
539.575	12511.38
539.94	12485.17
540.305	12566.07
540.67	12586.63
541.034	12609.23
541.399	12699.62
541.764	12756.8
542.129	12763.35
542.494	12790.92
542.858	12937.58
543.223	12861.2
543.587	13041.76
543.952	12992.95
544.316	13061.65
544.681	13117.47
545.045	13123.57
545.41	13151.36
545.774	13346.16
546.138	13321.98
546.503	13367.63
546.867	13399.72
547.231	13550.45
547.595	13511.81
547.959	13601.29
548.324	13524.46
548.688	13645.59
549.052	13763.55
549.416	13738.69
549.779	13773.49
550.143	13772.82
550.507	13888.52
550.871	13904.34
551.235	14015.75
551.599	14037.22
551.962	14103.88
552.326	14099.36
552.689	14217.78
553.053	14202.18
553.417	14211.9
553.78	14345.46
554.143	14383.42
554.507	14458.22
554.87	14403.08
555.234	14582.51
555.597	14421.39
555.96	14606.24
556.323	14642.62
556.686	14668.61
557.05	14677.65
557.413	14779.34
557.776	14825.9
558.139	14936.85
558.502	14945.44
558.865	14937.3
559.228	15033.12
559.59	15003.97
559.953	15109.5
560.316	15228.14
560.679	15136.17
561.041	15321.02
561.404	15381.36
561.767	15451.19
562.129	15420.68
562.492	15654.35
562.854	15618.42
563.217	15586.78
563.579	15608.02
563.941	15755.81
564.304	15765.98
564.666	15835.59
565.028	15955.81
565.39	15943.38
565.753	16071.96
566.115	16111.96
566.477	16186.54
566.839	16199.19
567.201	16406.87
567.563	16346.53
567.925	16499.07
568.287	16422.01
568.648	16492.52
569.01	16612.97
569.372	16779.29
569.734	16668.11
570.095	16778.61
570.457	16878.27
570.819	16967.31
571.18	16981.55
571.542	17158.26
571.903	17061.77
572.265	17268.54
572.626	17227.41
572.987	17258.6
573.349	17383.34
573.71	17563.9
574.071	17615.2
574.432	17693.16
574.794	17772.48
575.155	17871.92
575.516	17942.2
575.877	18003.89
576.238	18086.6
576.599	18271.68
576.96	18385.58
577.32	18449.53
577.681	18643.42
578.042	18719.35
578.403	18846.58
578.763	18999.35
579.124	19068.95
579.485	19248.6
579.845	19413.35
580.206	19489.73
580.566	19571.99
580.927	19847.46
581.287	20031.63
581.648	20015.59
582.008	20339.87
582.368	20371.29
582.728	20704.38
583.089	20700.09
583.449	21016.92
583.809	21245.16
584.169	21370.81
584.529	21584.14
584.889	21954.52
585.249	21905.03
585.609	22164.23
585.969	22552.47
586.329	22623.43
586.688	22929.41
587.048	23085.34
587.408	23302.28
587.768	23534.82
588.127	23744.53
588.487	23940.91
588.846	24347.68
589.206	24588.35
589.565	24720.55
589.925	24989.02
590.284	25349.69
590.643	25529.34
591.003	25856.57
591.362	26144.24
591.721	26371.13
592.08	26631.69
592.44	26886.14
592.799	27226.7
593.158	27330.88
593.517	27768.61
593.876	27993.46
594.235	28211.08
594.593	28439.1
594.952	28739.65
595.311	28957.95
595.67	29249.25
596.029	29664.6
596.387	29782.34
596.746	30215.55
597.104	30312.95
597.463	30441.76
597.822	30801.97
598.18	30979.82
598.538	31295.74
598.897	31702.97
599.255	31577.55
599.613	32350.63
599.972	32323.29
600.33	32631.75
600.688	32735.93
601.046	33154.45
601.404	33403.71
601.762	33676.7
602.12	33840.31
602.478	34047.31
602.836	34203.92
603.194	34342.9
603.552	34535.89
603.91	34578.37
604.268	35049.09
604.625	35118.7
604.983	35382.42
605.341	35472.13
605.698	35830.77
606.056	36092.91
606.413	36151.21
606.771	36400.7
607.128	36504.2
607.485	36654.02
607.843	36879.78
608.2	37098.08
608.557	37423.04
608.914	37510.5
609.272	37744.61
609.629	38071.16
609.986	38296.24
610.343	38266.64
610.7	38615.33
611.057	38748.88
611.414	38814.42
611.771	38925.83
612.127	39098.93
612.484	39242.2
612.841	39584.57
613.198	39556.54
613.554	39531.91
613.911	39777.1
614.267	39969.42
614.624	40125.57
614.98	40234.04
615.337	40511.32
615.693	40468.61
616.05	40448.72
616.406	40931.65
616.762	40770.3
617.118	41036.96
617.475	40929.16
617.831	41171.64
618.187	41293.45
618.543	41348.14
618.899	41765.07
619.255	41736.83
619.611	41703.83
619.967	42034.45
620.323	42161.9
620.678	41865.86
621.034	41998.29
621.39	42226.3
621.746	42203.25
622.101	42650.93
622.457	42515.79
622.812	42626.29
623.168	42791.26
623.523	42749.23
623.879	42994.65
624.234	42843.24
624.589	42960.97
624.945	43004.82
625.3	43195.55
625.655	43153.74
626.01	43210.91
626.365	43194.42
626.72	43305.6
627.075	43300.18
627.43	43240.06
627.785	43233.74
628.14	43512.37
628.495	43491.13
628.85	43437.12
629.205	43363.68
629.559	43549.43
629.914	43532.49
630.269	43645.25
630.623	43636.44
630.978	43416.1
631.332	43775.87
631.687	43769.32
632.041	43679.37
632.396	43751.91
632.75	43558.93
633.104	43693.61
633.459	43416.1
633.813	43449.78
634.167	43646.15
634.521	43566.38
634.875	43674.63
635.229	43581.3
635.583	43474.18
635.937	43446.39
636.291	43505.59
636.645	43673.5
636.999	43363.45
637.352	43744.01
637.706	43479.15
638.06	43614.74
638.413	43530.9
638.767	43275.99
639.121	43443.9
639.474	43304.69
639.828	43378.59
640.181	43433.5
640.534	43289.1
640.888	43243.91
641.241	43170.01
641.594	43398.48
641.947	43338.59
642.301	43170.23
642.654	43250.68
643.007	43205.94
643.36	43215.21
643.713	43062.89
644.066	43333.39
644.419	43113.51
644.771	42812.28
645.124	42576.35
645.477	42603.7
645.83	42289.13
646.182	42158.74
646.535	42165.06
646.888	42266.98
647.24	41890.72
647.593	42215.46
647.945	41970.94
648.298	41880.78
648.65	41727.34
649.002	41837.16
649.355	41943.83
649.707	41849.14
650.059	42119.87
650.411	42603.7
650.763	42497.26
651.115	42897.25
651.467	42808.66
651.819	42805.27
652.171	42718.95
652.523	42666.75
652.875	42705.84
653.227	42511.5
653.578	42825.84
653.93	42771.38
654.282	42400.54
654.633	42401.22
654.985	42605.96
655.337	42517.14
655.688	42546.75
656.039	42682.79
656.391	42376.81
656.742	42413.87
657.094	42579.52
657.445	42612.96
657.796	42426.75
658.147	42549.01
658.498	42388.11
658.849	42445.51
659.2	42511.27
659.551	42348.56
659.902	42353.53
660.253	42276.93
660.604	42501.55
660.955	42232.63
661.306	42291.39
661.656	42290.03
662.007	42392.85
662.358	42343.14
662.708	42397.6
663.059	42282.35
663.409	42135.46
663.76	42317.15
664.11	42256.81
664.461	42264.72
664.811	42341.78
665.161	42296.13
665.511	42159.19
665.862	42170.49
666.212	42372.06
666.562	42349.47
666.912	42162.8
667.262	42116.7
667.612	42223.37
667.962	42226.08
668.312	42116.25
668.662	42320.09
669.011	42183.82
669.361	42202.8
669.711	42165.97
670.06	42139.75
670.41	42172.07
670.76	42088.68
671.109	42184.95
671.459	42118.74
671.808	42061.11
672.157	42137.27
672.507	41809.37
672.856	41860.21
673.205	42005.07
673.554	42055.01
673.904	41863.38
674.253	42003.94
674.602	42123.26
674.951	41360.34
675.3	41285.76
675.649	41817.28
675.998	41810.95
676.346	41780.21
676.695	41982.92
677.044	41526.89
677.393	41674
677.741	41877.16
678.09	41659.99
678.438	41561.46
678.787	41631.97
679.135	41758.97
679.484	41338.19
679.832	41615.47
680.181	41307.69
680.529	41519.2
680.877	41287.35
681.225	41304.07
681.573	41566.44
681.922	41345.2
682.27	41015.04
682.618	41154.69
682.966	41046.22
683.314	41042.61
683.661	40962.61
684.009	40894.36
684.357	40818.21
684.705	40697.98
685.053	40852.78
685.4	40714.03
685.748	40587.7
686.095	40618.21
686.443	40542.51
686.79	40348.84
687.138	40463.64
687.485	40406.92
687.832	40228.84
688.18	40237.88
688.527	39919.02
688.874	40073.59
689.221	40027.72
689.568	39878.8
689.915	39857.78
690.262	39799.7
690.609	39809.42
690.956	39602.65
691.303	39453.5
691.65	39357.68
691.997	39344.8
692.344	39126.05
692.69	39061.19
693.037	39109.78
693.383	38748.88
693.73	38988.42
694.077	38725.15
694.423	38800.63
694.769	38724.93
695.116	38630.02
695.462	38587.76
695.808	38489.68
696.155	38331.49
696.501	38137.15
696.847	38159.07
697.193	37939.41
697.539	38207.2
697.885	37860.09
698.231	37767.89
698.577	37785.97
698.923	37665.07
699.269	37451.97
699.614	37418.52
699.96	37383.72
700.306	37254.23
700.651	37254.68
700.997	36965.65
701.342	36944.18
701.688	36766.11
702.033	36858.08
702.379	36699.67
702.724	36596.85
703.069	36715.04
703.415	36335.61
703.76	36198.67
704.105	36372
704.45	36146.24
704.795	36098.33
705.14	35962.97
705.485	35854.72
705.83	35752.58
706.175	35890.2
706.52	35727.72
706.865	35576.54
707.209	35481.62
707.554	35383.77
707.899	35475.07
708.243	35276.21
708.588	35179.26
708.932	34969.09
709.277	35060.39
709.621	35194.17
709.966	34745.82
710.31	34907.4
710.654	34603.68
710.998	34645.71
711.342	34753.51
711.687	34643.23
712.031	34433.52
712.375	34307.42
712.719	34335.89
713.063	34274.42
713.407	34380.64
713.75	34112.17
714.094	34198.49
714.438	33984.04
714.782	34085.5
715.125	33903.36
715.469	33999.4
715.812	33764.83
716.156	33696.59
716.499	33683.03
716.843	33571.84
717.186	33444.16
717.53	33501.11
717.873	33513.54
718.216	33535.69
718.559	33305.64
718.902	33019.09
719.246	33184.96
719.589	33008.24
719.932	32940.67
720.275	32867.91
720.617	32957.4
720.96	32902.71
721.303	32924.85
721.646	32826.33
721.989	32602.38
722.331	32684.86
722.674	32697.06
723.016	32701.58
723.359	32610.06
723.701	32601.02
724.044	32347.24
724.386	32289.84
724.729	32434.25
725.071	32270.63
725.413	32348.6
725.755	32221.37
726.097	32192.9
726.439	31868.61
726.782	31970.76
727.124	32007.82
727.465	31877.42
727.807	31827.26
728.149	31877.42
728.491	31766.02
728.833	31838.33
729.175	31750.2
729.516	31662.74
729.858	31705.9
730.199	31575.74
730.541	31478.34
730.882	31397.44
731.224	31583.65
731.565	31246.71
731.906	31389.3
732.248	31398.57
732.589	31181.4
732.93	31145.01
733.271	31169.87
733.612	31139.59
733.953	31112.92
734.294	30997.45
734.635	30981.63
734.976	31067.5
735.317	30852.37
735.658	30801.29
735.999	30879.03
736.339	30771.92
736.68	30881.74
737.021	30628.19
737.361	30593.62
737.702	30744.57
738.042	30593.62
738.383	30479.95
738.723	30580.28
739.063	30472.72
739.404	30567.4
739.744	30462.77
740.084	30327.63
740.424	30434.75
740.764	30344.13
741.104	30365.6
741.444	30132.61
741.784	30119.28
742.124	30197.02
742.464	30144.59
742.804	30033.63
743.143	29864.6
743.483	29976.23
743.823	29776.46
744.162	29892.62
744.502	30052.61
744.841	29638.39
745.181	29819.17
745.52	29701.66
745.86	29606.3
746.199	29645.17
746.538	29641.55
746.877	29683.58
747.216	29640.87
747.556	29486.75
747.895	29605.39
748.234	29246.99
748.573	29270.26
748.911	29391.61
749.25	29272.3
749.589	29144.16
749.928	29150.72
750.267	29250.6
750.605	29141.23
750.944	29113.2
751.283	28863.49
751.621	29062.81
751.96	28825.08
752.298	28774.23
752.636	28974.45
752.975	28662.14
753.313	28516.83
753.651	28642.03
753.989	28474.35
754.327	28459.44
754.666	28376.95
755.004	28521.13
755.342	28585.08
755.679	28410.85
756.017	28162.04
756.355	28332.43
756.693	28023.29
757.031	28138.99
757.368	27970.86
757.706	28038.2
