Data from hue_170_FLMS001491_00089.txt Node
Date: Tue Feb 07 16:49:19 GMT 2017
User: dcchb
Spectrometer: FLMS00149
Trigger mode: 0
Integration Time (sec): 2.000000E-2
Scans to average: 10
Electric dark correction enabled: true
Nonlinearity correction enabled: false
Boxcar width: 0
XAxis mode: Wavelengths
Number of Pixels in Spectrum: 2048
>>>>>Begin Spectral Data<<<<<
341.393	9.08
341.776	9.08
342.16	9.08
342.543	-62.33
342.927	-60.07
343.31	-71.82
343.693	-72.27
344.077	-73.4
344.46	-82.67
344.843	-49.9
345.226	-40.41
345.61	-11.26
345.993	-18.04
346.376	-8.77
346.759	12.02
347.142	46.59
347.525	29.65
347.908	62.19
348.291	82.75
348.674	92.7
349.057	102.64
349.44	116.88
349.823	150.55
350.206	163.43
350.588	189.19
350.971	215.18
351.354	217.89
351.737	259.24
352.119	254.05
352.502	270.54
352.884	276.65
353.267	266.48
353.65	268.96
354.032	298.79
354.414	286.36
354.797	302.41
355.179	329.3
355.562	333.14
355.944	340.37
356.326	324.55
356.709	360.71
357.091	354.61
357.473	362.74
357.855	327.94
358.238	364.33
358.62	344.21
359.002	358.45
359.384	358.45
359.766	339.69
360.148	334.95
360.53	351.67
360.912	338.79
361.294	347.83
361.676	339.24
362.057	322.52
362.439	323.65
362.821	338.56
363.203	320.49
363.584	333.82
363.966	317.1
364.348	305.12
364.729	331.11
365.111	314.61
365.493	327.04
365.874	339.69
366.256	327.94
366.637	316.19
367.019	327.27
367.4	327.94
367.781	318.68
368.163	320.94
368.544	303.76
368.925	317.32
369.306	315.51
369.688	320.26
370.069	324.33
370.45	329.53
370.831	311.22
371.212	311.22
371.593	312.58
371.974	320.71
372.355	327.94
372.736	335.85
373.117	319.58
373.498	332.01
373.879	314.84
374.26	301.5
374.641	329.3
375.021	316.42
375.402	323.42
375.783	340.82
376.163	332.46
376.544	316.87
376.925	353.25
377.305	334.5
377.686	325.91
378.066	334.72
378.447	339.69
378.827	341.73
379.208	341.73
379.588	343.99
379.968	324.78
380.349	347.15
380.729	355.74
381.109	355.51
381.489	326.14
381.87	343.54
382.25	360.03
382.63	365.68
383.01	367.94
383.39	355.97
383.77	370.43
384.15	361.84
384.53	365.91
384.91	358.23
385.29	355.97
385.67	369.07
386.049	369.75
386.429	353.03
386.809	346.47
387.189	362.97
387.568	350.09
387.948	353.25
388.328	386.7
388.707	363.87
389.087	382.41
389.466	372.46
389.846	351.45
390.225	373.82
390.605	386.47
390.984	379.02
391.363	383.31
391.743	407.26
392.122	401.61
392.501	382.18
392.881	370.65
393.26	381.5
393.639	402.74
394.018	400.03
394.397	397.09
394.776	396.19
395.155	394.61
395.534	414.04
395.913	404.33
396.292	403.2
396.671	411.56
397.05	393.03
397.429	412.46
397.808	395.74
398.186	410.65
398.565	409.52
398.944	428.05
399.323	424.89
399.701	420.37
400.08	404.55
400.458	446.13
400.837	416.53
401.215	418.11
401.594	401.16
401.972	424.21
402.351	430.31
402.729	446.36
403.107	454.95
403.486	430.77
403.864	428.73
404.242	439.8
404.62	443.87
404.999	420.14
405.377	442.52
405.755	443.65
406.133	459.24
406.511	465.11
406.889	487.49
407.267	463.98
407.645	474.38
408.023	492.23
408.401	473.7
408.779	496.3
409.156	473.93
409.534	466.47
409.912	496.53
410.29	508.5
410.667	489.07
411.045	527.03
411.422	501.27
411.8	518.45
412.178	542.85
412.555	531.33
412.933	530.2
413.31	542.85
413.687	555.96
414.065	557.99
414.442	560.25
414.819	566.36
415.197	579.01
415.574	590.54
415.951	575.17
416.328	600.93
416.705	559.35
417.082	603.19
417.46	586.92
417.837	618.33
418.214	604.09
418.591	607.26
418.967	602.51
419.344	628.05
419.721	627.37
420.098	641.38
420.475	628.27
420.852	633.47
421.228	667.6
421.605	642.74
421.982	642.06
422.358	672.34
422.735	673.25
423.111	714.6
423.488	713.02
423.864	686.58
424.241	711.66
424.617	700.36
424.994	718.22
425.37	727.71
425.746	743.07
426.123	753.69
426.499	737.2
426.875	734.03
427.251	759.8
427.627	750.31
428.003	771.77
428.379	776.52
428.756	797.08
429.132	768.61
429.507	817.2
429.883	818.1
430.259	833.47
430.635	845.9
431.011	827.82
431.387	831.88
431.763	871.43
432.138	864.88
432.514	881.6
432.89	902.62
433.265	907.14
433.641	911.43
434.016	915.5
434.392	946.23
434.767	925.22
435.143	964.08
435.518	942.62
435.894	953.69
436.269	977.87
436.644	973.58
437.02	1003.63
437.395	1022.84
437.77	1045.44
438.145	1033.46
438.52	1080.47
438.895	1076.4
439.271	1066
439.646	1071.88
440.021	1096.74
440.395	1113.69
440.77	1122.27
441.145	1145.77
441.52	1122.5
441.895	1144.42
442.27	1188.49
442.645	1156.4
443.019	1155.04
443.394	1180.35
443.769	1207.69
444.143	1185.1
444.518	1240.91
444.892	1185.32
445.267	1233.68
445.641	1239.11
446.016	1235.72
446.39	1256.05
446.764	1267.13
447.139	1271.65
447.513	1261.03
447.887	1291.76
448.262	1294.92
448.636	1270.74
449.01	1347.13
449.384	1332.66
449.758	1342.15
450.132	1362.27
450.506	1373.34
450.88	1376.73
451.254	1396.39
451.628	1403.4
452.002	1425.77
452.376	1437.97
452.75	1442.72
453.123	1442.04
453.497	1480.46
453.871	1503.28
454.244	1501.25
454.618	1540.11
454.992	1516.84
455.365	1505.77
455.739	1595.03
456.112	1612.43
456.486	1616.5
456.859	1622.82
457.232	1675.7
457.606	1645.87
457.979	1675.93
458.352	1714.57
458.725	1718.42
459.099	1765.65
459.472	1812.65
459.845	1820.33
460.218	1843.38
460.591	1849.03
460.964	1841.8
461.337	1912.76
461.71	1920.9
462.083	1944.85
462.456	1983.72
462.829	1963.38
463.201	2004.96
463.574	2026.66
463.947	2039.08
464.32	2101
464.692	2138.29
465.065	2162.92
465.438	2169.02
465.81	2224.16
466.183	2243.37
466.555	2312.75
466.928	2334.22
467.3	2347.78
467.672	2363.82
468.045	2412.41
468.417	2457.83
468.789	2473.88
469.161	2548.45
469.534	2592.29
469.906	2635.91
470.278	2694.21
470.65	2709.12
471.022	2772.4
471.394	2824.83
471.766	2870.02
472.138	2907.76
472.51	2977.82
472.882	3056.23
473.253	3088.77
473.625	3131.49
473.997	3207.64
474.369	3228.88
474.74	3352.27
475.112	3415.77
475.484	3479.72
475.855	3560.63
476.227	3602.66
476.598	3687.4
476.97	3749.32
477.341	3850.34
477.713	3919.26
478.084	3974.85
478.455	4117.22
478.827	4152.02
479.198	4304.11
479.569	4352.02
479.94	4411.23
480.311	4545.69
480.682	4709.75
481.053	4846.92
481.424	4893.7
481.795	5015.5
482.166	5138.89
482.537	5201.71
482.908	5352.9
483.279	5450.97
483.65	5571.87
484.021	5716.05
484.391	5807.57
484.762	5930.51
485.133	6028.13
485.503	6118.75
485.874	6283.72
486.244	6398.07
486.615	6575.01
486.985	6721.22
487.356	6788.79
487.726	6866.08
488.097	7098.84
488.467	7127.31
488.837	7317.14
489.207	7486.85
489.578	7626.51
489.948	7783.11
490.318	7903.11
490.688	8027.63
491.058	8195.76
491.428	8326.38
491.798	8379.94
492.168	8616.99
492.538	8670.55
492.908	8795.07
493.278	8944.67
493.648	9030.54
494.017	9198.67
494.387	9298.1
494.757	9374.49
495.126	9569.06
495.496	9550.3
495.866	9640.47
496.235	9854.47
496.605	9972.21
496.974	10019.67
497.344	10113
497.713	10232.32
498.082	10318.42
498.452	10402.93
498.821	10494
499.19	10541.23
499.559	10662.13
499.928	10762.92
500.298	10869.81
500.667	10937.38
501.036	11012.41
501.405	11098.51
501.774	11089.24
502.143	11292.85
502.512	11254.89
502.88	11435.22
503.249	11406.97
503.618	11528.78
503.987	11568.78
504.356	11614.43
504.724	11584.6
505.093	11678.83
505.462	11801.77
505.83	11894.64
506.199	11959.5
506.567	12059.61
506.936	12015.09
507.304	12212.15
507.672	12164.47
508.041	12227.07
508.409	12330.11
508.777	12435.42
509.145	12524.46
509.514	12480.17
509.882	12578.69
510.25	12567.17
510.618	12569.66
510.986	12742.53
511.354	12765.13
511.722	12899.14
512.09	12894.39
512.458	12829.54
512.826	12923.32
513.193	12953.6
513.561	13045.8
513.929	13029.76
514.297	13129.64
514.664	13147.04
515.032	13222.52
515.4	13305.91
515.767	13392.68
516.135	13365.57
516.502	13279.24
516.869	13427.26
517.237	13366.47
517.604	13383.19
517.972	13514.26
518.339	13457.09
518.706	13483.98
519.073	13556.07
519.44	13576.18
519.808	13587.48
520.175	13645.79
520.542	13744.54
520.909	13758.55
521.276	13727.59
521.643	13808.27
522.009	13815.05
522.376	13891.88
522.743	13862.73
523.11	13958.32
523.477	14021.37
523.843	14022.95
524.21	14103.4
524.577	14138.88
524.943	14204.19
525.31	14131.2
525.676	14198.54
526.043	14155.38
526.409	14263.85
526.776	14359.44
527.142	14319.89
527.508	14336.16
527.874	14376.61
528.241	14342.94
528.607	14324.41
528.973	14350.17
529.339	14354.92
529.705	14495.48
530.071	14480.57
530.437	14496.16
530.803	14458.65
531.169	14446.22
531.535	14366.44
531.901	14371.87
532.267	14405.99
532.632	14364.86
532.998	14447.57
533.364	14354.24
533.73	14332.32
534.095	14407.35
534.461	14402.6
534.826	14422.26
535.192	14214.81
535.557	14387.91
535.923	14215.26
536.288	14266.79
536.653	14293.45
537.019	14232.66
537.384	14251.19
537.749	14248.48
538.114	14121.03
538.479	14069.5
538.845	14102.95
539.21	14044.87
539.575	14081.03
539.94	14005.1
540.305	14065.66
540.67	13982.27
541.034	13982.73
541.399	13847.14
541.764	13880.36
542.129	13850.07
542.494	13780.47
542.858	13718.55
543.223	13760.13
543.587	13675.39
543.952	13715.84
544.316	13630.42
544.681	13590.65
545.045	13612.11
545.41	13621.61
545.774	13519.91
546.138	13500.7
546.503	13446.47
546.867	13375.51
547.231	13349.97
547.595	13372.12
547.959	13352.69
548.324	13236.3
548.688	13226.59
549.052	13147.49
549.416	13164.67
549.779	13182.75
550.143	13091
550.507	13078.79
550.871	13093.48
551.235	13015.75
551.599	13026.82
551.962	13054.16
552.326	12974.62
552.689	13011.9
553.053	12852.36
553.417	12851.91
553.78	12828.86
554.143	12827.05
554.507	12819.82
554.87	12807.62
555.234	12896.2
555.597	12700.05
555.96	12756.09
556.323	12721.29
556.686	12713.83
557.05	12710.67
557.413	12750.22
557.776	12683.1
558.139	12736.43
558.502	12674.96
558.865	12618.24
559.228	12691.46
559.59	12611.69
559.953	12629.31
560.316	12752.25
560.679	12663.66
561.041	12663.44
561.404	12674.29
561.767	12721.52
562.129	12614.85
562.492	12653.27
562.854	12608.07
563.217	12657.79
563.579	12673.61
563.941	12684
564.304	12669.54
564.666	12710.44
565.028	12691.46
565.39	12709.76
565.753	12794.73
566.115	12718.8
566.477	12764.68
566.839	12598.36
567.201	12852.81
567.563	12776.2
567.925	12855.52
568.287	12760.61
568.648	12814.62
569.01	12848.29
569.372	12934.62
569.734	12792.02
570.095	12959.48
570.457	12949.08
570.819	12897.33
571.18	12861.63
571.542	12954.73
571.903	12832.25
572.265	12972.36
572.626	12942.3
572.987	12974.84
573.349	12867.05
573.71	13007.38
574.071	12989.31
574.432	13038.12
574.794	13058
575.155	13077.44
575.516	13039.47
575.877	13067.72
576.238	13007.16
576.599	13021.62
576.96	12959.25
577.32	13061.39
577.681	13074.05
578.042	13066.82
578.403	13045.12
578.763	13036.08
579.124	13034.5
579.485	13104.1
579.845	13059.13
580.206	13004.9
580.566	13021.85
580.927	13094.16
581.287	13128.28
581.648	12946.14
582.008	13063.2
582.368	13048.06
582.728	13033.37
583.089	13059.59
583.449	13019.36
583.809	12978.01
584.169	13100.94
584.529	12950.89
584.889	13140.94
585.249	13004.9
585.609	12909.99
585.969	12955.18
586.329	12891.45
586.688	13004.9
587.048	13013.26
587.408	12813.04
587.768	12924.45
588.127	12873.15
588.487	12921.28
588.846	12968.06
589.206	12842.19
589.565	12852.81
589.925	12959.48
590.284	12839.25
590.643	12849.87
591.003	12900.49
591.362	12911.57
591.721	12898.91
592.08	12782.76
592.44	12846.94
592.799	12830.21
593.158	12805.81
593.517	12786.37
593.876	12783.44
594.235	12770.33
594.593	12724.23
594.952	12780.95
595.311	12826.15
595.67	12826.37
596.029	12912.25
596.387	12853.72
596.746	12791.8
597.104	12753.38
597.463	12680.61
597.822	12767.62
598.18	12641.29
598.538	12718.13
598.897	12755.64
599.255	12664.57
599.613	12804.45
599.972	12686.04
600.33	12710.67
600.688	12708.86
601.046	12632.93
601.404	12831.34
601.762	12760.16
602.12	12754.28
602.478	12728.07
602.836	12793.15
603.194	12653.49
603.552	12750.44
603.91	12695.98
604.268	12765.36
604.625	12700.95
604.983	12746.15
605.341	12665.02
605.698	12694.17
606.056	12670.9
606.413	12648.75
606.771	12771.46
607.128	12779.14
607.485	12677.22
607.843	12715.19
608.2	12818.24
608.557	12813.49
608.914	12741.18
609.272	12783.89
609.629	12830.21
609.986	12830.67
610.343	12778.24
610.7	12867.95
611.057	12854.85
611.414	12852.81
611.771	12897.78
612.127	12855.52
612.484	12964.45
612.841	12980.49
613.198	12811.46
613.554	12876.09
613.911	12931.91
614.267	12897.78
614.624	12869.76
614.98	12897.1
615.337	12984.56
615.693	12907.95
616.05	12960.83
616.406	12944.11
616.762	12919.25
617.118	12890.1
617.475	12865.24
617.831	13013.49
618.187	12912.47
618.543	13060.72
618.899	13059.81
619.255	13069.98
619.611	13029.3
619.967	13013.71
620.323	13088.06
620.678	13072.69
621.034	12995.63
621.39	13032.69
621.746	13016.42
622.101	13132.35
622.457	13046.48
622.812	13012.13
623.168	13110.21
623.523	13066.14
623.879	13164.89
624.234	12997.44
624.589	13052.81
624.945	13049.87
625.3	13033.6
625.655	13064.33
626.01	13057.55
626.365	13117.66
626.72	13015.07
627.075	12911.57
627.43	13046.25
627.785	12994.05
628.14	13030.66
628.495	12990.89
628.85	13003.09
629.205	13008.29
629.559	13063.88
629.914	12950.44
630.269	12949.98
630.623	12928.29
630.978	12886.03
631.332	13047.16
631.687	12927.16
632.041	12908.4
632.396	12901.62
632.75	12833.83
633.104	12806.03
633.459	12869.08
633.813	12842.64
634.167	12866.14
634.521	12832.25
634.875	12821.4
635.229	12756.77
635.583	12738.01
635.937	12697.34
636.291	12802.19
636.645	12772.14
636.999	12691.46
637.352	12695.53
637.706	12720.84
638.06	12728.3
638.413	12642.42
638.767	12601.97
639.121	12629.31
639.474	12557.23
639.828	12570.79
640.181	12513.16
640.534	12595.19
640.888	12543.22
641.241	12427.29
641.594	12503.44
641.947	12497.34
642.301	12465.03
642.654	12499.6
643.007	12502.31
643.36	12499.37
643.713	12427.96
644.066	12507.51
644.419	12472.26
644.771	12397.46
645.124	12218.03
645.477	12234.52
645.83	12161.3
646.182	12046.51
646.535	12065.26
646.888	11986.62
647.24	11991.82
647.593	12107.75
647.945	12093.74
648.298	11922.89
648.65	11968.54
649.002	11904.81
649.355	12112.72
649.707	11955.66
650.059	12071.36
650.411	12201.53
650.763	12211.25
651.115	12360.4
651.467	12296.44
651.819	12289.66
652.171	12340.96
652.523	12284.24
652.875	12251.25
653.227	12198.59
653.578	12371.92
653.93	12390
654.282	12255.31
654.633	12241.3
654.985	12286.27
655.337	12303.9
655.688	12303.45
656.039	12323.11
656.391	12203.56
656.742	12292.15
657.094	12250.12
657.445	12319.94
657.796	12284.24
658.147	12258.93
658.498	12160.4
658.849	12309.1
659.2	12242.43
659.551	12243.11
659.902	12279.95
660.253	12243.34
660.604	12280.85
660.955	12309.32
661.306	12313.84
661.656	12296.22
662.007	12377.8
662.358	12293.5
662.708	12413.05
663.059	12286.95
663.409	12230
663.76	12322.66
664.11	12358.14
664.461	12355.42
664.811	12336.67
665.161	12359.27
665.511	12338.02
665.862	12323.11
666.212	12345.93
666.562	12367.63
666.912	12381.41
667.262	12287.18
667.612	12388.19
667.962	12358.14
668.312	12374.63
668.662	12462.09
669.011	12358.14
669.361	12284.01
669.711	12266.61
670.06	12326.95
670.41	12325.37
670.76	12241.08
671.109	12288.31
671.459	12226.61
671.808	12304.58
672.157	12273.84
672.507	12254.18
672.856	12248.99
673.205	12221.87
673.554	12255.99
673.904	12213.73
674.253	12309.1
674.602	12275.88
674.951	11957.24
675.3	11963.34
675.649	12152.72
675.998	12115.2
676.346	12178.93
676.695	12220.74
677.044	12099.84
677.393	12056.45
677.741	12174.64
678.09	12103.45
678.438	12057.35
678.787	12047.86
679.135	12093.06
679.484	11899.16
679.832	12111.36
680.181	11972.16
680.529	11951.82
680.877	11968.09
681.225	11983.91
681.573	11984.81
681.922	11917.02
682.27	11789.56
682.618	11836.79
682.966	11825.27
683.314	11834.99
683.661	11766.74
684.009	11674.31
684.357	11648.32
684.705	11681.09
685.053	11625.95
685.4	11658.94
685.748	11625.95
686.095	11562.68
686.443	11592.73
686.79	11489.46
687.138	11551.38
687.485	11505.05
687.832	11433.19
688.18	11575.56
688.527	11405.39
688.874	11409.01
689.221	11345.28
689.568	11340.31
689.915	11332.17
690.262	11296.24
690.609	11266.64
690.956	11259.63
691.303	11164.04
691.65	11126.53
691.997	11153.65
692.344	11073.88
692.69	11084.04
693.037	10960.88
693.383	10896.93
693.73	10922.24
694.077	10900.32
694.423	10840.89
694.769	10891.51
695.116	10832.3
695.462	10723.15
695.808	10768.8
696.155	10790.04
696.501	10668.01
696.847	10639.99
697.193	10549.37
697.539	10563.83
697.885	10528.35
698.231	10484.74
698.577	10374.23
698.923	10410.39
699.269	10374.01
699.614	10306.89
699.96	10253.56
700.306	10288.59
700.651	10243.61
700.997	10127.91
701.342	10138.08
701.688	10138.98
702.033	10103.28
702.379	10063.05
702.724	10027.58
703.069	10065.09
703.415	9938.09
703.76	9871.2
704.105	10002.49
704.45	9876.84
704.795	9747.81
705.14	9781.25
705.485	9781.93
705.83	9723.63
706.175	9756.85
706.52	9684.76
706.865	9655.38
707.209	9699.67
707.554	9560.02
707.899	9590.75
708.243	9586.23
708.588	9536.06
708.932	9469.17
709.277	9524.54
709.621	9405.67
709.966	9357.99
710.31	9434.14
710.654	9368.16
710.998	9343.3
711.342	9344.43
711.687	9323.87
712.031	9256.97
712.375	9231.89
712.719	9245.22
713.063	9241.83
713.407	9178.78
713.75	9224.21
714.094	9147.82
714.438	9132.46
714.782	9173.81
715.125	9124.32
715.469	9127.94
715.812	9074.15
716.156	8992.8
716.499	9059.69
716.843	9101.95
717.186	9006.13
717.53	9010.88
717.873	8949.86
718.216	9054.72
718.559	8960.94
718.902	8852.92
719.246	8860.83
719.589	8873.48
719.932	8840.49
720.275	8863.99
720.617	8882.29
720.96	8792.35
721.303	8768.4
721.646	8772.69
721.989	8818.57
722.331	8800.94
722.674	8806.14
723.016	8805.23
723.359	8792.81
723.701	8829.19
724.044	8741.96
724.386	8722.3
724.729	8713.71
725.071	8710.32
725.413	8716.42
725.755	8654.96
726.097	8617.44
726.439	8588.07
726.782	8614.51
727.124	8693.37
727.465	8630.1
727.807	8630.78
728.149	8638.69
728.491	8618.8
728.833	8691.11
729.175	8638.23
729.516	8572.92
729.858	8660.15
730.199	8551.68
730.541	8607.05
730.882	8671
731.224	8544.9
731.565	8597.33
731.906	8579.7
732.248	8548.29
732.589	8523.21
732.93	8529.99
733.271	8590.55
733.612	8492.7
733.953	8623.54
734.294	8541.51
734.635	8542.64
734.976	8597.33
735.317	8519.59
735.658	8500.16
735.999	8567.95
736.339	8527.95
736.68	8540.83
737.021	8584
737.361	8567.27
737.702	8601.62
738.042	8590.32
738.383	8536.77
738.723	8661.51
739.063	8584
739.404	8600.04
739.744	8556.43
740.084	8590.55
740.424	8660.61
740.764	8613.38
741.104	8685.24
741.444	8625.8
741.784	8672.58
742.124	8734.5
742.464	8747.38
742.804	8735.86
743.143	8680.94
743.483	8770.89
743.823	8756.65
744.162	8739.7
744.502	8848.4
744.841	8802.07
745.181	8872.35
745.52	8846.36
745.86	8979.02
746.199	8941.05
746.538	9015.85
746.877	9072.8
747.216	9139.01
747.556	9130.42
747.895	9271.66
748.234	9248.61
748.573	9368.16
748.911	9312.34
749.25	9423.07
749.589	9399.57
749.928	9580.36
750.267	9630.98
750.605	9687.25
750.944	9707.36
751.283	9793.68
751.621	9898.09
751.96	9958.88
752.298	10089.04
752.636	10117.52
752.975	10223.28
753.313	10352.54
753.651	10407.45
753.989	10538.07
754.327	10654.9
754.666	10752.75
755.004	10829.36
755.342	11002.69
755.679	11137.15
756.017	11229.58
756.355	11432.51
756.693	11499.4
757.031	11679.06
757.368	11811.71
757.706	11915.21
758.044	12043.34
