Data from hue_38_FLMS001491_00017.txt Node
Date: Tue Feb 07 17:31:07 GMT 2017
User: dcchb
Spectrometer: FLMS00149
Trigger mode: 0
Integration Time (sec): 2.000000E-2
Scans to average: 10
Electric dark correction enabled: true
Nonlinearity correction enabled: false
Boxcar width: 0
XAxis mode: Wavelengths
Number of Pixels in Spectrum: 2048
>>>>>Begin Spectral Data<<<<<
341.393	-28.35
341.776	-28.35
342.16	-28.35
342.543	-61.11
342.927	-40.78
343.31	-68.57
343.693	-46.65
344.077	-60.44
344.46	-43.04
344.843	-42.58
345.226	-43.04
345.61	-38.29
345.993	-27.44
346.376	-20.89
346.759	4.19
347.142	10.52
347.525	44.65
347.908	48.71
348.291	80.58
348.674	102.72
349.057	99.56
349.44	132.33
349.823	168.94
350.206	181.37
350.588	212.55
350.971	214.13
351.354	240.8
351.737	223.62
352.119	257.3
352.502	251.19
352.884	280.12
353.267	284.41
353.65	316.73
354.032	295.03
354.414	300.01
354.797	320.57
355.179	325.54
355.562	331.87
355.944	354.92
356.326	339.78
356.709	358.54
357.091	324.86
357.473	355.15
357.855	367.35
358.238	334.36
358.62	325.54
359.002	332.1
359.384	329.61
359.766	356.05
360.148	342.49
360.53	336.16
360.912	334.58
361.294	339.1
361.676	322.83
362.057	353.11
362.439	341.81
362.821	342.04
363.203	348.37
363.584	321.7
363.966	325.32
364.348	325.99
364.729	342.94
365.111	323.73
365.493	313.11
365.874	314.7
366.256	340.68
366.637	309.72
367.019	327.12
367.4	328.71
367.781	329.38
368.163	311.31
368.544	327.35
368.925	312.21
369.306	327.58
369.688	311.76
370.069	337.52
370.45	313.34
370.831	313.79
371.212	331.19
371.593	327.58
371.974	314.47
372.355	322.83
372.736	323.06
373.117	295.26
373.498	317.18
373.879	356.95
374.26	335.26
374.641	320.8
375.021	334.81
375.402	330.29
375.783	309.05
376.163	333.9
376.544	321.93
376.925	312.89
377.305	337.29
377.686	336.84
378.066	341.59
378.447	326.9
378.827	336.16
379.208	340.23
379.588	334.13
379.968	327.12
380.349	334.81
380.729	355.15
381.109	352.66
381.489	342.94
381.87	320.8
382.25	329.16
382.63	338.42
383.01	347.69
383.39	339.55
383.77	350.4
384.15	353.56
384.53	348.14
384.91	364.64
385.29	353.34
385.67	350.17
386.049	358.54
386.429	370.51
386.809	363.96
387.189	353.79
387.568	362.15
387.948	332.32
388.328	350.4
388.707	386.56
389.087	362.38
389.466	348.82
389.846	348.59
390.225	342.27
390.605	363.51
390.984	392.89
391.363	384.07
391.743	377.07
392.122	356.5
392.501	362.6
392.881	364.86
393.26	380
393.639	378.2
394.018	350.63
394.397	383.17
394.776	374.35
395.155	361.47
395.534	368.7
395.913	369.61
396.292	381.59
396.671	389.04
397.05	405.99
397.429	394.47
397.808	385.88
398.186	396.05
398.565	367.35
398.944	400.79
399.323	403.28
399.701	416.61
400.08	410.06
400.458	396.73
400.837	405.77
401.215	401.02
401.594	416.39
401.972	421.13
402.351	391.3
402.729	416.84
403.107	399.89
403.486	425.88
403.864	420
404.242	420.23
404.62	419.33
404.999	397.4
405.377	416.16
405.755	421.13
406.133	414.58
406.511	442.6
406.889	418.65
407.267	428.59
407.645	435.37
408.023	422.26
408.401	430.62
408.779	416.61
409.156	448.48
409.534	436.27
409.912	451.41
410.29	434.47
410.667	434.69
411.045	452.09
411.422	441.25
411.8	468.59
412.178	454.35
412.555	480.11
412.933	475.37
413.31	469.27
413.687	474.24
414.065	469.72
414.442	472.88
414.819	494.35
415.197	485.76
415.574	468.36
415.951	499.55
416.328	493.22
416.705	471.75
417.082	473.56
417.46	503.16
417.837	477.63
418.214	518.08
418.591	514.92
418.967	505.65
419.344	507.91
419.721	501.36
420.098	516.72
420.475	535.25
420.852	527.57
421.228	532.09
421.605	528.02
421.982	557.85
422.358	537.74
422.735	537.97
423.111	549.49
423.488	561.24
423.864	537.97
424.241	563.5
424.617	565.31
424.994	556.72
425.37	553.56
425.746	560.11
426.123	578.19
426.499	580.22
426.875	570.06
427.251	572.32
427.627	560.34
428.003	575.93
428.379	599.66
428.756	595.59
429.132	615.7
429.507	603.05
429.883	607.57
430.259	602.6
430.635	603.28
431.011	626.55
431.387	646.21
431.763	649.15
432.138	656.83
432.514	656.83
432.89	647.79
433.265	655.25
433.641	664.97
434.016	674.69
434.392	661.58
434.767	694.35
435.143	708.81
435.518	677.62
435.894	677.17
436.269	702.03
436.644	694.12
437.02	696.15
437.395	707.91
437.77	744.29
438.145	728.02
438.52	735.93
438.895	735.25
439.271	730.05
439.646	760.56
440.021	728.92
440.395	763.95
440.77	770.5
441.145	739.54
441.52	752.42
441.895	785.19
442.27	746.1
442.645	789.71
443.019	792.87
443.394	781.8
443.769	781.8
444.143	781.12
444.518	819.99
444.892	800.78
445.267	772.99
445.641	801.46
446.016	809.15
446.39	817.51
446.764	804.63
447.139	808.69
447.513	821.12
447.887	816.15
448.262	822.7
448.636	824.06
449.01	849.82
449.384	834.23
449.758	854.57
450.132	860.9
450.506	878.52
450.88	882.14
451.254	898.63
451.628	890.5
452.002	894.34
452.376	890.05
452.75	898.86
453.123	890.5
453.497	918.52
453.871	927.11
454.244	948.58
454.618	957.16
454.992	972.3
455.365	983.15
455.739	990.38
456.112	990.16
456.486	971.4
456.859	1000.55
457.232	1027.22
457.606	1008.69
457.979	1016.82
458.352	1033.09
458.725	1056.37
459.099	1069.93
459.472	1070.16
459.845	1090.49
460.218	1098.4
460.591	1097.95
460.964	1093.66
461.337	1126.2
461.71	1146.31
462.083	1156.48
462.456	1167.78
462.829	1172.3
463.201	1202.36
463.574	1193.54
463.947	1206.65
464.32	1249.59
464.692	1239.87
465.065	1252.75
465.438	1265.63
465.81	1293.88
466.183	1306.31
466.555	1386.76
466.928	1340.43
467.3	1374.78
467.672	1389.02
468.045	1407.32
468.417	1441.9
468.789	1430.82
469.161	1462.24
469.534	1458.39
469.906	1492.97
470.278	1518.28
470.65	1555.34
471.022	1554.66
471.394	1617.94
471.766	1595.57
472.138	1632.63
472.51	1700.2
472.882	1696.58
473.253	1732.06
473.625	1760.31
473.997	1811.38
474.369	1839.85
474.74	1900.64
475.112	1920.98
475.484	1964.14
475.855	2006.4
476.227	2047.98
476.598	2100.18
476.97	2127.75
477.341	2192.84
477.713	2253.4
478.084	2248.43
478.455	2346.28
478.827	2410.69
479.198	2482.55
479.569	2498.82
479.94	2570.91
480.311	2634.86
480.682	2722.77
481.053	2758.25
481.424	2862.88
481.795	2908.07
482.166	2964.12
482.537	3057
482.908	3139.25
483.279	3210.21
483.65	3298.57
484.021	3396.65
484.391	3431.9
484.762	3494.72
485.133	3547.83
485.503	3677.09
485.874	3782.17
486.244	3866.69
486.615	3993.47
486.985	4047.03
487.356	4142.39
487.726	4228.49
488.097	4390.29
488.467	4414.47
488.837	4560.23
489.207	4652.43
489.578	4761.81
489.948	4851.52
490.318	4977.4
490.688	5051.52
491.058	5160.9
491.428	5257.16
491.798	5391.85
492.168	5512.07
492.538	5647.21
492.908	5686.76
493.278	5818.51
493.648	5894.44
494.017	6021.66
494.387	6102.79
494.757	6180.3
495.126	6275.22
495.496	6384.59
495.866	6473.63
496.235	6596.79
496.605	6703.23
496.974	6809.44
497.344	6916.56
497.713	6990.45
498.082	7071.35
498.452	7135.76
498.821	7264.12
499.19	7347.05
499.559	7486.94
499.928	7512.25
500.298	7596.31
500.667	7735.97
501.036	7796.76
501.405	7864.33
501.774	7885.12
502.143	8050.54
502.512	8093.02
502.88	8222.96
503.249	8285.11
503.618	8348.61
503.987	8382.73
504.356	8538.89
504.724	8549.51
505.093	8648.94
505.462	8766.68
505.83	8819.1
506.199	8895.49
506.567	9006.9
506.936	8995.37
507.304	9170.51
507.672	9243.73
508.041	9267.68
508.409	9396.72
508.777	9435.36
509.145	9550.84
509.514	9619.76
509.882	9664.51
510.25	9717.16
510.618	9831.73
510.986	9919.64
511.354	9971.39
511.722	10038.51
512.09	10186.3
512.458	10170.93
512.826	10276.24
513.193	10288.67
513.561	10341.1
513.929	10527.53
514.297	10561.88
514.664	10687.98
515.032	10703.12
515.4	10778.83
515.767	10812.05
516.135	10867.86
516.502	10842.1
516.869	11071.93
517.237	11101.08
517.604	11059.05
517.972	11282.09
518.339	11202.09
518.706	11283.9
519.073	11401.18
519.44	11435.53
519.808	11584.23
520.175	11561.41
520.542	11740.61
520.909	11776.54
521.276	11800.72
521.643	11946.71
522.009	12012.92
522.376	12046.59
522.743	12113.93
523.11	12245
523.477	12384.89
523.843	12407.71
524.21	12527.03
524.577	12619
524.943	12703.07
525.31	12791.66
525.676	12900.13
526.043	12937.64
526.409	13020.58
526.776	13139.89
527.142	13161.59
527.508	13288.59
527.874	13315.26
528.241	13403.39
528.607	13462.37
528.973	13618.98
529.339	13621.24
529.705	13790.5
530.071	13882.7
530.437	13792.31
530.803	13916.15
531.169	14083.6
531.535	14009.48
531.901	14127.21
532.267	14178.74
532.632	14308.9
532.998	14362.91
533.364	14278.4
533.73	14382.12
534.095	14492.85
534.461	14731.27
534.826	14677.03
535.192	14764.71
535.557	14752.73
535.923	14832.28
536.288	14940.3
536.653	14906.18
537.019	14857.59
537.384	15051.03
537.749	15172.61
538.114	15183.23
538.479	15264.13
538.845	15248.54
539.21	15358.59
539.575	15349.1
539.94	15540.51
540.305	15528.98
540.67	15558.81
541.034	15622.54
541.399	15729.21
541.764	15747.96
542.129	15725.14
542.494	15865.47
542.858	15862.99
543.223	15883.33
543.587	16040.61
543.952	16008.52
544.316	16094.39
544.681	16054.62
545.045	16157.44
545.41	16358.12
545.774	16379.13
546.138	16461.84
546.503	16470.88
546.867	16558.79
547.231	16647.37
547.595	16703.87
547.959	16761.27
548.324	16784.77
548.688	16770.76
549.052	16842.85
549.416	16895.05
549.779	16984.77
550.143	16998.1
550.507	17183.18
550.871	17150.18
551.235	17121.48
551.599	17298.43
551.962	17342.04
552.326	17384.08
552.689	17420.69
553.053	17410.97
553.417	17515.37
553.78	17733.45
554.143	17675.37
554.507	17764.41
554.87	17813.67
555.234	17866.1
555.597	17859.77
555.96	17919.2
556.323	18126.2
556.686	18068.8
557.05	18231.74
557.413	18245.52
557.776	18277.84
558.139	18366.88
558.502	18448.68
558.865	18489.13
559.228	18532.07
559.59	18697.94
559.953	18649.81
560.316	18843.93
560.679	18875.79
561.041	18939.06
561.404	19016.35
561.767	19070.36
562.129	19024.26
562.492	19229.9
562.854	19087.31
563.217	19249.34
563.579	19285.5
563.941	19387.87
564.304	19569.56
564.666	19638.25
565.028	19697.46
565.39	19721.19
565.753	19833.05
566.115	19926.38
566.477	19985.82
566.839	20037.79
567.201	20171.12
567.563	20212.25
567.925	20394.85
568.287	20320.95
568.648	20371.79
569.01	20551
569.372	20681.84
569.734	20616.31
570.095	20828.28
570.457	20832.8
570.819	20808.39
571.18	20903.08
571.542	21063.53
571.903	21115.96
572.265	21180.36
572.626	21276.18
572.987	21298.55
573.349	21475.95
573.71	21571.99
574.071	21610.63
574.432	21743.51
574.794	21853.56
575.155	21932.88
575.516	21933.11
575.877	22193.89
576.238	22142.6
576.599	22426.2
576.96	22379.88
577.32	22439.54
577.681	22724.05
578.042	22914.55
578.403	22898.96
578.763	22994.78
579.124	23099.86
579.485	23346.18
579.845	23470.47
580.206	23607.87
580.566	23696.45
580.927	23880.18
581.287	24096.67
581.648	24122.2
582.008	24410.56
582.368	24333.95
582.728	24592.93
583.089	24744.79
583.449	24895.07
583.809	25061.62
584.169	25165.57
584.529	25316.52
584.889	25672.9
585.249	25770.75
585.609	25831.31
585.969	26208.7
586.329	26316.5
586.688	26474.01
587.048	26659.31
587.408	26907.22
587.768	27067.66
588.127	27146.98
588.487	27407.77
588.846	27801.66
589.206	27756.46
589.565	27901.77
589.925	28406.39
590.284	28454.52
590.643	28705.59
591.003	28840.72
591.362	29222.18
591.721	29441.61
592.08	29584.89
592.44	29786.69
592.799	29969.73
593.158	30088.83
593.517	30360.91
593.876	30595.25
594.235	30672.09
594.593	30938.97
594.952	31108.91
595.311	31162.25
595.67	31492.86
596.029	31894.43
596.387	31973.75
596.746	32306.17
597.104	32234.53
597.463	32326.51
597.822	32670.45
598.18	32875.87
598.538	32917
598.897	33313.15
599.255	33324.22
599.613	34006.69
599.972	33864.32
600.33	34082.85
600.688	34058.67
601.046	34314.25
601.404	34590.63
601.762	34754.92
602.12	34988.81
602.478	34998.08
602.836	35277.62
603.194	35279.88
603.552	35523.03
603.91	35460.44
604.268	35812.29
604.625	35862.46
604.983	36123.25
605.341	36120.53
605.698	36286.18
606.056	36554.65
606.413	36805.71
606.771	36870.12
607.128	37128.64
607.485	37017.46
607.843	37240.96
608.2	37392.82
608.557	37573.83
608.914	37602.53
609.272	37979.02
609.629	37827.61
609.986	38258.33
610.343	38112.35
610.7	38514.59
611.057	38571.77
611.414	38586.91
611.771	38790.29
612.127	39170.17
612.484	39105.54
612.841	39199.77
613.198	39230.28
613.554	39243.16
613.911	39650.84
614.267	39551.63
614.624	39703.49
614.98	39853.99
615.337	40187.77
615.693	39873.65
616.05	40051.73
616.406	40370.59
616.762	40315.45
617.118	40503.02
617.475	40407.88
617.831	40568.1
618.187	40745.72
618.543	40729.9
618.899	40935.32
619.255	40897.13
619.611	40966.73
619.967	41226.61
620.323	41287.86
620.678	41171.47
621.034	41180.97
621.39	41225.48
621.746	41353.16
622.101	41762.64
622.457	41504.8
622.812	41601.07
623.168	41842.42
623.523	41815.75
623.879	41960.83
624.234	41818.46
624.589	41957.22
624.945	41977.55
625.3	42244.67
625.655	41996.31
626.01	42182.52
626.365	42247.38
626.72	42198.57
627.075	42258
627.43	42168.51
627.785	42154.27
628.14	42327.38
628.495	42291.44
628.85	42366.92
629.205	42230.43
629.559	42555.39
629.914	42254.84
630.269	42366.02
630.623	42287.15
630.978	42110.43
631.332	42398.56
631.687	42629.06
632.041	42391.78
632.396	42523.3
632.75	42426.58
633.104	42438.33
633.459	42359.92
633.813	42233.82
634.167	42377.77
634.521	42361.73
634.875	42485.34
635.229	42351.78
635.583	42202.86
635.937	42354.95
636.291	42347.49
636.645	42298.45
636.999	42241.5
637.352	42266.13
637.706	42192.92
638.06	42317.66
638.413	42213.93
638.767	42167.38
639.121	42211.9
639.474	41909.76
639.828	42029.53
640.181	42033.82
640.534	41862.53
640.888	42024.33
641.241	41826.6
641.594	41933.26
641.947	41930.78
642.301	41878.8
642.654	42048.51
643.007	41914.28
643.36	41874.96
643.713	41891.68
644.066	41904.79
644.419	41785.02
644.771	41512.71
645.124	41299.38
645.477	40943.46
645.83	40826.4
646.182	40727.42
646.535	40727.87
646.888	40770.58
647.24	40517.03
647.593	40682.45
647.945	40826.62
648.298	40543.47
648.65	40438.16
649.002	40414.21
649.355	40603.13
649.707	40714.54
650.059	40636.57
650.411	41228.87
650.763	41090.8
651.115	41594.29
651.467	41402.43
651.819	41469.77
652.171	41295.76
652.523	41329.89
652.875	41179.38
653.227	41076.56
653.578	41413.05
653.93	41328.08
654.282	41172.83
654.633	41002.21
654.985	41118.82
655.337	41111.59
655.688	41159.27
656.039	41117.92
656.391	40825.49
656.742	41009.9
657.094	41100.97
657.445	41206.95
657.796	41127.63
658.147	41127.86
658.498	40953.4
658.849	41077.01
659.2	40951.82
659.551	40865.27
659.902	41126.96
660.253	40953.85
660.604	41207.86
660.955	40905.27
661.306	41025.04
661.656	40958.6
662.007	40857.81
662.358	41011.03
662.708	41049.9
663.059	40772.16
663.409	40597.7
663.76	40940.97
664.11	41028.2
664.461	41007.64
664.811	40877.02
665.161	40917.92
665.511	40655.1
665.862	40772.16
666.212	40861.43
666.562	40980.29
666.912	40769
667.262	40691.49
667.612	40740.52
667.962	40872.95
668.312	40720.41
668.662	41056.45
669.011	40766.29
669.361	40702.56
669.711	40696.01
670.06	40723.58
670.41	40562.22
670.76	40518.16
671.109	40689.45
671.459	40512.51
671.808	40530.36
672.157	40698.27
672.507	40416.01
672.856	40455.11
673.205	40486.29
673.554	40652.17
673.904	40474.54
674.253	40750.02
674.602	40470.93
674.951	40031.16
675.3	39752.08
675.649	40385.51
675.998	40392.74
676.346	40565.39
676.695	40471.83
677.044	40241.55
677.393	40270.93
677.741	40331.5
678.09	40282.68
678.438	40212.18
678.787	40279.97
679.135	40289.69
679.484	40100.32
679.832	40142.12
680.181	39906.65
680.529	40056.25
680.877	40008.11
681.225	39946.42
681.573	40089.47
681.922	39826.65
682.27	39794.34
682.618	39770.83
682.966	39636.6
683.314	39683.6
683.661	39558.86
684.009	39491.74
684.357	39432.76
684.705	39244.97
685.053	39322.26
685.4	39225.99
685.748	39190.96
686.095	39134.92
686.443	38828.94
686.79	38992.77
687.138	39031.19
687.485	38936.96
687.832	38997.75
688.18	39043.39
688.527	38728.83
688.874	38764.31
689.221	38550.3
689.568	38580.13
689.915	38456.74
690.262	38491.32
690.609	38334.26
690.956	38397.31
691.303	38223.75
691.65	37992.12
691.997	38154.6
692.344	37805.46
692.69	37733.82
693.037	37809.08
693.383	37420.39
693.73	37732.69
694.077	37293.38
694.423	37377
694.769	37276.66
695.116	37203.67
695.462	37260.16
695.808	37182.43
696.155	37186.27
696.501	36893.39
696.847	36865.15
697.193	36654.98
697.539	36614.08
697.885	36452.28
698.231	36445.27
698.577	36426.06
698.923	36337.25
699.269	36304.26
699.614	36126.63
699.96	35971.84
700.306	35948.79
700.651	35803.25
700.997	35734.33
701.342	35660.43
701.688	35718.96
702.033	35500.21
702.379	35429.7
702.724	35368.01
703.069	35325.53
703.415	35028.58
703.76	35084.18
704.105	35091.86
704.45	34978.19
704.795	34802.15
705.14	34594.92
705.485	34652.1
705.83	34531.65
706.175	34567.35
706.52	34470.41
706.865	34314.71
707.209	34327.59
707.554	34187.02
707.899	34430.18
708.243	34069.97
708.588	33871.1
708.932	33804.89
709.277	33749.52
709.621	33796.75
709.966	33695.29
710.31	33630.66
710.654	33395.63
710.998	33420.49
711.342	33356.54
711.687	33275.64
712.031	33149.76
712.375	33068.64
712.719	33121.74
713.063	33017.79
713.407	33186.83
713.75	32879.26
714.094	32961.97
714.438	32805.59
714.782	32764.24
715.125	32641.08
715.469	32726.72
715.812	32539.38
716.156	32512.27
716.499	32516.56
716.843	32473.4
717.186	32220.52
717.53	32490.35
717.873	32285.38
718.216	32277.92
718.559	32124.93
718.902	31966.97
719.246	32030.25
719.589	31905.73
719.932	31949.57
720.275	31754.55
720.617	31847.88
720.96	31663.25
721.303	31746.41
721.646	31672.29
721.989	31492.86
722.331	31613.99
722.674	31422.58
723.016	31480.2
723.359	31381.22
723.701	31428.45
724.044	31199.31
724.386	31062.36
724.729	31211.74
725.071	31245.86
725.413	31174
725.755	31123.83
726.097	30910.27
726.439	30862.82
726.782	30816.04
727.124	30986.43
727.465	30801.35
727.807	30750.51
728.149	30594.12
728.491	30527.01
728.833	30729.26
729.175	30517.06
729.516	30430.51
729.858	30385.32
730.199	30500.34
730.541	30430.06
730.882	30415.15
731.224	30450.85
731.565	30201.14
731.906	30178.54
732.248	30280.23
732.589	30014.71
732.93	29992.11
733.271	29963.41
733.612	30002.73
733.953	30033.01
734.294	29990.3
734.635	29869.85
734.976	30023.74
735.317	29626.92
735.658	29719.12
735.999	29635.05
736.339	29656.75
736.68	29768.16
737.021	29515.51
737.361	29468.73
737.702	29713.24
738.042	29325.01
738.383	29383.76
738.723	29378.11
739.063	29270.54
739.404	29419.69
739.744	29329.75
740.084	29175.63
740.424	29288.62
740.764	29003.21
741.104	29370.88
741.444	29135.41
741.784	28931.57
742.124	28972.02
742.464	28922.53
742.804	28868.97
743.143	28851.12
743.483	28768.64
743.823	28771.8
744.162	28681.63
744.502	28792.36
744.841	28639.83
745.181	28715.53
745.52	28489.55
745.86	28623.56
746.199	28497.68
746.538	28609.77
746.877	28489.1
747.216	28377.69
747.556	28329.78
747.895	28451.81
748.234	28355.77
748.573	28305.82
748.911	28265.15
749.25	28195.32
749.589	28085.04
749.928	28091.14
750.267	28023.12
750.605	28003.68
750.944	27901.54
751.283	27839.85
751.621	27905.83
751.96	27722.11
752.298	27669.46
752.636	27716.01
752.975	27592.62
753.313	27524.83
753.651	27605.73
753.989	27476.92
754.327	27393.98
754.666	27367.32
755.004	27324.38
755.342	27367.77
755.679	27120.54
756.017	26992.41
756.355	27172.75
756.693	27029.47
757.031	27054.11
