Data from hue_150_FLMS001491_00024.txt Node
Date: Tue Feb 07 16:53:49 GMT 2017
User: dcchb
Spectrometer: FLMS00149
Trigger mode: 0
Integration Time (sec): 2.000000E-2
Scans to average: 10
Electric dark correction enabled: true
Nonlinearity correction enabled: false
Boxcar width: 0
XAxis mode: Wavelengths
Number of Pixels in Spectrum: 2048
>>>>>Begin Spectral Data<<<<<
341.393	-29.49
341.776	-29.49
342.16	-29.49
342.543	-64.52
342.927	-47.8
343.31	-90.05
343.693	-59.09
344.077	-75.14
344.46	-72.43
344.843	-50.06
345.226	-42.6
345.61	-36.72
345.993	-16.61
346.376	1.92
346.759	2.6
347.142	20.68
347.525	55.03
347.908	73.11
348.291	90.96
348.674	88.7
349.057	109.71
349.44	104.74
349.823	142.26
350.206	166.66
350.588	174.8
350.971	212.99
351.354	232.2
351.737	237.62
352.119	247.56
352.502	247.79
352.884	277.85
353.267	279.65
353.65	272.42
354.032	288.69
354.414	304.51
354.797	302.03
355.179	318.07
355.562	315.13
355.944	321.46
356.326	315.36
356.709	335.47
357.091	329.6
357.473	337.96
357.855	345.41
358.238	341.8
358.62	363.27
359.002	343.83
359.384	335.02
359.766	312.2
360.148	336.15
360.53	344.51
360.912	303.83
361.294	351.52
361.676	349.71
362.057	331.86
362.439	337.05
362.821	339.31
363.203	313.33
363.584	335.7
363.966	318.3
364.348	340.22
364.729	318.97
365.111	316.26
365.493	299.54
365.874	310.39
366.256	335.25
366.637	325.75
367.019	330.73
367.4	343.61
367.781	313.55
368.163	336.15
368.544	320.33
368.925	303.61
369.306	312.42
369.688	319.88
370.069	310.16
370.45	316.26
370.831	304.51
371.212	320.78
371.593	321.23
371.974	317.17
372.355	323.27
372.736	317.39
373.117	290.05
373.498	309.71
373.879	304.96
374.26	310.84
374.641	318.97
375.021	319.88
375.402	312.2
375.783	321.91
376.163	327.56
376.544	332.53
376.925	345.41
377.305	336.15
377.686	328.69
378.066	309.94
378.447	335.02
378.827	323.27
379.208	330.27
379.588	334.12
379.968	338.41
380.349	350.61
380.729	349.48
381.109	354.91
381.489	346.09
381.87	323.95
382.25	322.82
382.63	348.35
383.01	347.67
383.39	338.41
383.77	358.3
384.15	351.74
384.53	333.44
384.91	355.13
385.29	361.01
385.67	358.75
386.049	344.96
386.429	347.67
386.809	360.78
387.189	357.84
387.568	358.3
387.948	343.83
388.328	351.74
388.707	357.84
389.087	370.05
389.466	349.93
389.846	361.91
390.225	387
390.605	365.53
390.984	369.14
391.363	385.19
391.743	357.62
392.122	388.58
392.501	384.06
392.881	359.65
393.26	362.36
393.639	387
394.018	391.29
394.397	389.26
394.776	405.07
395.155	395.58
395.534	377.5
395.913	386.09
396.292	388.35
396.671	394.23
397.05	404.4
397.429	392.65
397.808	414.34
398.186	406.66
398.565	401.01
398.944	402.36
399.323	395.36
399.701	412.98
400.08	422.7
400.458	414.34
400.837	415.47
401.215	413.66
401.594	410.27
401.972	443.94
402.351	431.97
402.729	412.76
403.107	422.93
403.486	448.01
403.864	437.39
404.242	412.98
404.62	430.16
404.999	434.23
405.377	438.52
405.755	447.56
406.133	459.31
406.511	461.8
406.889	437.62
407.267	461.57
407.645	455.02
408.023	482.36
408.401	460.44
408.779	454.11
409.156	479.2
409.534	453.21
409.912	475.81
410.29	461.34
410.667	469.71
411.045	474.22
411.422	480.55
411.8	473.32
412.178	499.53
412.555	500.66
412.933	503.15
413.31	520.55
413.687	510.38
414.065	512.64
414.442	537.05
414.819	513.55
415.197	515.58
415.574	516.94
415.951	497.05
416.328	544.05
416.705	532.98
417.082	526.43
417.46	535.01
417.837	534.56
418.214	524.17
418.591	543.83
418.967	562.36
419.344	546.54
419.721	546.09
420.098	551.74
420.475	556.26
420.852	578.63
421.228	550.38
421.605	580.89
421.982	584.96
422.358	594.22
422.735	589.93
423.111	581.11
423.488	601.68
423.864	584.5
424.241	642.36
424.617	611.85
424.994	594
425.37	610.94
425.746	615.46
426.123	621.57
426.499	643.03
426.875	604.39
427.251	645.97
427.627	652.3
428.003	674.67
428.379	664.95
428.756	670.83
429.132	683.71
429.507	675.58
429.883	672.64
430.259	678.29
430.635	684.61
431.011	713.09
431.387	692.07
431.763	723.26
432.138	728.46
432.514	726.87
432.89	735.91
433.265	757.83
433.641	743.14
434.016	752.41
434.392	758.29
434.767	784.5
435.143	802.35
435.518	791.28
435.894	799.64
436.269	776.59
436.644	779.98
437.02	842.8
437.395	816.14
437.77	830.83
438.145	835.12
438.52	807.1
438.895	845.97
439.271	860.2
439.646	881.45
440.021	845.29
440.395	892.97
440.77	863.59
441.145	888.9
441.52	892.97
441.895	920.54
442.27	893.2
442.645	904.27
443.019	928
443.394	919.86
443.769	931.84
444.143	930.71
444.518	913.31
444.892	937.26
445.267	959.18
445.641	957.38
446.016	962.8
446.39	973.42
446.764	968
447.139	971.39
447.513	993.53
447.887	983.14
448.262	1015.23
448.636	1000.31
449.01	1011.16
449.384	1019.75
449.758	1025.85
450.132	1047.09
450.506	1057.71
450.88	1054.32
451.254	1051.38
451.628	1067.88
452.002	1071.5
452.376	1096.36
452.75	1097.49
453.123	1116.69
453.497	1148.33
453.871	1115.11
454.244	1159.86
454.618	1152.17
454.992	1174.77
455.365	1188.1
455.739	1189.69
456.112	1201.89
456.486	1191.72
456.859	1208.44
457.232	1254.54
457.606	1255.9
457.979	1276.46
458.352	1309.46
458.725	1312.39
459.099	1327.31
459.472	1335.67
459.845	1368.21
460.218	1382
460.591	1407.53
460.964	1381.77
461.337	1421.77
461.71	1425.39
462.083	1473.75
462.456	1479.4
462.829	1474.42
463.201	1527.53
463.574	1519.17
463.947	1534.76
464.32	1574.08
464.692	1605.72
465.065	1604.59
465.438	1619.96
465.81	1652.27
466.183	1692.27
466.555	1704.93
466.928	1722.78
467.3	1745.15
467.672	1772.04
468.045	1851.82
468.417	1815.43
468.789	1814.53
469.161	1871.48
469.534	1919.38
469.906	1919.16
470.278	1975.2
470.65	2000.96
471.022	2036.22
471.394	2073.5
471.766	2162.09
472.138	2170.45
472.51	2239.38
472.882	2222.43
473.253	2293.39
473.625	2325.93
473.997	2374.97
474.369	2429.2
474.74	2487.96
475.112	2527.28
475.484	2577.9
475.855	2652.25
476.227	2704.22
476.598	2778.8
476.97	2779.93
477.341	2862.86
477.713	2961.17
478.084	3023.31
478.455	3149.41
478.827	3186.02
479.198	3253.13
479.569	3293.59
479.94	3421.49
480.311	3438.44
480.682	3580.81
481.053	3684.54
481.424	3835.72
481.795	3863.06
482.166	3974.7
482.537	4054.7
482.908	4181.7
483.279	4275.48
483.65	4348.25
484.021	4522.93
484.391	4603.83
484.762	4666.2
485.133	4819.42
485.503	4938.51
485.874	5065.74
486.244	5185.06
486.615	5340.31
486.985	5457.6
487.356	5482.45
487.726	5659.85
488.097	5901.65
488.467	5968.09
488.837	6100.74
489.207	6190.91
489.578	6394.3
489.948	6469.1
490.318	6665.47
490.688	6702.76
491.058	6877.45
491.428	7031.34
491.798	7133.48
492.168	7358.34
492.538	7385.23
492.908	7530.76
493.278	7732.57
493.648	7814.14
494.017	7975.72
494.387	8108.6
494.757	8297.07
495.126	8345.43
495.496	8438.08
495.866	8555.59
496.235	8743.84
496.605	8876.72
496.974	8942.7
497.344	9046.88
497.713	9202.36
498.082	9305.41
498.452	9411.16
498.821	9512.63
499.19	9609.8
499.559	9752.17
499.928	9871.72
500.298	9919.63
500.667	10049.79
501.036	10032.17
501.405	10243.23
501.774	10274.87
502.143	10346.06
502.512	10432.16
502.88	10661.98
503.249	10578.14
503.618	10739.04
503.987	10828.53
504.356	10880.28
504.724	11017.68
505.093	11033.5
505.462	11085.92
505.83	11237.78
506.199	11342.19
506.567	11383.09
506.936	11378.34
507.304	11491.79
507.672	11603.42
508.041	11631.9
508.409	11683.42
508.777	11782.85
509.145	11947.14
509.514	11901.95
509.882	12052.9
510.25	12061.72
510.618	12097.2
510.986	12153.92
511.354	12319.34
511.722	12342.61
512.09	12400.24
512.458	12359.56
512.826	12550.74
513.193	12590.97
513.561	12535.6
513.929	12665.77
514.297	12744.41
514.664	12760
515.032	12785.09
515.4	12879.1
515.767	12926.78
516.135	12982.6
516.502	12844.3
516.869	13062.59
517.237	13069.15
517.604	13044.74
517.972	13166.77
518.339	13241.8
518.706	13174.23
519.073	13213.32
519.44	13279.99
519.808	13354.56
520.175	13331.06
520.542	13475.24
520.909	13485.41
521.276	13416.94
521.643	13498.97
522.009	13525.63
522.376	13573.99
522.743	13660.77
523.11	13684.5
523.477	13818.28
523.843	13887.88
524.21	13879.3
524.577	13960.2
524.943	13992.97
525.31	14007.43
525.676	14075.22
526.043	14067.09
526.409	14140.08
526.776	14247.42
527.142	14223.69
527.508	14251.94
527.874	14231.38
528.241	14232.96
528.607	14283.35
528.973	14277.7
529.339	14230.47
529.705	14300.75
530.071	14319.51
530.437	14352.28
530.803	14297.36
531.169	14418.26
531.535	14282.22
531.901	14336.91
532.267	14362.9
532.632	14323.58
532.998	14280.87
533.364	14361.32
533.73	14411.03
534.095	14437.47
534.461	14373.07
534.826	14448.77
535.192	14401.09
535.557	14443.58
535.923	14346.4
536.288	14350.02
536.653	14353.18
537.019	14215.33
537.384	14310.7
537.749	14255.56
538.114	14253.3
538.479	14237.48
538.845	14217.59
539.21	14147.99
539.575	14138.27
539.94	14157.93
540.305	14139.4
540.67	14044.94
541.034	14127.43
541.399	13954.1
541.764	14102.79
542.129	14005.62
542.494	14057.37
542.858	13998.84
543.223	14009.24
543.587	14027.09
543.952	13892.63
544.316	13855.79
544.681	13940.76
545.045	13903.25
545.41	13856.7
545.774	13809.24
546.138	13683.6
546.503	13726.08
546.867	13716.59
547.231	13732.86
547.595	13751.62
547.959	13757.72
548.324	13689.92
548.688	13588
549.052	13596.14
549.416	13568.8
549.779	13563.37
550.143	13548.68
550.507	13622.35
550.871	13416.03
551.235	13423.26
551.599	13449.93
551.962	13439.99
552.326	13454.22
552.689	13457.61
553.053	13388.69
553.417	13277.73
553.78	13482.47
554.143	13383.94
554.507	13313.44
554.87	13312.98
555.234	13362.7
555.597	13318.63
555.96	13269.14
556.323	13318.86
556.686	13226.66
557.05	13339.88
557.413	13320.21
557.776	13258.97
558.139	13256.04
558.502	13287
558.865	13279.09
559.228	13314.11
559.59	13334
559.953	13316.6
560.316	13376.94
560.679	13345.07
561.041	13375.13
561.404	13344.39
561.767	13426.43
562.129	13350.72
562.492	13406.09
562.854	13400.66
563.217	13405.64
563.579	13369.25
563.941	13453.54
564.304	13398.86
564.666	13482.24
565.028	13506.2
565.39	13461.23
565.753	13404.96
566.115	13572.64
566.477	13556.37
566.839	13601.11
567.201	13658.96
567.563	13640.66
567.925	13623.94
568.287	13636.14
568.648	13664.39
569.01	13646.31
569.372	13654.22
569.734	13697.15
570.095	13782.58
570.457	13743.03
570.819	13722.92
571.18	13772.86
571.542	13830.26
571.903	13886.53
572.265	13882.91
572.626	13787.55
572.987	13902.12
573.349	13828.22
573.71	14024.83
574.071	13889.69
574.432	13928.33
574.794	13964.27
575.155	13983.25
575.516	13931.5
575.877	13959.07
576.238	13960.42
576.599	14024.15
576.96	13954.1
577.32	13915.91
577.681	14040.87
578.042	14034.55
578.403	14024.6
578.763	14007.2
579.124	14051.72
579.485	14062.79
579.845	14051.49
580.206	14086.97
580.566	14078.39
580.927	14100.53
581.287	14119.29
581.648	14017.15
582.008	14190.02
582.368	14036.35
582.728	14093.98
583.089	14030.7
583.449	14119.74
583.809	14020.08
584.169	14168.33
584.529	14044.26
584.889	14102.57
585.249	14123.13
585.609	14028.44
585.969	14138.72
586.329	13960.88
586.688	14054.88
587.048	13935.34
587.408	13868.22
587.768	13934.89
588.127	13847.66
588.487	13780.99
588.846	14003.81
589.206	13819.86
589.565	13860.54
589.925	13984.15
590.284	13888.11
590.643	13926.75
591.003	13929.24
591.362	13951.38
591.721	13906.64
592.08	13962.68
592.44	13948.45
592.799	13891.73
593.158	13921.78
593.517	13910.48
593.876	13906.41
594.235	13811.5
594.593	13886.3
594.952	13946.19
595.311	13840.88
595.67	13874.55
596.029	13940.31
596.387	13902.35
596.746	13868.67
597.104	13923.36
597.463	13794.78
597.822	13848.34
598.18	13870.71
598.538	13765.17
598.897	13880.88
599.255	13723.82
599.613	13969.46
599.972	13769.02
600.33	13856.47
600.688	13735.57
601.046	13902.57
601.404	13884.72
601.762	13808.11
602.12	13929.46
602.478	13932.85
602.836	13818.73
603.194	13792.52
603.552	13904.61
603.91	13812.41
604.268	13805.17
604.625	13829.58
604.983	13917.49
605.341	13826.87
605.698	13809.69
606.056	13856.02
606.413	13799.98
606.771	13873.42
607.128	13976.47
607.485	13838.17
607.843	13877.71
608.2	13955.45
608.557	13982.57
608.914	13911.61
609.272	13945.96
609.629	13971.72
609.986	14060.76
610.343	13952.29
610.7	13987.09
611.057	14002.68
611.414	13936.92
611.771	14065.05
612.127	13993.64
612.484	14015.79
612.841	14113.64
613.198	14023.47
613.554	13963.36
613.911	14143.7
614.267	14090.59
614.624	14142.79
614.98	14119.06
615.337	14261.88
615.693	14164.71
616.05	14083.36
616.406	14288.1
616.762	14245.39
617.118	14148.22
617.475	14215.56
617.831	14225.95
618.187	14241.32
618.543	14220.98
618.899	14285.39
619.255	14356.57
619.611	14294.88
619.967	14380.07
620.323	14280.42
620.678	14346.85
621.034	14133.3
621.39	14299.62
621.746	14179.63
622.101	14469.79
622.457	14266.18
622.812	14328.32
623.168	14335.33
623.523	14265.95
623.879	14394.08
624.234	14267.99
624.589	14239.29
624.945	14287.65
625.3	14355.44
625.655	14236.35
626.01	14302.34
626.365	14334.43
626.72	14297.14
627.075	14281.09
627.43	14293.52
627.785	14230.25
628.14	14309.34
628.495	14334.43
628.85	14192.96
629.205	14228.89
629.559	14305.95
629.914	14173.3
630.269	14192.51
630.623	14112.06
630.978	14169.68
631.332	14179.18
631.687	14191.83
632.041	14062.34
632.396	14177.59
632.75	14046.75
633.104	14101.89
633.459	14050.82
633.813	14026.41
634.167	14087.43
634.521	14093.75
634.875	13966.07
635.229	13966.3
635.583	14013.98
635.937	14028.22
636.291	13858.28
636.645	13973.53
636.999	13900.09
637.352	13857.6
637.706	13819.86
638.06	13906.19
638.413	13910.03
638.767	13882.01
639.121	13909.8
639.474	13803.14
639.828	13804.04
640.181	13787.32
640.534	13830.48
640.888	13807.21
641.241	13693.31
641.594	13740.54
641.947	13760.88
642.301	13699.41
642.654	13749.36
643.007	13717.49
643.36	13685.18
643.713	13663.93
644.066	13684.5
644.419	13708.68
644.771	13495.35
645.124	13435.69
645.477	13368.58
645.83	13309.14
646.182	13162.48
646.535	13223.27
646.888	13289.93
647.24	13118.86
647.593	13277.5
647.945	13189.6
648.298	13135.59
648.65	13128.58
649.002	13121.35
649.355	13222.59
649.707	13159.09
650.059	13297.84
650.411	13390.04
650.763	13379.87
651.115	13508.91
651.467	13544.39
651.819	13487.89
652.171	13519.08
652.523	13416.94
652.875	13418.97
653.227	13334
653.578	13491.51
653.93	13461
654.282	13394.56
654.633	13414
654.985	13393.21
655.337	13449.93
655.688	13457.16
656.039	13507.33
656.391	13396.37
656.742	13421.91
657.094	13402.7
657.445	13438.4
657.796	13404.05
658.147	13439.31
658.498	13362.02
658.849	13462.13
659.2	13423.04
659.551	13401.57
659.902	13509.81
660.253	13406.09
660.604	13442.92
660.955	13372.87
661.306	13432.3
661.656	13446.77
662.007	13499.65
662.358	13400.44
662.708	13450.38
663.059	13473.66
663.409	13356.6
663.76	13458.74
664.11	13435.69
664.461	13469.82
664.811	13433.88
665.161	13524.96
665.511	13472.75
665.862	13431.4
666.212	13472.08
666.562	13507.1
666.912	13494.67
667.262	13415.35
667.612	13389.14
667.962	13482.7
668.312	13442.02
668.662	13498.29
669.011	13500.1
669.361	13402.25
669.711	13397.27
670.06	13483.6
670.41	13365.41
670.76	13373.77
671.109	13397.5
671.459	13378.29
671.808	13394.79
672.157	13358.41
672.507	13357.73
672.856	13342.59
673.205	13273.89
673.554	13308.69
673.904	13306.2
674.253	13423.71
674.602	13326.99
674.951	13126.1
675.3	13061.69
675.649	13305.07
675.998	13227.56
676.346	13248.13
676.695	13209.71
677.044	13136.72
677.393	13159.99
677.741	13173.1
678.09	13190.73
678.438	13093.78
678.787	13144.17
679.135	13152.76
679.484	12978.75
679.832	13103.5
680.181	12966.55
680.529	13042.48
680.877	13034.57
681.225	13000.9
681.573	13080.9
681.922	12921.81
682.27	12870.28
682.618	12935.82
682.966	12852.43
683.314	12883.84
683.661	12885.65
684.009	12757.74
684.357	12719.1
684.705	12748.48
685.053	12790.06
685.4	12727.24
685.748	12647.01
686.095	12676.84
686.443	12553.23
686.79	12607.92
687.138	12635.26
687.485	12594.81
687.832	12531.99
688.18	12563.62
688.527	12554.36
688.874	12530.63
689.221	12471.88
689.568	12381.26
689.915	12333.12
690.262	12426.68
690.609	12394.82
690.956	12312.33
691.303	12196.63
691.65	12187.36
691.997	12190.07
692.344	12068.04
692.69	12063.52
693.037	12111.21
693.383	12036.86
693.73	11893.59
694.077	11859.01
694.423	11883.64
694.769	11853.13
695.116	11763.65
695.462	11794.38
695.808	11666.7
696.155	11715.06
696.501	11571.11
696.847	11621.28
697.193	11515.06
697.539	11588.73
697.885	11455.41
698.231	11454.05
698.577	11470.77
698.923	11422.41
699.269	11306.71
699.614	11241.85
699.96	11268.52
700.306	11236.65
700.651	11144.23
700.997	11133.61
701.342	11071.23
701.688	11153.49
702.033	11019.71
702.379	11035.76
702.724	10934.29
703.069	10956.21
703.415	10852.26
703.76	10901.52
704.105	10876.89
704.45	10809.77
704.795	10791.69
705.14	10711.02
705.485	10760.28
705.83	10635.09
706.175	10673.05
706.52	10637.8
706.865	10597.57
707.209	10617.69
707.554	10514.19
707.899	10560.97
708.243	10503.11
708.588	10434.64
708.932	10398.26
709.277	10417.01
709.621	10386.96
709.966	10359.61
710.31	10405.94
710.654	10232.61
710.998	10283.91
711.342	10225.83
711.687	10223.12
712.031	10159.17
712.375	10162.78
712.719	10140.19
713.063	10168.43
713.407	10076.68
713.75	10076.46
714.094	10111.71
714.438	10009.57
714.782	10012.51
715.125	9947.42
715.469	10025.39
715.812	9929.8
716.156	9878.05
716.499	9858.16
716.843	9994.43
717.186	9861.55
717.53	9925.73
717.873	9879.63
718.216	9823.58
718.559	9821.78
718.902	9760.76
719.246	9823.81
719.589	9717.15
719.932	9723.7
720.275	9748.56
720.617	9646.86
720.96	9768.9
721.303	9714.43
721.646	9707.43
721.989	9663.14
722.331	9600.76
722.674	9640.09
723.016	9571.16
723.359	9638.5
723.701	9609.35
724.044	9637.6
724.386	9556.7
724.729	9583.14
725.071	9550.6
725.413	9569.35
725.755	9581.1
726.097	9527.77
726.439	9471.28
726.782	9451.16
727.124	9556.47
727.465	9488.9
727.807	9507.66
728.149	9483.25
728.491	9429.24
728.833	9467.43
729.175	9458.62
729.516	9396.7
729.858	9426.76
730.199	9502.46
730.541	9405.06
730.882	9433.54
731.224	9448.68
731.565	9377.72
731.906	9392.63
732.248	9403.48
732.589	9380.21
732.93	9312.64
733.271	9380.66
733.612	9368.45
733.953	9422.46
734.294	9372.52
734.635	9355.35
734.976	9397.61
735.317	9253.88
735.658	9388.11
735.999	9328
736.339	9320.32
736.68	9350.38
737.021	9350.6
737.361	9329.81
737.702	9388.57
738.042	9381.11
738.383	9375.91
738.723	9370.94
739.063	9311.96
739.404	9373.43
739.744	9421.56
740.084	9368.91
740.424	9471.73
740.764	9436.25
741.104	9457.72
741.444	9389.47
741.784	9362.35
742.124	9437.83
742.464	9417.04
742.804	9488.68
743.143	9448
743.483	9519.18
743.823	9500.2
744.162	9549.69
744.502	9573.87
744.841	9549.47
745.181	9665.4
745.52	9580.43
745.86	9661.55
746.199	9679.63
746.538	9689.58
746.877	9794.21
747.216	9796.24
747.556	9889.34
747.895	9879.18
748.234	9898.16
748.573	9907.2
748.911	9992.84
749.25	10055.89
749.589	10044.37
749.928	10204.82
750.267	10197.81
750.605	10267.41
750.944	10328.65
751.283	10318.03
751.621	10465.6
751.96	10517.12
752.298	10636.9
752.636	10778.36
752.975	10762.77
753.313	10890.45
753.651	10951.69
753.989	11072.36
754.327	11119.82
754.666	11175.64
755.004	11357.78
755.342	11532.69
755.679	11585.8
756.017	11674.83
756.355	11760.71
756.693	11901.95
757.031	12030.98
757.368	12147.36
757.706	12370.64
758.044	12453.12
758.381	12635.49
758.719	12694.24
