Data from hue_320_FLMS001491_66.txt Node
Date: Mon Feb 06 15:47:32 GMT 2017
User: dcchb
Spectrometer: FLMS00149
Trigger mode: 0
Integration Time (sec): 2.000000E-2
Scans to average: 10
Electric dark correction enabled: true
Nonlinearity correction enabled: false
Boxcar width: 0
XAxis mode: Wavelengths
Number of Pixels in Spectrum: 2048
>>>>>Begin Spectral Data<<<<<
341.393	7.54
341.776	7.54
342.16	7.54
342.543	-62.74
342.927	-58.44
343.31	-55.28
343.693	-80.59
344.077	-81.95
344.46	-34.94
344.843	-42.4
345.226	-55.51
345.61	-28.84
345.993	-3.53
346.376	-12.8
346.759	-2.63
347.142	35.11
347.525	47.77
347.908	45.73
348.291	71.27
348.674	82.34
349.057	116.24
349.44	130.7
349.823	148.56
350.206	196.46
350.588	181.55
350.971	205.5
351.354	235.78
351.737	254.32
352.119	249.34
352.502	248.67
352.884	271.26
353.267	283.69
353.65	289.12
354.032	312.17
354.414	310.13
354.797	317.59
355.179	310.13
355.562	319.4
355.944	319.62
356.326	335.9
356.709	342.22
357.091	313.07
357.473	325.95
357.855	325.73
358.238	344.71
358.62	331.15
359.002	354.2
359.384	338.15
359.766	330.92
360.148	360.3
360.53	333.64
360.912	334.31
361.294	317.14
361.676	339.06
362.057	329.34
362.439	331.6
362.821	300.87
363.203	318.27
363.584	330.25
363.966	302.22
364.348	337.93
364.729	308.33
365.111	313.52
365.493	342.45
365.874	315.56
366.256	312.17
366.637	306.97
367.019	282.34
367.4	309.23
367.781	316.23
368.163	315.33
368.544	303.58
368.925	310.13
369.306	316.23
369.688	318.04
370.069	303.35
370.45	290.7
370.831	310.59
371.212	315.78
371.593	303.13
371.974	315.56
372.355	298.38
372.736	296.8
373.117	315.78
373.498	332.73
373.879	307.42
374.26	300.19
374.641	326.86
375.021	325.27
375.402	312.17
375.783	307.65
376.163	339.74
376.544	316.01
376.925	327.53
377.305	329.79
377.686	324.14
378.066	329.57
378.447	310.13
378.827	318.04
379.208	339.74
379.588	314.43
379.968	329.34
380.349	320.98
380.729	330.25
381.109	322.79
381.489	334.31
381.87	335.9
382.25	320.75
382.63	336.57
383.01	338.61
383.39	342.9
383.77	333.86
384.15	342.9
384.53	339.96
384.91	329.79
385.29	347.19
385.67	334.09
386.049	349
386.429	351.94
386.809	336.57
387.189	344.26
387.568	367.31
387.948	350.13
388.328	344.93
388.707	343.8
389.087	356.23
389.466	354.65
389.846	338.83
390.225	361.43
390.605	356.91
390.984	362.56
391.363	349.45
391.743	343.13
392.122	366.63
392.501	370.02
392.881	373.18
393.26	355.78
393.639	370.02
394.018	365.72
394.397	380.41
394.776	364.59
395.155	383.13
395.534	356.91
395.913	383.8
396.292	341.77
396.671	363.24
397.05	375.22
397.429	374.54
397.808	389
398.186	390.13
398.565	386.29
398.944	361.66
399.323	375.89
399.701	389.91
400.08	404.82
400.458	381.54
400.837	403.92
401.215	388.1
401.594	382
401.972	383.35
402.351	394.88
402.729	400.75
403.107	392.84
403.486	399.4
403.864	398.27
404.242	386.74
404.62	407.98
404.999	408.66
405.377	409.11
405.755	435.1
406.133	406.85
406.511	429
406.889	416.34
407.267	412.05
407.645	439.62
408.023	442.11
408.401	430.13
408.779	433.29
409.156	423.58
409.534	467.87
409.912	461.99
410.29	436.91
410.667	458.38
411.045	475.33
411.422	486.85
411.8	462.9
412.178	492.05
412.555	502.9
412.933	499.96
413.31	508.55
413.687	510.13
414.065	502.67
414.442	532.05
414.819	523.91
415.197	537.7
415.574	531.82
415.951	531.82
416.328	537.47
416.705	528.43
417.082	524.82
417.46	557.81
417.837	563.46
418.214	575.66
418.591	567.98
418.967	570.01
419.344	616.34
419.721	592.39
420.098	589.45
420.475	630.58
420.852	606.4
421.228	624.7
421.605	624.93
421.982	636.9
422.358	634.64
422.735	646.85
423.111	645.27
423.488	650.24
423.864	653.85
424.241	671.93
424.617	668.32
424.994	671.48
425.37	682.33
425.746	691.59
426.123	699.95
426.499	715.77
426.875	708.54
427.251	728.43
427.627	714.19
428.003	739.5
428.379	758.03
428.756	727.98
429.132	758.48
429.507	767.97
429.883	765.94
430.259	774.53
430.635	804.13
431.011	798.03
431.387	829.22
431.763	826.05
432.138	824.24
432.514	810.46
432.89	838.48
433.265	853.85
433.641	863.34
434.016	859.95
434.392	891.36
434.767	865.6
435.143	854.98
435.518	894.52
435.894	904.69
436.269	924.58
436.644	915.54
437.02	934.52
437.395	937.91
437.77	957.35
438.145	941.98
438.52	961.64
438.895	957.35
439.271	952.38
439.646	975.43
440.021	952.15
440.395	986.27
440.77	1005.48
441.145	1007.29
441.52	997.35
441.895	1003
442.27	1014.97
442.645	1010.23
443.019	1026.5
443.394	1016.56
443.769	1052.26
444.143	1048.42
444.518	1038.7
444.892	1024.92
445.267	1041.41
445.641	1066.05
446.016	1062.88
446.39	1073.73
446.764	1086.38
447.139	1057.23
447.513	1081.64
447.887	1074.63
448.262	1057.46
448.636	1052.71
449.01	1116.21
449.384	1099.26
449.758	1106.27
450.132	1100.85
450.506	1101.52
450.88	1106.27
451.254	1133.61
451.628	1115.31
452.002	1128.19
452.376	1152.37
452.75	1151.69
453.123	1152.37
453.497	1155.99
453.871	1164.57
454.244	1184.23
454.618	1161.41
454.992	1188.75
455.365	1185.36
455.739	1207.96
456.112	1199.6
456.486	1205.25
456.859	1218.13
457.232	1272.82
457.606	1208.87
457.979	1258.58
458.352	1257
458.725	1284.57
459.099	1262.42
459.472	1325.93
459.845	1284.8
460.218	1297
460.591	1297.9
460.964	1315.98
461.337	1344.91
461.71	1358.69
462.083	1379.71
462.456	1378.81
462.829	1348.75
463.201	1380.16
463.574	1388.3
463.947	1405.7
464.32	1401.63
464.692	1422.87
465.065	1417.22
465.438	1442.76
465.81	1468.52
466.183	1459.71
466.555	1500.16
466.928	1499.93
467.3	1511.68
467.672	1503.55
468.045	1516.66
468.417	1540.61
468.789	1540.38
469.161	1573.38
469.534	1534.96
469.906	1600.27
470.278	1610.44
470.65	1624.45
471.022	1621.29
471.394	1677.78
471.766	1671.91
472.138	1678.68
472.51	1698.35
472.882	1727.27
473.253	1721.85
473.625	1758.23
473.997	1775.41
474.369	1797.1
474.74	1812.47
475.112	1813.6
475.484	1837.78
475.855	1871.9
476.227	1875.29
476.598	1942.63
476.97	1927.04
477.341	1940.6
477.713	1931.11
478.084	1970.43
478.455	2022.18
478.827	2023.08
479.198	2054.49
479.569	2104.44
479.94	2099.46
480.311	2144.66
480.682	2170.2
481.053	2187.82
481.424	2229.86
481.795	2243.87
482.166	2250.65
482.537	2306.69
482.908	2313.24
483.279	2308.95
483.65	2377.88
484.021	2380.36
484.391	2396.63
484.762	2409.51
485.133	2417.65
485.503	2478.89
485.874	2490.19
486.244	2516.63
486.615	2549.4
486.985	2569.73
487.356	2645.44
487.726	2611.99
488.097	2678.88
488.467	2640.69
488.837	2744.65
489.207	2727.02
489.578	2758.2
489.948	2763.85
490.318	2797.75
490.688	2834.81
491.058	2829.61
491.428	2877.75
491.798	2906.45
492.168	2934.47
492.538	2963.62
492.908	2952.78
493.278	3018.99
493.648	2993
494.017	3013.56
494.387	3087.01
494.757	3102.83
495.126	3095.14
495.496	3113.68
495.866	3171.75
496.235	3155.03
496.605	3172.2
496.974	3164.97
497.344	3215.14
497.713	3237.06
498.082	3257.17
498.452	3257.17
498.821	3311.86
499.19	3252.65
499.559	3290.85
499.928	3275.25
500.298	3311.64
500.667	3364.06
501.036	3341.69
501.405	3367.23
501.774	3371.75
502.143	3417.17
502.512	3412.65
502.88	3406.55
503.249	3474.12
503.618	3477.51
503.987	3439.32
504.356	3484.96
504.724	3490.39
505.093	3508.69
505.462	3500.56
505.83	3524.29
506.199	3521.8
506.567	3559.77
506.936	3571.74
507.304	3586.88
507.672	3583.49
508.041	3636.15
508.409	3629.14
508.777	3613.55
509.145	3675.92
509.514	3653.77
509.882	3661.46
510.25	3678.63
510.618	3672.08
510.986	3681.34
511.354	3743.26
511.722	3720.89
512.09	3733.55
512.458	3716.15
512.826	3762.47
513.193	3781
513.561	3771.51
513.929	3774.9
514.297	3797.5
514.664	3841.79
515.032	3819.65
515.4	3860.77
515.767	3834.33
516.135	3858.29
516.502	3845.18
516.869	3861.45
517.237	3869.81
517.604	3842.92
517.972	3916.37
518.339	3901.45
518.706	3930.15
519.073	3923.15
519.44	3916.82
519.808	3969.25
520.175	3953.2
520.542	3991.39
520.909	4020.77
521.276	3958.85
521.643	4011.5
522.009	4012.86
522.376	4063.48
522.743	4052.18
523.11	4087.21
523.477	4086.3
523.843	4076.14
524.21	4086.53
524.577	4143.93
524.943	4155.91
525.31	4115.46
525.676	4184.38
526.043	4235.23
526.409	4217.83
526.776	4276.58
527.142	4272.06
527.508	4283.81
527.874	4326.98
528.241	4311.16
528.607	4351.61
528.973	4381.44
529.339	4331.95
529.705	4446.75
530.071	4490.14
530.437	4471.61
530.803	4450.14
531.169	4519.97
531.535	4496.92
531.901	4487.2
532.267	4514.54
532.632	4578.72
532.998	4539.4
533.364	4600.19
533.73	4585.05
534.095	4630.25
534.461	4651.49
534.826	4655.33
535.192	4723.35
535.557	4726.74
535.923	4752.73
536.288	4710.7
536.653	4824.82
537.019	4760.41
537.384	4803.57
537.749	4781.65
538.114	4801.99
538.479	4808.55
538.845	4839.96
539.21	4824.82
539.575	4846.51
539.94	4900.29
540.305	4904.81
540.67	4910.24
541.034	4962.89
541.399	4987.75
541.764	5001.08
542.129	5019.16
542.494	5023.46
542.858	5037.92
543.223	5016
543.587	5098.03
543.952	5107.07
544.316	5100.97
544.681	5118.14
545.045	5249.21
545.41	5205.6
545.774	5182.55
546.138	5218.93
546.503	5258.25
546.867	5268.19
547.231	5325.82
547.595	5254.64
547.959	5318.14
548.324	5357.68
548.688	5324.69
549.052	5373.28
549.416	5341.19
549.779	5418.7
550.143	5414.41
550.507	5446.27
550.871	5451.01
551.235	5479.71
551.599	5481.97
551.962	5497.79
552.326	5538.02
552.689	5587.51
553.053	5564.01
553.417	5545.48
553.78	5678.81
554.143	5652.37
554.507	5587.96
554.87	5675.19
555.234	5700.5
555.597	5683.55
555.96	5688.3
556.323	5724.45
556.686	5741.4
557.05	5767.16
557.413	5746.6
557.776	5792.47
558.139	5784.34
558.502	5812.14
558.865	5799.48
559.228	5898.01
559.59	5850.33
559.953	5910.66
560.316	5914.96
560.679	5973.49
561.041	5965.8
561.404	5974.84
561.767	6020.72
562.129	5992.92
562.492	6046.03
562.854	6006.71
563.217	6009.64
563.579	6029.98
563.941	6098.46
564.304	6126.93
564.666	6100.72
565.028	6096.87
565.39	6159.47
565.753	6180.26
566.115	6186.14
566.477	6255.29
566.839	6217.1
567.201	6275.4
567.563	6284.89
567.925	6326.25
568.287	6353.14
568.648	6300.71
569.01	6407.15
569.372	6439.92
569.734	6394.27
570.095	6499.35
570.457	6516.3
570.819	6499.8
571.18	6525.56
571.542	6579.12
571.903	6592.45
572.265	6636.97
572.626	6649.63
572.987	6691.21
573.349	6741.6
573.71	6790.41
574.071	6820.47
574.432	6808.49
574.794	6942.05
575.155	6968.72
575.516	6964.65
575.877	7042.84
576.238	7108.6
576.599	7162.83
576.96	7214.36
577.32	7323.73
577.681	7367.12
578.042	7488.25
578.403	7500
578.763	7564.41
579.124	7664.06
579.485	7746.77
579.845	7911.29
580.206	7916.03
580.566	8043.72
580.927	8132.98
581.287	8270.83
581.648	8381.56
582.008	8527.77
582.368	8674.66
582.728	8734.09
583.089	8934.54
583.449	9087.98
583.809	9262.21
584.169	9402.55
584.529	9534.07
584.889	9794.86
585.249	9909.43
585.609	10032.36
585.969	10231.68
586.329	10444.1
586.688	10636.42
587.048	10799.35
587.408	11002.73
587.768	11325.66
588.127	11502.38
588.487	11641.36
588.846	11967
589.206	12262.36
589.565	12378.29
589.925	12738.96
590.284	12824.83
590.643	13244.48
591.003	13450.13
591.362	13697.58
591.721	13901.41
592.08	14186.6
592.44	14523.54
592.799	14841.05
593.158	15064.32
593.517	15303.41
593.876	15643.74
594.235	15873.57
594.593	16144.07
594.952	16471.97
595.311	16689.82
595.67	17026.98
596.029	17363.47
596.387	17621.77
596.746	17993.28
597.104	18155.31
597.463	18444.57
597.822	18833.94
598.18	19015.86
598.538	19239.13
598.897	19682.51
599.255	19788.94
599.613	20374.92
599.972	20547.57
600.33	20822.36
600.688	20984.39
601.046	21314.78
601.404	21686.97
601.762	21937.14
602.12	22232.49
602.478	22545.93
602.836	22672.26
603.194	23001.97
603.552	23172.13
603.91	23397.66
604.268	23774.37
604.625	23909.51
604.983	24320.8
605.341	24363.06
605.698	24719.43
606.056	24921.01
606.413	25108.58
606.771	25451.39
607.128	25751.95
607.485	25820.42
607.843	25993.98
608.2	26441.2
608.557	26667.18
608.914	26890.9
609.272	27108.52
609.629	27368.86
609.986	27681.84
610.343	27623.99
610.7	28057.88
611.057	28126.12
611.414	28362.95
611.771	28568.83
612.127	28945.76
612.484	28931.53
612.841	29336.04
613.198	29289.94
613.554	29472.76
613.911	29612.41
614.267	29877.94
614.624	30001.78
614.98	30169.46
615.337	30417.82
615.693	30394.09
616.05	30595.89
616.406	30906.62
616.762	30983
617.118	31165.59
617.475	31228.87
617.831	31512.02
618.187	31556.54
618.543	31870.66
618.899	32117.66
619.255	32108.17
619.611	32310.87
619.967	32414.37
620.323	32547.93
620.678	32626.8
621.034	32567.59
621.39	32790.41
621.746	32867.7
622.101	33242.15
622.457	33063.4
622.812	33267.68
623.168	33274.92
623.523	33537.28
623.879	33553.33
624.234	33518.53
624.589	33733.89
624.945	33884.17
625.3	33940.44
625.655	33885.97
626.01	34104.95
626.365	34034.44
626.72	34052.07
627.075	34205.97
627.43	34331.39
627.785	34293.19
628.14	34405.06
628.495	34366.64
628.85	34487.31
629.205	34492.96
629.559	34697.48
629.914	34690.02
630.269	34772.5
630.623	34490.48
630.978	34635.33
631.332	34853.63
631.687	34793.29
632.041	34814.08
632.396	34941.99
632.75	34753.07
633.104	35010.01
633.459	34830.58
633.813	34781.77
634.167	34866.96
634.521	34939.05
634.875	34951.26
635.229	34838.94
635.583	34754.65
635.937	34840.07
636.291	34833.52
636.645	34984.7
636.999	34860.41
637.352	34943.35
637.706	34802.11
638.06	34898.38
638.413	35051.82
638.767	34861.09
639.121	34944.48
639.474	34812.73
639.828	34825.16
640.181	34916
640.534	34985.38
640.888	34836.91
641.241	34863.57
641.594	34826.97
641.947	34858.15
642.301	34803.69
642.654	34858.38
643.007	34876
643.36	34882.33
643.713	34869.68
644.066	34907.19
644.419	34766.18
644.771	34519.4
645.124	34277.6
645.477	34238.28
645.83	33909.25
646.182	33876.71
646.535	33889.59
646.888	33931.85
647.24	33870.38
647.593	33890.04
647.945	33985.63
648.298	33625.42
648.65	33679.2
649.002	33600.11
649.355	33809.59
649.707	33723.49
650.059	33818.63
650.411	34194.21
650.763	34236.25
651.115	34743.58
651.467	34440.31
651.819	34527.09
652.171	34443.92
652.523	34473.3
652.875	34528.89
653.227	34250.03
653.578	34615.22
653.93	34294.78
654.282	34269.24
654.633	34406.41
654.985	34260.43
655.337	34349.92
655.688	34234.66
656.039	34431.72
656.391	34234.44
656.742	34180.43
657.094	34277.38
657.445	34427.65
657.796	34314.89
658.147	34325.51
658.498	34111.05
658.849	34269.24
659.2	34172.97
659.551	34134.55
659.902	34308.79
660.253	34135.23
660.604	34265.4
660.955	33981.56
661.306	34219.75
661.656	34123.48
662.007	34078.51
662.358	34075.12
662.708	34167.32
663.059	34081.67
663.409	33876.26
663.76	34048.91
664.11	34022.47
664.461	34224.27
664.811	34019.3
665.161	34115.12
665.511	34061.34
665.862	34037.38
666.212	34177.04
666.562	34160.99
666.912	34088.91
667.262	34031.73
667.612	34020.66
667.962	34117.83
668.312	34095.69
668.662	34246.87
669.011	34088.23
669.361	33930.04
669.711	33979.98
670.06	33984.28
670.41	33932.3
670.76	33883.94
671.109	33985.18
671.459	33972.52
671.808	33968.46
672.157	33961.68
672.507	33749.93
672.856	33823.38
673.205	33801.46
673.554	33927.78
673.904	33844.62
674.253	33899.98
674.602	33838.74
674.951	33356.27
675.3	33212.09
675.649	33831.06
675.998	33667.67
676.346	33674.45
676.695	33855.69
677.044	33538.86
677.393	33640.1
677.741	33771.85
678.09	33545.87
678.438	33598.98
678.787	33643.95
679.135	33635.36
679.484	33394.91
679.832	33566.66
680.181	33276.27
680.529	33383.16
680.877	33330.96
681.225	33241.47
681.573	33404.86
681.922	33046.45
682.27	33022.49
682.618	33122.6
682.966	33028.37
683.314	33209.16
683.661	33038.76
684.009	32910.86
684.357	32840.58
684.705	32824.98
685.053	32832.22
685.4	32775.95
685.748	32568.04
686.095	32647.36
686.443	32629.28
686.79	32518.55
687.138	32617.76
687.485	32590.87
687.832	32315.85
688.18	32399.68
688.527	32287.82
688.874	32213.93
689.221	32191.78
689.568	32211.89
689.915	32111.56
690.262	31958.34
690.609	31905.69
690.956	31776.88
691.303	31892.35
691.65	31705.92
691.997	31626.6
692.344	31445.13
692.69	31532.81
693.037	31366.94
693.383	31234.29
693.73	31461.4
694.077	31033.17
694.423	31100.51
694.769	30971.7
695.116	31044.24
695.462	30936.45
695.808	30898.93
696.155	30834.75
696.501	30685.15
696.847	30547.08
697.193	30474.31
697.539	30548.66
697.885	30349.34
698.231	30264.83
698.577	30392.28
698.923	30189.12
699.269	30089.69
699.614	29938.51
699.96	29855.8
700.306	29989.8
700.651	29748.68
700.997	29711.62
701.342	29606.09
701.688	29623.03
702.033	29457.84
702.379	29477.5
702.724	29333.32
703.069	29494.45
703.415	29063.73
703.76	29134.91
704.105	29138.75
704.45	29174.68
704.795	28853.79
705.14	28745.09
705.485	28851.08
705.83	28613.8
706.175	28731.98
706.52	28600.24
706.865	28561.82
707.209	28520.46
707.554	28363.41
707.899	28391.2
708.243	28341.03
708.588	28249.29
708.932	28133.13
709.277	28096.07
709.621	28108.5
709.966	27875.28
710.31	28028.73
710.654	27758.9
710.998	27707.15
711.342	27859.69
711.687	27706.93
712.031	27656.08
712.375	27598
712.719	27478.23
713.063	27512.13
713.407	27720.94
713.75	27371.12
714.094	27390.55
714.438	27196.21
714.782	27331.34
715.125	27135.19
715.469	27303.55
715.812	27087.28
716.156	26964.57
716.499	26964.35
716.843	27036.21
717.186	26855.2
717.53	26974.97
717.873	26898.81
718.216	26771.58
718.559	26718.03
718.902	26480.29
719.246	26553.96
719.589	26500.63
719.932	26423.34
720.275	26410.24
720.617	26418.6
720.96	26337.02
721.303	26366.4
721.646	26407.98
721.989	26187.42
722.331	26193.29
722.674	26102.45
723.016	26086.4
723.359	26105.61
723.701	26026.75
724.044	25912.85
724.386	25751.27
724.729	26036.01
725.071	25720.76
725.413	25888.22
725.755	25876.01
726.097	25690.48
726.439	25628.34
726.782	25586.08
727.124	25831.72
727.465	25538.4
727.807	25489.13
728.149	25422.92
728.491	25365.75
728.833	25458.85
729.175	25195.58
729.516	25257.27
729.858	25215.24
730.199	25336.37
730.541	25332.07
730.882	25166.88
731.224	25367.78
731.565	25009.6
731.906	24998.75
732.248	25039.65
732.589	24961.69
732.93	24878.98
733.271	24816.61
733.612	24897.51
733.953	24816.61
734.294	24757.63
734.635	24719.21
734.976	24800.34
735.317	24636.05
735.658	24741.81
735.999	24690.51
736.339	24567.12
736.68	24730.73
737.021	24474.47
737.361	24472.66
737.702	24498.65
738.042	24462.04
738.383	24382.27
738.723	24336.39
739.063	24383.4
739.404	24324.87
739.744	24213.23
740.084	24207.81
740.424	24192.44
740.764	24021.37
741.104	24303.17
741.444	24070.86
741.784	23922.39
742.124	24091.43
742.464	24010.75
742.804	23968.72
743.143	24033.8
743.483	23927.14
743.823	23804.88
744.162	23766.47
744.502	23824.54
744.841	23651.44
745.181	23695.96
745.52	23751.55
745.86	23680.82
746.199	23515.85
746.538	23572.8
746.877	23635.62
747.216	23632.23
747.556	23442.86
747.895	23529.86
748.234	23440.6
748.573	23345.91
748.911	23250.09
749.25	23299.36
749.589	23234.95
749.928	23203.09
750.267	23304.1
750.605	23128.74
750.944	23160.61
751.283	23025.69
751.621	23134.62
751.96	22926.94
752.298	22975.07
752.636	22954.96
752.975	22856.66
753.313	22694.18
753.651	22856.21
753.989	22668.19
754.327	22736.21
754.666	22600.85
755.004	22564.69
755.342	22610.11
755.679	22587.97
756.017	22326.5
756.355	22390
756.693	22298.48
757.031	22289.44
757.368	22173.96
757.706	22224.36
758.044	22152.72
758.381	22065.95
758.719	22048.32
759.056	21971.48
759.394	21911.37
759.731	21875.22
760.068	21838.38
760.405	21740.76
760.743	21629.12
