Data from hue_120_FLMS001491_00053.txt Node
Date: Tue Feb 07 16:59:40 GMT 2017
User: dcchb
Spectrometer: FLMS00149
Trigger mode: 0
Integration Time (sec): 2.000000E-2
Scans to average: 10
Electric dark correction enabled: true
Nonlinearity correction enabled: false
Boxcar width: 0
XAxis mode: Wavelengths
Number of Pixels in Spectrum: 2048
>>>>>Begin Spectral Data<<<<<
341.393	-18.43
341.776	-18.43
342.16	-18.43
342.543	-75.38
342.927	-61.14
343.31	-57.3
343.693	-75.38
344.077	-65.89
344.46	-59.56
344.843	-62.5
345.226	-44.65
345.61	-26.79
345.993	-27.7
346.376	-13.91
346.759	13.21
347.142	11.62
347.525	42.58
347.908	67.89
348.291	89.81
348.674	90.27
349.057	118.29
349.44	112.86
349.823	156.25
350.206	138.17
350.588	201
350.971	192.86
351.354	238.06
351.737	219.75
352.119	276.93
352.502	247.32
352.884	269.7
353.267	270.83
353.65	296.81
354.032	304.27
354.414	320.77
354.797	315.34
355.179	305.63
355.562	323.93
355.944	323.03
356.326	342.01
356.709	345.17
357.091	333.65
357.473	336.81
357.855	334.78
358.238	342.01
358.62	340.65
359.002	339.3
359.384	325.29
359.766	320.77
360.148	355.8
360.53	337.94
360.912	342.24
361.294	337.27
361.676	352.63
362.057	332.29
362.439	319.19
362.821	348.11
363.203	319.86
363.584	336.14
363.966	310.37
364.348	321.67
364.729	323.25
365.111	318.06
365.493	329.58
365.874	315.57
366.256	310.83
366.637	302.92
367.019	322.8
367.4	296.81
367.781	319.41
368.163	325.74
368.544	320.99
368.925	315.34
369.306	314.67
369.688	315.8
370.069	312.86
370.45	323.48
370.831	292.29
371.212	308.11
371.593	316.02
371.974	311.96
372.355	297.49
372.736	330.71
373.117	341.78
373.498	308.57
373.879	297.49
374.26	327.55
374.641	305.85
375.021	334.78
375.402	326.19
375.783	328
376.163	343.59
376.544	316.02
376.925	321.9
377.305	323.93
377.686	304.27
378.066	320.09
378.447	322.35
378.827	315.12
379.208	333.42
379.588	335.91
379.968	330.49
380.349	331.84
380.729	318.73
381.109	341.33
381.489	323.93
381.87	343.59
382.25	336.81
382.63	343.59
383.01	356.02
383.39	338.17
383.77	302.24
384.15	354.21
384.53	344.95
384.91	329.58
385.29	338.62
385.67	355.34
386.049	357.38
386.429	331.62
386.809	355.8
387.189	343.82
387.568	363.93
387.948	362.8
388.328	357.83
388.707	357.6
389.087	362.8
389.466	332.97
389.846	372.97
390.225	389.02
390.605	381.33
390.984	387.43
391.363	369.81
391.743	392.18
392.122	364.38
392.501	382.24
392.881	375.91
393.26	378.39
393.639	374.33
394.018	377.26
394.397	378.39
394.776	368.9
395.155	394.89
395.534	365.96
395.913	379.3
396.292	377.94
396.671	403.48
397.05	391.28
397.429	385.85
397.808	398.05
398.186	381.78
398.565	393.99
398.944	400.77
399.323	408.9
399.701	378.39
400.08	397.15
400.458	388.11
400.837	401.9
401.215	393.08
401.594	411.61
401.972	421.78
402.351	400.77
402.729	391.73
403.107	420.65
403.486	422.01
403.864	422.69
404.242	426.08
404.62	422.23
404.999	396.25
405.377	415.91
405.755	434.44
406.133	432.86
406.511	424.72
406.889	420.2
407.267	431.95
407.645	428.79
408.023	438.96
408.401	461.78
408.779	450.93
409.156	431.95
409.534	459.52
409.912	443.25
410.29	469.92
410.667	469.92
411.045	459.97
411.422	459.75
411.8	472.63
412.178	484.15
412.555	479.86
412.933	472.4
413.31	470.14
413.687	486.41
414.065	472.63
414.442	472.18
414.819	489.58
415.197	475.11
415.574	465.4
415.951	491.16
416.328	482.35
416.705	489.8
417.082	511.95
417.46	498.16
417.837	501.55
418.214	506.53
418.591	506.98
418.967	516.47
419.344	526.86
419.721	518.05
420.098	532.74
420.475	530.71
420.852	524.38
421.228	535.23
421.605	552.63
421.982	533.87
422.358	552.4
422.735	539.75
423.111	539.97
423.488	551.04
423.864	553.98
424.241	554.21
424.617	567.09
424.994	566.19
425.37	576.58
425.746	579.29
426.123	584.26
426.499	577.48
426.875	589.91
427.251	590.14
427.627	586.07
428.003	598.5
428.379	589.69
428.756	599.86
429.132	601.44
429.507	601.21
429.883	627.43
430.259	620.87
430.635	606.41
431.011	631.04
431.387	625.62
431.763	655.67
432.138	634.21
432.514	677.6
432.89	645.96
433.265	669.23
433.641	658.16
434.016	666.52
434.392	682.79
434.767	689.57
435.143	702.91
435.518	706.29
435.894	699.06
436.269	717.14
436.644	722.11
437.02	700.65
437.395	730.02
437.77	733.19
438.145	741.1
438.52	749.23
438.895	761.66
439.271	756.92
439.646	781.1
440.021	771.38
440.395	779.06
440.77	792.62
441.145	769.8
441.52	816.35
441.895	808.89
442.27	798.27
442.645	796.69
443.019	831.72
443.394	796.01
443.769	805.28
444.143	799.4
444.518	812.73
444.892	831.94
445.267	824.48
445.641	822.22
446.016	810.47
446.39	836.69
446.764	847.99
447.139	855.9
447.513	864.03
447.887	872.39
448.262	855.67
448.636	873.52
449.01	915.33
449.384	905.84
449.758	901.77
450.132	897.93
450.506	907.42
450.88	897.25
451.254	935.22
451.628	921.43
452.002	934.54
452.376	924.37
452.75	941.32
453.123	934.99
453.497	975.89
453.871	961.2
454.244	960.07
454.618	975.21
454.992	977.93
455.365	1001.65
455.739	1000.3
456.112	1030.35
456.486	1022.44
456.859	1040.3
457.232	1065.16
457.606	1060.18
457.979	1069
458.352	1104.7
458.725	1090.69
459.099	1125.27
459.472	1139.96
459.845	1160.97
460.218	1154.42
460.591	1158.71
460.964	1170.01
461.337	1176.34
461.71	1221.99
462.083	1239.61
462.456	1214.98
462.829	1255.66
463.201	1268.99
463.574	1261.31
463.947	1298.6
464.32	1332.27
464.692	1325.04
465.065	1322.1
465.438	1352.15
465.81	1377.69
466.183	1386.28
466.555	1428.31
466.928	1413.85
467.3	1433.28
467.672	1462.43
468.045	1493.84
468.417	1508.76
468.789	1548.53
469.161	1544.69
469.534	1572.49
469.906	1630.56
470.278	1644.12
470.65	1675.99
471.022	1685.03
471.394	1717.34
471.766	1741.97
472.138	1762.09
472.51	1841.63
472.882	1864.23
473.253	1899.48
473.625	1916.21
473.997	1990.1
474.369	2008.41
474.74	2014.51
475.112	2061.74
475.484	2090.21
475.855	2178.12
476.227	2176.09
476.598	2287.72
476.97	2353.03
477.341	2372.01
477.713	2445.46
478.084	2483.2
478.455	2584.21
478.827	2580.14
479.198	2713.7
479.569	2754.15
479.94	2847.71
480.311	2933.36
480.682	2998.21
481.053	3115.95
481.424	3212.44
481.795	3288.83
482.166	3341.93
482.537	3426.22
482.908	3534.02
483.279	3566.11
483.65	3690.17
484.021	3867.34
484.391	3903.95
484.762	3973.55
485.133	4035.92
485.503	4197.05
485.874	4327.89
486.244	4381.23
486.615	4576.7
486.985	4649.24
487.356	4804.72
487.726	4876.58
488.097	5017.14
488.467	5098.04
488.837	5258.49
489.207	5372.61
489.578	5482.89
489.948	5663.9
490.318	5754.75
490.688	5864.13
491.058	6003.1
491.428	6158.81
491.798	6281.74
492.168	6463.66
492.538	6570.32
492.908	6661.84
493.278	6777.1
493.648	6873.59
494.017	7036.07
494.387	7188.84
494.757	7311.32
495.126	7390.41
495.496	7493.01
495.866	7648.71
496.235	7817.52
496.605	7910.63
496.974	8003.28
497.344	8082.15
497.713	8263.84
498.082	8371.18
498.452	8451.85
498.821	8559.87
499.19	8655.24
499.559	8749.93
499.928	8904.05
500.298	9004.38
500.667	9142.46
501.036	9131.38
501.405	9265.39
501.774	9318.05
502.143	9414.77
502.512	9469.45
502.88	9667.19
503.249	9650.24
503.618	9734.76
503.987	9848.88
504.356	9986.5
504.724	10030.34
505.093	10088.42
505.462	10218.14
505.83	10280.96
506.199	10357.11
506.567	10461.52
506.936	10480.95
507.304	10593.27
507.672	10609.09
508.041	10727.05
508.409	10782.64
508.777	10838.23
509.145	10995.29
509.514	11006.36
509.882	11042.97
510.25	11093.37
510.618	11132.01
510.986	11169.07
511.354	11297.65
511.722	11422.4
512.09	11420.59
512.458	11400.25
512.826	11591.43
513.193	11584.65
513.561	11539.23
513.929	11662.17
514.297	11735.38
514.664	11744.87
515.032	11753.46
515.4	11950.07
515.767	11940.58
516.135	11970.41
516.502	11847.24
516.869	12033
517.237	12057.18
517.604	11989.61
517.972	12080.46
518.339	12064.64
518.706	12190.29
519.073	12212.89
519.44	12221.92
519.808	12381.69
520.175	12332.43
520.542	12458.3
520.909	12438.87
521.276	12437.06
521.643	12419.66
522.009	12486.1
522.376	12499.66
522.743	12604.29
523.11	12611.97
523.477	12727.67
523.843	12778.29
524.21	12829.82
524.577	12822.36
524.943	12838.63
525.31	12943.26
525.676	12871.4
526.043	12958.63
526.409	12969.7
526.776	13078.85
527.142	12962.24
527.508	13088.79
527.874	13080.88
528.241	13002.24
528.607	13099.64
528.973	13172.18
529.339	13077.27
529.705	13139.19
530.071	13248.56
530.437	13215.12
530.803	13179.41
531.169	13240.88
531.535	13130.15
531.901	13148.91
532.267	13200.88
532.632	13131.05
532.998	13166.31
533.364	13150.26
533.73	13110.71
534.095	13126.99
534.461	13158.17
534.826	13160.2
535.192	13102.35
535.557	13217.83
535.923	13059.64
536.288	13070.94
536.653	13075.24
537.019	12988.91
537.384	13036.82
537.749	12985.52
538.114	12944.62
538.479	12966.31
538.845	12878.18
539.21	12756.6
539.575	12948.23
539.94	12893.77
540.305	12884.28
540.67	12766.54
541.034	12733.78
541.399	12825.3
541.764	12726.77
542.129	12702.82
542.494	12733.78
542.858	12675.02
543.223	12651.97
543.587	12679.31
543.952	12572.88
544.316	12548.02
544.681	12501.01
545.045	12506.89
545.41	12498.3
545.774	12441.81
546.138	12398.64
546.503	12475.48
546.867	12391.64
547.231	12418.98
547.595	12311.41
547.959	12306.22
548.324	12236.16
548.688	12216.95
549.052	12202.04
549.416	12146.67
549.779	12093.57
550.143	12123.62
550.507	12089.72
550.871	12129.5
551.235	11978.09
551.599	12099.22
551.962	12007.24
552.326	12035.26
552.689	12030.97
553.053	11945.32
553.417	11821.48
553.78	11983.29
554.143	11885.89
554.507	11948.26
554.87	11945.77
555.234	11921.82
555.597	11813.8
555.96	11861.26
556.323	11839.79
556.686	11836.85
557.05	11846.12
557.413	11889.28
557.776	11733.35
558.139	11894.93
558.502	11851.76
558.865	11843.4
559.228	11864.87
559.59	11807.02
559.953	11837.08
560.316	11769.73
560.679	11824.65
561.041	11825.55
561.404	11804.76
561.767	11856.51
562.129	11791.43
562.492	11852.89
562.854	11828.71
563.217	11763.41
563.579	11827.58
563.941	11862.16
564.304	11893.12
564.666	11943.97
565.028	11885.44
565.39	11931.08
565.753	11881.59
566.115	11999.11
566.477	11973.8
566.839	11898.09
567.201	12067.13
567.563	11879.79
567.925	11934.47
568.287	11926.56
568.648	11961.59
569.01	12088.82
569.372	12112.77
569.734	11953.68
570.095	12167.01
570.457	12091.08
570.819	12147.12
571.18	12083.17
571.542	12206.56
571.903	12190.29
572.265	12170.85
572.626	12185.54
572.987	12107.8
573.349	12115.71
573.71	12255.37
574.071	12241.13
574.432	12192.77
574.794	12262.83
575.155	12232.09
575.516	12248.59
575.877	12188.25
576.238	12250.4
576.599	12297.4
576.96	12277.29
577.32	12294.24
577.681	12200.46
578.042	12272.54
578.403	12230.06
578.763	12301.47
579.124	12274.58
579.485	12239.78
579.845	12347.34
580.206	12334.46
580.566	12310.28
580.927	12280.91
581.287	12280.23
581.648	12253.79
582.008	12282.04
582.368	12265.99
582.728	12348.7
583.089	12235.94
583.449	12300.34
583.809	12296.95
584.169	12281.81
584.529	12255.82
584.889	12265.31
585.249	12274.35
585.609	12203.17
585.969	12218.99
586.329	12265.31
586.688	12245.2
587.048	12182.38
587.408	12210.85
587.768	12145.32
588.127	12199.55
588.487	12098.99
588.846	12208.37
589.206	12100.8
589.565	12103.96
589.925	12096.05
590.284	12159.33
590.643	12129.27
591.003	12117.07
591.362	12143.73
591.721	12128.59
592.08	12073.91
592.44	12074.81
592.799	12122.94
593.158	12139.44
593.517	12129.95
593.876	12067.13
594.235	12084.07
594.593	12123.4
594.952	12111.64
595.311	12016.51
595.67	12039.33
596.029	12099.89
596.387	12120.01
596.746	12125.43
597.104	12021.48
597.463	12027.13
597.822	12076.62
598.18	12018.77
598.538	11984.19
598.897	12004.75
599.255	11986.68
599.613	12090.18
599.972	12087.46
600.33	11916.17
600.688	12055.38
601.046	12029.84
601.404	12067.8
601.762	12011.99
602.12	12104.64
602.478	12081.14
602.836	12089.27
603.194	11977.19
603.552	11954.81
603.91	11965.21
604.268	11969.73
604.625	11909.39
604.983	11997.07
605.341	11974.93
605.698	11995.49
606.056	12080.91
606.413	12020.8
606.771	12121.14
607.128	12107.58
607.485	12004.75
607.843	11994.13
608.2	12028.03
608.557	12172.21
608.914	12015.6
609.272	12095.6
609.629	12150.51
609.986	12152.1
610.343	12041.82
610.7	12221.02
611.057	12181.25
611.414	12128.59
611.771	12163.39
612.127	12178.31
612.484	12245.2
612.841	12171.53
613.198	12180.12
613.554	12158.88
613.911	12269.15
614.267	12273.22
614.624	12225.54
614.98	12207.91
615.337	12224.41
615.693	12343.05
616.05	12257.63
616.406	12332.88
616.762	12324.75
617.118	12324.29
617.475	12253.11
617.831	12362.49
618.187	12325.88
618.543	12331.3
618.899	12304.86
619.255	12351.64
619.611	12267.35
619.967	12395.71
620.323	12413.56
620.678	12407.23
621.034	12371.98
621.39	12414.91
621.746	12349.83
622.101	12470.05
622.457	12397.06
622.812	12368.14
623.168	12496.27
623.523	12404.07
623.879	12415.82
624.234	12332.66
624.589	12393.45
624.945	12365.42
625.3	12434.57
625.655	12410.17
626.01	12425.99
626.365	12462.37
626.72	12399.32
627.075	12345.31
627.43	12420.56
627.785	12394.12
628.14	12417.17
628.495	12417.85
628.85	12390.73
629.205	12302.37
629.559	12397.29
629.914	12274.35
630.269	12325.2
630.623	12286.78
630.978	12300.57
631.332	12241.58
631.687	12355.03
632.041	12309.61
632.396	12293.11
632.75	12241.58
633.104	12199.1
633.459	12207.46
633.813	12141.02
634.167	12289.04
634.521	12173.11
634.875	12202.72
635.229	12126.79
635.583	12084.75
635.937	12114.36
636.291	12058.31
636.645	12085.66
636.999	12118.42
637.352	12097.41
637.706	12070.29
638.06	12068.48
638.413	11993.46
638.767	11963.85
639.121	12049.73
639.474	11995.94
639.828	11946.68
640.181	11997.75
640.534	11985.09
640.888	11950.97
641.241	11879.56
641.594	11929.73
641.947	11904.19
642.301	11881.59
642.654	11914.81
643.007	11896.51
643.36	11875.49
643.713	11814.03
644.066	11876.4
644.419	11823.74
644.771	11711.66
645.124	11553.69
645.477	11567.03
645.83	11520.7
646.182	11471.66
646.535	11422.62
646.888	11533.35
647.24	11467.82
647.593	11475.28
647.945	11509.17
648.298	11488.38
648.65	11457.88
649.002	11370.65
649.355	11415.39
649.707	11431.66
650.059	11579
650.411	11597.76
650.763	11562.05
651.115	11718.21
651.467	11670.53
651.819	11701.94
652.171	11666.68
652.523	11724.99
652.875	11684.09
653.227	11616.29
653.578	11670.3
653.93	11707.81
654.282	11693.35
654.633	11677.76
654.985	11677.08
655.337	11677.53
655.688	11677.08
656.039	11757.08
656.391	11700.13
656.742	11594.82
657.094	11754.82
657.445	11702.16
657.796	11727.02
658.147	11679.34
658.498	11708.27
658.849	11779.45
659.2	11650.64
659.551	11640.02
659.902	11690.86
660.253	11682.96
660.604	11669.4
660.955	11711.88
661.306	11759.11
661.656	11734.93
662.007	11803.63
662.358	11776.96
662.708	11855.38
663.059	11718.89
663.409	11683.86
663.76	11741.03
664.11	11727.47
664.461	11822.39
664.811	11830.07
665.161	11767.93
665.511	11735.38
665.862	11742.39
666.212	11792.78
666.562	11794.82
666.912	11757.53
667.262	11696.74
667.612	11773.12
667.962	11758.89
668.312	11736.97
668.662	11801.82
669.011	11714.14
669.361	11722.5
669.711	11655.16
670.06	11714.59
670.41	11644.99
670.76	11707.36
671.109	11808.83
671.459	11668.27
671.808	11626.69
672.157	11752.56
672.507	11563.86
672.856	11677.98
673.205	11596.63
673.554	11659.68
673.904	11583.75
674.253	11673.92
674.602	11577.65
674.951	11433.47
675.3	11402.06
675.649	11573.35
675.998	11526.8
676.346	11589.85
676.695	11618.1
677.044	11522.28
677.393	11463.75
677.741	11581.04
678.09	11534.71
678.438	11522.51
678.787	11545.11
679.135	11445.22
679.484	11338.56
679.832	11415.39
680.181	11379.91
680.529	11399.12
680.877	11376.3
681.225	11329.74
681.573	11359.8
681.922	11321.16
682.27	11245.45
682.618	11287.03
682.966	11248.62
683.314	11234.61
683.661	11273.02
684.009	11224.66
684.357	11118.68
684.705	11169.3
685.053	11153.03
685.4	11087.94
685.748	11070.99
686.095	11040.94
686.443	11000.04
686.79	10977.66
687.138	11022.41
687.485	10996.19
687.832	10892.02
688.18	10950.55
688.527	10891.11
688.874	10875.97
689.221	10817.67
689.568	10850.66
689.915	10761.4
690.262	10833.03
690.609	10746.48
690.956	10674.85
691.303	10642.3
691.65	10653.15
691.997	10565.7
692.344	10529.09
692.69	10518.69
693.037	10498.13
693.383	10449.99
693.73	10410.45
694.077	10348.75
694.423	10335.65
694.769	10363.44
695.116	10269.66
695.462	10243.45
695.808	10237.34
696.155	10211.81
696.501	10108.76
696.847	10148.76
697.193	10026.5
697.539	10187.85
697.885	9972.04
698.231	10001.19
698.577	9986.73
698.923	9969.78
699.269	9919.84
699.614	9852.04
699.96	9786.51
700.306	9846.17
700.651	9735.89
700.997	9760.07
701.342	9727.3
701.688	9705.61
702.033	9624.03
702.379	9677.81
702.724	9552.16
703.069	9549.9
703.415	9444.6
703.76	9460.42
704.105	9481.21
704.45	9460.87
704.795	9389
705.14	9308.1
705.485	9280.53
705.83	9248.44
706.175	9297.71
706.52	9241.66
706.865	9194.66
707.209	9232.62
707.554	9150.14
707.899	9188.33
708.243	9163.93
708.588	9071.95
708.932	9075.34
709.277	9045.06
709.621	9060.43
709.966	8959.86
710.31	9029.92
710.654	8918.96
710.998	8916.7
711.342	8921.67
711.687	8924.38
712.031	8890.03
712.375	8818.17
712.719	8849.81
713.063	8832.63
713.407	8866.08
713.75	8796.48
714.094	8719.64
714.438	8735.91
714.782	8700.21
715.125	8676.48
715.469	8724.62
715.812	8694.79
716.156	8570.04
716.499	8667.67
716.843	8639.65
717.186	8601
717.53	8645.75
717.873	8587.44
718.216	8585.41
718.559	8485.75
718.902	8478.97
719.246	8529.82
719.589	8471.06
719.932	8504.96
720.275	8472.42
720.617	8426.77
720.96	8447.11
721.303	8486.88
721.646	8443.94
721.989	8419.09
722.331	8428.58
722.674	8395.36
723.016	8445.75
723.359	8363.04
723.701	8444.17
724.044	8332.76
724.386	8285.76
724.729	8344.29
725.071	8342.48
725.413	8331.63
725.755	8372.76
726.097	8341.35
726.439	8260.9
726.782	8259.54
727.124	8258.41
727.465	8271.07
727.807	8264.51
728.149	8282.14
728.491	8229.26
728.833	8299.77
729.175	8314.68
729.516	8221.58
729.858	8218.41
730.199	8199.66
730.541	8199.88
730.882	8236.49
731.224	8295.7
731.565	8192.65
731.906	8229.71
732.248	8138.87
732.589	8242.59
732.93	8224.97
733.271	8173.22
733.612	8249.37
733.953	8213.67
734.294	8171.64
734.635	8187
734.976	8244.4
735.317	8140.22
735.658	8234.46
735.999	8208.24
736.339	8171.86
736.68	8217.51
737.021	8212.09
737.361	8189.94
737.702	8219.54
738.042	8229.71
738.383	8204.85
738.723	8291.86
739.063	8224.29
739.404	8262.71
739.744	8226.55
740.084	8224.06
740.424	8342.03
740.764	8251.41
741.104	8326.43
741.444	8285.76
741.784	8323.04
742.124	8347.22
742.464	8362.59
742.804	8322.59
743.143	8352.2
743.483	8374.79
743.823	8419.99
744.162	8394.45
744.502	8492.98
744.841	8531.17
745.181	8516.94
745.52	8563.72
745.86	8613.43
746.199	8615.69
746.538	8602.58
746.877	8676.71
747.216	8669.25
747.556	8752.41
747.895	8807.1
748.234	8774.78
748.573	8879.41
748.911	8959.86
749.25	9005.96
749.589	9075.79
749.928	9147.2
750.267	9230.36
750.605	9264.26
750.944	9255.67
751.283	9331.38
751.621	9427.2
751.96	9499.06
752.298	9657.02
752.636	9735.66
752.975	9760.29
753.313	9788.99
753.651	10005.26
753.989	10028.08
754.327	10141.53
754.666	10228.98
755.004	10417
755.342	10457.68
755.679	10599.59
756.017	10668.97
756.355	10872.36
756.693	10974.73
757.031	11095.4
757.368	11252.23
757.706	11345.79
758.044	11486.12
758.381	11682.28
758.719	11805.89
759.056	11974.93
759.394	12084.75
