Data from hue_310_FLMS001491_99.txt Node
Date: Mon Feb 06 15:50:29 GMT 2017
User: dcchb
Spectrometer: FLMS00149
Trigger mode: 0
Integration Time (sec): 2.000000E-2
Scans to average: 10
Electric dark correction enabled: true
Nonlinearity correction enabled: false
Boxcar width: 0
XAxis mode: Wavelengths
Number of Pixels in Spectrum: 2048
>>>>>Begin Spectral Data<<<<<
341.393	15.14
341.776	15.14
342.16	15.14
342.543	-62.82
342.927	-53.33
343.31	-56.95
343.693	-71.86
344.077	-77.06
344.46	-52.88
344.843	-64.86
345.226	-31.19
345.61	-32.32
345.993	-30.51
346.376	-25.99
346.759	20.79
347.142	47
347.525	49.94
347.908	63.05
348.291	66.89
348.674	88.36
349.057	107.57
349.44	145.08
349.823	145.53
350.206	169.94
350.588	178.3
350.971	216.49
351.354	227.34
351.737	227.34
352.119	268.69
352.502	267.11
352.884	292.65
353.267	285.19
353.65	285.64
354.032	309.14
354.414	316.15
354.797	328.13
355.179	347.56
355.562	319.99
355.944	301.24
356.326	334.91
356.709	355.47
357.091	317.96
357.473	347.56
357.855	344.17
358.238	352.99
358.62	336.94
359.002	346.21
359.384	341.01
359.766	341.01
360.148	357.5
360.53	337.62
360.912	324.29
361.294	342.14
361.676	346.21
362.057	345.53
362.439	331.29
362.821	320.9
363.203	333.32
363.584	351.4
363.966	345.75
364.348	332.19
364.729	317.51
365.111	329.48
365.493	318.41
365.874	314.79
366.256	329.71
366.637	326.32
367.019	324.06
367.4	331.74
367.781	329.03
368.163	306.66
368.544	328.8
368.925	302.36
369.306	348.24
369.688	322.93
370.069	316.15
370.45	322.93
370.831	337.39
371.212	319.31
371.593	315.25
371.974	312.31
372.355	312.99
372.736	321.35
373.117	335.58
373.498	304.4
373.879	310.5
374.26	326.09
374.641	328.58
375.021	324.96
375.402	340.78
375.783	312.76
376.163	325.19
376.544	325.42
376.925	322.7
377.305	316.15
377.686	327
378.066	336.04
378.447	338.52
378.827	330.16
379.208	326.55
379.588	331.52
379.968	353.66
380.349	323.16
380.729	327
381.109	328.13
381.489	342.14
381.87	347.34
382.25	332.42
382.63	345.53
383.01	329.93
383.39	349.6
383.77	362.48
384.15	366.77
384.53	326.77
384.91	349.6
385.29	364.06
385.67	350.95
386.049	339.88
386.429	357.05
386.809	345.3
387.189	364.96
387.568	364.51
387.948	350.73
388.328	373.1
388.707	350.73
389.087	371.29
389.466	359.31
389.846	371.74
390.225	368.13
390.605	373.78
390.984	371.06
391.363	371.97
391.743	362.25
392.122	383.27
392.501	374.23
392.881	394.57
393.26	384.17
393.639	356.83
394.018	375.58
394.397	365.64
394.776	390.05
395.155	401.8
395.534	379.2
395.913	390.05
396.292	394.34
396.671	388.46
397.05	400.44
397.429	400.89
397.808	398.18
398.186	400.89
398.565	396.15
398.944	397.5
399.323	424.4
399.701	400.89
400.08	391.85
400.458	424.62
400.837	439.08
401.215	427.56
401.594	418.75
401.972	418.52
402.351	394.79
402.729	420.1
403.107	444.73
403.486	433.66
403.864	435.02
404.242	449.03
404.62	426.2
404.999	454.68
405.377	456.26
405.755	461
406.133	458.29
406.511	447.67
406.889	473.21
407.267	475.92
407.645	476.15
408.023	452.87
408.401	465.98
408.779	500.78
409.156	492.64
409.534	490.16
409.912	496.48
410.29	494.45
410.667	501.23
411.045	518.63
411.422	525.86
411.8	526.77
412.178	548.46
412.555	552.75
412.933	531.06
413.31	550.49
413.687	589.59
414.065	569.25
414.442	576.48
414.819	579.19
415.197	612.19
415.574	590.49
415.951	607.67
416.328	614.45
416.705	631.17
417.082	633.66
417.46	637.95
417.837	658.06
418.214	642.69
418.591	670.94
418.967	656.25
419.344	664.16
419.721	678.4
420.098	682.02
420.475	680.89
420.852	708.23
421.228	723.6
421.605	737.61
421.982	728.57
422.358	734.44
422.735	729.02
423.111	765.4
423.488	774.89
423.864	749.58
424.241	775.8
424.617	791.17
424.994	803.37
425.37	788.23
425.746	786.65
426.123	813.99
426.499	838.17
426.875	823.26
427.251	835.46
427.627	862.35
428.003	857.83
428.379	865.74
428.756	848.11
429.132	891.05
429.507	891.95
429.883	912.07
430.259	946.19
430.635	936.7
431.011	933.08
431.387	970.37
431.763	973.53
432.138	977.6
432.514	956.59
432.89	978.28
433.265	996.81
433.641	1039.97
434.016	1024.38
434.392	1035.9
434.767	1066.19
435.143	1082.68
435.518	1052.63
435.894	1073.87
436.269	1091.04
436.644	1122
437.02	1094.21
437.395	1136.24
437.77	1144.6
438.145	1120.87
438.52	1168.56
438.895	1164.94
439.271	1156.13
439.646	1171.04
440.021	1203.58
440.395	1200.42
440.77	1145.73
441.145	1204.49
441.52	1200.42
441.895	1215.34
442.27	1227.31
442.645	1247.42
443.019	1252.17
443.394	1226.41
443.769	1240.42
444.143	1271.15
444.518	1274.09
444.892	1243.81
445.267	1288.78
445.641	1276.58
446.016	1280.19
446.39	1302.34
446.764	1334.65
447.139	1305.95
447.513	1329
447.887	1314.77
448.262	1304.37
448.636	1335.33
449.01	1296.01
449.384	1348.89
449.758	1317.25
450.132	1359.29
450.506	1334.2
450.88	1379.17
451.254	1345.5
451.628	1349.34
452.002	1380.3
452.376	1393.18
452.75	1404.71
453.123	1410.13
453.497	1382.79
453.871	1408.32
454.244	1473.86
454.618	1442.9
454.992	1460.75
455.365	1424.82
455.739	1472.73
456.112	1486.74
456.486	1471.6
456.859	1517.02
457.232	1550.69
457.606	1491.49
457.979	1521.99
458.352	1555.89
458.725	1570.13
459.099	1567.19
459.472	1560.18
459.845	1614.87
460.218	1581.88
460.591	1596.34
460.964	1585.95
461.337	1614.19
461.71	1649
462.083	1645.38
462.456	1653.52
462.829	1660.3
463.201	1677.02
463.574	1690.8
463.947	1708.2
464.32	1753.63
464.692	1721.54
465.065	1746.17
465.438	1742.33
465.81	1785.04
466.183	1764.7
466.555	1844.02
466.928	1833.85
467.3	1827.97
467.672	1798.37
468.045	1857.8
468.417	1865.71
468.789	1882.21
469.161	1906.16
469.534	1914.53
469.906	1952.94
470.278	1959.27
470.65	1941.42
471.022	1992.04
471.394	2044.92
471.766	2051.02
472.138	2039.04
472.51	2080.85
472.882	2093.73
473.253	2124.01
473.625	2110
473.997	2180.73
474.369	2176.44
474.74	2196.78
475.112	2214.41
475.484	2252.37
475.855	2264.12
476.227	2251.92
476.598	2322.2
476.97	2356.55
477.341	2364.01
477.713	2398.81
478.084	2401.29
478.455	2418.92
478.827	2458.69
479.198	2493.49
479.569	2516.09
479.94	2508.41
480.311	2561.51
480.682	2619.14
481.053	2642.19
481.424	2648.74
481.795	2687.84
482.166	2699.59
482.537	2694.84
482.908	2764
483.279	2789.08
483.65	2806.93
484.021	2863.88
484.391	2868.4
484.762	2914.27
485.133	2880.83
485.503	2939.36
485.874	3010.99
486.244	2969.64
486.615	3057.55
486.985	3067.49
487.356	3077.21
487.726	3135.96
488.097	3191.1
488.467	3209.41
488.837	3220.48
489.207	3266.58
489.578	3304.09
489.948	3313.13
490.318	3292.79
490.688	3386.8
491.058	3318.33
491.428	3433.36
491.798	3452.79
492.168	3476.29
492.538	3481.49
492.908	3546.12
493.278	3577.31
493.648	3551.77
494.017	3578.44
494.387	3568.72
494.757	3599
495.126	3671.99
495.496	3634.93
495.866	3693.01
496.235	3697.53
496.605	3740.92
496.974	3747.92
497.344	3797.64
497.713	3769.84
498.082	3809.39
498.452	3817.07
498.821	3846
499.19	3848.49
499.559	3885.32
499.928	3922.83
500.298	3859.79
500.667	3904.53
501.036	3920.35
501.405	3918.54
501.774	3919.9
502.143	3985.43
502.512	4009.61
502.88	4033.79
503.249	4054.36
503.618	4044.19
503.987	4022.27
504.356	4045.09
504.724	4081.7
505.093	4081.7
505.462	4102.94
505.83	4096.84
506.199	4111.3
506.567	4179.1
506.936	4170.29
507.304	4171.19
507.672	4257.74
508.041	4250.06
508.409	4253.67
508.777	4241.7
509.145	4300.45
509.514	4258.19
509.882	4325.08
510.25	4306.55
510.618	4318.08
510.986	4352.65
511.354	4335.71
511.722	4420.22
512.09	4411.18
512.458	4357.4
512.826	4410.51
513.193	4400.34
513.561	4440.34
513.929	4454.57
514.297	4482.14
514.664	4493.44
515.032	4489.83
515.4	4506.55
515.767	4479.2
516.135	4487.57
516.502	4479.88
516.869	4531.41
517.237	4589.26
517.604	4527.11
517.972	4589.71
518.339	4601.91
518.706	4610.05
519.073	4638.75
519.44	4674.23
519.808	4652.31
520.175	4665.64
520.542	4688.92
520.909	4702.25
521.276	4694.34
521.643	4698.18
522.009	4759.65
522.376	4782.93
522.743	4759.2
523.11	4800.1
523.477	4840.78
523.843	4836.48
524.21	4899.53
524.577	4879.65
524.943	4896.14
525.31	4933.88
525.676	4953.99
526.043	4970.04
526.409	5050.94
526.776	5009.59
527.142	5047.1
527.508	5069.02
527.874	5079.64
528.241	5084.61
528.607	5139.3
528.973	5201.22
529.339	5154.67
529.705	5242.8
530.071	5223.14
530.437	5259.3
530.803	5320.31
531.169	5335
531.535	5318.96
531.901	5322.12
532.267	5355.11
532.632	5386.3
532.998	5364.15
533.364	5434.21
533.73	5457.94
534.095	5462.46
534.461	5519.63
534.826	5556.24
535.192	5588.55
535.557	5530.02
535.923	5585.16
536.288	5596.46
536.653	5645.95
537.019	5697.7
537.384	5600.98
537.749	5642.56
538.114	5692.05
538.479	5721.88
538.845	5751.71
539.21	5756.23
539.575	5784.93
539.94	5859.51
540.305	5825.38
540.67	5855.89
541.034	5909.68
541.399	5924.14
541.764	5931.14
542.129	6003.91
542.494	5997.81
542.858	6028.77
543.223	6011.37
543.587	6076
543.952	6063.34
544.316	6062.21
544.681	6102.89
545.045	6156
545.41	6188.54
545.774	6235.77
546.138	6180.18
546.503	6192.83
546.867	6220.85
547.231	6292.49
547.595	6306.73
547.959	6360.06
548.324	6404.58
548.688	6429.89
549.052	6388.76
549.416	6425.14
549.779	6425.14
550.143	6463.56
550.507	6525.7
550.871	6512.15
551.235	6497
551.599	6578.13
551.962	6581.07
552.326	6562.99
552.689	6654.74
553.053	6600.28
553.417	6618.58
553.78	6763.89
554.143	6672.37
554.507	6672.37
554.87	6692.03
555.234	6802.53
555.597	6735.87
555.96	6760.27
556.323	6842.08
556.686	6776.32
557.05	6835.07
557.413	6862.64
557.776	6875.75
558.139	6910.1
558.502	6914.62
558.865	6969.76
559.228	6958.24
559.59	6985.35
559.953	6966.14
560.316	7066.71
560.679	7041.17
561.041	7104.45
561.404	7090.21
561.767	7181.73
562.129	7109.42
562.492	7223.99
562.854	7197.78
563.217	7157.55
563.579	7207.04
563.941	7227.15
564.304	7267.61
564.666	7307.38
565.028	7362.07
565.39	7372.46
565.753	7416.53
566.115	7436.41
566.477	7428.28
566.839	7415.17
567.201	7496.3
567.563	7530.2
567.925	7498.79
568.287	7519.12
568.648	7572.23
569.01	7592.79
569.372	7698.1
569.734	7636.18
570.095	7695.84
570.457	7781.26
570.819	7817.65
571.18	7818.1
571.542	7854.26
571.903	7886.57
572.265	7889.06
572.626	7969.28
572.987	8016.96
573.349	8053.8
573.71	8048.6
574.071	8105.55
574.432	8157.53
574.794	8296.51
575.155	8250.63
575.516	8308.03
575.877	8409.5
576.238	8529.04
576.599	8576.27
576.96	8621.92
577.32	8614.69
577.681	8761.35
578.042	8861.01
578.403	8937.84
578.763	8968.8
579.124	9110.72
579.485	9188.91
579.845	9347.1
580.206	9424.16
580.566	9534.21
580.927	9607.88
581.287	9837.48
581.648	9876.35
582.008	10081.77
582.368	10152.95
582.728	10336
583.089	10503.9
583.449	10637.23
583.809	10837.91
584.169	11019.6
584.529	11205.13
584.889	11438.57
585.249	11672.91
585.609	11732.12
585.969	12082.17
586.329	12143.64
586.688	12444.19
587.048	12626.56
587.408	12812.77
587.768	13191.74
588.127	13418.4
588.487	13603.03
588.846	13900.88
589.206	14003.7
589.565	14325.27
589.925	14655.43
590.284	14888.87
590.643	15272.59
591.003	15567.27
591.362	15806.14
591.721	16134.72
592.08	16371.77
592.44	16741.71
592.799	17049.27
593.158	17147.12
593.517	17495.81
593.876	17933.77
594.235	18110.71
594.593	18443.36
594.952	18869.11
595.311	18966.28
595.67	19346.16
596.029	19828.86
596.387	20130.09
596.746	20445.79
597.104	20645.11
597.463	20962.39
597.822	21269.05
598.18	21481.02
598.538	21811.18
598.897	22181.56
599.255	22394.89
599.613	22947.65
599.972	23142.67
600.33	23389.44
600.688	23734.52
601.046	23912.59
601.404	24369.53
601.762	24583.08
602.12	25054.48
602.478	25241.37
602.836	25633.68
603.194	25727.91
603.552	25993.44
603.91	26300.78
604.268	26581.67
604.625	26800.88
604.983	27230.7
605.341	27255.78
605.698	27728.99
606.056	27894.86
606.413	28213.72
606.771	28595.63
607.128	28805.34
607.485	28951.1
607.843	29091.21
608.2	29457.3
608.557	29812.78
608.914	29986.1
609.272	30277.62
609.629	30548.8
609.986	30823.6
610.343	30825.63
610.7	31243.02
611.057	31348.55
611.414	31562.33
611.771	31798.26
612.127	32073.96
612.484	32309.21
612.841	32533.83
613.198	32610.22
613.554	32696.99
613.911	33040.04
614.267	33163.42
614.624	33299.46
614.98	33553.02
615.337	33776.29
615.693	33901.93
616.05	33958.43
616.406	34353.9
616.762	34323.84
617.118	34568.36
617.475	34662.59
617.831	34927.67
618.187	35049.93
618.543	35191.17
618.899	35379.86
619.255	35391.84
619.611	35509.12
619.967	35785.5
620.323	35986.4
620.678	36071.37
621.034	36046.51
621.39	36180.07
621.746	36068.88
622.101	36596.78
622.457	36554.75
622.812	36665.93
623.168	36960.16
623.523	36954.28
623.879	37187.04
624.234	36864.34
624.589	37279.92
624.945	37212.58
625.3	37456.87
625.655	37535.51
626.01	37514.49
626.365	37726.92
626.72	37642.4
627.075	37840.36
627.43	37663.64
627.785	37744.54
628.14	37919.45
628.495	38015.05
628.85	38027.93
629.205	38052.78
629.559	38246.68
629.914	38019.34
630.269	38173.69
630.623	38257.75
630.978	38033.58
631.332	38289.39
631.687	38397.41
632.041	38284.87
632.396	38517.41
632.75	38169.39
633.104	38554.69
633.459	38243.97
633.813	38395.15
634.167	38446.45
634.521	38443.28
634.875	38534.81
635.229	38516.73
635.583	38298.88
635.937	38387.92
636.291	38394.02
636.645	38330.07
636.999	38372.1
637.352	38442.83
637.706	38282.16
638.06	38533.22
638.413	38384.98
638.767	38402.15
639.121	38388.37
639.474	38333.23
639.828	38416.84
640.181	38393.57
640.534	38444.19
640.888	38222.95
641.241	38310.63
641.594	38375.94
641.947	38627.68
642.301	38389.73
642.654	38354.92
643.007	38355.6
643.36	38288.71
643.713	38233.8
644.066	38374.13
644.419	38194.02
644.771	37970.75
645.124	37625
645.477	37496.64
645.83	37391.11
646.182	37140.49
646.535	37086.93
646.888	37081.06
647.24	36951.34
647.593	37317.89
647.945	37092.81
648.298	37025.02
648.65	36992.7
649.002	36871.35
649.355	37050.55
649.707	37064.79
650.059	37277.44
650.411	37642.4
650.763	37651.67
651.115	37980.92
651.467	37909.74
651.819	37999.23
652.171	37846.24
652.523	37669.29
652.875	37704.32
653.227	37658.9
653.578	37957.42
653.93	37765.56
654.282	37665.45
654.633	37679.24
654.985	37755.39
655.337	37719.46
655.688	37789.06
656.039	37792.68
656.391	37519.47
656.742	37535.06
657.094	37556.98
657.445	37771.66
657.796	37672.23
658.147	37665.45
658.498	37467.04
658.849	37468.39
659.2	37697.09
659.551	37455.06
659.902	37574.38
660.253	37603.31
660.604	37504.1
660.955	37443.08
661.306	37619.8
661.656	37599.92
662.007	37603.08
662.358	37548.84
662.708	37553.81
663.059	37513.59
663.409	37249.87
663.76	37612.12
664.11	37565.57
664.461	37498
664.811	37663.64
665.161	37445.57
665.511	37415.06
665.862	37479.92
666.212	37580.25
666.562	37452.8
666.912	37478.11
667.262	37463.42
667.612	37547.04
667.962	37367.61
668.312	37429.98
668.662	37611.67
669.011	37431.33
669.361	37428.85
669.711	37353.82
670.06	37360.15
670.41	37263.88
670.76	37182.53
671.109	37402.41
671.459	37294.16
671.808	37216.87
672.157	37198.34
672.507	37061.4
672.856	37049.87
673.205	37209.87
673.554	37303.88
673.904	37060.04
674.253	37373.03
674.602	37218.23
674.951	36682.43
675.3	36536.44
675.649	37166.03
675.998	37045.13
676.346	36952.47
676.695	37177.1
677.044	36864.12
677.393	36999.25
677.741	37052.13
678.09	36806.04
678.438	36852.14
678.787	36973.04
679.135	37007.16
679.484	36664.57
679.832	36831.57
680.181	36666.83
680.529	36741.63
680.877	36554.07
681.225	36550
681.573	36855.08
681.922	36474.3
682.27	36469.1
682.618	36435.65
682.966	36396.11
683.314	36462.77
683.661	36385.94
684.009	36187.52
684.357	36095.32
684.705	36065.49
685.053	36022.1
685.4	36086.28
685.748	35963.35
686.095	35840.41
686.443	35681.1
686.79	35828.44
687.138	35761.09
687.485	35742.56
687.832	35668.44
688.18	35631.15
688.527	35494.43
688.874	35506.41
689.221	35355.23
689.568	35255.57
689.915	35278.39
690.262	35164.95
690.609	35182.13
690.956	35056.48
691.303	35004.96
691.65	34873.21
691.997	34901
692.344	34693.1
692.69	34634.8
693.037	34633.44
693.383	34397.51
693.73	34532.2
694.077	34214.69
694.423	34279.32
694.769	34249.04
695.116	34141.7
695.462	33979.9
695.808	33898.32
696.155	34015.6
696.501	33754.14
696.847	33732.45
697.193	33706.68
697.539	33695.39
697.885	33447.48
698.231	33346.02
698.577	33348.05
698.923	33326.36
699.269	33157.09
699.614	32900.6
699.96	32981.51
700.306	32877.78
700.651	32816.09
700.997	32633.49
701.342	32590.1
701.688	32603.89
702.033	32546.94
702.379	32461.07
702.724	32288.87
703.069	32473.27
703.415	32031.47
703.76	32155.76
704.105	32240.96
704.45	31944.7
704.795	31858.15
705.14	31690.69
705.485	31764.59
705.83	31716
706.175	31672.39
706.52	31519.4
706.865	31363.47
707.209	31385.16
707.554	31240.53
707.899	31410.02
708.243	31063.82
708.588	31086.41
708.932	31027.88
709.277	30897.27
709.621	30984.95
709.966	30902.69
710.31	30890.26
710.654	30684.62
710.998	30645.07
711.342	30593.09
711.687	30500.67
712.031	30392.65
712.375	30405.98
712.719	30362.14
713.063	30306.55
713.407	30525.75
713.75	30202.6
714.094	30146.55
714.438	30091.19
714.782	30112.2
715.125	29861.14
715.469	29958.76
715.812	29759.9
716.156	29686.68
716.499	29629.96
716.843	29769.16
717.186	29472.67
717.53	29672.67
717.873	29604.19
718.216	29442.84
718.559	29496.85
718.902	29268.83
719.246	29225.67
719.589	29207.82
719.932	29142.51
720.275	28994.49
720.617	28996.3
720.96	29015.96
721.303	28923.31
721.646	29031.78
721.989	28874.72
722.331	28868.62
722.674	28729.19
723.016	28808.96
723.359	28736.42
723.701	28775.06
724.044	28651
724.386	28495.52
724.729	28613.03
725.071	28480.61
725.413	28489.42
725.755	28427.95
726.097	28272.48
726.439	28197.45
726.782	28192.71
727.124	28353.6
727.465	28130.79
727.807	28178.69
728.149	28056.89
728.491	27972.82
728.833	28098.24
729.175	27942.32
729.516	27922.43
729.858	27853.5
730.199	27762.89
730.541	27705.03
730.882	27722.66
731.224	27795.88
731.565	27622.78
731.906	27562.44
732.248	27650.35
732.589	27576.45
732.93	27569.9
733.271	27420.3
733.612	27427.08
733.953	27439.96
734.294	27405.83
734.635	27300.98
734.976	27381.88
735.317	27186.86
735.658	27197.48
735.999	27127.87
736.339	27037.26
736.68	27172.17
737.021	27081.77
737.361	26900.54
737.702	27149.34
738.042	26988.44
738.383	26834.55
738.723	26942.34
739.063	26767.88
739.404	26782.12
739.744	26859.18
740.084	26673.2
740.424	26674.1
740.764	26558.62
741.104	26697.6
741.444	26429.59
741.784	26399.08
742.124	26495.8
742.464	26486.08
742.804	26343.71
743.143	26266.2
743.483	26285.18
743.823	26204.28
744.162	26213.77
744.502	26202.02
744.841	26030.05
745.181	26159.76
745.52	26047.68
745.86	26089.03
746.199	26043.83
746.538	26061.01
746.877	26073.21
747.216	26020.33
747.556	25966.77
747.895	25908.25
748.234	25721.58
748.573	25699.44
748.911	25749.15
749.25	25720.68
749.589	25558.65
749.928	25524.98
750.267	25558.2
750.605	25485.21
750.944	25428.03
751.283	25275.27
751.621	25327.02
751.96	25180.13
752.298	25195.27
752.636	25187.13
752.975	25139.68
753.313	25079.57
753.651	25158.21
753.989	24966.58
754.327	24977.2
754.666	24728.62
755.004	24771.78
755.342	24938.78
755.679	24804.55
756.017	24689.52
756.355	24579.47
756.693	24595.29
757.031	24562.07
757.368	24451.56
757.706	24426.02
758.044	24356.42
758.381	24294.05
758.719	24275.29
759.056	24315.07
759.394	24162.53
759.731	23938.13
760.068	24048.63
760.405	23928.86
