Data from hue_00_FLMS001491_58.txt Node
Date: Mon Feb 06 15:29:55 GMT 2017
User: dcchb
Spectrometer: FLMS00149
Trigger mode: 0
Integration Time (sec): 2.000000E-2
Scans to average: 10
Electric dark correction enabled: true
Nonlinearity correction enabled: false
Boxcar width: 0
XAxis mode: Wavelengths
Number of Pixels in Spectrum: 2048
>>>>>Begin Spectral Data<<<<<
341.393	1.85
341.776	1.85
342.16	1.85
342.543	-49.22
342.927	-70.69
343.31	-63.46
343.693	-54.19
344.077	-53.06
344.46	-53.06
344.843	-46.51
345.226	-55.1
345.61	-15.55
345.993	-27.53
346.376	-16.23
346.759	-10.35
347.142	33.04
347.525	35.97
347.908	35.97
348.291	74.39
348.674	90.66
349.057	125.01
349.44	122.3
349.823	125.01
350.206	175.18
350.588	220.6
350.971	205.91
351.354	208.17
351.737	222.41
352.119	242.52
352.502	278.23
352.884	280.04
353.267	297.21
353.65	285.23
354.032	288.62
354.414	306.7
354.797	317.55
355.179	318.68
355.562	317.1
355.944	321.84
356.326	334.5
356.709	318.68
357.091	319.36
357.473	352.35
357.855	350.99
358.238	327.04
358.62	346.02
359.002	344.44
359.384	346.93
359.766	330.66
360.148	331.11
360.53	335.63
360.912	332.01
361.294	339.92
361.676	326.59
362.057	319.13
362.439	337.43
362.821	320.26
363.203	314.61
363.584	300.15
363.966	332.91
364.348	293.37
364.729	326.59
365.111	313.71
365.493	308.28
365.874	302.86
366.256	319.58
366.637	298.11
367.019	315.74
367.4	301.5
367.781	306.25
368.163	330.2
368.544	306.93
368.925	294.5
369.306	336.08
369.688	309.19
370.069	316.19
370.45	292.01
370.831	310.54
371.212	320.71
371.593	313.93
371.974	327.27
372.355	309.86
372.736	299.92
373.117	288.4
373.498	308.28
373.879	316.19
374.26	307.38
374.641	316.64
375.021	313.25
375.402	290.66
375.783	308.51
376.163	316.19
376.544	331.56
376.925	327.94
377.305	319.81
377.686	310.32
378.066	326.59
378.447	329.75
378.827	332.24
379.208	312.58
379.588	337.43
379.968	329.98
380.349	344.67
380.729	330.2
381.109	329.3
381.489	330.2
381.87	330.88
382.25	312.58
382.63	341.5
383.01	338.11
383.39	355.74
383.77	316.19
384.15	351.9
384.53	355.74
384.91	357.55
385.29	331.11
385.67	329.75
386.049	350.09
386.429	331.11
386.809	355.06
387.189	342.18
387.568	346.02
387.948	343.76
388.328	352.35
388.707	348.28
389.087	361.84
389.466	349.86
389.846	342.86
390.225	350.77
390.605	357.32
390.984	368.62
391.363	341.05
391.743	353.03
392.122	346.93
392.501	358.9
392.881	372.24
393.26	346.7
393.639	358.68
394.018	381.05
394.397	352.12
394.776	370.43
395.155	373.59
395.534	373.82
395.913	361.39
396.292	391.22
396.671	371.11
397.05	354.61
397.429	383.54
397.808	376.08
398.186	348.28
398.565	372.01
398.944	374.72
399.323	360.48
399.701	365.68
400.08	368.39
400.458	388.51
400.837	398.22
401.215	377.43
401.594	381.5
401.972	366.59
402.351	400.48
402.729	378.11
403.107	386.25
403.486	403.65
403.864	402.52
404.242	391.22
404.62	388.96
404.999	389.86
405.377	415.17
405.755	403.87
406.133	421.95
406.511	395.74
406.889	412.69
407.267	417.43
407.645	412.46
408.023	409.3
408.401	405.68
408.779	392.12
409.156	425.12
409.534	428.28
409.912	417.21
410.29	433.7
410.667	424.66
411.045	431.67
411.422	432.12
411.8	430.99
412.178	438.67
412.555	471.22
412.933	448.84
413.31	453.14
413.687	431.9
414.065	440.93
414.442	472.57
414.819	469.41
415.197	456.08
415.574	461.27
415.951	455.85
416.328	469.18
416.705	494.72
417.082	492.01
417.46	479.35
417.837	455.4
418.214	458.34
418.591	486.13
418.967	496.53
419.344	489.75
419.721	489.97
420.098	485.68
420.475	495.4
420.852	478.67
421.228	516.19
421.605	492.91
421.982	514.15
422.358	491.33
422.735	515.06
423.111	520.48
423.488	514.38
423.864	511.89
424.241	512.8
424.617	523.64
424.994	517.32
425.37	509.63
425.746	542.85
426.123	530.88
426.499	530.2
426.875	561.16
427.251	560.25
427.627	550.99
428.003	546.92
428.379	580.14
428.756	560.93
429.132	540.82
429.507	536.07
429.883	573.59
430.259	583.08
430.635	581.5
431.011	598.67
431.387	579.24
431.763	604.55
432.138	596.86
432.514	598.22
432.89	601.16
433.265	638.9
433.641	640.25
434.016	624.66
434.392	626.69
434.767	637.31
435.143	638.22
435.518	623.98
435.894	631.21
436.269	646.35
436.644	645.22
437.02	635.73
437.395	649.52
437.77	671.66
438.145	652.91
438.52	661.27
438.895	671.66
439.271	695.62
439.646	708.72
440.021	703.53
440.395	703.98
440.77	680.02
441.145	698.33
441.52	708.95
441.895	703.07
442.27	695.84
442.645	704.88
443.019	734.03
443.394	729.29
443.769	735.62
444.143	735.84
444.518	736.52
444.892	751.89
445.267	730.64
445.641	742.85
446.016	753.47
446.39	748.72
446.764	747.82
447.139	748.27
447.513	771.55
447.887	750.53
448.262	765.67
448.636	765.22
449.01	786.46
449.384	768.38
449.758	801.15
450.132	780.81
450.506	772.45
450.88	798.89
451.254	809.51
451.628	808.83
452.002	804.32
452.376	825.11
452.75	807.03
453.123	806.57
453.497	825.78
453.871	848.61
454.244	823.52
454.618	851.77
454.992	842.73
455.365	849.29
455.739	833.47
456.112	862.62
456.486	873.69
456.859	860.36
457.232	874.6
457.606	902.39
457.979	896.29
458.352	892.22
458.725	928.61
459.099	945.33
459.472	939.23
459.845	978.1
460.218	944.42
460.591	942.84
460.964	947.59
461.337	976.06
461.71	969.96
462.083	1019.45
462.456	1003.86
462.829	984.42
463.201	998.21
463.574	1024.42
463.947	1035.5
464.32	1057.42
464.692	1064.65
465.065	1052.67
465.438	1084.76
465.81	1085.21
466.183	1104.19
466.555	1144.19
466.928	1135.15
467.3	1134.48
467.672	1158.66
468.045	1156.17
468.417	1161.82
468.789	1182.16
469.161	1202.72
469.534	1186.68
469.906	1220.12
470.278	1218.32
470.65	1271.42
471.022	1256.28
471.394	1287.92
471.766	1317.97
472.138	1306.45
472.51	1328.14
472.882	1390.51
473.253	1357.97
473.625	1398.88
473.997	1442.26
474.369	1425.77
474.74	1435.48
475.112	1453.56
475.484	1471.42
475.855	1519.32
476.227	1519.55
476.598	1571.53
476.97	1558.19
477.341	1604.75
477.713	1630.96
478.084	1639.55
478.455	1694.91
478.827	1690.85
479.198	1766.1
479.569	1760.67
479.94	1772.88
480.311	1800.45
480.682	1850.16
481.053	1889.26
481.424	1953.66
481.795	1918.18
482.166	1956.6
482.537	2005.64
482.908	2071.63
483.279	2062.14
483.65	2091.51
484.021	2105.3
484.391	2155.24
484.762	2162.7
485.133	2171.96
485.503	2248.57
485.874	2319.08
486.244	2305.29
486.615	2348.46
486.985	2368.79
487.356	2439.98
487.726	2424.84
488.097	2491.73
488.467	2506.42
488.837	2587.77
489.207	2624.15
489.578	2628
489.948	2697.82
490.318	2750.03
490.688	2752.74
491.058	2797.26
491.428	2846.97
491.798	2841.32
492.168	2903.47
492.538	2930.81
492.908	2924.26
493.278	3016.91
493.648	3036.35
494.017	3017.14
494.387	3087.64
494.757	3121.54
495.126	3120.19
495.496	3140.98
495.866	3141.88
496.235	3196.57
496.605	3231.37
496.974	3227.98
497.344	3307.3
497.713	3281.54
498.082	3310.69
498.452	3352.27
498.821	3410.8
499.19	3401.31
499.559	3414.19
499.928	3434.3
500.298	3487.18
500.667	3519.5
501.036	3499.16
501.405	3557.69
501.774	3563.79
502.143	3574.64
502.512	3558.37
502.88	3628.87
503.249	3618.7
503.618	3645.37
503.987	3693.73
504.356	3719.04
504.724	3725.82
505.093	3715.2
505.462	3740.73
505.83	3778.7
506.199	3790
506.567	3837.23
506.936	3814.41
507.304	3846.72
507.672	3887.62
508.041	3904.35
508.409	3905.7
508.777	3908.87
509.145	3960.16
509.514	3969.43
509.882	3975.76
510.25	3985.7
510.618	4019.82
510.986	4022.31
511.354	4051.91
511.722	4132.36
512.09	4065.92
512.458	4081.07
512.826	4125.81
513.193	4139.14
513.561	4138.01
513.929	4179.14
514.297	4191.12
514.664	4186.15
515.032	4224.34
515.4	4222.3
515.767	4229.54
516.135	4279.48
516.502	4227.28
516.869	4287.16
517.237	4353.83
517.604	4320.61
517.972	4356.76
518.339	4375.97
518.706	4342.53
519.073	4404.67
519.44	4392.24
519.808	4419.59
520.175	4433.37
520.542	4476.31
520.909	4472.69
521.276	4500.94
521.643	4500.49
522.009	4525.35
522.376	4518.12
522.743	4563.99
523.11	4625.68
523.477	4628.85
523.843	4648.28
524.21	4657.32
524.577	4713.82
524.943	4719.01
525.31	4773.7
525.676	4727.6
526.043	4826.36
526.409	4827.26
526.776	4875.39
527.142	4863.42
527.508	4925.34
527.874	4921.49
528.241	4961.72
528.607	5004.43
528.973	4981.61
529.339	5002.4
529.705	5020.02
530.071	5071.1
530.437	5060.93
530.803	5105.44
531.169	5142.28
531.535	5109.29
531.901	5149.74
532.267	5181.6
532.632	5219.57
532.998	5208.04
533.364	5230.64
533.73	5272.67
534.095	5260.02
534.461	5366.23
534.826	5429.73
535.192	5402.61
535.557	5402.16
535.923	5437.87
536.288	5439
536.653	5420.69
537.019	5498.88
537.384	5467.7
537.749	5476.06
538.114	5525.09
538.479	5507.69
538.845	5578.43
539.21	5541.14
539.575	5585.66
539.94	5627.24
540.305	5632.66
540.67	5674.7
541.034	5679.22
541.399	5685.77
541.764	5711.98
542.129	5689.61
542.494	5773.68
542.858	5814.13
543.223	5815.48
543.587	5882.37
543.952	5832.88
544.316	5936.16
544.681	5910.62
545.045	5924.63
545.41	5951.52
545.774	5934.8
546.138	6028.13
546.503	6030.17
546.867	6027.91
547.231	6130.95
547.595	6048.7
547.959	6102.71
548.324	6118.75
548.688	6091.86
549.052	6146.55
549.416	6144.51
549.779	6140.9
550.143	6162.37
550.507	6306.77
550.871	6312.42
551.235	6250.73
551.599	6390.38
551.962	6322.59
552.326	6367.56
552.689	6441.91
553.053	6421.34
553.417	6373.89
553.78	6431.96
554.143	6425.41
554.507	6460.66
554.87	6511.28
555.234	6563.03
555.597	6562.36
555.96	6535.92
556.323	6579.98
556.686	6577.5
557.05	6603.94
557.413	6661.34
557.776	6629.02
558.139	6693.43
558.502	6714.22
558.865	6696.36
559.228	6779.07
559.59	6819.98
559.953	6819.75
560.316	6868.56
560.679	6835.34
561.041	6868.56
561.404	6894.1
561.767	6942.01
562.129	6936.58
562.492	6952.4
562.854	6982.91
563.217	7017.26
563.579	7005.28
563.941	7047.09
564.304	7146.52
564.666	7101.78
565.028	7101.32
565.39	7085.28
565.753	7166.63
566.115	7207.76
566.477	7273.3
566.839	7211.38
567.201	7320.08
567.563	7284.6
567.925	7382.67
568.287	7343.8
568.648	7359.62
569.01	7403.01
569.372	7476
569.734	7501.54
570.095	7501.31
570.457	7506.06
570.819	7578.6
571.18	7547.41
571.542	7576.57
571.903	7658.37
572.265	7638.94
572.626	7755.77
572.987	7724.36
573.349	7824.47
573.71	7857.46
574.071	7907.18
574.432	7980.62
574.794	8044.8
575.155	8031.47
575.516	8094.07
575.877	8165.93
576.238	8218.58
576.599	8288.86
576.96	8325.47
577.32	8357.34
577.681	8447.5
578.042	8539.03
578.403	8574.28
578.763	8670.1
579.124	8775.63
579.485	8835.74
579.845	8945.8
580.206	9041.16
580.566	9143.76
580.927	9183.76
581.287	9349.4
581.648	9460.36
582.008	9572.22
582.368	9716.85
582.728	9800.46
583.089	9927.24
583.449	10018.99
583.809	10228.25
584.169	10281.58
584.529	10451.97
584.889	10686.09
585.249	10837.95
585.609	10954.1
585.969	11191.61
586.329	11371.27
586.688	11505.73
587.048	11745.27
587.408	11921.08
587.768	12096.67
588.127	12324.24
588.487	12543.44
588.846	12814.17
589.206	13015.07
589.565	13146.36
589.925	13389.97
590.284	13598.1
590.643	13859.11
591.003	14089.62
591.362	14434.01
591.721	14618.87
592.08	14818.86
592.44	15149.7
592.799	15417.72
593.158	15666.75
593.517	15945.16
593.876	16163.69
594.235	16394.41
594.593	16774.29
594.952	16946.26
595.311	17225.35
595.67	17525.46
596.029	17988.5
596.387	18256.96
596.746	18454.7
597.104	18753.45
597.463	18990.5
597.822	19266.2
598.18	19623.26
598.538	19731.73
598.897	20108.67
599.255	20200.19
599.613	20751.36
599.972	20916.55
600.33	21150.22
600.688	21411
601.046	21829.75
601.404	22187.26
601.762	22310.42
602.12	22692.55
602.478	22874.92
602.836	23141.58
603.194	23284.85
603.552	23591.96
603.91	23791.28
604.268	24172.51
604.625	24277.6
604.983	24623.12
605.341	24795.1
605.698	25245.03
606.056	25358.02
606.413	25613.61
606.771	25843.2
607.128	26129.98
607.485	26279.35
607.843	26526.8
608.2	26874.14
608.557	27174.02
608.914	27182.15
609.272	27630.05
609.629	27766.77
609.986	28075.91
610.343	28226.64
610.7	28465.06
611.057	28583.25
611.414	28736.91
611.771	28924.93
612.127	29166.51
612.484	29377.12
612.841	29637.23
613.198	29653.95
613.554	29926.04
613.911	30107.5
614.267	30465.91
614.624	30490.99
614.98	30587.49
615.337	30946.35
615.693	31001.71
616.05	30988.61
616.406	31442.38
616.762	31357.64
617.118	31612.32
617.475	31765.08
617.831	31836.95
618.187	31956.94
618.543	32093.44
618.899	32442.13
619.255	32456.82
619.611	32607.55
619.967	32881.44
620.323	32906.75
620.678	32967.09
621.034	32997.59
621.39	33204.59
621.746	33199.17
622.101	33554.41
622.457	33439.84
622.812	33711.47
623.168	33767.52
623.523	33748.53
623.879	33979.71
624.234	33853.16
624.589	34048.41
624.945	34251.57
625.3	34216.32
625.655	34253.15
626.01	34338.57
626.365	34312.81
626.72	34535.86
627.075	34589.64
627.43	34576.31
627.785	34650.2
628.14	34696.08
628.495	34907.15
628.85	34874.83
629.205	34602.3
629.559	35005.22
629.914	34912.8
630.269	34988.5
630.623	35029.18
630.978	34919.8
631.332	35187.59
631.687	35251.54
632.041	35163.86
632.396	35256.97
632.75	35175.16
633.104	35325.67
633.459	35138.78
633.813	35159.34
634.167	35132.68
634.521	35128.61
634.875	35364.54
635.229	35261.71
635.583	35127.03
635.937	35262.84
636.291	35234.14
636.645	35230.53
636.999	35048.61
637.352	35364.31
637.706	35203.86
638.06	35400.24
638.413	35160.93
638.767	35255.16
639.121	35333.8
639.474	34999.57
639.828	35035.28
640.181	35124.54
640.534	35272.11
640.888	35240.92
641.241	34902.18
641.594	35079.12
641.947	35218.78
642.301	35122.73
642.654	35169.06
643.007	35206.8
643.36	35270.53
643.713	35122.51
644.066	35155.05
644.419	35093.13
644.771	34723.88
645.124	34502.41
645.477	34532.69
645.83	34279.14
646.182	34079.37
646.535	34066.04
646.888	34142.2
647.24	33853.39
647.593	34150.56
647.945	34031.01
648.298	33953.73
648.65	33928.87
649.002	33792.37
649.355	34027.4
649.707	33934.74
650.059	34054.97
650.411	34422.41
650.763	34489.08
651.115	34705.34
651.467	34769.07
651.819	34763.42
652.171	34499.47
652.523	34680.94
652.875	34599.58
653.227	34459.02
653.578	34777.21
653.93	34687.27
654.282	34470.1
654.633	34500.6
654.985	34620.38
655.337	34613.6
655.688	34496.08
656.039	34636.19
656.391	34453.37
656.742	34458.57
657.094	34358.24
657.445	34634.39
657.796	34440.94
658.147	34390.78
658.498	34330.89
658.849	34589.64
659.2	34392.13
659.551	34445.92
659.902	34555.97
660.253	34491.56
660.604	34503.09
660.955	34400.49
661.306	34478.91
661.656	34258.35
662.007	34390.55
662.358	34232.59
662.708	34413.37
663.059	34379.7
663.409	34103.78
663.76	34312.13
664.11	34278.46
664.461	34387.61
664.811	34343.32
665.161	34286.15
665.511	34127.28
665.862	34319.37
666.212	34306.03
666.562	34443.2
666.912	34465.8
667.262	34218.35
667.612	34247.73
667.962	34327.95
668.312	34212.02
668.662	34301.29
669.011	34225.81
669.361	34202.08
669.711	34252.48
670.06	34182.42
670.41	34108.75
670.76	34118.24
671.109	34274.17
671.459	33892.26
671.808	34095.19
672.157	34147.62
672.507	33861.98
672.856	33977.68
673.205	34081.18
673.554	34070.33
673.904	33993.05
674.253	34170.22
674.602	34109.65
674.951	33579.95
675.3	33379.05
675.649	33984.01
675.998	33767.06
676.346	33920.51
676.695	34040.96
677.044	33779.27
677.393	33813.16
677.741	33809.1
678.09	33761.87
678.438	33715.99
678.787	33794.18
679.135	33779.27
679.484	33444.81
679.832	33489.56
680.181	33381.99
680.529	33539.27
680.877	33482.33
681.225	33378.83
681.573	33576.79
681.922	33403.68
682.27	33283.91
682.618	33362.55
682.966	33271.03
683.314	33278.94
683.661	33212.95
684.009	32960.31
684.357	33042.11
684.705	32865.84
685.053	32891.38
685.4	32899.74
685.748	32589.47
686.095	32885.73
686.443	32626.3
686.79	32702.46
687.138	32680.99
687.485	32775.9
687.832	32506.08
688.18	32524.16
688.527	32454.56
688.874	32383.15
689.221	32447.78
689.568	32215.01
689.915	32165.75
690.262	32179.76
690.609	32031.29
690.956	31972.76
691.303	31921.24
691.65	31795.36
691.997	31765.76
692.344	31638.31
692.69	31595.14
693.037	31598.99
693.383	31272.44
693.73	31455.94
694.077	31269.95
694.423	31246.45
694.769	31181.37
695.116	31157.42
695.462	30954.26
695.808	30987.02
696.155	31095.04
696.501	30820.25
696.847	30790.42
697.193	30517.88
697.539	30660.71
697.885	30454.61
698.231	30351.33
698.577	30370.09
698.923	30433.37
699.269	30116.99
699.614	30055.07
699.96	29985.47
700.306	30041.51
700.651	29933.94
700.997	29837
701.342	29778.02
701.688	29598.59
702.033	29534.63
702.379	29632.71
702.724	29434.97
703.069	29587.06
703.415	29202.21
703.76	29203.57
704.105	29183
704.45	29075.66
704.795	29058.49
705.14	28919.73
705.485	28856.01
705.83	28866.18
706.175	28891.26
706.52	28615.11
706.865	28671.83
707.209	28573.08
707.554	28498.05
707.899	28535.11
708.243	28410.37
708.588	28388.45
708.932	28222.35
709.277	28261.22
709.621	28169.92
709.966	28025.52
710.31	28095.35
710.654	27839.99
710.998	27893.55
711.342	27990.04
711.687	27793.44
712.031	27758.63
712.375	27604.97
712.719	27653.55
713.063	27626.66
713.407	27658.98
713.75	27519.54
714.094	27581.92
714.438	27383.96
714.782	27297.63
715.125	27251.53
715.469	27218.76
715.812	27124.07
716.156	27022.16
716.499	26912.56
716.843	27015.6
717.186	27002.72
717.53	26946.68
717.873	27007.47
718.216	26835.72
718.559	26729.06
718.902	26592.56
719.246	26640.47
719.589	26587.37
719.932	26462.85
720.275	26473.92
720.617	26493.58
720.96	26362.74
721.303	26392.57
721.646	26264.89
721.989	26095.63
722.331	26334.49
722.674	26220.6
723.016	26232.12
723.359	26079.58
723.701	26101.95
724.044	25917.1
724.386	25888.85
724.729	25966.59
725.071	25839.81
725.413	25821.96
725.755	25816.76
726.097	25742.19
726.439	25608.18
726.782	25614.06
727.124	25762.98
727.465	25540.39
727.807	25519.37
728.149	25536.55
728.491	25366.16
728.833	25560.73
729.175	25332.03
729.516	25332.03
729.858	25321.86
730.199	25444.57
730.541	25295.87
730.882	25169.78
731.224	25362.09
731.565	25153.51
731.906	25144.01
732.248	25084.58
732.589	25021.98
732.93	25024.7
733.271	24932.27
733.612	24861.54
733.953	24976.33
734.294	24811.14
734.635	24757.58
734.976	24800.52
735.317	24733.4
735.658	24659.06
735.999	24640.3
736.339	24630.36
736.68	24722.1
737.021	24459.06
737.361	24443.69
737.702	24635.1
738.042	24501.77
738.383	24473.98
738.723	24516.46
739.063	24376.58
739.404	24310.59
739.744	24287.54
740.084	24233.76
740.424	24215.68
740.764	24240.99
741.104	24309.23
741.444	24208.45
741.784	24041.22
742.124	24093.19
742.464	24075.57
742.804	24054.78
743.143	24015.91
743.483	24021.56
743.823	23838.29
744.162	23884.16
744.502	23840.09
744.841	23778.17
745.181	23944.27
745.52	23721
745.86	23782.24
746.199	23713.32
746.538	23685.07
746.877	23686.65
747.216	23759.42
747.556	23624.96
747.895	23639.42
748.234	23577.95
748.573	23452.76
748.911	23340.22
749.25	23500.67
749.589	23377.73
749.928	23321.24
750.267	23441.91
750.605	23391.74
750.944	23272.65
751.283	23207.34
751.621	23302.03
751.96	23026.33
752.298	23112.43
752.636	23027.46
752.975	22943.62
753.313	22965.09
753.651	22995.37
753.989	22855.94
754.327	22874.92
754.666	22715.6
755.004	22736.85
755.342	22769.16
755.679	22671.54
756.017	22528.49
756.355	22608.94
756.693	22470.64
757.031	22468.83
757.368	22382.96
757.706	22268.61
758.044	22249.63
758.381	22299.12
758.719	22248.27
759.056	22205.11
759.394	22058.9
759.731	21924.21
760.068	22065
760.405	21920.14
760.743	21914.72
761.08	21930.54
