Data from hue_70_FLMS001491_64.txt Node
Date: Mon Feb 06 15:21:16 GMT 2017
User: dcchb
Spectrometer: FLMS00149
Trigger mode: 0
Integration Time (sec): 2.000000E-2
Scans to average: 10
Electric dark correction enabled: true
Nonlinearity correction enabled: false
Boxcar width: 0
XAxis mode: Wavelengths
Number of Pixels in Spectrum: 2048
>>>>>Begin Spectral Data<<<<<
341.393	13.35
341.776	13.35
342.16	13.35
342.543	-55.8
342.927	-58.06
343.31	-65.52
343.693	-81.34
344.077	-46.76
344.46	-74.56
344.843	-41.79
345.226	-34.11
345.61	-33.43
345.993	-23.94
346.376	-10.38
346.759	2.73
347.142	15.15
347.525	66.68
347.908	49.28
348.291	83.85
348.674	91.76
349.057	102.38
349.44	133.8
349.823	144.19
350.206	172.21
350.588	201.82
350.971	225.54
351.354	226.9
351.737	258.76
352.119	233.91
352.502	269.84
352.884	272.1
353.267	279.1
353.65	304.19
354.032	303.28
354.414	323.4
354.797	315.71
355.179	326.79
355.562	309.38
355.944	341.93
356.326	342.6
356.709	333.11
357.091	336.05
357.473	335.15
357.855	351.87
358.238	353.45
358.62	360.91
359.002	346.45
359.384	335.82
359.766	350.29
360.148	340.34
360.53	335.6
360.912	333.56
361.294	352.32
361.676	349.84
362.057	335.82
362.439	341.25
362.821	329.5
363.203	295.37
363.584	328.14
363.966	323.62
364.348	333.11
364.729	314.58
365.111	330.63
365.493	306.45
365.874	310.29
366.256	313.45
366.637	336.05
367.019	327.24
367.4	322.72
367.781	324.98
368.163	325.2
368.544	303.51
368.925	309.38
369.306	324.07
369.688	309.38
370.069	305.77
370.45	315.03
370.831	314.81
371.212	314.13
371.593	313.45
371.974	316.39
372.355	311.87
372.736	326.11
373.117	315.03
373.498	311.19
373.879	342.15
374.26	316.16
374.641	305.54
375.021	313
375.402	309.84
375.783	305.32
376.163	314.36
376.544	317.97
376.925	315.71
377.305	305.32
377.686	316.62
378.066	327.24
378.447	344.41
378.827	309.16
379.208	332.21
379.588	354.58
379.968	330.63
380.349	343.73
380.729	335.82
381.109	333.56
381.489	347.12
381.87	343.28
382.25	336.95
382.63	339.21
383.01	336.95
383.39	342.38
383.77	356.16
384.15	355.49
384.53	362.04
384.91	349.38
385.29	338.08
385.67	354.36
386.049	354.81
386.429	344.19
386.809	344.64
387.189	344.64
387.568	348.03
387.948	361.36
388.328	359.1
388.707	361.36
389.087	358.2
389.466	355.94
389.846	346.9
390.225	363.62
390.605	360
390.984	377.63
391.363	366.56
391.743	371.53
392.122	371.76
392.501	373.79
392.881	345.99
393.26	367.91
393.639	381.25
394.018	370.63
394.397	385.99
394.776	359.1
395.155	388.48
395.534	399.33
395.913	398.87
396.292	377.86
396.671	381.02
397.05	392.55
397.429	375.6
397.808	381.92
398.186	380.12
398.565	383.28
398.944	381.02
399.323	380.57
399.701	384.86
400.08	397.97
400.458	379.21
400.837	391.87
401.215	383.05
401.594	379.89
401.972	377.63
402.351	406.11
402.729	407.69
403.107	391.87
403.486	415.6
403.864	418.31
404.242	437.97
404.62	421.92
404.999	405.65
405.377	418.53
405.755	406.33
406.133	423.51
406.511	405.2
406.889	415.37
407.267	400.91
407.645	400
408.023	431.87
408.401	415.6
408.779	417.63
409.156	434.13
409.534	427.12
409.912	423.28
410.29	428.25
410.667	414.92
411.045	422.83
411.422	416.5
411.8	451.98
412.178	464.41
412.555	458.76
412.933	466.89
413.31	452.43
413.687	452.43
414.065	464.86
414.442	475.26
414.819	481.13
415.197	462.37
415.574	468.7
415.951	476.16
416.328	466.67
416.705	493.33
417.082	470.06
417.46	468.7
417.837	473.45
418.214	496.05
418.591	502.15
418.967	508.48
419.344	511.64
419.721	503.5
420.098	535.59
420.475	515.71
420.852	506.44
421.228	508.93
421.605	520.9
421.982	519.32
422.358	535.37
422.735	530.85
423.111	505.99
423.488	529.94
423.864	538.98
424.241	536.05
424.617	524.52
424.994	534.46
425.37	538.53
425.746	543.05
426.123	547.34
426.499	564.29
426.875	553.22
427.251	558.87
427.627	552.54
428.003	566.33
428.379	582.6
428.756	581.69
429.132	583.28
429.507	582.15
429.883	605.87
430.259	620.34
430.635	626.66
431.011	582.6
431.387	611.3
431.763	608.36
432.138	630.51
432.514	616.27
432.89	616.95
433.265	635.48
433.641	619.88
434.016	660.34
434.392	638.87
434.767	645.87
435.143	663.73
435.518	671.41
435.894	672.99
436.269	678.87
436.644	687.23
437.02	680.45
437.395	676.83
437.77	677.51
438.145	700.33
438.52	703.27
438.895	700.79
439.271	712.54
439.646	704.18
440.021	713.44
440.395	700.11
440.77	711.41
441.145	701.92
441.52	750.28
441.895	762.03
442.27	732.65
442.645	739.2
443.019	752.31
443.394	755.02
443.769	750.28
444.143	746.66
444.518	758.19
444.892	780.56
445.267	770.39
445.641	768.58
446.016	776.26
446.39	766.1
446.764	783.5
447.139	784.4
447.513	795.93
447.887	811.74
448.262	794.12
448.636	792.08
449.01	809.48
449.384	820.56
449.758	841.57
450.132	838.41
450.506	829.82
450.88	831.4
451.254	855.36
451.628	849.94
452.002	849.03
452.376	851.74
452.75	892.19
453.123	879.99
453.497	882.93
453.871	912.53
454.244	887.45
454.618	922.25
454.992	922.02
455.365	898.97
455.739	944.17
456.112	919.99
456.486	955.24
456.859	965.19
457.232	993.43
457.606	978.29
457.979	975.13
458.352	995.69
458.725	1017.16
459.099	1011.74
459.472	1033.43
459.845	1050.16
460.218	1041.34
460.591	1062.59
460.964	1049.25
461.337	1079.53
461.71	1115.92
462.083	1089.25
462.456	1125.18
462.829	1148.01
463.201	1149.81
463.574	1136.48
463.947	1175.8
464.32	1194.33
464.692	1213.32
465.065	1199.76
465.438	1250.83
465.81	1256.48
466.183	1258.29
466.555	1302.13
466.928	1289.92
467.3	1309.36
467.672	1346.65
468.045	1341.9
468.417	1399.98
468.789	1373.31
469.161	1424.61
469.534	1453.31
469.906	1499.64
470.278	1475.91
470.65	1487.43
471.022	1533.53
471.394	1569.69
471.766	1599.07
472.138	1644.49
472.51	1694.21
472.882	1674.09
473.253	1747.31
473.625	1754.54
473.997	1821.66
474.369	1827.08
474.74	1859.17
475.112	1947.53
475.484	1965.61
475.855	1988.89
476.227	2028.44
476.598	2105.5
476.97	2133.74
477.341	2212.84
477.713	2284.25
478.084	2297.13
478.455	2364.47
478.827	2410.57
479.198	2512.94
479.569	2549.33
479.94	2658.93
480.311	2680.85
480.682	2746.83
481.053	2856.89
481.424	2903.67
481.795	3002.2
482.166	3093.94
482.537	3205.58
482.908	3317.22
483.279	3340.27
483.65	3456.87
484.021	3599.47
484.391	3642.4
484.762	3765.11
485.133	3862.29
485.503	3910.42
485.874	4033.13
486.244	4173.24
486.615	4264.53
486.985	4420.46
487.356	4495.04
487.726	4626.79
488.097	4764.86
488.467	4846.67
488.837	5008.24
489.207	5113.55
489.578	5307.45
489.948	5349.03
490.318	5497.5
490.688	5606.65
491.058	5793.76
491.428	5940.2
491.798	6053.19
492.168	6275.33
492.538	6346.74
492.908	6532.72
493.278	6652.72
493.648	6706.73
494.017	6868.53
494.387	7067.85
494.757	7184.68
495.126	7280.27
495.496	7427.16
495.866	7550.32
496.235	7661.28
496.605	7848.4
496.974	8000.71
497.344	8143.3
497.713	8239.57
498.082	8374.94
498.452	8527.47
498.821	8644.31
499.19	8740.58
499.559	8897.18
499.928	8974.24
500.298	9126.33
500.667	9303.95
501.036	9331.75
501.405	9558.63
501.774	9605.86
502.143	9796.82
502.512	9862.58
502.88	9996.81
503.249	10070.26
503.618	10272.29
503.987	10286.3
504.356	10385.28
504.724	10560.19
505.093	10673.41
505.462	10780.97
505.83	10909.78
506.199	10988.2
506.567	11207.4
506.936	11271.36
507.304	11417.57
507.672	11442.88
508.041	11555.87
508.409	11685.81
508.777	11779.14
509.145	12010.09
509.514	12001.73
509.882	12135.74
510.25	12246.92
510.618	12362.4
510.986	12425
511.354	12512.23
511.722	12688.72
512.09	12769.17
512.458	12834.03
512.826	12965.55
513.193	13100.01
513.561	13127.58
513.929	13244.19
514.297	13327.8
514.664	13467.91
515.032	13552.2
515.4	13672.42
515.767	13694.12
516.135	13864.28
516.502	13782.93
516.869	14019.53
517.237	14131.17
517.604	14129.81
517.972	14314.67
518.339	14441.22
518.706	14375.23
519.073	14528.9
519.44	14624.26
519.808	14738.61
520.175	14741.55
520.542	14989
520.909	15065.15
521.276	14975.44
521.643	15219.27
522.009	15320.52
522.376	15365.49
522.743	15412.94
523.11	15587.63
523.477	15703.78
523.843	15838.92
524.21	15981.74
524.577	15970.44
524.943	16088.63
525.31	16182.41
525.676	16341.51
526.043	16330.88
526.409	16428.06
526.776	16580.37
527.142	16616.98
527.508	16640.48
527.874	16832.57
528.241	16894.71
528.607	16946.91
528.973	17094.93
529.339	17015.84
529.705	17222.39
530.071	17271.42
530.437	17269.62
530.803	17415.83
531.169	17504.19
531.535	17459.67
531.901	17544.64
532.267	17537.18
532.632	17714.35
532.998	17746.67
533.364	17784.41
533.73	17892.88
534.095	17972.87
534.461	17955.02
534.826	17989.37
535.192	18068.24
535.557	18181.68
535.923	18184.85
536.288	18295.8
536.653	18288.35
537.019	18192.76
537.384	18356.14
537.749	18488.79
538.114	18396.59
538.479	18336.93
538.845	18391.39
539.21	18380.1
539.575	18430.04
539.94	18432.07
540.305	18518.4
540.67	18565.63
541.034	18546.87
541.399	18620.99
541.764	18593.42
542.129	18687.66
542.494	18660.09
542.858	18650.15
543.223	18716.36
543.587	18823.7
543.952	18748.22
544.316	18883.36
544.681	18801.78
545.045	18916.35
545.41	18861.67
545.774	18891.49
546.138	19019.63
546.503	18833.64
546.867	18848.11
547.231	18999.06
547.595	19001.1
547.959	19047.2
548.324	19062.11
548.688	19061.66
549.052	19121.77
549.416	19124.03
549.779	19039.74
550.143	18989.12
550.507	19237.25
550.871	19203.35
551.235	19183.92
551.599	19356.79
551.962	19350.92
552.326	19361.09
552.689	19452.84
553.053	19379.39
553.417	19378.04
553.78	19503.91
554.143	19467.3
554.507	19549.78
554.87	19557.01
555.234	19764.24
555.597	19618.26
555.96	19639.95
556.323	19785.48
556.686	19707.07
557.05	19839.49
557.413	19795.65
557.776	19822.09
558.139	19936.44
558.502	19874.97
558.865	20041.52
559.228	20079.94
559.59	20095.08
559.953	20155.19
560.316	20375.98
560.679	20303.89
561.041	20502.98
561.404	20439.02
561.767	20523.32
562.129	20503.2
562.492	20612.35
562.854	20636.53
563.217	20537.78
563.579	20648.28
563.941	20747.72
564.304	20829.3
564.666	20913.14
565.028	20861.61
565.39	21057.77
565.753	21017.54
566.115	21238.1
566.477	21159.91
566.839	21270.19
567.201	21384.54
567.563	21387.93
567.925	21491.65
568.287	21497.75
568.648	21455.72
569.01	21630.41
569.372	21810.29
569.734	21667.47
570.095	21805.32
570.457	21850.51
570.819	21909.27
571.18	21831.53
571.542	22000.11
571.903	21892.77
572.265	22053.22
572.626	22073.56
572.987	22129.6
573.349	22199.43
573.71	22234.91
574.071	22275.59
574.432	22269.71
574.794	22501.12
575.155	22425.64
575.516	22421.8
575.877	22450.95
576.238	22412.76
576.599	22586.09
576.96	22581.12
577.32	22498.18
577.681	22726.87
578.042	22650.27
578.403	22677.38
578.763	22786.76
579.124	22786.76
579.485	22775.91
579.845	22780.21
580.206	22782.92
580.566	22776.59
580.927	22807.55
581.287	22919.41
581.648	22722.58
582.008	23023.59
582.368	22858.4
582.728	22839.64
583.089	22958.51
583.449	22948.34
583.809	23016.81
584.169	22951.05
584.529	22969.58
584.889	22982.01
585.249	22942.69
585.609	22791.96
585.969	23102.68
586.329	22928
586.688	22884.61
587.048	23068.33
587.408	22923.25
587.768	22923.93
588.127	22917.6
588.487	22877.38
588.846	23030.14
589.206	22839.19
589.565	22784.27
589.925	23062.46
590.284	22926.42
590.643	22937.72
591.003	23008.67
591.362	23043.93
591.721	22930.03
592.08	22938.39
592.44	22914.21
592.799	23048.45
593.158	22873.76
593.517	22977.49
593.876	22988.79
594.235	22945.63
594.593	23024.49
594.952	23070.59
595.311	22880.99
595.67	22936.36
596.029	23080.76
596.387	23113.3
596.746	23195.79
597.104	23007.54
597.463	23023.14
597.822	23038.73
598.18	22962.12
598.538	23093.87
598.897	23136.58
599.255	22911.05
599.613	23270.36
599.972	23066.75
600.33	23177.71
600.688	23135.68
601.046	23377.93
601.404	23245.5
601.762	23210.7
602.12	23378.38
602.478	23347.65
602.836	23308.33
603.194	23258.16
603.552	23280.31
603.91	23168.9
604.268	23311.94
604.625	23235.56
604.983	23340.87
605.341	23260.19
605.698	23261.1
606.056	23413.86
606.413	23346.97
606.771	23437.82
607.128	23453.41
607.485	23403.01
607.843	23470.36
608.2	23454.76
608.557	23608.43
608.914	23417.93
609.272	23686.17
609.629	23578.15
609.986	23733.63
610.343	23612.95
610.7	23728.2
611.057	23692.05
611.414	23773.4
611.771	23744.7
612.127	23849.33
612.484	23809.11
612.841	23960.74
613.198	23850.46
613.554	23924.13
613.911	24104.92
614.267	23961.87
614.624	24042.32
614.98	24107.63
615.337	24125.03
615.693	24101.98
616.05	24057.23
616.406	24109.89
616.762	24169.32
617.118	24137.68
617.475	24120.06
617.831	24221.98
618.187	24288.64
618.543	24265.14
618.899	24369.99
619.255	24306.27
619.611	24397.34
619.967	24476.21
620.323	24529.09
620.678	24455.42
621.034	24409.54
621.39	24413.61
621.746	24365.02
622.101	24626.49
622.457	24350.79
622.812	24523.66
623.168	24635.75
623.523	24487.51
623.879	24590.33
624.234	24314.18
624.589	24471.69
624.945	24541.74
625.3	24510.33
625.655	24580.38
626.01	24754.17
626.365	24578.8
626.72	24584.9
627.075	24595.07
627.43	24506.71
627.785	24557.56
628.14	24556.2
628.495	24728.63
628.85	24673.94
629.205	24461.97
629.559	24683.21
629.914	24642.53
630.269	24588.29
630.623	24488.41
630.978	24394.17
631.332	24502.19
631.687	24574.96
632.041	24443.89
632.396	24494.74
632.75	24419.49
633.104	24508.75
633.459	24394.63
633.813	24345.59
634.167	24370.67
634.521	24403.44
634.875	24422.87
635.229	24345.36
635.583	24285.7
635.937	24278.25
636.291	24199.15
636.645	24192.15
636.999	24128.42
637.352	24332.71
637.706	24049.78
638.06	24229.66
638.413	24115.99
638.767	24100.4
639.121	24243.22
639.474	23983.34
639.828	24028.31
640.181	24127.97
640.534	23908.99
640.888	23973.4
641.241	23864.02
641.594	23876.22
641.947	24030.79
642.301	23983.79
642.654	23852.04
643.007	24007.97
643.36	23903.34
643.713	23767.52
644.066	23967.97
644.419	23861.99
644.771	23601.43
645.124	23387.65
645.477	23358.5
645.83	23188.56
646.182	23238.05
646.535	23051.16
646.888	23193.53
647.24	23057.26
647.593	23176.58
647.945	23139.29
648.298	23079.41
648.65	22955.12
649.002	22912.41
649.355	23138.61
649.707	22974.33
650.059	23062.01
650.411	23331.6
650.763	23352.39
651.115	23554.65
651.467	23592.61
651.819	23582.44
652.171	23523.24
652.523	23516.46
652.875	23638.71
653.227	23387.42
653.578	23555.78
653.93	23472.84
654.282	23374.31
654.633	23338.61
654.985	23352.17
655.337	23449.57
655.688	23424.03
656.039	23509.9
656.391	23296.12
656.742	23318.72
657.094	23345.84
657.445	23504.25
657.796	23312.85
658.147	23404.14
658.498	23287.31
658.849	23312.4
659.2	23363.69
659.551	23318.72
659.902	23375.44
660.253	23302.68
660.604	23417.03
660.955	23377.7
661.306	23414.99
661.656	23337.25
662.007	23417.25
662.358	23362.34
662.708	23329.57
663.059	23438.72
663.409	23272.62
663.76	23469.68
664.11	23453.63
664.461	23391.49
664.811	23297.03
665.161	23322.11
665.511	23342.68
665.862	23405.95
666.212	23349.91
666.562	23457.02
666.912	23319.4
667.262	23330.7
667.612	23362.34
667.962	23355.33
668.312	23288.67
668.662	23359.4
669.011	23293.19
669.361	23285.96
669.711	23352.39
670.06	23290.93
670.41	23240.98
670.76	23218.61
671.109	23356.46
671.459	23235.56
671.808	23221.1
672.157	23269.46
672.507	23172.74
672.856	23193.98
673.205	23189.46
673.554	23150.59
673.904	23065.85
674.253	23232.85
674.602	23118.28
674.951	22785.63
675.3	22748.57
675.649	22962.8
675.998	23029.01
676.346	23110.59
676.695	23087.54
677.044	22964.38
677.393	22958.28
677.741	23038.5
678.09	22993.99
678.438	22832.86
678.787	22906.08
679.135	22927.32
679.484	22734.56
679.832	22856.14
680.181	22602.36
680.529	22695.01
680.877	22667.44
681.225	22629.93
681.573	22699.3
681.922	22581.12
682.27	22556.48
682.618	22528.24
682.966	22533.43
683.314	22481.68
683.661	22480.55
684.009	22353.78
684.357	22309.48
684.705	22348.35
685.053	22226.77
685.4	22287.11
685.748	22100.9
686.095	22266.77
686.443	22046.89
686.79	21968.48
687.138	22000.11
687.485	22025.88
687.832	21959.21
688.18	21853.68
688.527	21846.9
688.874	21809.16
689.221	21840.57
689.568	21709.73
689.915	21684.64
690.262	21590.63
690.609	21470.86
690.956	21460.47
691.303	21437.87
691.65	21318.55
691.997	21371.66
692.344	21096.63
692.69	21236.97
693.037	21211.43
693.383	21018.9
693.73	21036.07
694.077	20972.34
694.423	20921.95
694.769	20928.28
695.116	20803.76
695.462	20755.4
695.808	20645.35
696.155	20681.96
696.501	20444.67
696.847	20531
697.193	20323.32
697.539	20423.66
697.885	20293.27
698.231	20199.93
698.577	20210.1
698.923	20153.16
699.269	20021.18
699.614	19941.86
699.96	19751.36
700.306	19838.81
700.651	19775.99
700.997	19681.76
701.342	19730.79
701.688	19543
702.033	19539.16
702.379	19550.01
702.724	19381.65
703.069	19473.17
703.415	19301.65
703.76	19289.22
704.105	19282.9
704.45	19249.68
704.795	19140.98
705.14	18985.05
705.485	19028.21
705.83	18937.37
706.175	18938.5
706.52	18936.01
706.865	18875.22
707.209	18754.55
707.554	18799.07
707.899	18803.81
708.243	18652.63
708.588	18598.4
708.932	18512.52
709.277	18400.21
709.621	18489.25
709.966	18400.43
710.31	18358.85
710.654	18265.3
710.998	18210.38
711.342	18221.68
711.687	18215.13
712.031	18159.99
712.375	18140.1
712.719	18070.95
713.063	18095.81
713.407	18195.92
713.75	17939.43
714.094	17871.18
714.438	17908.92
714.782	17928.13
715.125	17711.64
715.469	17874.35
715.812	17658.98
716.156	17585.54
716.499	17637.29
716.843	17660.79
717.186	17440.23
717.53	17683.16
717.873	17565.88
718.216	17485.88
718.559	17473.68
718.902	17320.46
719.246	17428.26
719.589	17368.82
719.932	17321.82
720.275	17298.99
720.617	17298.09
720.96	17276.62
721.303	17193.69
721.646	17227.13
721.989	17161.14
722.331	17147.59
722.674	17074.82
723.016	17143.74
723.359	17160.01
723.701	17066.68
724.044	17000.92
724.386	17073.46
724.729	17123.86
725.071	16920.02
725.413	16849.74
725.755	16962.28
726.097	16842.28
726.439	16813.13
726.782	16832.79
727.124	16938.78
727.465	16786.01
727.807	16801.38
728.149	16767.26
728.491	16760.7
728.833	16763.87
729.175	16740.36
729.516	16628.5
729.858	16688.84
730.199	16716.86
730.541	16634.83
730.882	16697.65
731.224	16663.08
731.565	16572.69
731.906	16618.56
732.248	16521.39
732.589	16442.07
732.93	16592.57
733.271	16577.43
733.612	16485.91
733.953	16527.94
734.294	16413.82
734.635	16481.16
734.976	16499.47
735.317	16439.58
735.658	16388.06
735.999	16459.69
736.339	16448.85
736.68	16452.24
737.021	16462.63
737.361	16362.52
737.702	16458.34
738.042	16409.07
738.383	16344.22
738.723	16312.81
739.063	16302.18
739.404	16331.79
739.744	16355.97
740.084	16297.89
740.424	16340.6
740.764	16302.86
741.104	16296.99
741.444	16295.63
741.784	16346.25
742.124	16336.99
742.464	16342.64
742.804	16362.97
743.143	16334.5
743.483	16352.58
743.823	16280.94
744.162	16358.91
744.502	16407.94
744.841	16329.53
745.181	16461.28
745.52	16349.19
745.86	16492.01
746.199	16484.1
746.538	16442.29
746.877	16538.11
747.216	16462.63
747.556	16534.04
747.895	16557.09
748.234	16631.22
748.573	16532.01
748.911	16600.48
749.25	16686.58
749.589	16645.23
749.928	16757.99
750.267	16777.43
750.605	16742.4
750.944	16733.13
751.283	16829.63
751.621	16845.22
751.96	16926.8
752.298	16929.96
752.636	17081.37
752.975	17030.07
753.313	17053.8
753.651	17255.38
753.989	17165.21
754.327	17246.11
754.666	17225.1
755.004	17357.75
755.342	17418.77
755.679	17449.5
756.017	17444.3
756.355	17569.72
756.693	17630.51
