Data from hue_120_FLMS001491_00059.txt Node
Date: Tue Feb 07 16:59:41 GMT 2017
User: dcchb
Spectrometer: FLMS00149
Trigger mode: 0
Integration Time (sec): 2.000000E-2
Scans to average: 10
Electric dark correction enabled: true
Nonlinearity correction enabled: false
Boxcar width: 0
XAxis mode: Wavelengths
Number of Pixels in Spectrum: 2048
>>>>>Begin Spectral Data<<<<<
341.393	-6.16
341.776	-6.16
342.16	-6.16
342.543	-82.09
342.927	-65.59
343.31	-59.04
343.693	-54.07
344.077	-54.52
344.46	-56.78
344.843	-63.56
345.226	-42.32
345.61	-22.88
345.993	-19.27
346.376	-9.55
346.759	18.47
347.142	15.31
347.525	36.55
347.908	46.72
348.291	66.83
348.674	101.41
349.057	96.66
349.44	128.75
349.823	130.79
350.206	156.1
350.588	186.15
350.971	211.24
351.354	202.65
351.737	240.16
352.119	233.84
352.502	242.2
352.884	269.99
353.267	281.29
353.65	273.16
354.032	316.09
354.414	303.44
354.797	318.13
355.179	330.33
355.562	323.1
355.944	324.23
356.326	335.75
356.709	330.56
357.091	331.23
357.473	326.26
357.855	321.97
358.238	331.01
358.62	323.55
359.002	331.01
359.384	335.53
359.766	350.89
360.148	342.08
360.53	348.18
360.912	329.88
361.294	352.7
361.676	324.68
362.057	316.77
362.439	322.42
362.821	337.79
363.203	331.23
363.584	328.07
363.966	324.45
364.348	327.62
364.729	313.83
365.111	315.87
365.493	319.03
365.874	321.97
366.256	305.7
366.637	315.42
367.019	313.83
367.4	305.7
367.781	302.99
368.163	314.96
368.544	316.77
368.925	296.21
369.306	318.58
369.688	297.79
370.069	318.81
370.45	309.77
370.831	309.77
371.212	317.45
371.593	302.99
371.974	343.44
372.355	320.39
372.736	313.83
373.117	323.55
373.498	344.12
373.879	316.55
374.26	317.45
374.641	298.69
375.021	312.93
375.402	323.78
375.783	336.43
376.163	321.29
376.544	324.91
376.925	317.68
377.305	336.43
377.686	335.53
378.066	318.35
378.447	330.56
378.827	330.78
379.208	328.52
379.588	335.98
379.968	335.08
380.349	341.18
380.729	338.92
381.109	318.81
381.489	335.08
381.87	341.18
382.25	333.27
382.63	327.62
383.01	330.33
383.39	356.77
383.77	343.21
384.15	339.37
384.53	338.92
384.91	328.07
385.29	345.7
385.67	358.8
386.049	347.96
386.429	369.2
386.809	343.66
387.189	338.47
387.568	361.06
387.948	368.52
388.328	359.71
388.707	351.8
389.087	361.52
389.466	379.37
389.846	371.01
390.225	354.51
390.605	365.36
390.984	365.58
391.363	386.6
391.743	372.59
392.122	358.8
392.501	370.33
392.881	371.46
393.26	396.32
393.639	374.4
394.018	368.52
394.397	385.24
394.776	370.78
395.155	381.4
395.534	380.27
395.913	386.6
396.292	407.84
396.671	385.24
397.05	378.69
397.429	391.35
397.808	410.78
398.186	394.96
398.565	394.06
398.944	383.89
399.323	390.67
399.701	383.89
400.08	407.84
400.458	398.35
400.837	412.81
401.215	396.32
401.594	396.54
401.972	405.13
402.351	400.84
402.729	410.78
403.107	412.36
403.486	418.92
403.864	414.17
404.242	411.46
404.62	427.5
404.999	406.94
405.377	415.3
405.755	402.64
406.133	418.01
406.511	425.92
406.889	434.51
407.267	414.4
407.645	427.5
408.023	445.58
408.401	434.06
408.779	443.1
409.156	426.37
409.534	444.23
409.912	458.01
410.29	454.39
410.667	444.45
411.045	479.93
411.422	451.23
411.8	468.86
412.178	462.3
412.555	473.38
412.933	481.96
413.31	492.36
413.687	465.02
414.065	469.76
414.442	476.77
414.819	483.09
415.197	484.45
415.574	504.11
415.951	523.32
416.328	506.14
416.705	508.4
417.082	500.72
417.46	494.39
417.837	505.24
418.214	502.76
418.591	506.82
418.967	530.1
419.344	531.45
419.721	538.01
420.098	518.57
420.475	512.7
420.852	547.05
421.228	525.81
421.605	527.84
421.982	556.77
422.358	528.97
422.735	519.25
423.111	524
423.488	557.67
423.864	549.99
424.241	575.07
424.617	569.65
424.994	561.28
425.37	592.24
425.746	569.65
426.123	589.08
426.499	600.15
426.875	577.1
427.251	585.92
427.627	592.47
428.003	606.71
428.379	611
428.756	578.01
429.132	611.68
429.507	635.63
429.883	629.98
430.259	621.4
430.635	621.62
431.011	641.06
431.387	653.03
431.763	636.76
432.138	676.31
432.514	653.71
432.89	666.14
433.265	686.71
433.641	669.98
434.016	665.46
434.392	691.45
434.767	698.23
435.143	697.78
435.518	696.2
435.894	711.11
436.269	719.47
436.644	711.34
437.02	731
437.395	729.64
437.77	738.46
438.145	749.98
438.52	735.29
438.895	770.77
439.271	745.23
439.646	749.98
440.021	780.49
440.395	754.05
440.77	795.85
441.145	790.66
441.52	762.18
441.895	775.74
442.27	803.99
442.645	802.18
443.019	817.55
443.394	795.85
443.769	797.66
444.143	804.89
444.518	854.38
444.892	819.36
445.267	846.25
445.641	837.89
446.016	833.59
446.39	823.65
446.764	858.23
447.139	881.28
447.513	850.09
447.887	838.34
448.262	860.94
448.636	892.12
449.01	888.96
449.384	876.3
449.758	861.62
450.132	879.02
450.506	911.11
450.88	907.49
451.254	894.84
451.628	915.4
452.002	928.96
452.376	937.55
452.75	944.1
453.123	937.55
453.497	975.74
453.871	971.67
454.244	974.83
454.618	1002.18
454.992	975.96
455.365	1001.95
455.739	1003.31
456.112	1024.32
456.486	1027.04
456.859	1054.15
457.232	1049.63
457.606	1067.71
457.979	1046.24
458.352	1070.88
458.725	1128.73
459.099	1116.75
459.472	1120.59
459.845	1159.24
460.218	1168.73
460.591	1152.46
460.964	1146.58
461.337	1209.63
461.71	1201.72
462.083	1242.17
462.456	1222.51
462.829	1227.03
463.201	1260.02
463.574	1273.36
463.947	1288.05
464.32	1286.01
464.692	1304.77
465.065	1331.89
465.438	1362.85
465.81	1380.47
466.183	1383.86
466.555	1405.33
466.928	1449.17
467.3	1434.71
467.672	1481.26
468.045	1520.36
468.417	1513.35
468.789	1523.52
469.161	1559.9
469.534	1588.6
469.906	1632.22
470.278	1672.67
470.65	1649.62
471.022	1705.89
471.394	1698.43
471.766	1739.56
472.138	1770.07
472.51	1815.94
472.882	1853
473.253	1888.48
473.625	1941.81
473.997	1956.05
474.369	1992.89
474.74	2027.69
475.112	2088.25
475.484	2138.64
475.855	2178.64
476.227	2196.04
476.598	2309.26
476.97	2325.76
477.341	2377.73
477.713	2485.3
478.084	2472.19
478.455	2552.64
478.827	2612.53
479.198	2703.38
479.569	2782.47
479.94	2858.4
480.311	2913.54
480.682	3014.78
481.053	3114.21
481.424	3187.43
481.795	3219.29
482.166	3325.28
482.537	3415.67
482.908	3530.92
483.279	3624.25
483.65	3717.81
484.021	3808.43
484.391	3867.86
484.762	3977.69
485.133	4092.04
485.503	4168.65
485.874	4300.4
486.244	4353.95
486.615	4516.66
486.985	4645.7
487.356	4771.8
487.726	4829.2
488.097	5002.07
488.467	5124.1
488.837	5275.96
489.207	5323.42
489.578	5506.47
489.948	5621.49
490.318	5776.29
490.688	5854.48
491.058	5968.15
491.428	6145.77
491.798	6275.03
492.168	6459.21
492.538	6524.29
492.908	6705.53
493.278	6826.43
493.648	6897.84
494.017	6992.08
494.387	7116.14
494.757	7251.5
495.126	7363.14
495.496	7494.89
495.866	7580.31
496.235	7694.2
496.605	7939.17
496.974	8013.29
497.344	8062.33
497.713	8236.79
498.082	8288.09
498.452	8410.8
498.821	8601.98
499.19	8635.42
499.559	8729.66
499.928	8833.16
500.298	8969.65
500.667	9084
501.036	9107.95
501.405	9292.81
501.774	9381.84
502.143	9412.8
502.512	9559.24
502.88	9545
503.249	9626.13
503.618	9697.99
503.987	9831.55
504.356	9925.11
504.724	9980.02
505.093	10072.67
505.462	10152.44
505.83	10189.96
506.199	10304.53
506.567	10471.76
506.936	10480.8
507.304	10543.85
507.672	10607.57
508.041	10702.94
508.409	10783.39
508.777	10816.16
509.145	10935.93
509.514	10955.36
509.882	11067.9
510.25	11064.96
510.618	11123.27
510.986	11201.23
511.354	11243.72
511.722	11390.15
512.09	11479.19
512.458	11411.17
512.826	11594.44
513.193	11545.4
513.561	11640.09
513.929	11767.77
514.297	11682.57
514.664	11773.65
515.032	11821.55
515.4	11936.35
515.767	11920.53
516.135	11987.42
516.502	11831.72
516.869	12049.34
517.237	12094.54
517.604	11984.26
517.972	12124.14
518.339	12170.92
518.706	12250.47
519.073	12197.81
519.44	12239.62
519.808	12302.9
520.175	12261.99
520.542	12458.37
520.909	12403.46
521.276	12367.98
521.643	12456.57
522.009	12493.17
522.376	12561.87
522.743	12547.86
523.11	12657.01
523.477	12679.84
523.843	12795.31
524.21	12837.8
524.577	12862.88
524.943	12877.12
525.31	12920.51
525.676	12974.52
526.043	12973.61
526.409	12974.74
526.776	13140.61
527.142	13072.82
527.508	13022.65
527.874	13068.75
528.241	13126.15
528.607	13078.24
528.973	13092.48
529.339	12993.5
529.705	13251.8
530.071	13254.28
530.437	13198.92
530.803	13203.44
531.169	13276.43
531.535	13174.06
531.901	13099.26
532.267	13142.87
532.632	13226.04
532.998	13092.25
533.364	13140.16
533.73	13153.27
534.095	13175.64
534.461	13099.03
534.826	13168.41
535.192	13233.04
535.557	13190.78
535.923	13110.33
536.288	13105.36
536.653	13108.98
537.019	12985.82
537.384	13078.47
537.749	13004.12
538.114	12999.6
538.479	12986.27
538.845	12971.13
539.21	12889.77
539.575	12820.17
539.94	12842.54
540.305	12869.66
540.67	12663.79
541.034	12778.82
541.399	12798.93
541.764	12701.3
542.129	12701.53
542.494	12682.32
542.858	12652.72
543.223	12662.89
543.587	12684.13
543.952	12587.64
544.316	12553.29
544.681	12512.83
545.045	12534.76
545.41	12482.78
545.774	12482.55
546.138	12387.41
546.503	12426.96
546.867	12378.15
547.231	12447.75
547.595	12275.33
547.959	12378.38
548.324	12195.78
548.688	12218.61
549.052	12195.1
549.416	12204.37
549.779	12131.38
550.143	12110.13
550.507	12148.55
550.871	12103.58
551.235	12058.84
551.599	12109.23
551.962	12083.02
552.326	11985.62
552.689	11973.64
553.053	11995.33
553.417	11908.1
553.78	11946.52
554.143	11913.98
554.507	11982.91
554.87	11892.74
555.234	11959.86
555.597	11844.6
555.96	11873.98
556.323	11847.77
556.686	11761.89
557.05	11828.33
557.413	11832.63
557.776	11838.95
558.139	11824.49
558.502	11796.24
558.865	11854.55
559.228	11827.88
559.59	11840.76
559.953	11827.88
560.316	11909.46
560.679	11817.71
561.041	11814.1
561.404	11871.27
561.767	11827.2
562.129	11785.17
562.492	11925.51
562.854	11832.63
563.217	11816.58
563.579	11830.37
563.941	11917.82
564.304	11906.75
564.666	11913.08
565.028	11843.02
565.39	11834.21
565.753	12005.5
566.115	11868.56
566.477	12008.67
566.839	11917.82
567.201	12054.32
567.563	11975.22
567.925	11949.69
568.287	12018.61
568.648	11969.57
569.01	12077.37
569.372	12077.37
569.734	11985.84
570.095	12056.35
570.457	12109.23
570.819	12113.75
571.18	12072.39
571.542	12149.68
571.903	12149.68
572.265	12246.85
572.626	12148.55
572.987	12174.54
573.349	12216.12
573.71	12182.67
574.071	12119.4
574.432	12223.12
574.794	12233.52
575.155	12320.3
575.516	12181.09
575.877	12303.35
576.238	12231.71
576.599	12319.62
576.96	12276.23
577.32	12236.68
577.681	12274.2
578.042	12344.03
578.403	12282.56
578.763	12281.43
579.124	12319.62
579.485	12330.92
579.845	12431.26
580.206	12326.17
580.566	12309.68
580.927	12304.03
581.287	12303.57
581.648	12187.19
582.008	12311.26
582.368	12249.56
582.728	12299.73
583.089	12359.84
583.449	12354.19
583.809	12358.49
584.169	12305.38
584.529	12267.64
584.889	12400.75
585.249	12229.9
585.609	12220.64
585.969	12337.02
586.329	12202.56
586.688	12181.09
587.048	12167.53
587.408	12173.41
587.768	12213.86
588.127	12172.28
588.487	12181.54
588.846	12187.19
589.206	12175.67
589.565	12190.58
589.925	12226.74
590.284	12123.92
590.643	12181.09
591.003	12148.32
591.362	12110.36
591.721	12120.53
592.08	12106.74
592.44	12118.49
592.799	12142
593.158	12018.84
593.517	12107.87
593.876	12151.71
594.235	12040.3
594.593	12081.43
594.952	12068.55
595.311	11979.29
595.67	12139.29
596.029	12119.85
596.387	12169.79
596.746	12120.53
597.104	12042.11
597.463	12105.61
597.822	12140.64
598.18	12084.15
598.538	11999.4
598.897	11978.39
599.255	11979.06
599.613	12120.98
599.972	12066.29
600.33	12088.44
600.688	11997.82
601.046	12109.91
601.404	12084.15
601.762	12043.92
602.12	12074.65
602.478	12082.79
602.836	12007.09
603.194	11993.53
603.552	11982.23
603.91	11963.47
604.268	12050.25
604.625	12045.28
604.983	11994.88
605.341	12044.6
605.698	11935.45
606.056	12113.3
606.413	12089.34
606.771	12084.82
607.128	12150.58
607.485	12130.47
607.843	12004.15
608.2	12073.52
608.557	12069.68
608.914	12139.29
609.272	12130.25
609.629	12197.36
609.986	12176.57
610.343	12097.03
610.7	12131.15
611.057	12177.25
611.414	12137.93
611.771	12119.85
612.127	12311.94
612.484	12211.6
612.841	12242.33
613.198	12210.24
613.554	12248.89
613.911	12248.89
614.267	12231.71
614.624	12255.89
614.98	12198.49
615.337	12289.11
615.693	12379.73
616.05	12316.46
616.406	12349
616.762	12318.94
617.118	12363.46
617.475	12286.63
617.831	12478.26
618.187	12287.98
618.543	12402.33
618.899	12365.27
619.255	12304.7
619.611	12324.37
619.967	12506.51
620.323	12461.76
620.678	12426.96
621.034	12374.99
621.39	12371.6
621.746	12345.38
622.101	12535.66
622.457	12413.18
622.812	12387.41
623.168	12436.45
623.523	12345.16
623.879	12499.28
624.234	12415.44
624.589	12430.35
624.945	12486.17
625.3	12471.71
625.655	12473.29
626.01	12448.2
626.365	12455.44
626.72	12403.91
627.075	12431.03
627.43	12377.47
627.785	12415.89
628.14	12369.34
628.495	12431.93
628.85	12341.99
629.205	12334.99
629.559	12437.58
629.914	12366.17
630.269	12307.19
630.623	12266.06
630.978	12215.22
631.332	12325.95
631.687	12373.4
632.041	12324.59
632.396	12337.25
632.75	12179.28
633.104	12192.17
633.459	12200.53
633.813	12241.2
634.167	12218.61
634.521	12212.5
634.875	12209.11
635.229	12192.62
635.583	12098.16
635.937	12140.19
636.291	12090.47
636.645	12128.89
636.999	12066.74
637.352	12104.48
637.706	12059.29
638.06	12075.11
638.413	12020.87
638.767	11993.53
639.121	12006.86
639.474	11931.38
639.828	12000.31
640.181	11979.97
640.534	11954.43
640.888	11942.45
641.241	11874.43
641.594	11932.51
641.947	11883.92
642.301	11939.06
642.654	11895
643.007	11860.87
643.36	11866.07
643.713	11823.36
644.066	11889.57
644.419	11813.64
644.771	11756.02
645.124	11608.45
645.477	11562.8
645.83	11528.23
646.182	11501.34
646.535	11447.78
646.888	11551.96
647.24	11564.16
647.593	11510.38
647.945	11535.46
648.298	11499.98
648.65	11480.09
649.002	11404.84
649.355	11540.88
649.707	11481.22
650.059	11545.63
650.411	11662.24
650.763	11658.17
651.115	11765.06
651.467	11711.73
651.819	11649.81
652.171	11657.26
652.523	11656.36
652.875	11660.43
653.227	11561.9
653.578	11790.59
653.93	11716.47
654.282	11621.33
654.633	11600.54
654.985	11587.21
655.337	11748.79
655.688	11725.74
656.039	11752.18
656.391	11689.81
656.742	11682.12
657.094	11686.87
657.445	11709.01
657.796	11741.1
658.147	11681.9
658.498	11679.18
658.849	11782.23
659.2	11719.86
659.551	11706.75
659.902	11748.34
660.253	11667.43
660.604	11651.61
660.955	11707.43
661.306	11727.77
661.656	11715.57
662.007	11802.57
662.358	11709.92
662.708	11756.7
663.059	11778.39
663.409	11727.32
663.76	11797.83
664.11	11830.14
664.461	11814.77
664.811	11721.67
665.161	11798.96
665.511	11784.94
665.862	11787.43
666.212	11795.11
666.562	11812.29
666.912	11723.7
667.262	11818.16
667.612	11749.92
667.962	11705.62
668.312	11723.25
668.662	11749.24
669.011	11737.04
669.361	11758.73
669.711	11729.8
670.06	11734.32
670.41	11703.36
670.76	11673.31
671.109	11697.26
671.459	11756.7
671.808	11700.43
672.157	11660.2
672.507	11610.49
672.856	11655.46
673.205	11646.42
673.554	11663.37
673.904	11661.11
674.253	11648.9
674.602	11651.39
674.951	11466.08
675.3	11467.44
675.649	11601.67
675.998	11589.92
676.346	11582.92
676.695	11587.89
677.044	11504.73
677.393	11499.53
677.741	11625.63
678.09	11548.57
678.438	11448.46
678.787	11451.17
679.135	11516.7
679.484	11398.74
679.832	11433.09
680.181	11433.32
680.529	11391.73
680.877	11351.06
681.225	11339.98
681.573	11479.42
681.922	11384.05
682.27	11268.35
682.618	11316.26
682.966	11259.76
683.314	11244.62
683.661	11195.81
684.009	11179.31
684.357	11175.24
684.705	11078.97
685.053	11143.15
685.4	11058.64
685.748	11029.03
686.095	11078.75
686.443	10985.19
686.79	10966.43
687.138	11037.17
687.485	11056.15
687.832	11000.33
688.18	10904.52
688.527	10940.22
688.874	10942.03
689.221	10857.74
689.568	10828.81
689.915	10840.79
690.262	10739.32
690.609	10729.83
690.956	10697.06
691.303	10638.76
691.65	10685.09
691.997	10603.96
692.344	10554.24
692.69	10494.81
693.037	10546.33
693.383	10461.14
693.73	10430.4
694.077	10406.9
694.423	10402.38
694.769	10378.65
695.116	10342.95
695.462	10329.39
695.808	10248.71
696.155	10248.71
696.501	10207.36
696.847	10160.13
697.193	10092.33
697.539	10071.77
697.885	10064.09
698.231	10018.89
698.577	9969.62
698.923	9989.29
699.269	9904.54
699.614	9896.86
699.96	9760.36
700.306	9851.66
700.651	9719.91
700.997	9762.17
701.342	9758.78
701.688	9737.09
702.033	9673.14
702.379	9624.1
702.724	9576.64
703.069	9624.55
703.415	9508.85
703.76	9484.44
704.105	9441.28
704.45	9509.52
704.795	9316.08
705.14	9414.61
705.485	9380.49
705.83	9275.63
706.175	9333.26
706.52	9234.05
706.865	9195.41
707.209	9187.27
707.554	9178.91
707.899	9222.53
708.243	9120.61
708.588	9133.49
708.932	9067.73
709.277	9035.86
709.621	9059.82
709.966	8953.15
710.31	9033.6
710.654	8959.26
710.998	8912.93
711.342	8937.34
711.687	8868.41
712.031	8887.85
712.375	8782.09
712.719	8903.44
713.063	8879.26
713.407	8871.12
713.75	8791.8
714.094	8748.87
714.438	8748.64
714.782	8753.39
715.125	8712.26
715.469	8701.86
715.812	8661.41
716.156	8647.85
716.499	8673.16
716.843	8637.46
717.186	8568.98
717.53	8583.22
717.873	8596.55
718.216	8622.99
718.559	8582.99
718.902	8468.2
719.246	8529.66
719.589	8544.8
719.932	8443.11
720.275	8522.21
720.617	8406.73
720.96	8566.72
721.303	8528.76
721.646	8484.69
721.989	8373.73
722.331	8447.86
722.674	8451.47
723.016	8420.51
723.359	8413.28
723.701	8454.41
724.044	8386.16
724.386	8349.78
724.729	8419.16
725.071	8392.72
725.413	8323.34
725.755	8326.5
726.097	8293.06
726.439	8272.04
726.782	8284.47
727.124	8327.41
727.465	8260.97
727.807	8327.86
728.149	8295.77
728.491	8262.33
728.833	8259.16
729.175	8254.64
729.516	8257.13
729.858	8267.52
730.199	8240.63
730.541	8206.28
730.882	8219.84
731.224	8243.34
731.565	8188.43
731.906	8185.49
732.248	8310.91
732.589	8214.87
732.93	8198.15
733.271	8229.56
733.612	8240.18
733.953	8269.1
734.294	8248.54
734.635	8213.29
734.976	8306.17
735.317	8157.24
735.658	8189.78
735.999	8211.03
736.339	8211.93
736.68	8225.04
737.021	8162.44
737.361	8205.38
737.702	8221.42
738.042	8195.43
738.383	8198.15
738.723	8288.31
739.063	8278.6
739.404	8291.93
739.744	8282.66
740.084	8241.99
740.424	8307.75
740.764	8294.64
741.104	8313.62
741.444	8294.64
741.784	8296.9
742.124	8333.74
742.464	8361.98
742.804	8395.88
743.143	8411.25
743.483	8379.38
743.823	8432.49
744.162	8446.95
744.502	8532.15
744.841	8467.97
745.181	8545.93
745.52	8535.54
745.86	8573.05
746.199	8586.16
746.538	8599.72
746.877	8673.16
747.216	8798.81
747.556	8737.11
747.895	8830.22
748.234	8907.73
748.573	8874.74
748.911	8959.03
749.25	9001.06
749.589	9016.2
749.928	9079.25
750.267	9194.96
750.605	9273.37
750.944	9276.99
751.283	9306.14
751.621	9431.79
751.96	9508.62
752.298	9601.5
752.636	9719.24
752.975	9790.42
753.313	9829.74
753.651	10017.08
753.989	10051.43
754.327	10185.89
754.666	10233.35
755.004	10398.54
755.342	10517.18
755.679	10660.68
756.017	10728.25
756.355	10850.05
756.693	11021.12
757.031	11128.92
757.368	11293.43
757.706	11348.12
758.044	11558.28
758.381	11638.96
758.719	11827.66
759.056	11911.95
759.394	12008.67
