Data from hue_340_FLMS001491_16.txt Node
Date: Mon Feb 06 15:42:21 GMT 2017
User: dcchb
Spectrometer: FLMS00149
Trigger mode: 0
Integration Time (sec): 2.000000E-2
Scans to average: 10
Electric dark correction enabled: true
Nonlinearity correction enabled: false
Boxcar width: 0
XAxis mode: Wavelengths
Number of Pixels in Spectrum: 2048
>>>>>Begin Spectral Data<<<<<
341.393	-23.8
341.776	-23.8
342.16	-23.8
342.543	-73.29
342.927	-79.16
343.31	-67.19
343.693	-61.76
344.077	-57.7
344.46	-58.83
344.843	-53.18
345.226	-61.31
345.61	-33.29
345.993	-26.06
346.376	25.01
346.759	-0.97
347.142	14.84
347.525	51.45
347.908	61.62
348.291	88.29
348.674	72.47
349.057	106.59
349.44	134.16
349.823	149.98
350.206	144.33
350.588	183.2
350.971	209.64
351.354	214.39
351.737	252.58
352.119	241.28
352.502	267.94
352.884	280.6
353.267	284.44
353.65	300.26
354.032	301.39
354.414	316.98
354.797	304.33
355.179	307.27
355.562	312.24
355.944	344.78
356.326	326.7
356.709	326.7
357.091	316.76
357.473	326.7
357.855	330.77
358.238	352.91
358.62	333.03
359.002	323.08
359.384	328.28
359.766	348.17
360.148	330.77
360.53	336.42
360.912	319.47
361.294	332.35
361.676	336.19
362.057	330.77
362.439	322.41
362.821	329.64
363.203	320.6
363.584	329.19
363.966	310.43
364.348	341.16
364.729	329.19
365.111	316.98
365.493	329.19
365.874	300.71
366.256	331.9
366.637	306.14
367.019	313.37
367.4	324.21
367.781	305.46
368.163	304.1
368.544	299.36
368.925	316.53
369.306	301.39
369.688	316.31
370.069	306.81
370.45	300.71
370.831	309.3
371.212	310.88
371.593	296.42
371.974	308.4
372.355	304.1
372.736	306.36
373.117	305.68
373.498	314.05
373.879	300.49
374.26	297.55
374.641	313.82
375.021	296.64
375.402	313.37
375.783	321.95
376.163	328.96
376.544	326.25
376.925	338.68
377.305	328.51
377.686	317.44
378.066	296.42
378.447	318.57
378.827	319.47
379.208	337.1
379.588	334.61
379.968	318.57
380.349	319.69
380.729	306.14
381.109	321.95
381.489	314.27
381.87	341.84
382.25	319.24
382.63	359.02
383.01	309.98
383.39	325.8
383.77	364.89
384.15	345.91
384.53	335.74
384.91	346.13
385.29	339.58
385.67	333.71
386.049	342.07
386.429	345.23
386.809	355.85
387.189	329.41
387.568	347.26
387.948	344.78
388.328	352.24
388.707	347.94
389.087	345.01
389.466	369.64
389.846	346.81
390.225	349.07
390.605	354.5
390.984	346.81
391.363	366.47
391.743	364.21
392.122	352.69
392.501	361.5
392.881	368.96
393.26	356.08
393.639	340.94
394.018	359.69
394.397	384.33
394.776	388.62
395.155	383.42
395.534	382.07
395.913	395.4
396.292	374.16
396.671	379.58
397.05	364.21
397.429	375.96
397.808	369.19
398.186	370.99
398.565	364.44
398.944	378.22
399.323	366.25
399.701	382.29
400.08	381.84
400.458	382.07
400.837	384.33
401.215	388.62
401.594	405.34
401.972	409.86
402.351	381.84
402.729	392.69
403.107	387.26
403.486	409.41
403.864	405.12
404.242	398.34
404.62	398.11
404.999	401.27
405.377	410.99
405.755	401.5
406.133	410.54
406.511	410.54
406.889	420.26
407.267	414.61
407.645	435.17
408.023	439.69
408.401	438.56
408.779	443.99
409.156	443.76
409.534	455.74
409.912	446.47
410.29	457.32
410.667	453.93
411.045	448.96
411.422	451.67
411.8	471.56
412.178	449.18
412.555	452.8
412.933	457.09
413.31	498.45
413.687	485.57
414.065	493.93
414.442	477.2
414.819	485.11
415.197	504.32
415.574	531.21
415.951	517.43
416.328	511.78
416.705	521.72
417.082	493.02
417.46	521.27
417.837	523.08
418.214	534.6
418.591	516.75
418.967	534.83
419.344	523.31
419.721	550.42
420.098	556.52
420.475	557.65
420.852	556.75
421.228	531.67
421.605	560.59
421.982	583.42
422.358	567.6
422.735	578.67
423.111	584.09
423.488	587.26
423.864	571.67
424.241	602.85
424.617	601.04
424.994	596.3
425.37	599.46
425.746	601.72
426.123	622.96
426.499	626.13
426.875	613.47
427.251	607.6
427.627	657.31
428.003	648.95
428.379	648.27
428.756	645.56
429.132	654.15
429.507	657.77
429.883	670.19
430.259	678.1
430.635	685.56
431.011	670.87
431.387	700.02
431.763	708.61
432.138	703.64
432.514	741.15
432.89	707.71
433.265	722.62
433.641	725.33
434.016	728.5
434.392	749.51
434.767	742.28
435.143	759.01
435.518	779.34
435.894	760.81
436.269	773.69
436.644	785.67
437.02	786.12
437.395	801.26
437.77	806.91
438.145	809.85
438.52	801.94
438.895	808.04
439.271	837.42
439.646	833.81
440.021	815.95
440.395	828.83
440.77	821.38
441.145	850.3
441.52	846.69
441.895	839
442.27	862.96
442.645	884.88
443.019	881.71
443.394	874.48
443.769	882.84
444.143	861.6
444.518	907.02
444.892	913.58
445.267	876.52
445.641	901.37
446.016	890.08
446.39	926.91
446.764	920.13
447.139	939.11
447.513	941.6
447.887	912.9
448.262	929.17
448.636	930.75
449.01	921.04
449.384	967.36
449.758	942.28
450.132	955.16
450.506	937.08
450.88	994.71
451.254	940.92
451.628	969.85
452.002	960.81
452.376	986.12
452.75	1006.23
453.123	982.73
453.497	989.06
453.871	1006.91
454.244	1016.17
454.618	1022.73
454.992	1020.92
455.365	993.35
455.739	1054.36
456.112	1046
456.486	1040.13
456.859	1072.22
457.232	1073.12
457.606	1067.92
457.979	1081.93
458.352	1100.01
458.725	1118.77
459.099	1111.99
459.472	1112.67
459.845	1152.89
460.218	1152.67
460.591	1177.07
460.964	1148.37
461.337	1186.34
461.71	1197.19
462.083	1216.62
462.456	1202.38
462.829	1241.48
463.201	1216.39
463.574	1225.66
463.947	1262.04
464.32	1278.54
464.692	1273.57
465.065	1312.89
465.438	1289.61
465.81	1317.41
466.183	1321.48
466.555	1336.39
466.928	1348.14
467.3	1355.83
467.672	1353.34
468.045	1401.02
468.417	1390.85
468.789	1428.14
469.161	1428.37
469.534	1442.15
469.906	1457.97
470.278	1463.62
470.65	1462.49
471.022	1502.94
471.394	1547.01
471.766	1550.62
472.138	1575.03
472.51	1603.05
472.882	1604.18
473.253	1623.39
473.625	1637.85
473.997	1676.95
474.369	1711.3
474.74	1716.95
475.112	1722.6
475.484	1768.24
475.855	1799.66
476.227	1790.39
476.598	1821.8
476.97	1820.9
477.341	1885.98
477.713	1871.07
478.084	1937.73
478.455	1966.21
478.827	1961.69
479.198	2031.51
479.569	2045.98
479.94	2077.84
480.311	2087.56
480.682	2113.09
481.053	2164.39
481.424	2221.57
481.795	2225.63
482.166	2294.33
482.537	2282.36
482.908	2304.28
483.279	2330.94
483.65	2413.65
484.021	2423.59
484.391	2431.28
484.762	2488.45
485.133	2495.46
485.503	2521.45
485.874	2582.23
486.244	2615.45
486.615	2676.47
486.985	2680.54
487.356	2704.04
487.726	2732.06
488.097	2799.63
488.467	2766.18
488.837	2851.38
489.207	2862.23
489.578	2903.81
489.948	2951.94
490.318	2963.92
490.688	2976.57
491.058	3052.73
491.428	3030.58
491.798	3057.93
492.168	3118.72
492.538	3168.89
492.908	3193.07
493.278	3244.36
493.648	3240.97
494.017	3257.24
494.387	3282.55
494.757	3332.95
495.126	3323.68
495.496	3349.22
495.866	3399.39
496.235	3398.71
496.605	3465.15
496.974	3426.05
497.344	3501.76
497.713	3500.85
498.082	3518.48
498.452	3590.12
498.821	3595.09
499.19	3579.72
499.559	3597.12
499.928	3653.39
500.298	3637.12
500.667	3691.81
501.036	3681.41
501.405	3716.22
501.774	3697.91
502.143	3728.42
502.512	3765.71
502.88	3794.63
503.249	3798.93
503.618	3813.16
503.987	3843.67
504.356	3895.65
504.724	3892.71
505.093	3917.79
505.462	3877.57
505.83	3897.45
506.199	3980.39
506.567	3975.42
506.936	3962.31
507.304	3985.36
507.672	4067.17
508.041	4053.83
508.409	4083.21
508.777	4106.94
509.145	4104.91
509.514	4084.12
509.882	4137.67
510.25	4154.17
510.618	4176.99
510.986	4158.24
511.354	4196.2
511.722	4198.46
512.09	4252.47
512.458	4244.56
512.826	4247.73
513.193	4303.32
513.561	4311.45
513.929	4300.38
514.297	4291.34
514.664	4351.91
515.032	4323.43
515.4	4366.59
515.767	4403.2
516.135	4379.02
516.502	4374.96
516.869	4452.02
517.237	4445.24
517.604	4470.55
517.972	4475.97
518.339	4504.9
518.706	4474.84
519.073	4492.01
519.44	4519.81
519.808	4542.18
520.175	4542.18
520.542	4595.74
520.909	4644.1
521.276	4587.38
521.643	4597.55
522.009	4677.32
522.376	4652.46
522.743	4691.78
523.11	4718.22
523.477	4762.74
523.843	4759.13
524.21	4857.88
524.577	4785.79
524.943	4825.34
525.31	4866.24
525.676	4935.84
526.043	4951.44
526.409	4893.59
526.776	5052
527.142	5001.83
527.508	5040.02
527.874	5068.04
528.241	5054.03
528.607	5054.49
528.973	5123.86
529.339	5070.76
529.705	5172.9
530.071	5161.83
530.437	5223.52
530.803	5211.54
531.169	5263.52
531.535	5277.76
531.901	5290.86
532.267	5271.88
532.632	5363.18
532.998	5354.82
533.364	5417.64
533.73	5396.62
534.095	5463.97
534.461	5466
534.826	5486.56
535.192	5471.42
535.557	5584.19
535.923	5538.77
536.288	5568.14
536.653	5592.78
537.019	5587.13
537.384	5623.96
537.749	5703.06
538.114	5671.42
538.479	5700.8
538.845	5697.41
539.21	5711.19
539.575	5758.2
539.94	5744.86
540.305	5822.15
540.67	5745.99
541.034	5831.64
541.399	5846.1
541.764	5879.77
542.129	5924.75
542.494	5875.26
542.858	5952.99
543.223	5976.72
543.587	5993.44
543.952	5954.58
544.316	6068.7
544.681	5989.15
545.045	6117.51
545.41	6095.14
545.774	6123.84
546.138	6136.72
546.503	6153.21
546.867	6163.38
547.231	6197.05
547.595	6235.47
547.959	6239.09
548.324	6263.72
548.688	6294.68
549.052	6335.81
549.416	6374.68
549.779	6319.99
550.143	6419.87
550.507	6445.86
550.871	6428.91
551.235	6457.84
551.599	6497.84
551.962	6521.79
552.326	6556.14
552.689	6491.51
553.053	6534.9
553.417	6578.29
553.78	6626.42
554.143	6599.53
554.507	6628
554.87	6703.03
555.234	6716.59
555.597	6684.27
555.96	6743.71
556.323	6751.39
556.686	6699.64
557.05	6791.84
557.413	6819.19
557.776	6761.56
558.139	6815.34
558.502	6834.55
558.865	6906.19
559.228	6911.16
559.59	6936.47
559.953	7015.34
560.316	7046.52
560.679	7054.43
561.041	7050.37
561.404	7095.11
561.767	7098.05
562.129	7101.89
562.492	7162.45
562.854	7250.81
563.217	7169.23
563.579	7164.49
563.941	7228.89
564.304	7227.99
564.666	7272.28
565.028	7316.8
565.39	7345.05
565.753	7361.32
566.115	7431.82
566.477	7431.37
566.839	7440.86
567.201	7515.44
567.563	7446.51
567.925	7523.35
568.287	7602.44
568.648	7534.87
569.01	7564.48
569.372	7674.3
569.734	7594.31
570.095	7700.74
570.457	7750.91
570.819	7768.09
571.18	7817.8
571.542	7881.3
571.903	7866.39
572.265	7919.04
572.626	7955.43
572.987	8008.31
573.349	8078.59
573.71	8070.9
574.071	8100.51
574.432	8211.46
574.794	8239.94
575.155	8335.3
575.516	8256.89
575.877	8411.46
576.238	8333.72
576.599	8501.85
576.96	8566.26
577.32	8591.12
577.681	8707.5
578.042	8813.26
578.403	8829.08
578.763	8909.98
579.124	9055.28
579.485	9087.15
579.845	9170.31
580.206	9301.15
580.566	9362.17
580.927	9479.68
581.287	9624.31
581.648	9726.68
582.008	9873.34
582.368	9924.41
582.728	10124.18
583.089	10257.74
583.449	10438.98
583.809	10548.35
584.169	10700.66
584.529	10794.45
584.889	11088.9
585.249	11289.58
585.609	11369.8
585.969	11595.56
586.329	11780.86
586.688	11880.07
587.048	12148.76
587.408	12334.75
587.768	12481.64
588.127	12741.06
588.487	12944.67
588.846	13312.57
589.206	13406.81
589.565	13594.6
589.925	13955.04
590.284	14109.16
590.643	14395.48
591.003	14668.02
591.362	14963.6
591.721	15193.65
592.08	15414.44
592.44	15742.79
592.799	15936.46
593.158	16161.99
593.517	16447.18
593.876	16870.67
594.235	17010.33
594.593	17351.56
594.952	17646.25
595.311	17825
595.67	18140.24
596.029	18577.52
596.387	18777.29
596.746	19084.63
597.104	19327.1
597.463	19638.51
597.822	19886.86
598.18	20169.57
598.538	20331.37
598.897	20744.24
599.255	20866.27
599.613	21445.02
599.972	21546.93
600.33	21883.42
600.688	22083.42
601.046	22409.51
601.404	22785.32
601.762	23067.12
602.12	23267.79
602.478	23514.57
602.836	23772.19
603.194	24016.93
603.552	24233.64
603.91	24380.76
604.268	24830.69
604.625	24899.16
604.983	25336.21
605.341	25385.93
605.698	25702.53
606.056	26032.47
606.413	26131.45
606.771	26552.23
607.128	26710.64
607.485	26912.89
607.843	27056.62
608.2	27438.76
608.557	27687.79
608.914	27758.3
609.272	28056.59
609.629	28383.36
609.986	28676.01
610.343	28673.53
610.7	29059.73
611.057	29137.69
611.414	29381.53
611.771	29526.38
612.127	29724.35
612.484	29873.95
612.841	30313.03
613.198	30236.87
613.554	30517.09
613.911	30836.18
614.267	30887.25
614.624	31131.99
614.98	31280.91
615.337	31494.02
615.693	31615.6
616.05	31595.26
616.406	32017.62
616.762	31948.47
617.118	32236.14
617.475	32203.15
617.831	32558.62
618.187	32620.31
618.543	32798.62
618.899	33115.44
619.255	33156.57
619.611	33284.03
619.967	33369.22
620.323	33496.45
620.678	33494.64
621.034	33500.74
621.39	33626.84
621.746	33734.64
622.101	34156.55
622.457	34046.49
622.812	34077.9
623.168	34325.81
623.523	34348.18
623.879	34634.5
624.234	34404.45
624.589	34665.68
624.945	34726.93
625.3	34863.19
625.655	35017.09
626.01	35088.95
626.365	35165.56
626.72	35104.32
627.075	35270.87
627.43	35222.73
627.785	35210.3
628.14	35379.56
628.495	35530.52
628.85	35454.59
629.205	35372.11
629.559	35649.39
629.914	35594.7
630.269	35648.71
630.623	35516.28
630.978	35584.98
631.332	35736.84
631.687	35783.4
632.041	35684.19
632.396	35931.64
632.75	35838.54
633.104	35873.56
633.459	35789.27
633.813	35798.08
634.167	35864.98
634.521	35889.38
634.875	35901.36
635.229	35744.98
635.583	35661.82
635.937	35974.12
636.291	35847.35
636.645	35776.16
636.999	35833.11
637.352	35774.58
637.706	35833.79
638.06	35873.11
638.413	35731.42
638.767	35792.89
639.121	35931.41
639.474	35645.77
639.828	35695.26
640.181	35856.84
640.534	35796.73
640.888	35729.39
641.241	35674.7
641.594	35700.69
641.947	35858.65
642.301	35762.15
642.654	35788.82
643.007	35733.23
643.36	35791.08
643.713	35695.94
644.066	35829.95
644.419	35624.98
644.771	35469.05
645.124	35132.79
645.477	35100.02
645.83	34850.09
646.182	34727.6
646.535	34782.74
646.888	34852.12
647.24	34564.9
647.593	34854.83
647.945	34769.41
648.298	34672.69
648.65	34570.32
649.002	34583.65
649.355	34592.92
649.707	34655.97
650.059	34726.25
650.411	35086.24
650.763	35168.72
651.115	35535.94
651.467	35433.12
651.819	35427.92
652.171	35477.41
652.523	35327.14
652.875	35333.24
653.227	35353.12
653.578	35512.67
653.93	35446.23
654.282	35290.98
654.633	35232.45
654.985	35133.24
655.337	35324.2
655.688	35299.11
656.039	35368.94
656.391	35056.18
656.742	35166.69
657.094	35185.44
657.445	35243.3
657.796	35102.28
658.147	35184.09
658.498	35180.47
658.849	35014.6
659.2	35019.57
659.551	35041.72
659.902	35172.34
660.253	35087.82
660.604	35108.16
660.955	34995.85
661.306	35102.28
661.656	35152.23
662.007	35093.7
662.358	35102.51
662.708	35083.75
663.059	35131.66
663.409	34940.93
663.76	34959.46
664.11	35061.83
664.461	35132.79
664.811	35009.86
665.161	35048.73
665.511	34989.29
665.862	35073.58
666.212	35123.75
666.562	35296.4
666.912	35082.17
667.262	35006.69
667.612	35004.43
667.962	35031.55
668.312	34959.24
668.662	35208.04
669.011	35073.13
669.361	34944.55
669.711	34874.94
670.06	34874.04
670.41	34911.1
670.76	34877.43
671.109	34992.46
671.459	34886.02
671.808	34770.54
672.157	34940.03
672.507	34627.72
672.856	34774.83
673.205	34698.23
673.554	34806.92
673.904	34652.8
674.253	34914.27
674.602	34771.22
674.951	34313.83
675.3	34107.28
675.649	34770.31
675.998	34595.4
676.346	34742.52
676.695	34749.52
677.044	34488.51
677.393	34545.24
677.741	34586.59
678.09	34618.45
678.438	34536.42
678.787	34488.74
679.135	34511.11
679.484	34332.59
679.832	34361.74
680.181	34305.02
680.529	34372.36
680.877	34293.04
681.225	34223.66
681.573	34452.13
681.922	34232.93
682.27	34101.41
682.618	34212.14
682.966	33899.15
683.314	34069.32
683.661	33987.51
684.009	33770.79
684.357	33789.55
684.705	33735.09
685.053	33801.07
685.4	33677.69
685.748	33599.95
686.095	33615.77
686.443	33519.05
686.79	33566.05
687.138	33497.58
687.485	33533.28
687.832	33324.02
688.18	33275.66
688.527	33194.76
688.874	33248.09
689.221	33102.79
689.568	33087.65
689.915	32927.88
690.262	32782.12
690.609	32994.77
690.956	32732.4
691.303	32670.93
691.65	32608.56
691.997	32561.11
692.344	32310.94
692.69	32272.75
693.037	32323.6
693.383	32128.58
693.73	32256.48
694.077	32061.23
694.423	31993.89
694.769	32117.95
695.116	31891.52
695.462	31823.27
695.808	31737.17
696.155	31659.44
696.501	31484.07
696.847	31595.48
697.193	31376.51
697.539	31474.36
697.885	31116.4
698.231	31151.2
698.577	31135.38
698.923	31070.52
699.269	30866.46
699.614	30784.43
699.96	30829.4
700.306	30694.94
700.651	30584.44
700.997	30583.98
701.342	30429.19
701.688	30479.13
702.033	30368.62
702.379	30357.55
702.724	30278.91
703.069	30190.32
703.415	29900.61
703.76	30050.21
704.105	29990.55
704.45	29855.87
704.795	29746.72
705.14	29562.54
705.485	29704.69
705.83	29667.4
706.175	29390.57
706.52	29437.8
706.865	29313.73
707.209	29300.85
707.554	29159.84
707.899	29243.91
708.243	29095.66
708.588	29048.88
708.932	28903.35
709.277	28934.54
709.621	28897.7
709.966	28746.74
710.31	28761.43
710.654	28529.35
710.998	28686.41
711.342	28608.67
711.687	28567.54
712.031	28476.69
712.375	28370.71
712.719	28384.04
713.063	28353.08
713.407	28362.57
713.75	28052.07
714.094	28230.6
714.438	28098.63
714.782	28072.41
715.125	28023.37
715.469	28058.85
715.812	27869.25
716.156	27681.01
716.499	27758.75
716.843	27784.96
717.186	27610.5
717.53	27710.84
717.873	27701.57
718.216	27584.06
718.559	27482.6
718.902	27301.58
719.246	27426.55
719.589	27287.57
719.932	27082.16
720.275	27272.21
720.617	27121.48
720.96	27125.32
721.303	26998.99
721.646	27019.56
721.989	26842.39
722.331	26971.65
722.674	26977.75
723.016	26809.39
723.359	26774.37
723.701	26878.77
724.044	26676.97
724.386	26566.01
724.729	26730.3
725.071	26675.16
725.413	26612.56
725.755	26556.52
726.097	26377.31
726.439	26314.94
726.782	26469.74
727.124	26419.57
727.465	26283.98
727.807	26421.83
728.149	26221.61
728.491	26178.22
728.833	26203.53
729.175	26086.93
729.516	26006.7
729.858	25992.01
730.199	26058
730.541	25995.86
730.882	25987.49
731.224	26069.07
731.565	25942.07
731.906	25835.41
732.248	25781.85
732.589	25713.83
732.93	25500.95
733.271	25644.9
733.612	25611.69
733.953	25534.63
734.294	25460.73
734.635	25447.85
734.976	25489.88
735.317	25345.48
735.658	25390.67
735.999	25293.5
736.339	25368.08
736.68	25303.9
737.021	25227.74
737.361	24949.56
737.702	25263.67
738.042	25164.24
738.383	25164.69
738.723	25203.79
739.063	24904.36
739.404	25117.01
739.744	24985.49
740.084	24932.38
740.424	24921.53
740.764	24964.92
741.104	24923.79
741.444	24650.13
741.784	24789.79
742.124	24761.76
742.464	24728.09
742.804	24678.83
743.143	24649.68
743.483	24681.31
743.823	24577.14
744.162	24421.66
744.502	24553.41
744.841	24355.22
745.181	24484.94
745.52	24370.81
745.86	24336.69
746.199	24261.44
746.538	24242.68
746.877	24364.03
747.216	24338.5
747.556	24293.75
747.895	24221.67
748.234	24043.59
748.573	24131.5
748.911	24046.3
749.25	24074.32
749.589	23961.79
749.928	24061.67
750.267	24028.68
750.605	23866.19
750.944	23825.29
751.283	23773.54
751.621	23757.95
751.96	23635.69
752.298	23576.48
752.636	23659.65
752.975	23562.93
753.313	23513.66
753.651	23652.64
753.989	23373.78
754.327	23352.99
754.666	23278.41
755.004	23362.7
755.342	23299.43
755.679	23420.78
756.017	23091.53
756.355	23355.47
756.693	23129.04
757.031	23149.6
757.368	23051.75
757.706	22920.23
758.044	22826.45
758.381	22838.42
758.719	22783.51
759.056	22774.92
759.394	22665.55
759.731	22562.27
760.068	22587.36
760.405	22461.49
