Data from hue_22_FLMS001491_00024.txt Node
Date: Tue Feb 07 17:09:52 GMT 2017
User: dcchb
Spectrometer: FLMS00149
Trigger mode: 0
Integration Time (sec): 2.000000E-2
Scans to average: 10
Electric dark correction enabled: true
Nonlinearity correction enabled: false
Boxcar width: 0
XAxis mode: Wavelengths
Number of Pixels in Spectrum: 2048
>>>>>Begin Spectral Data<<<<<
341.393	-23.56
341.776	-23.56
342.16	-23.56
342.543	-79.38
342.927	-75.31
343.31	-83.44
343.693	-68.08
344.077	-69.89
344.46	-53.16
344.843	-65.82
345.226	-38.02
345.61	-45.25
345.993	-10
346.376	-5.03
346.759	11.24
347.142	33.39
347.525	46.04
347.908	53.95
348.291	79.72
348.674	100.73
349.057	113.61
349.44	98.92
349.823	125.82
350.206	149.09
350.588	186.83
350.971	198.36
351.354	223.89
351.737	234.51
352.119	249.2
352.502	263.67
352.884	263.21
353.267	276.77
353.65	297.34
354.032	275.19
354.414	294.17
354.797	287.17
355.179	319.71
355.562	330.1
355.944	312.48
356.326	311.35
356.709	314.96
357.091	318.81
357.473	352.25
357.855	349.76
358.238	335.75
358.62	344.79
359.002	336.66
359.384	328.07
359.766	327.17
360.148	335.3
360.53	340.73
360.912	328.75
361.294	340.73
361.676	328.75
362.057	317.68
362.439	323.55
362.821	357
363.203	310.9
363.584	313.16
363.966	327.17
364.348	315.19
364.729	328.97
365.111	314.51
365.493	313.38
365.874	320.39
366.256	310.67
366.637	314.06
367.019	313.61
367.4	314.29
367.781	305.25
368.163	326.04
368.544	288.98
368.925	298.01
369.306	324.45
369.688	306.6
370.069	296.43
370.45	312.7
370.831	323.32
371.212	303.21
371.593	303.44
371.974	317.9
372.355	330.56
372.736	326.26
373.117	312.03
373.498	341.86
373.879	321.97
374.26	290.78
374.641	306.38
375.021	335.75
375.402	326.04
375.783	340.95
376.163	328.52
376.544	324.91
376.925	335.53
377.305	326.04
377.686	328.52
378.066	316.09
378.447	319.48
378.827	330.1
379.208	335.98
379.588	319.26
379.968	334.85
380.349	335.08
380.729	308.18
381.109	318.58
381.489	349.99
381.87	345.92
382.25	331.69
382.63	322.42
383.01	321.74
383.39	344.34
383.77	331.01
384.15	349.31
384.53	345.92
384.91	345.25
385.29	352.7
385.67	357
386.049	366.71
386.429	324.23
386.809	339.82
387.189	346.6
387.568	352.25
387.948	363.78
388.328	349.76
388.707	348.63
389.087	355.64
389.466	350.89
389.846	369.88
390.225	364.68
390.605	365.36
390.984	362.19
391.363	382.31
391.743	367.17
392.122	364.45
392.501	347.73
392.881	378.69
393.26	375.53
393.639	359.26
394.018	367.84
394.397	378.24
394.776	382.08
395.155	385.7
395.534	387.73
395.913	391.12
396.292	382.53
396.671	376.66
397.05	411.01
397.429	384.79
397.808	388.63
398.186	350.89
398.565	380.72
398.944	373.04
399.323	384.34
399.701	372.14
400.08	373.94
400.458	388.86
400.837	376.88
401.215	408.97
401.594	369.65
401.972	389.99
402.351	394.74
402.729	421.85
403.107	419.82
403.486	403.1
403.864	422.76
404.242	413.72
404.62	430.89
404.999	421.18
405.377	411.46
405.755	431.8
406.133	410.78
406.511	408.29
406.889	425.92
407.267	423.89
407.645	428.63
408.023	446.71
408.401	421.85
408.779	437.22
409.156	446.94
409.534	430.67
409.912	458.24
410.29	427.28
410.667	446.49
411.045	446.94
411.422	450.78
411.8	453.26
412.178	444
412.555	467.73
412.933	469.08
413.31	474.96
413.687	460.72
414.065	492.81
414.442	460.27
414.819	502.76
415.197	479.25
415.574	491.91
415.951	493.72
416.328	493.72
416.705	507.05
417.082	471.57
417.46	491.68
417.837	502.53
418.214	510.66
418.591	519.7
418.967	513.6
419.344	508.63
419.721	530.78
420.098	506.37
420.475	513.83
420.852	516.09
421.228	510.44
421.605	526.94
421.982	531.91
422.358	525.13
422.735	534.17
423.111	547.5
423.488	549.31
423.864	553.38
424.241	550.21
424.617	542.98
424.994	548.63
425.37	549.31
425.746	554.51
426.123	554.73
426.499	577.56
426.875	561.96
427.251	583.88
427.627	584.79
428.003	585.69
428.379	617.55
428.756	579.82
429.132	577.56
429.507	606.71
429.883	609.42
430.259	567.84
430.635	629.53
431.011	608.52
431.387	615.07
431.763	611.45
432.138	624.11
432.514	645.12
432.89	664.11
433.265	672.47
433.641	651.9
434.016	672.47
434.392	654.39
434.767	655.29
435.143	684.67
435.518	674.28
435.894	671.34
436.269	702.75
436.644	686.93
437.02	687.61
437.395	693.03
437.77	733.71
438.145	706.82
438.52	742.07
438.895	736.65
439.271	748.17
439.646	733.03
440.021	740.04
440.395	748.85
440.77	750.21
441.145	741.17
441.52	767.61
441.895	755.4
442.27	762.41
442.645	771.67
443.019	778.23
443.394	773.03
443.769	768.96
444.143	775.52
444.518	784.33
444.892	809.64
445.267	792.47
445.641	795.85
446.016	798.11
446.39	808.96
446.764	836.98
447.139	801.28
447.513	816.19
447.887	821.39
448.262	818.91
448.636	821.62
449.01	837.66
449.384	859.58
449.758	829.75
450.132	838.79
450.506	868.85
450.88	855.29
451.254	862.75
451.628	875.85
452.002	892.35
452.376	876.98
452.75	909.07
453.123	875.63
453.497	909.75
453.871	920.6
454.244	955.85
454.618	933.7
454.992	950.65
455.365	975.51
455.739	994.49
456.112	993.82
456.486	980.48
456.859	986.81
457.232	979.13
457.606	1018
457.979	1022.52
458.352	1010.99
458.725	1038.56
459.099	1023.65
459.472	1049.63
459.845	1075.17
460.218	1055.96
460.591	1060.71
460.964	1094.6
461.337	1112.46
461.71	1113.13
462.083	1147.03
462.456	1157.43
462.829	1136.86
463.201	1176.86
463.574	1163.3
463.947	1178.22
464.32	1213.02
464.692	1217.76
465.065	1220.93
465.438	1230.19
465.81	1266.58
466.183	1264.32
466.555	1288.05
466.928	1321.04
467.3	1280.81
467.672	1325.56
468.045	1331.21
468.417	1339.12
468.789	1381.6
469.161	1401.71
469.534	1376.86
469.906	1434.26
470.278	1448.72
470.65	1476.06
471.022	1483.29
471.394	1519.68
471.766	1516.06
472.138	1563.29
472.51	1554.48
472.882	1570.98
473.253	1607.13
473.625	1620.01
473.997	1662.95
474.369	1686
474.74	1697.3
475.112	1729.62
475.484	1750.86
475.855	1795.83
476.227	1832.21
476.598	1855.04
476.97	1875.37
477.341	1912.89
477.713	1938.42
478.084	1973.68
478.455	1985.65
478.827	2033.79
479.198	2087.12
479.569	2094.13
479.94	2148.59
480.311	2200.34
480.682	2255.48
481.053	2294.12
481.424	2319.2
481.795	2369.82
482.166	2398.07
482.537	2484.85
482.908	2509.93
483.279	2551.29
483.65	2577.5
484.021	2621.12
484.391	2690.27
484.762	2701.34
485.133	2706.54
485.503	2769.14
485.874	2863.15
486.244	2875.35
486.615	2912.18
486.985	2960.09
487.356	3022.91
487.726	3043.25
488.097	3137.26
488.467	3154.66
488.837	3234.43
489.207	3265.17
489.578	3278.73
489.948	3370.93
490.318	3407.09
490.688	3426.29
491.058	3492.06
491.428	3520.53
491.798	3563.92
492.168	3656.57
492.538	3669.9
492.908	3743.8
493.278	3769.56
493.648	3817.7
494.017	3857.7
494.387	3901.31
494.757	3944.7
495.126	3956.45
495.496	3991.25
495.866	3984.7
496.235	4077.8
496.605	4073.06
496.974	4160.51
497.344	4171.81
497.713	4184.69
498.082	4251.81
498.452	4333.61
498.821	4304.92
499.19	4348.08
499.559	4363.9
499.928	4397.12
500.298	4433.95
500.667	4426.95
501.036	4478.7
501.405	4526.15
501.774	4554.17
502.143	4568.64
502.512	4592.82
502.88	4668.52
503.249	4659.26
503.618	4698.8
503.987	4688.18
504.356	4747.39
504.724	4762.53
505.093	4749.42
505.462	4799.59
505.83	4842.98
506.199	4837.1
506.567	4899.48
506.936	4919.36
507.304	4968.63
507.672	5021.51
508.041	5015.63
508.409	5077.55
508.777	5073.26
509.145	5077.78
509.514	5094.27
509.882	5142.41
510.25	5172.91
510.618	5145.57
510.986	5151.22
511.354	5205.68
511.722	5265.34
512.09	5357.99
512.458	5290.88
512.826	5325.23
513.193	5378.33
513.561	5363.42
513.929	5419.69
514.297	5466.69
514.664	5455.39
515.032	5495.17
515.4	5529.52
515.767	5514.15
516.135	5587.37
516.502	5577.88
516.869	5639.12
517.237	5658.1
517.604	5646.12
517.972	5708.04
518.339	5695.61
518.706	5681.15
519.073	5734.48
519.44	5775.16
519.808	5817.87
520.175	5809.51
520.542	5813.58
520.909	5860.13
521.276	5848.15
521.643	5911.65
522.009	5976.51
522.376	6028.26
522.743	6084.3
523.11	6085.43
523.477	6113.46
523.843	6093.57
524.21	6160.46
524.577	6230.51
524.943	6275.03
525.31	6212.21
525.676	6329.95
526.043	6395.26
526.409	6408.14
526.776	6387.57
527.142	6453.56
527.508	6470.96
527.874	6520.45
528.241	6573.1
528.607	6583.05
528.973	6616.27
529.339	6626.21
529.705	6685.19
530.071	6717.96
530.437	6748.24
530.803	6802.7
531.169	6795.02
531.535	6790.73
531.901	6877.5
532.267	6909.82
532.632	6930.16
532.998	6985.07
533.364	6990.95
533.73	7055.35
534.095	7054.45
534.461	7122.02
534.826	7125.63
535.192	7204.95
535.557	7204.95
535.923	7209.92
536.288	7237.72
536.653	7284.95
537.019	7234.78
537.384	7315.46
537.749	7323.37
538.114	7346.87
538.479	7432.74
538.845	7399.3
539.21	7410.82
539.575	7423.7
539.94	7498.96
540.305	7598.61
540.67	7533.3
541.034	7600.87
541.399	7609.69
541.764	7695.33
542.129	7636.8
542.494	7702.57
542.858	7738.05
543.223	7834.09
543.587	7818.95
543.952	7792.28
544.316	7834.77
544.681	7869.34
545.045	7918.61
545.41	7947.53
545.774	7969.68
546.138	8018.49
546.503	8062.1
546.867	7992.28
547.231	8146.62
547.595	8170.8
547.959	8151.14
548.324	8193.63
548.688	8220.29
549.052	8261.87
549.416	8251.48
549.779	8264.58
550.143	8302.1
550.507	8373.51
550.871	8420.51
551.235	8402.89
551.599	8441.3
551.962	8495.31
552.326	8499.61
552.689	8536.67
553.053	8553.84
553.417	8533.96
553.78	8628.19
554.143	8648.98
554.507	8672.26
554.87	8627.74
555.234	8727.85
555.597	8740.96
555.96	8723.78
556.323	8807.17
556.686	8809.66
557.05	8819.82
557.413	8923.78
557.776	8912.48
558.139	8963.55
558.502	9001.06
558.865	8970.33
559.228	8971.23
559.59	9104.11
559.953	9074.06
560.316	9125.35
560.679	9223.88
561.041	9185.24
561.404	9308.4
561.767	9261.17
562.129	9264.78
562.492	9378.45
562.854	9398.34
563.217	9356.53
563.579	9378.45
563.941	9466.36
564.304	9473.14
564.666	9507.26
565.028	9624.1
565.39	9556.98
565.753	9576.19
566.115	9668.16
566.477	9712.46
566.839	9756.75
567.201	9872
567.563	9812.34
567.925	9910.19
568.287	9909.97
568.648	9925.78
569.01	10012.11
569.372	10042.84
569.734	10032.22
570.095	10165.33
570.457	10112.45
570.819	10178.66
571.18	10174.82
571.542	10243.97
571.903	10266.79
572.265	10372.33
572.626	10402.61
572.987	10432.44
573.349	10502.72
573.71	10511.76
574.071	10597.18
574.432	10632.66
574.794	10744.97
575.155	10738.42
575.516	10809.38
575.877	10858.42
576.238	10938.64
576.599	11001.91
576.96	11095.24
577.32	11212.08
577.681	11215.92
578.042	11363.49
578.403	11355.8
578.763	11491.84
579.124	11555.12
579.485	11703.82
579.845	11837.6
580.206	11861.55
580.566	11971.83
580.927	12103.58
581.287	12361.2
581.648	12286.63
582.008	12469.22
582.368	12599.39
582.728	12816.1
583.089	12909.43
583.449	13045.7
583.809	13255.87
584.169	13435.75
584.529	13493.6
584.889	13813.59
585.249	13895.85
585.609	14037.54
585.969	14354.37
586.329	14489.73
586.688	14759.33
587.048	14954.8
587.408	15159.09
587.768	15317.73
588.127	15613.32
588.487	15792.75
588.846	16171.27
589.206	16351.15
589.565	16627.3
589.925	16972.38
590.284	17233.16
590.643	17420.95
591.003	17632.25
591.362	18121.05
591.721	18297.09
592.08	18545.44
592.44	18826.79
592.799	19227.69
593.158	19383.16
593.517	19643.27
593.876	19990.38
594.235	20265.85
594.593	20611.6
594.952	20895.21
595.311	21206.39
595.67	21581.75
596.029	22051.12
596.387	22207.5
596.746	22591.44
597.104	22844.54
597.463	23186.68
597.822	23572.66
598.18	23736.27
598.538	24137.84
598.897	24400.43
599.255	24517.26
599.613	25267.53
599.972	25438.82
600.33	25764.69
600.688	26061.41
601.046	26373.04
601.404	26787.49
601.762	26956.52
602.12	27487.81
602.478	27690.51
602.836	27968.25
603.194	28125.53
603.552	28418.63
603.91	28597.61
604.268	29127.99
604.625	29283.02
604.983	29685.94
605.341	29834.19
605.698	30322.54
606.056	30608.63
606.413	30691.57
606.771	31129.97
607.128	31411.77
607.485	31463.97
607.843	31789.39
608.2	32284.07
608.557	32535.59
608.914	32555.7
609.272	32964.27
609.629	33248.33
609.986	33496.46
610.343	33670.7
610.7	34047.86
611.057	34198.14
611.414	34420.06
611.771	34578.02
612.127	34827.28
612.484	35086.93
612.841	35347.94
613.198	35494.15
613.554	35629.06
613.911	36008.49
614.267	36244.64
614.624	36395.82
614.98	36530.28
615.337	36849.82
615.693	36989.03
616.05	36933.89
616.406	37431.95
616.762	37517.6
617.118	37684.15
617.475	37855.45
617.831	38164.82
618.187	38316
618.543	38521.19
618.899	38756.89
619.255	38829.43
619.611	38978.58
619.967	39180.16
620.323	39380.15
620.678	39346.71
621.034	39372.02
621.39	39424.9
621.746	39594.83
622.101	40093.35
622.457	39939.68
622.812	39997.54
623.168	40217.42
623.523	40394.36
623.879	40512.1
624.234	40355.27
624.589	40590.97
624.945	40732.21
625.3	40817.63
625.655	40888.13
626.01	41157.05
626.365	41085.19
626.72	41193.66
627.075	41183.72
627.43	41217.62
627.785	41252.64
628.14	41390.95
628.495	41437.5
628.85	41439.31
629.205	41387.1
629.559	41783.93
629.914	41526.31
630.269	41621.67
630.623	41654.67
630.978	41593.88
631.332	41869.35
631.687	41828
632.041	41698.06
632.396	41884.27
632.75	41967.43
633.104	41952.51
633.459	41954.09
633.813	41881.1
634.167	41863.48
634.521	41885.62
634.875	42172.62
635.229	42004.94
635.583	41778.28
635.937	41987.54
636.291	41994.77
636.645	41974.66
636.999	41812.18
637.352	42117.25
637.706	41924.72
638.06	42108.44
638.413	41947.54
638.767	41956.81
639.121	42050.14
639.474	41836.58
639.828	42002
640.181	41832.74
640.534	41852.85
640.888	41844.04
641.241	41809.01
641.594	41835.45
641.947	41947.99
642.301	41806.75
642.654	41908.22
643.007	41948.9
643.36	41853.31
643.713	41835.68
644.066	42103.7
644.419	41776.47
644.771	41598.62
645.124	41330.61
645.477	41097.17
645.83	40926.78
646.182	40854.01
646.535	40738.99
646.888	40865.99
647.24	40563.85
647.593	40887.23
647.945	40843.84
648.298	40538.76
648.65	40543.51
649.002	40537.18
649.355	40728.82
649.707	40686.56
650.059	40784.63
650.411	41203.61
650.763	41256.94
651.115	41650.6
651.467	41589.81
651.819	41553.2
652.171	41327.44
652.523	41430.27
652.875	41435.24
653.227	41320.66
653.578	41449.7
653.93	41490.83
654.282	41262.59
654.633	41105.76
654.985	41302.13
655.337	41340.1
655.688	41251.51
656.039	41504.39
656.391	41269.82
656.742	41311.4
657.094	41319.54
657.445	41528.8
657.796	41298.29
658.147	41168.58
658.498	41167.45
658.849	41322.92
659.2	41399.08
659.551	41263.04
659.902	41198.63
660.253	41313.89
660.604	41152.99
660.955	41011.07
661.306	41202.7
661.656	41157.51
662.007	41173.55
662.358	41137.17
662.708	41055.14
663.059	41131.97
663.409	41018.53
663.76	41291.97
664.11	41221.46
664.461	41285.19
664.811	41146.21
665.161	41131.29
665.511	41010.62
665.862	40950.51
666.212	41234.11
666.562	41159.99
666.912	41138.97
667.262	41077.28
667.612	40976.27
667.962	41150.95
668.312	41120.22
668.662	41138.07
669.011	40979.43
669.361	41038.64
669.711	41062.82
670.06	40955.02
670.41	40985.98
670.76	41019.2
671.109	41018.07
671.459	40901.24
671.808	40868.7
672.157	40962.71
672.507	40796.16
672.856	40785.31
673.205	40747.35
673.554	40976.72
673.904	40824.63
674.253	41023.05
674.602	40855.59
674.951	40319.56
675.3	40237.53
675.649	40821.92
675.998	40658.99
676.346	40760.23
676.695	40803.39
677.044	40541.25
677.393	40613.11
677.741	40725.88
678.09	40510.97
678.438	40573.34
678.787	40565.2
679.135	40561.59
679.484	40295.61
679.832	40504.19
680.181	40257.42
680.529	40416.96
680.877	40265.1
681.225	40195.04
681.573	40455.15
681.922	40118.44
682.27	40141.03
682.618	40095.16
682.966	39863.98
683.314	40116.4
683.661	39884.32
684.009	39758.45
684.357	39656.08
684.705	39650.88
685.053	39679.8
685.4	39712.8
685.748	39460.37
686.095	39414.73
686.443	39381.51
686.79	39292.7
687.138	39358.46
687.485	39198.23
687.832	39072.14
688.18	39203.43
688.527	39027.39
688.874	39046.37
689.221	38824.69
689.568	38857.23
689.915	38783.1
690.262	38666.95
690.609	38660.4
690.956	38520.51
691.303	38558.48
691.65	38380.86
691.997	38390.8
692.344	38101.09
692.69	38072.39
693.037	38098.38
693.383	37779.29
693.73	37922.56
694.077	37738.84
694.423	37767.31
694.769	37634.66
695.116	37492.29
695.462	37517.38
695.808	37293.2
696.155	37515.12
696.501	37116.03
696.847	37180.66
697.193	36913.32
697.539	37086.88
697.885	36751.75
698.231	36672.88
698.577	36754.01
698.923	36703.84
699.269	36379.55
699.614	36378.87
699.96	36217.07
700.306	36118.32
700.651	36154.7
700.997	35871.77
701.342	35995.83
701.688	35774.82
702.033	35703.41
702.379	35778.21
702.724	35689.4
703.069	35678.78
703.415	35383.42
703.76	35392.46
704.105	35368.73
704.45	35193.37
704.795	35050.32
705.14	35035.41
705.485	35130.55
705.83	34829.54
706.175	34907.05
706.52	34914.96
706.865	34575.53
707.209	34570.56
707.554	34469.77
707.899	34513.61
708.243	34270.91
708.588	34357.68
708.932	34094.64
709.277	34031.59
709.621	34134.19
709.966	33935.77
710.31	33906.17
710.654	33707.08
710.998	33679.51
711.342	33628.21
711.687	33621.43
712.031	33411.95
712.375	33414.88
712.719	33423.25
713.063	33341.21
713.407	33439.52
713.75	33156.36
714.094	33303.7
714.438	33086.76
714.782	33120.88
715.125	32882.47
715.469	33031.62
715.812	32838.18
716.156	32807.89
716.499	32736.94
716.843	32845.63
717.186	32591.18
717.53	32684.28
717.873	32671.17
718.216	32562.93
718.559	32413.33
718.902	32298.08
719.246	32424.85
719.589	32250.62
719.932	32070.29
720.275	32175.37
720.617	32095.82
720.96	31959.33
721.303	32149.61
721.646	32029.61
721.989	31807.47
722.331	31890.63
722.674	31800.92
723.016	31795.49
723.359	31550.75
723.701	31771.54
724.044	31464.65
724.386	31403.41
724.729	31481.15
725.071	31364.54
725.413	31435.28
725.755	31379.46
726.097	31147.6
726.439	31016.98
726.782	31054.04
727.124	31336.75
727.465	31037.55
727.807	31122.97
728.149	30931.11
728.491	30891.79
728.833	30906.93
729.175	30853.37
729.516	30751.9
729.858	30760.04
730.199	30652.47
730.541	30671.23
730.882	30612.25
731.224	30689.53
731.565	30501.06
731.906	30532.7
732.248	30538.8
732.589	30276.66
732.93	30320.5
733.271	30300.39
733.612	30219.49
733.953	30290.67
734.294	30190.11
734.635	30231.92
734.976	30224.23
735.317	29985.14
735.658	30102.65
735.999	30020.85
736.339	29898.59
736.68	30094.29
737.021	29909.67
737.361	29781.99
737.702	30030.79
738.042	29831.48
738.383	29690.24
738.723	29779.27
739.063	29619.96
739.404	29701.99
739.744	29617.7
740.084	29398.49
740.424	29479.39
740.764	29488.43
741.104	29510.13
741.444	29429.9
741.784	29335.44
742.124	29359.62
742.464	29362.56
742.804	29150.82
743.143	29202.57
743.483	29205.28
743.823	28970.03
744.162	29073.53
744.502	29074.66
744.841	28920.99
745.181	29083.47
745.52	28972.06
745.86	28930.93
746.199	28829.47
746.538	28809.36
746.877	28785.4
747.216	28809.13
747.556	28778.62
747.895	28765.29
748.234	28548.12
748.573	28468.12
748.911	28618.4
749.25	28556.93
749.589	28353.77
749.928	28529.14
750.267	28476.93
750.605	28318.29
750.944	28299.99
751.283	28159.88
751.621	28243.72
751.96	27980
752.298	28148.36
752.636	28058.19
752.975	28077.62
753.313	27964.18
753.651	28011.64
753.989	27826.78
754.327	27733.23
754.666	27659.56
755.004	27599.9
755.342	27601.93
755.679	27711.31
756.017	27490.97
756.355	27583.17
756.693	27416.62
757.031	27397.42
757.368	27245.78
757.706	27134.82
758.044	27178.89
758.381	27199
758.719	26954.71
759.056	27119
759.394	26924.66
759.731	26769.86
760.068	26782.06
