Data from hue_100_FLMS001491_00070.txt Node
Date: Tue Feb 07 17:03:31 GMT 2017
User: dcchb
Spectrometer: FLMS00149
Trigger mode: 0
Integration Time (sec): 2.000000E-2
Scans to average: 10
Electric dark correction enabled: true
Nonlinearity correction enabled: false
Boxcar width: 0
XAxis mode: Wavelengths
Number of Pixels in Spectrum: 2048
>>>>>Begin Spectral Data<<<<<
341.393	-26.09
341.776	-26.09
342.16	-26.09
342.543	-57.27
342.927	-72.41
343.31	-75.35
343.693	-72.87
344.077	-75.58
344.46	-68.57
344.843	-45.07
345.226	-30.15
345.61	-22.7
345.993	-7.33
346.376	0.13
346.759	16.62
347.142	14.82
347.525	63.63
347.908	54.81
348.291	65.89
348.674	85.32
349.057	96.4
349.44	116.73
349.823	128.49
350.206	170.74
350.588	216.62
350.971	213
351.354	230.18
351.737	230.4
352.119	284.19
352.502	250.06
352.884	288.93
353.267	279.22
353.65	299.1
354.032	291.87
354.414	325.32
354.797	314.24
355.179	340.46
355.562	321.93
355.944	335.71
356.326	326.22
356.709	345.88
357.091	325.54
357.473	355.37
357.855	338.42
358.238	337.07
358.62	339.78
359.002	335.49
359.384	336.84
359.766	350.17
360.148	342.49
360.53	347.01
360.912	327.8
361.294	337.07
361.676	345.88
362.057	342.49
362.439	375.03
362.821	354.02
363.203	320.34
363.584	320.8
363.966	334.81
364.348	311.76
364.729	344.75
365.111	330.06
365.493	307.69
365.874	317.18
366.256	304.98
366.637	310.85
367.019	329.38
367.4	325.77
367.781	325.77
368.163	306.56
368.544	330.74
368.925	325.77
369.306	332.1
369.688	315.15
370.069	318.99
370.45	335.26
370.831	331.42
371.212	307.92
371.593	332.32
371.974	325.54
372.355	349.72
372.736	315.15
373.117	338.2
373.498	326.22
373.879	325.99
374.26	316.5
374.641	316.28
375.021	313.34
375.402	350.4
375.783	344.07
376.163	357.63
376.544	330.29
376.925	325.09
377.305	337.75
377.686	342.04
378.066	328.03
378.447	335.94
378.827	332.77
379.208	347.69
379.588	356.05
379.968	334.36
380.349	345.88
380.729	339.33
381.109	349.95
381.489	371.19
381.87	349.04
382.25	357.63
382.63	350.85
383.01	354.47
383.39	341.81
383.77	358.99
384.15	355.15
384.53	359.89
384.91	361.47
385.29	366.67
385.67	361.7
386.049	359.44
386.429	357.86
386.809	358.99
387.189	362.38
387.568	373.22
387.948	369.16
388.328	365.99
388.707	357.63
389.087	355.82
389.466	374.58
389.846	377.52
390.225	370.06
390.605	372.09
390.984	379.78
391.363	403.73
391.743	388.37
392.122	382.94
392.501	384.07
392.881	369.83
393.26	386.33
393.639	395.82
394.018	383.85
394.397	388.14
394.776	383.17
395.155	398.31
395.534	388.59
395.913	402.38
396.292	415.26
396.671	412.77
397.05	422.49
397.429	414.35
397.808	410.96
398.186	407.35
398.565	403.96
398.944	390.4
399.323	416.39
399.701	433.79
400.08	400.12
400.458	401.47
400.837	402.15
401.215	422.71
401.594	442.38
401.972	408.7
402.351	438.99
402.729	456.61
403.107	436.73
403.486	439.89
403.864	439.44
404.242	448.7
404.62	431.53
404.999	431.53
405.377	436.95
405.755	457.97
406.133	462.94
406.511	476.27
406.889	457.06
407.267	475.37
407.645	447.12
408.023	459.32
408.401	452.77
408.779	467.91
409.156	481.02
409.534	471.53
409.912	464.07
410.29	492.54
410.667	469.27
411.045	495.26
411.422	489.15
411.8	476.05
412.178	510.85
412.555	508.81
412.933	537.74
413.31	514.24
413.687	515.82
414.065	504.29
414.442	521.47
414.819	521.7
415.197	514.01
415.574	530.51
415.951	531.41
416.328	556.95
416.705	544.29
417.082	553.78
417.46	558.76
417.837	575.25
418.214	562.6
418.591	553.11
418.967	583.61
419.344	556.95
419.721	577.97
420.098	565.08
420.475	585.2
420.852	563.05
421.228	588.36
421.605	614.57
421.982	592.88
422.358	603.5
422.735	612.99
423.111	584.07
423.488	591.07
423.864	609.38
424.241	638.53
424.617	618.42
424.994	627.23
425.37	621.35
425.746	654.57
426.123	640.34
426.499	629.04
426.875	629.04
427.251	655.25
427.627	644.4
428.003	668.13
428.379	668.13
428.756	667
429.132	695.25
429.507	688.24
429.883	723.72
430.259	681.24
430.635	685.98
431.011	710.84
431.387	719.88
431.763	720.79
432.138	711.52
432.514	730.73
432.89	742.03
433.265	732.99
433.641	754.01
434.016	763.95
434.392	784.74
434.767	792.87
435.143	779.09
435.518	791.97
435.894	784.29
436.269	811.18
436.644	836.04
437.02	819.09
437.395	811.41
437.77	812.99
438.145	832.87
438.52	829.94
438.895	852.08
439.271	867.67
439.646	884.4
440.021	843.95
440.395	882.59
440.77	881.46
441.145	859.77
441.52	921.46
441.895	900.22
442.27	892.53
442.645	899.31
443.019	904.96
443.394	872.19
443.769	918.97
444.143	919.88
444.518	913.55
444.892	942.7
445.267	936.6
445.641	926.43
446.016	939.31
446.39	966.66
446.764	974.56
447.139	977.05
447.513	980.89
447.887	995.13
448.262	992.19
448.636	996.26
449.01	991.51
449.384	1006.65
449.758	1021.57
450.132	1053.43
450.506	1041.23
450.88	1045.98
451.254	1075.58
451.628	1073.09
452.002	1055.69
452.376	1090.27
452.75	1094.11
453.123	1118.52
453.497	1121
453.871	1115.35
454.244	1130.27
454.618	1166.42
454.992	1160.55
455.365	1182.69
455.739	1204.84
456.112	1172.75
456.486	1213.88
456.859	1236.7
457.232	1249.81
457.606	1249.81
457.979	1278.29
458.352	1291.39
458.725	1293.43
459.099	1353.31
459.472	1341.56
459.845	1328.23
460.218	1375.23
460.591	1343.59
460.964	1367.55
461.337	1400.32
461.71	1419.75
462.083	1434.21
462.456	1456.36
462.829	1461.11
463.201	1483.03
463.574	1520.99
463.947	1519.18
464.32	1535.45
464.692	1599.63
465.065	1599.41
465.438	1622.01
465.81	1683.47
466.183	1642.57
466.555	1681.89
466.928	1712.4
467.3	1738.84
467.672	1739.29
468.045	1784.94
468.417	1786.07
468.789	1889.12
469.161	1836.91
469.534	1896.8
469.906	1951.94
470.278	1974.54
470.65	1994.2
471.022	2038.27
471.394	2093.18
471.766	2106.74
472.138	2167.08
472.51	2217.47
472.882	2237.81
473.253	2292.72
473.625	2349.22
473.997	2415.2
474.369	2450.01
474.74	2473.06
475.112	2535.65
475.484	2590.79
475.855	2644.58
476.227	2695.88
476.598	2808.41
476.97	2864.01
477.341	2933.38
477.713	3030.1
478.084	3086.15
478.455	3150.1
478.827	3221.06
479.198	3344.67
479.569	3394.61
479.94	3525.01
480.311	3569.3
480.682	3720.71
481.053	3848.16
481.424	3907.37
481.795	4009.74
482.166	4111.88
482.537	4226
482.908	4342.16
483.279	4468.03
483.65	4609.05
484.021	4711.19
484.391	4844.52
484.762	4905.99
485.133	5051.07
485.503	5225.53
485.874	5333.55
486.244	5478.18
486.615	5621
486.985	5755.23
487.356	5934.43
487.726	6049.69
488.097	6205.39
488.467	6336.68
488.837	6538.03
489.207	6674.75
489.578	6837.46
489.948	6985.48
490.318	7171.69
490.688	7241.07
491.058	7434.28
491.428	7620.72
491.798	7830.66
492.168	8021.84
492.538	8145.45
492.908	8274.71
493.278	8520.13
493.648	8599.22
494.017	8795.83
494.387	8877.18
494.757	9057.52
495.126	9238.3
495.496	9381.8
495.866	9554.9
496.235	9683.94
496.605	9846.2
496.974	9913.76
497.344	10102.69
497.713	10326.18
498.082	10384.49
498.452	10518.04
498.821	10666.97
499.19	10761.43
499.559	10988.09
499.928	11106.95
500.298	11219.72
500.667	11412.71
501.036	11450.45
501.405	11574.74
501.774	11651.8
502.143	11739.93
502.512	11880.04
502.88	12045.46
503.249	12063.99
503.618	12248.17
503.987	12348.5
504.356	12413.36
504.724	12528.84
505.093	12658.78
505.462	12641.38
505.83	12846.34
506.199	12985.77
506.567	13122.49
506.936	13164.98
507.304	13260.8
507.672	13349.38
508.041	13480.68
508.409	13566.78
508.777	13698.07
509.145	13751.63
509.514	13825.53
509.882	13884.51
510.25	13896.03
510.618	14045.18
510.986	14115.91
511.354	14256.48
511.722	14295.12
512.09	14465.96
512.458	14396.58
512.826	14524.04
513.193	14579.4
513.561	14636.35
513.929	14733.07
514.297	14861.43
514.664	14865.5
515.032	14935.33
515.4	15037.25
515.767	15017.13
516.135	15172.84
516.502	15079.96
516.869	15288.54
517.237	15280.86
517.604	15254.19
517.972	15465.71
518.339	15480.62
518.706	15517.01
519.073	15576.67
519.44	15558.36
519.808	15556.78
520.175	15562.88
520.542	15768.75
520.909	15799.26
521.276	15885.81
521.643	15905.92
522.009	15930.78
522.376	16046.26
522.743	16063.43
523.11	16170.78
523.477	16284.44
523.843	16234.05
524.21	16281.96
524.577	16459.58
524.943	16418.9
525.31	16415.06
525.676	16510.2
526.043	16605.34
526.409	16593.14
526.776	16772.34
527.142	16740.7
527.508	16689.86
527.874	16837.2
528.241	16789.06
528.607	16862.28
528.973	16888.04
529.339	16915.16
529.705	16929.63
530.071	17005.33
530.437	17007.59
530.803	17043.52
531.169	16994.03
531.535	16964.65
531.901	16929.63
532.267	16985.44
532.632	16975.73
532.998	17012.11
533.364	16988.38
533.73	17006.23
534.095	17098.66
534.461	17024.31
534.826	17094.37
535.192	17020.92
535.557	17097.08
535.923	16982.96
536.288	17031.09
536.653	17049.85
537.019	16843.75
537.384	16859.8
537.749	16902.73
538.114	16883.07
538.479	16820.7
538.845	16924.43
539.21	16738.67
539.575	16771.66
539.94	16777.09
540.305	16792.91
540.67	16719.01
541.034	16649.86
541.399	16737.09
541.764	16559.01
542.129	16608.28
542.494	16568.51
542.858	16586.81
543.223	16500.48
543.587	16579.58
543.952	16444.21
544.316	16386.36
544.681	16317.21
545.045	16400.15
545.41	16428.17
545.774	16267.04
546.138	16246.48
546.503	16289.64
546.867	16171.45
547.231	16207.84
547.595	16125.58
547.959	16171
548.324	16129.42
548.688	15985.47
549.052	16042.87
549.416	16041.97
549.779	15890.33
550.143	15901.18
550.507	16076.54
550.871	15894.17
551.235	15811.91
551.599	15837.22
551.962	15851.69
552.326	15789.32
552.689	15868.41
553.053	15739.6
553.417	15658.7
553.78	15758.36
554.143	15670.68
554.507	15696.21
554.87	15737.79
555.234	15722.88
555.597	15618.7
555.96	15597.01
556.323	15539.83
556.686	15594.75
557.05	15560.17
557.413	15548.42
557.776	15617.12
558.139	15571.47
558.502	15515.43
558.865	15549.32
559.228	15613.5
559.59	15633.84
559.953	15551.36
560.316	15709.54
560.679	15650.34
561.041	15639.49
561.404	15623.22
561.767	15715.19
562.129	15619.83
562.492	15709.54
562.854	15621.64
563.217	15643.33
563.579	15557.91
563.941	15663.67
564.304	15709.09
564.666	15752.48
565.028	15738.24
565.39	15733.95
565.753	15809.2
566.115	15818.02
566.477	15842.87
566.839	15766.49
567.201	15857.79
567.563	15892.14
567.925	15900.05
568.287	15901.86
568.648	15867.05
569.01	15864.12
569.372	15955.41
569.734	15810.11
570.095	15951.12
570.457	15996.99
570.819	15998.8
571.18	15975.3
571.542	16066.82
571.903	16055.75
572.265	16115.18
572.626	16089.42
572.987	16076.54
573.349	16065.69
573.71	16104.34
574.071	16079.48
574.432	16099.59
574.794	16269.3
575.155	16324.22
575.516	16096.43
575.877	16136.43
576.238	16287.38
576.599	16234.95
576.96	16325.8
577.32	16214.16
577.681	16284.9
578.042	16218.23
578.403	16232.02
578.763	16253.03
579.124	16223.66
579.485	16263.43
579.845	16258.23
580.206	16186.59
580.566	16244.67
580.927	16185.92
581.287	16330.77
581.648	16139.36
582.008	16252.58
582.368	16273.15
582.728	16352.24
583.089	16293.26
583.449	16218.46
583.809	16186.37
584.169	16211
584.529	16187.05
584.889	16211.23
585.249	16089.2
585.609	16142.75
585.969	16219.81
586.329	16174.39
586.688	16136.43
587.048	16081.06
587.408	16092.13
587.768	16079.93
588.127	16063.43
588.487	16069.08
588.846	16166.93
589.206	16038.12
589.565	16050.33
589.925	16091.23
590.284	16035.19
590.643	16163.77
591.003	16049.42
591.362	16111.34
591.721	16073.83
592.08	16048.52
592.44	15997.22
592.799	16041.74
593.158	16040.16
593.517	16015.53
593.876	15982.08
594.235	15940.27
594.593	15940.5
594.952	15950.89
595.311	15922.87
595.67	16021.4
596.029	15992.47
596.387	16037.67
596.746	15992.25
597.104	15784.57
597.463	15914.51
597.822	15891.46
598.18	15839.94
598.538	15862.76
598.897	15986.37
599.255	15711.58
599.613	16001.97
599.972	15843.33
600.33	15929.43
600.688	15887.17
601.046	15965.58
601.404	15995.86
601.762	15872.7
602.12	16061.63
602.478	15950.89
602.836	15949.09
603.194	15906.83
603.552	15907.05
603.91	15908.86
604.268	15906.15
604.625	15895.53
604.983	15938.24
605.341	15861.18
605.698	15911.57
606.056	15976.43
606.413	15948.86
606.771	15915.19
607.128	15977.11
607.485	15990.67
607.843	16007.16
608.2	15992.02
608.557	16106.37
608.914	15919.03
609.272	16119.48
609.629	16070.21
609.986	16040.61
610.343	16022.08
610.7	16153.83
611.057	16066.37
611.414	16067.05
611.771	15997.9
612.127	16154.05
612.484	16153.6
612.841	16185.46
613.198	16165.35
613.554	16076.77
613.911	16176.65
614.267	16205.8
614.624	16171.45
614.98	16169.87
615.337	16216.88
615.693	16261.17
616.05	16203.09
616.406	16335.52
616.762	16216.2
617.118	16264.56
617.475	16311.56
617.831	16276.76
618.187	16323.99
618.543	16415.97
618.899	16456.64
619.255	16457.77
619.611	16351.79
619.967	16421.39
620.323	16497.55
620.678	16343.2
621.034	16352.69
621.39	16405.12
621.746	16328.51
622.101	16507.49
622.457	16389.98
622.812	16393.37
623.168	16438.79
623.523	16489.41
623.879	16514.72
624.234	16348.4
624.589	16492.12
624.945	16480.15
625.3	16458.45
625.655	16349.98
626.01	16410.77
626.365	16486.02
626.72	16421.84
627.075	16406.02
627.43	16380.71
627.785	16374.39
628.14	16389.75
628.495	16356.31
628.85	16350.88
629.205	16339.36
629.559	16402.63
629.914	16363.76
630.269	16402.63
630.623	16362.41
630.978	16266.37
631.332	16269.08
631.687	16359.7
632.041	16307.49
632.396	16291.22
632.75	16260.72
633.104	16191.11
633.459	16175.75
633.813	16173.04
634.167	16219.36
634.521	16170.1
634.875	16158.12
635.229	16168.74
635.583	16084.22
635.937	16071.57
636.291	16011.01
636.645	16092.81
636.999	16037.9
637.352	16082.19
637.706	15971.46
638.06	15997.9
638.413	15999.25
638.767	15929.43
639.121	16007.62
639.474	15757
639.828	15834.74
640.181	15957.67
640.534	15827.96
640.888	15754.97
641.241	15774.4
641.594	15792.71
641.947	15779.37
642.301	15703.89
642.654	15828.86
643.007	15734.85
643.36	15775.08
643.713	15702.54
644.066	15723.1
644.419	15674.29
644.771	15679.49
645.124	15510.45
645.477	15503.67
645.83	15400.63
646.182	15331.02
646.535	15239.05
646.888	15207.64
647.24	15119.73
647.593	15251.48
647.945	15272.27
648.298	15178.03
648.65	15067.53
649.002	15156.56
649.355	15177.58
649.707	15201.54
650.059	15244.02
650.411	15366.95
650.763	15391.59
651.115	15625.25
651.467	15518.14
651.819	15529.66
652.171	15528.76
652.523	15477.69
652.875	15494.63
653.227	15460.74
653.578	15517.91
653.93	15429.33
654.282	15448.08
654.633	15439.72
654.985	15486.95
655.337	15549.77
655.688	15552.26
656.039	15628.64
656.391	15396.33
656.742	15494.86
657.094	15516.1
657.445	15565.59
657.796	15501.41
658.147	15427.07
658.498	15476.1
658.849	15569.66
659.2	15493.73
659.551	15415.54
659.902	15548.42
660.253	15552.94
660.604	15538.02
660.955	15445.37
661.306	15491.7
661.656	15542.54
662.007	15528.76
662.358	15504.35
662.708	15567.4
663.059	15596.55
663.409	15435.2
663.76	15510.91
664.11	15513.62
664.461	15568.98
664.811	15588.87
665.161	15512.26
665.511	15557.91
665.862	15544.13
666.212	15564.92
666.562	15587.97
666.912	15579.6
667.262	15545.03
667.612	15522.43
667.962	15650.79
668.312	15559.94
668.662	15627.74
669.011	15625.7
669.361	15490.34
669.711	15502.32
670.06	15470
670.41	15552.26
670.76	15481.3
671.109	15490.34
671.459	15507.97
671.808	15525.82
672.157	15532.37
672.507	15415.99
672.856	15385.49
673.205	15538.48
673.554	15423.9
673.904	15379.38
674.253	15530.34
674.602	15428.2
674.951	15178.03
675.3	15122.89
675.649	15373.06
675.998	15324.47
676.346	15327.18
676.695	15334.19
677.044	15188.88
677.393	15267.3
677.741	15288.99
678.09	15289.67
678.438	15175.55
678.787	15195.21
679.135	15299.16
679.484	15161.54
679.832	15305.49
680.181	15080.63
680.529	15183.23
680.877	15111.37
681.225	15094.65
681.573	15139.84
681.922	15027.08
682.27	14964.48
682.618	14888.55
682.966	14938.72
683.314	14948.89
683.661	14956.12
684.009	14809.23
684.357	14776.24
684.705	14809.68
685.053	14860.08
685.4	14773.52
685.748	14629.35
686.095	14628.9
686.443	14550.93
686.79	14529.46
687.138	14540.31
687.485	14567.88
687.832	14550.03
688.18	14529.46
688.527	14443.36
688.874	14425.06
689.221	14359.52
689.568	14343.48
689.915	14309.36
690.262	14307.55
690.609	14251.28
690.956	14208.79
691.303	14175.8
691.65	14067.78
691.997	14071.62
692.344	13982.58
692.69	13952.53
693.037	13882.7
693.383	13898.07
693.73	13848.12
694.077	13748.69
694.423	13734.46
694.769	13744.85
695.116	13650.62
695.462	13619.88
695.808	13592.54
696.155	13612.65
696.501	13429.6
696.847	13476.38
697.193	13381.02
697.539	13382.83
697.885	13243.17
698.231	13189.84
698.577	13228.93
698.923	13188.25
699.269	13133.79
699.614	13075.26
699.96	12995.72
700.306	12946.23
700.651	12956.62
700.997	12887.02
701.342	12804.31
701.688	12789.17
702.033	12779
702.379	12678.89
702.724	12666.01
703.069	12719.11
703.415	12586.91
703.76	12485.67
704.105	12529.06
704.45	12614.48
704.795	12453.81
705.14	12406.81
705.485	12363.64
705.83	12302.18
706.175	12257.66
706.52	12270.76
706.865	12260.6
707.209	12165.68
707.554	12186.47
707.899	12151.67
708.243	12104.89
708.588	11993.26
708.932	11922.07
709.277	11943.09
709.621	11973.15
709.966	11854.5
710.31	11851.34
710.654	11736.54
710.998	11813.38
711.342	11796.43
711.687	11745.13
712.031	11660.39
712.375	11646.6
712.719	11633.49
713.063	11612.03
713.407	11631.69
713.75	11592.59
714.094	11571.57
714.438	11490.9
714.782	11524.57
715.125	11484.8
715.469	11509.43
715.812	11450.45
716.156	11358.25
716.499	11393.27
716.843	11382.88
717.186	11316.21
717.53	11366.38
717.873	11416.32
718.216	11280.96
718.559	11297.91
718.902	11196.89
719.246	11237.35
719.589	11145.37
719.932	11226.72
720.275	11101.76
720.617	11132.04
720.96	11199.83
721.303	11094.75
721.646	11160.74
721.989	11051.81
722.331	11138.59
722.674	11063.79
723.016	11113.51
723.359	10964.36
723.701	11144.24
724.044	10979.73
724.386	10958.71
724.729	11083.23
725.071	11057.69
725.413	11003.68
725.755	10974.75
726.097	10982.66
726.439	10974.08
726.782	10912.61
727.124	10992.15
727.465	10912.83
727.807	10858.6
728.149	10927.07
728.491	10887.75
728.833	10890.01
729.175	10867.86
729.516	10856.56
729.858	10915.09
730.199	10818.15
730.541	10825.38
730.882	10960.97
731.224	10934.53
731.565	10806.62
731.906	10828.99
732.248	10832.38
732.589	10710.13
732.93	10744.48
733.271	10807.07
733.612	10749.67
733.953	10833.97
734.294	10813.18
734.635	10732.5
734.976	10797.36
735.317	10803.68
735.658	10769.11
735.999	10818.6
736.339	10789.22
736.68	10893.4
737.021	10843.23
737.361	10822.22
737.702	10875.32
738.042	10782.22
738.383	10895.89
738.723	10876.9
739.063	10888.2
739.404	10858.6
739.744	10917.81
740.084	10837.13
740.424	10913.29
740.764	10936.34
741.104	11004.81
741.444	10932.72
741.784	10935.21
742.124	10945.38
742.464	11006.39
742.804	10960.29
743.143	11033.51
743.483	11064.24
743.823	11012.27
744.162	11092.26
744.502	11151.25
744.841	11126.16
745.181	11220.17
745.52	11165.03
745.86	11294.29
746.199	11299.04
746.538	11350.11
746.877	11515.53
747.216	11487.96
747.556	11633.72
747.895	11636.88
748.234	11663.55
748.573	11670.78
748.911	11827.16
749.25	11925.46
749.589	11888.4
749.928	12035.97
750.267	12126.59
750.605	12195.96
750.944	12184.21
751.283	12303.08
751.621	12423.76
751.96	12484.09
752.298	12577.42
752.636	12709.4
752.975	12817.19
753.313	12912.33
753.651	13007.47
753.989	13103.74
754.327	13241.13
754.666	13315.94
755.004	13550.28
755.342	13701.69
755.679	13796.6
756.017	13883.6
