Data from hue_120_FLMS001491_00035.txt Node
Date: Tue Feb 07 16:59:17 GMT 2017
User: dcchb
Spectrometer: FLMS00149
Trigger mode: 0
Integration Time (sec): 2.000000E-2
Scans to average: 10
Electric dark correction enabled: true
Nonlinearity correction enabled: false
Boxcar width: 0
XAxis mode: Wavelengths
Number of Pixels in Spectrum: 2048
>>>>>Begin Spectral Data<<<<<
341.393	-18.33
341.776	-18.33
342.16	-18.33
342.543	-47.03
342.927	-54.04
343.31	-48.16
343.693	-65.11
344.077	-70.31
344.46	-52.46
344.843	-68.5
345.226	-41.38
345.61	-42.29
345.993	-15.85
346.376	-0.93
346.759	5.62
347.142	23.7
347.525	23.93
347.908	72.74
348.291	67.09
348.674	93.3
349.057	118.61
349.44	134.66
349.823	147.76
350.206	172.4
350.588	194.32
350.971	202.23
351.354	236.35
351.737	237.48
352.119	257.14
352.502	271.6
352.884	279.51
353.267	270.93
353.65	280.64
354.032	304.37
354.414	311.15
354.797	331.94
355.179	319.96
355.562	327.87
355.944	338.49
356.326	329.68
356.709	333.97
357.091	334.2
357.473	360.87
357.855	343.69
358.238	340.53
358.62	331.71
359.002	331.26
359.384	345.95
359.766	349.57
360.148	335.56
360.53	331.94
360.912	327.65
361.294	324.48
361.676	324.71
362.057	330.36
362.439	346.18
362.821	341.66
363.203	329.23
363.584	341.43
363.966	335.33
364.348	323.35
364.729	331.04
365.111	348.21
365.493	343.24
365.874	306.4
366.256	311.15
366.637	313.18
367.019	320.64
367.4	341.88
367.781	338.49
368.163	325.61
368.544	319.74
368.925	308.66
369.306	341.43
369.688	327.87
370.069	322.68
370.45	316.35
370.831	308.66
371.212	338.72
371.593	327.87
371.974	336.91
372.355	327.19
372.736	335.33
373.117	317.25
373.498	338.27
373.879	318.16
374.26	335.1
374.641	318.16
375.021	325.16
375.402	332.39
375.783	323.13
376.163	337.14
376.544	338.49
376.925	349.34
377.305	349.79
377.686	335.78
378.066	319.51
378.447	352.96
378.827	330.13
379.208	342.79
379.588	331.94
379.968	357.7
380.349	343.69
380.729	336.46
381.109	326.97
381.489	335.56
381.87	333.75
382.25	322.68
382.63	364.93
383.01	336.91
383.39	338.27
383.77	353.41
384.15	332.17
384.53	365.84
384.91	345.95
385.29	349.79
385.67	340.3
386.049	364.26
386.429	369.68
386.809	362.9
387.189	380.3
387.568	352.28
387.948	359.51
388.328	379.17
388.707	383.24
389.087	380.07
389.466	365.61
389.846	355.22
390.225	376.91
390.605	381.66
390.984	359.74
391.363	364.26
391.743	391.6
392.122	380.75
392.501	371.26
392.881	404.03
393.26	387.98
393.639	395.44
394.018	384.82
394.397	381.66
394.776	394.99
395.155	384.59
395.534	396.57
395.913	397.48
396.292	405.61
396.671	390.7
397.05	395.22
397.429	388.44
397.808	400.41
398.186	416.23
398.565	413.97
398.944	422.33
399.323	423.92
399.701	409
400.08	403.12
400.458	436.34
400.837	414.2
401.215	413.75
401.594	418.94
401.972	440.41
402.351	387.53
402.729	441.99
403.107	442.45
403.486	439.96
403.864	441.99
404.242	426.4
404.62	426.85
404.999	428.44
405.377	451.03
405.755	467.3
406.133	455.33
406.511	460.3
406.889	455.78
407.267	431.37
407.645	465.04
408.023	465.5
408.401	485.61
408.779	473.41
409.156	477.47
409.534	446.74
409.912	484.25
410.29	473.63
410.667	474.08
411.045	463.69
411.422	477.02
411.8	497.13
412.178	484.48
412.555	519.51
412.933	508.88
413.31	507.98
413.687	520.86
414.065	493.29
414.442	515.44
414.819	513.63
415.197	510.92
415.574	534.65
415.951	535.32
416.328	556.57
416.705	546.4
417.082	523.12
417.46	542.56
417.837	568.54
418.214	555.89
418.591	547.98
418.967	532.16
419.344	557.47
419.721	567.41
420.098	531.03
420.475	545.95
420.852	572.16
421.228	578.04
421.605	569
421.982	587.07
422.358	597.24
422.735	593.18
423.111	613.29
423.488	598.37
423.864	603.12
424.241	587.98
424.617	596.57
424.994	586.62
425.37	627.75
425.746	625.04
426.123	616
426.499	634.31
426.875	625.04
427.251	632.5
427.627	645.15
428.003	674.76
428.379	637.92
428.756	679.5
429.132	656.9
429.507	674.3
429.883	680.63
430.259	682.89
430.635	705.72
431.011	707.07
431.387	700.07
431.763	726.96
432.138	717.24
432.514	732.16
432.89	737.13
433.265	746.39
433.641	724.47
434.016	762.89
434.392	760.63
434.767	767.18
435.143	768.77
435.518	771.25
435.894	788.2
436.269	797.24
436.644	795.43
437.02	820.74
437.395	802.89
437.77	836.79
438.145	844.02
438.52	818.71
438.895	848.09
439.271	820.97
439.646	836.11
440.021	863.68
440.395	876.11
440.77	834.75
441.145	849.44
441.52	852.15
441.895	886.73
442.27	889.44
442.645	885.6
443.019	899.61
443.394	900.29
443.769	915.88
444.143	915.88
444.518	932.38
444.892	910.46
445.267	925.6
445.641	919.04
446.016	957.46
446.39	947.97
446.764	958.59
447.139	944.58
447.513	973.96
447.887	943.9
448.262	987.74
448.636	985.26
449.01	990.68
449.384	1036.55
449.758	997.46
450.132	1017.35
450.506	1014.86
450.88	1032.26
451.254	1040.17
451.628	1058.02
452.002	1050.79
452.376	1061.19
452.75	1086.5
453.123	1085.59
453.497	1094.86
453.871	1115.65
454.244	1084.24
454.618	1116.1
454.992	1140.05
455.365	1123.78
455.739	1146.83
456.112	1188.87
456.486	1187.51
456.859	1191.35
457.232	1201.07
457.606	1207.17
457.979	1219.83
458.352	1254.63
458.725	1269.54
459.099	1282.65
459.472	1291.01
459.845	1319.94
460.218	1321.97
460.591	1342.99
460.964	1335.53
461.337	1362.65
461.71	1413.95
462.083	1432.48
462.456	1395.19
462.829	1422.76
463.201	1469.76
463.574	1470.89
463.947	1476.09
464.32	1530.78
464.692	1524
465.065	1547.28
465.438	1600.38
465.81	1600.61
466.183	1606.71
466.555	1653.94
466.928	1679.93
467.3	1685.35
467.672	1705.92
468.045	1742.07
468.417	1785.69
468.789	1803.31
469.161	1820.26
469.534	1869.3
469.906	1894.16
470.278	1909.75
470.65	1923.54
471.022	2012.35
471.394	2030.43
471.766	2040.37
472.138	2086.7
472.51	2139.12
472.882	2193.13
473.253	2233.36
473.625	2257.54
473.997	2337.76
474.369	2389.29
474.74	2409.17
475.112	2461.15
475.484	2508.38
475.855	2591.54
476.227	2605.78
476.598	2672.9
476.97	2733.23
477.341	2826.11
477.713	2897.97
478.084	2910.63
478.455	3020.91
478.827	3081.47
479.198	3197.4
479.569	3259.55
479.94	3364.18
480.311	3391.3
480.682	3530.5
481.053	3654.11
481.424	3739.76
481.795	3814.11
482.166	3908.57
482.537	3998.96
482.908	4123.48
483.279	4235.79
483.65	4386.52
484.021	4478.72
484.391	4534.09
484.762	4627.65
485.133	4733.63
485.503	4901.31
485.874	5024.47
486.244	5147.18
486.615	5250.91
486.985	5379.27
487.356	5534.97
487.726	5629.2
488.097	5824.68
488.467	5907.16
488.837	6105.35
489.207	6241.39
489.578	6373.14
489.948	6534.72
490.318	6674.15
490.688	6710.98
491.058	6970.41
491.428	7084.53
491.798	7181.48
492.168	7406.33
492.538	7520.23
492.908	7621.24
493.278	7825.3
493.648	7905.53
494.017	8083.38
494.387	8198.63
494.757	8304.16
495.126	8459.86
495.496	8568.33
495.866	8745.5
496.235	8950.92
496.605	9040.86
496.974	9146.17
497.344	9245.38
497.713	9377.35
498.082	9578.93
498.452	9668.19
498.821	9728.3
499.19	9867.28
499.559	9940.95
499.928	10070.22
500.298	10104.34
500.667	10295.29
501.036	10291.68
501.405	10535.29
501.774	10626.81
502.143	10672.91
502.512	10791.1
502.88	10944.32
503.249	10889.63
503.618	11087.59
503.987	11132.56
504.356	11293.01
504.724	11345.89
505.093	11373.91
505.462	11421.82
505.83	11521.25
506.199	11708.82
506.567	11791.53
506.936	11838.98
507.304	12005.53
507.672	12000.79
508.041	12089.82
508.409	12096.15
508.777	12311.96
509.145	12334.11
509.514	12308.12
509.882	12456.37
510.25	12454.11
510.618	12615.23
510.986	12632.63
511.354	12750.14
511.722	12803.7
512.09	12967.09
512.458	12889.35
512.826	13048.89
513.193	13055
513.561	13037.37
513.929	13171.6
514.297	13273.3
514.664	13323.46
515.032	13356
515.4	13423.57
515.767	13450.92
516.135	13585.15
516.502	13487.75
516.869	13673.96
517.237	13629.67
517.604	13579.73
517.972	13636.9
518.339	13703.79
518.706	13803.68
519.073	13781.76
519.44	13852.71
519.808	13843.22
520.175	13958.02
520.542	14068.75
520.909	14113.27
521.276	14078.47
521.643	14156.66
522.009	14257.9
522.376	14320.95
522.743	14221.52
523.11	14423.1
523.477	14429.2
523.843	14429.42
524.21	14552.81
524.577	14663.99
524.943	14534.96
525.31	14678.68
525.676	14686.37
526.043	14752.13
526.409	14808.17
526.776	14888.85
527.142	14778.57
527.508	14901.05
527.874	14995.96
528.241	14986.7
528.607	14986.7
528.973	14970.2
529.339	14890.65
529.705	15111.66
530.071	15080.71
530.437	15150.53
530.803	15131.55
531.169	15132.91
531.535	15009.97
531.901	15056.75
532.267	15148.05
532.632	15069.18
532.998	15148.27
533.364	15094.49
533.73	15163.19
534.095	15150.53
534.461	15042.06
534.826	15091.1
535.192	15086.81
535.557	15154.6
535.923	15101.04
536.288	15160.93
536.653	15031.21
537.019	14995.28
537.384	14962.97
537.749	15105.34
538.114	14981.95
538.479	14955.06
538.845	15008.39
539.21	14922.29
539.575	14884.55
539.94	14880.26
540.305	14910.99
540.67	14865.12
541.034	14838.23
541.399	14892.46
541.764	14768.4
542.129	14797.77
542.494	14755.74
542.858	14787.15
543.223	14716.42
543.587	14744.44
543.952	14630.1
544.316	14537.44
544.681	14432.59
545.045	14588.06
545.41	14482.3
545.774	14563.66
546.138	14564.79
546.503	14411.12
546.867	14358.69
547.231	14412.25
547.595	14386.49
547.959	14342.42
548.324	14361.63
548.688	14307.39
549.052	14243.67
549.416	14252.25
549.779	14310.56
550.143	14240.73
550.507	14247.96
550.871	14252.48
551.235	14075.99
551.599	14182.2
551.962	14178.36
552.326	14089.09
552.689	14227.39
553.053	13936.78
553.417	13958.02
553.78	14137.45
554.143	14023.33
554.507	14038.25
554.87	14010.68
555.234	14046.83
555.597	13919.83
555.96	13928.19
556.323	13964.35
556.686	13873.96
557.05	14023.78
557.413	13986.04
557.776	13948.08
558.139	13995.31
558.502	13813.62
558.865	13916.67
559.228	13917.57
559.59	13977.68
559.953	13928.65
560.316	14073.73
560.679	13898.82
561.041	13997.57
561.404	13995.08
561.767	13991.02
562.129	13929.77
562.492	14101.07
562.854	13999.83
563.217	13960.73
563.579	14000.96
563.941	14053.16
564.304	14045.03
564.666	14142.65
565.028	14066.27
565.39	14152.82
565.753	14104.01
566.115	14142.88
566.477	14204.57
566.839	14195.53
567.201	14259.94
567.563	14301.52
567.925	14321.63
568.287	14329.31
568.648	14169.32
569.01	14275.08
569.372	14393.72
569.734	14180.39
570.095	14423.1
570.457	14414.28
570.819	14310.78
571.18	14319.37
571.542	14456.31
571.903	14459.25
572.265	14490.66
572.626	14337.45
572.987	14410.44
573.349	14507.84
573.71	14515.52
574.071	14533.15
574.432	14560.27
574.794	14616.76
575.155	14538.8
575.516	14529.08
575.877	14522.53
576.238	14524.56
576.599	14677.33
576.96	14642.75
577.32	14466.26
577.681	14637.55
578.042	14667.83
578.403	14603.66
578.763	14558.91
579.124	14672.81
579.485	14608.85
579.845	14652.47
580.206	14642.75
580.566	14621.51
580.927	14628.74
581.287	14650.43
581.648	14656.31
582.008	14704.9
582.368	14684.33
582.728	14642.75
583.089	14679.13
583.449	14566.82
583.809	14649.3
584.169	14683.65
584.529	14652.69
584.889	14753.03
585.249	14510.32
585.609	14567.27
585.969	14656.08
586.329	14584.9
586.688	14574.5
587.048	14528.86
587.408	14540.83
587.768	14522.53
588.127	14526.37
588.487	14515.3
588.846	14619.47
589.206	14492.25
589.565	14519.82
589.925	14559.81
590.284	14443.43
590.643	14489.99
591.003	14558.23
591.362	14586.25
591.721	14515.97
592.08	14456.54
592.44	14530.21
592.799	14469.87
593.158	14421.97
593.517	14386.49
593.876	14485.24
594.235	14475.52
594.593	14414.06
594.952	14447.73
595.311	14421.06
595.67	14298.8
596.029	14525.01
596.387	14497.9
596.746	14391.23
597.104	14341.52
597.463	14339.03
597.822	14464.22
598.18	14351.23
598.538	14273.49
598.897	14423.32
599.255	14249.54
599.613	14436.88
599.972	14403.21
600.33	14426.26
600.688	14323.21
601.046	14409.76
601.404	14477.33
601.762	14436.2
602.12	14420.61
602.478	14372.48
602.836	14355.75
603.194	14281.4
603.552	14498.12
603.91	14379.71
604.268	14483.21
604.625	14385.36
604.983	14448.41
605.341	14256.55
605.698	14465.35
606.056	14402.08
606.413	14376.54
606.771	14442.3
607.128	14404.11
607.485	14376.32
607.843	14360.5
608.2	14438.91
608.557	14385.81
608.914	14431.46
609.272	14465.13
609.629	14511.23
609.986	14517.1
610.343	14518.01
610.7	14591.23
611.057	14505.81
611.414	14505.81
611.771	14471
612.127	14638.46
612.484	14509.19
612.841	14682.52
613.198	14613.6
613.554	14527.5
613.911	14649.76
614.267	14677.78
614.624	14699.7
614.98	14746.93
615.337	14788.06
615.693	14720.94
616.05	14707.38
616.406	14782.41
616.762	14739.47
617.118	14805.91
617.475	14726.59
617.831	14767.72
618.187	14785.12
618.543	14808.62
618.899	14822.63
619.255	14852.46
619.611	14748.51
619.967	14794.39
620.323	14821.5
620.678	14770.66
621.034	14842.97
621.39	14800.71
621.746	14809.3
622.101	15056.75
622.457	14817.21
622.812	14776.08
623.168	14850.65
623.523	14834.84
623.879	14930.88
624.234	14755.06
624.589	14885.46
624.945	14896.76
625.3	14940.37
625.655	14834.61
626.01	14828.51
626.365	14894.27
626.72	14844.55
627.075	14874.16
627.43	14828.51
627.785	14755.97
628.14	14788.06
628.495	14912.12
628.85	14821.05
629.205	14785.57
629.559	14845.46
629.914	14722.3
630.269	14801.62
630.623	14752.8
630.978	14672.13
631.332	14729.08
631.687	14795.29
632.041	14747.38
632.396	14722.75
632.75	14627.61
633.104	14731.34
633.459	14693.6
633.813	14640.94
634.167	14584
634.521	14551.91
634.875	14685.69
635.229	14591.45
635.583	14536.54
635.937	14470.78
636.291	14570.44
636.645	14474.17
636.999	14444.11
637.352	14541.74
637.706	14406.15
638.06	14442.3
638.413	14414.96
638.767	14379.25
639.121	14424.23
639.474	14348.97
639.828	14311.23
640.181	14404.56
640.534	14386.03
640.888	14304
641.241	14272.82
641.594	14202.76
641.947	14276.21
642.301	14230.78
642.654	14338.13
643.007	14259.26
643.36	14206.15
643.713	14186.04
644.066	14198.24
644.419	14120.73
644.771	14010
645.124	13962.32
645.477	13968.19
645.83	13784.92
646.182	13738.59
646.535	13787.41
646.888	13828.76
647.24	13715.77
647.593	13861.98
647.945	13702.89
648.298	13662.89
648.65	13594.19
649.002	13641.87
649.355	13744.47
649.707	13705.6
650.059	13806.16
650.411	13970
650.763	13888.19
651.115	14041.86
651.467	13958.25
651.819	14055.65
652.171	14014.52
652.523	13938.36
652.875	13937.23
653.227	13906.27
653.578	14027.63
653.93	13911.02
654.282	13928.19
654.633	13909.21
654.985	13932.49
655.337	14013.16
655.688	13940.62
656.039	14037.12
656.391	13867.86
656.742	13898.36
657.094	13923
657.445	14035.99
657.796	14021.07
658.147	14021.75
658.498	13937.23
658.849	13975.88
659.2	14066.49
659.551	13934.29
659.902	14019.26
660.253	13972.03
660.604	13965.25
660.955	13983.56
661.306	13942.43
661.656	13976.1
662.007	13996.67
662.358	13957.12
662.708	14032.82
663.059	14019.94
663.409	13930.23
663.76	14051.35
664.11	13985.37
664.461	13988.53
664.811	14119.6
665.161	14003.67
665.511	13930.68
665.862	14127.28
666.212	14032.82
666.562	14018.59
666.912	14021.75
667.262	14055.87
667.612	14025.82
667.962	14034.4
668.312	13973.16
668.662	14052.48
669.011	14040.05
669.361	14030.34
669.711	14027.63
670.06	14002.54
670.41	13963.67
670.76	13998.93
671.109	14050.45
671.459	13978.81
671.808	13885.93
672.157	13933.16
672.507	13873.96
672.856	13904.92
673.205	13981.98
673.554	14025.37
673.904	13889.55
674.253	13945.14
674.602	13903.11
674.951	13695.88
675.3	13740.18
675.649	13832.83
675.998	13892.49
676.346	13764.58
676.695	13899.95
677.044	13711.48
677.393	13710.8
677.741	13864.01
678.09	13689.33
678.438	13715.54
678.787	13712.15
679.135	13670.35
679.484	13529.56
679.832	13672.61
680.181	13553.97
680.529	13595.09
680.877	13457.7
681.225	13526.85
681.573	13660.63
681.922	13439.39
682.27	13507.19
682.618	13527.98
682.966	13422.67
683.314	13539.73
683.661	13384.93
684.009	13319.85
684.357	13287.08
684.705	13306.97
685.053	13363.69
685.4	13333.63
685.748	13248.44
686.095	13160.98
686.443	13174.77
686.79	13118.72
687.138	13144.71
687.485	13094.99
687.832	13085.05
688.18	13118.72
688.527	13026.75
688.874	12965.96
689.221	12928.9
689.568	12924.6
689.915	12889.8
690.262	12834.21
690.609	12795.57
690.956	12779.3
691.303	12748.34
691.65	12645.74
691.997	12664.95
692.344	12579.75
692.69	12592.63
693.037	12516.7
693.383	12422.47
693.73	12435.58
694.077	12368.23
694.423	12401
694.769	12274
695.116	12324.85
695.462	12349.25
695.808	12239.42
696.155	12233.77
696.501	12140.9
696.847	12142.03
697.193	12023.61
697.539	12065.87
697.885	11965.08
698.231	11879.21
698.577	11861.58
698.923	11872.65
699.269	11791.07
699.614	11808.02
699.96	11696.84
700.306	11769.38
700.651	11577.07
700.997	11689.61
701.342	11593.11
701.688	11597.18
702.033	11447.58
702.379	11496.84
702.724	11412.55
703.069	11449.84
703.415	11289.39
703.76	11309.28
704.105	11280.58
704.45	11251.43
704.795	11167.59
705.14	11155.84
705.485	11177.3
705.83	11035.39
706.175	11148.15
706.52	11089.17
706.865	10998.55
707.209	10995.61
707.554	10946.58
707.899	11001.72
708.243	10825.9
708.588	10874.71
708.932	10829.52
709.277	10746.58
709.621	10800.37
709.966	10748.62
710.31	10720.82
710.654	10657.32
710.998	10657.32
711.342	10660.71
711.687	10644.44
712.031	10536.19
712.375	10475.4
712.719	10531.22
713.063	10560.15
713.407	10516.98
713.75	10400.15
714.094	10498.68
714.438	10400.83
714.782	10406.25
715.125	10348.85
715.469	10345.91
715.812	10305.46
716.156	10293.49
716.499	10304.33
716.843	10241.28
717.186	10304.56
717.53	10282.19
717.873	10272.24
718.216	10243.54
718.559	10200.38
718.902	10175.07
719.246	10192.02
719.589	10110.44
719.932	10061.18
720.275	10106.15
720.617	10055.75
720.96	10086.49
721.303	10085.13
721.646	10094.62
721.989	10071.12
722.331	9975.08
722.674	10037.9
723.016	10026.6
723.359	9999.26
723.701	9943.89
724.044	9995.64
724.386	9927.39
724.729	9962.42
725.071	10014.17
725.413	9919.03
725.755	9972.14
726.097	9862.76
726.439	9887.17
726.782	9874.97
727.124	9894.85
727.465	9832.93
727.807	9839.71
728.149	9775.53
728.491	9865.93
728.833	9876.55
729.175	9792.71
729.516	9793.16
729.858	9762.65
730.199	9769.43
730.541	9800.62
730.882	9763.56
731.224	9776.89
731.565	9738.7
731.906	9741.18
732.248	9761.07
732.589	9705.03
732.93	9762.2
733.271	9709.32
733.612	9753.39
733.953	9674.52
734.294	9751.58
734.635	9689.21
734.976	9743.9
735.317	9714.97
735.658	9720.85
735.999	9729.89
736.339	9666.38
736.68	9711.81
737.021	9762.43
737.361	9728.53
737.702	9784.8
738.042	9780.28
738.383	9769.21
738.723	9784.35
739.063	9723.11
739.404	9801.52
739.744	9750.22
740.084	9794.74
740.424	9725.59
740.764	9896.89
741.104	9820.28
741.444	9741.64
741.784	9774.4
742.124	9874.06
742.464	9822.31
742.804	9889.43
743.143	9860.05
743.483	9915.19
743.823	9881.97
744.162	9923.78
744.502	9954.96
744.841	9964.68
745.181	10029.31
745.52	9988.18
745.86	10157.44
746.199	10118.12
746.538	10117.45
746.877	10212.36
747.216	10225.01
747.556	10273.83
747.895	10375.74
748.234	10341.17
748.573	10408.06
748.911	10462.75
749.25	10506.36
749.589	10542.07
749.928	10708.16
750.267	10756.07
750.605	10862.96
750.944	10834.72
751.283	10973.92
751.621	10984.54
751.96	11039.23
752.298	11143.18
752.636	11230.18
752.975	11273.57
753.313	11333.69
753.651	11576.39
753.989	11579.33
754.327	11569.16
754.666	11788.81
755.004	11825.2
755.342	12060.45
755.679	12138.86
756.017	12220.67
756.355	12389.93
756.693	12443.71
757.031	12629.47
757.368	12786.08
