Data from hue_30_FLMS001491_63.txt Node
Date: Mon Feb 06 15:05:45 GMT 2017
User: dcchb
Spectrometer: FLMS00149
Trigger mode: 0
Integration Time (sec): 2.000000E-2
Scans to average: 10
Electric dark correction enabled: true
Nonlinearity correction enabled: false
Boxcar width: 0
XAxis mode: Wavelengths
Number of Pixels in Spectrum: 2048
>>>>>Begin Spectral Data<<<<<
341.393	-14.58
341.776	-14.58
342.16	-14.58
342.543	-64.29
342.927	-72.43
343.31	-56.38
343.693	-78.53
344.077	-58.42
344.46	-71.3
344.843	-49.83
345.226	-40.34
345.61	-45.76
345.993	-21.36
346.376	-5.76
346.759	-7.34
347.142	31.07
347.525	42.82
347.908	64.97
348.291	82.14
348.674	92.99
349.057	121.01
349.44	112.2
349.823	142.71
350.206	158.3
350.588	205.08
350.971	211.41
351.354	224.06
351.737	247.56
352.119	241.46
352.502	276.04
352.884	263.83
353.267	296.15
353.65	272.87
354.032	284.4
354.414	317.62
354.797	300.67
355.179	329.37
355.562	345.64
355.944	346.77
356.326	335.25
356.709	313.55
357.091	334.79
357.473	363.27
357.855	341.8
358.238	350.16
358.62	321.46
359.002	339.54
359.384	363.27
359.766	351.29
360.148	338.86
360.53	342.7
360.912	333.44
361.294	340.67
361.676	313.55
362.057	335.25
362.439	328.24
362.821	341.35
363.203	329.6
363.584	339.09
363.966	333.89
364.348	322.59
364.729	328.01
365.111	345.64
365.493	319.65
365.874	319.43
366.256	318.75
366.637	342.93
367.019	320.56
367.4	324.4
367.781	305.87
368.163	304.06
368.544	310.16
368.925	320.56
369.306	338.18
369.688	327.11
370.069	308.81
370.45	338.41
370.831	303.83
371.212	321.91
371.593	297.05
371.974	306.77
372.355	310.16
372.736	331.4
373.117	331.86
373.498	306.32
373.879	313.78
374.26	318.52
374.641	311.52
375.021	325.53
375.402	330.05
375.783	317.39
376.163	339.31
376.544	344.06
376.925	298.41
377.305	323.72
377.686	316.49
378.066	336.38
378.447	342.02
378.827	341.8
379.208	335.47
379.588	348.8
379.968	323.72
380.349	341.35
380.729	335.7
381.109	342.48
381.489	335.02
381.87	339.54
382.25	354.23
382.63	322.82
383.01	330.5
383.39	370.5
383.77	358.52
384.15	350.61
384.53	350.84
384.91	351.97
385.29	352.42
385.67	351.29
386.049	340.67
386.429	344.74
386.809	380.22
387.189	363.72
387.568	355.58
387.948	363.27
388.328	361.01
388.707	354.68
389.087	365.98
389.466	383.83
389.846	366.43
390.225	358.52
390.605	368.69
390.984	361.46
391.363	366.43
391.743	380.44
392.122	384.51
392.501	366.66
392.881	402.36
393.26	383.38
393.639	373.21
394.018	391.74
394.397	376.83
394.776	378.63
395.155	391.29
395.534	380.89
395.913	375.02
396.292	404.62
396.671	399.88
397.05	394
397.429	382.7
397.808	385.64
398.186	398.07
398.565	401.46
398.944	400.55
399.323	403.04
399.701	410.5
400.08	414.34
400.458	387.22
400.837	419.09
401.215	421.8
401.594	425.86
401.972	408.69
402.351	406.88
402.729	409.59
403.107	421.12
403.486	408.01
403.864	420.21
404.242	411.18
404.62	401.01
404.999	439.65
405.377	422.47
405.755	425.41
406.133	438.52
406.511	416.6
406.889	432.64
407.267	445.07
407.645	442.81
408.023	432.87
408.401	448.01
408.779	417.5
409.156	433.77
409.534	450.27
409.912	449.37
410.29	431.51
410.667	491.17
411.045	472.19
411.422	460.21
411.8	489.59
412.178	477.84
412.555	461.34
412.933	459.76
413.31	501.57
413.687	498.4
414.065	497.05
414.442	479.65
414.819	515.13
415.197	502.92
415.574	475.13
415.951	497.95
416.328	504.05
416.705	502.7
417.082	524.62
417.46	506.99
417.837	535.01
418.214	518.97
418.591	501.12
418.967	531.62
419.344	532.53
419.721	498.18
420.098	551.96
420.475	514
420.852	554.67
421.228	530.04
421.605	555.13
421.982	544.05
422.358	544.28
422.735	558.74
423.111	559.42
423.488	563.04
423.864	555.35
424.241	573.88
424.617	571.4
424.994	590.61
425.37	603.71
425.746	580.44
426.123	567.33
426.499	598.97
426.875	590.15
427.251	622.92
427.627	603.71
428.003	612.07
428.379	625.41
428.756	625.41
429.132	614.56
429.507	602.13
429.883	626.31
430.259	611.17
430.635	648.23
431.011	649.36
431.387	671.96
431.763	659.53
432.138	665.41
432.514	671.51
432.89	700.21
433.265	675.12
433.641	701.79
434.016	665.18
434.392	709.25
434.767	703.82
435.143	708.34
435.518	703.15
435.894	736.82
436.269	711.96
436.644	733.65
437.02	731.17
437.395	728.68
437.77	731.85
438.145	746.08
438.52	730.94
438.895	783.6
439.271	794.89
439.646	786.53
440.021	786.76
440.395	782.92
440.77	772.75
441.145	808.91
441.52	814.55
441.895	796.25
442.27	801.9
442.645	798.74
443.019	831.28
443.394	809.58
443.769	806.42
444.143	836.93
444.518	807.55
444.892	839.86
445.267	853.88
445.641	851.39
446.016	855.91
446.39	858.62
446.764	872.18
447.139	874.21
447.513	858.62
447.887	875.34
448.262	869.92
448.636	853.42
449.01	871.95
449.384	895.23
449.758	892.52
450.132	897.94
450.506	884.16
450.88	915.57
451.254	898.62
451.628	914.67
452.002	944.49
452.376	970.93
452.75	939.75
453.123	976.13
453.497	965.51
453.871	953.53
454.244	980.43
454.618	987.66
454.992	996.47
455.365	996.7
455.739	1024.94
456.112	1020.43
456.486	1028.33
456.859	1023.36
457.232	1062.23
457.606	1076.92
457.979	1062.68
458.352	1095.68
458.725	1083.47
459.099	1092.29
459.472	1117.37
459.845	1120.08
460.218	1143.36
460.591	1176.81
460.964	1173.42
461.337	1205.73
461.71	1201.21
462.083	1201.44
462.456	1212.28
462.829	1229.23
463.201	1237.37
463.574	1233.75
463.947	1267.42
464.32	1296.12
464.692	1291.6
465.065	1295.45
465.438	1340.64
465.81	1370.02
466.183	1337.7
466.555	1372.51
466.928	1384.94
467.3	1374.99
467.672	1438.04
468.045	1438.04
468.417	1444.82
468.789	1454.54
469.161	1465.16
469.534	1470.13
469.906	1529.34
470.278	1541.99
470.65	1559.39
471.022	1571.82
471.394	1614.99
471.766	1619.05
472.138	1666.51
472.51	1703.35
472.882	1712.84
473.253	1746.28
473.625	1762.33
473.997	1803
474.369	1827.41
474.74	1803
475.112	1904.02
475.484	1905.6
475.855	1949.21
476.227	1966.16
476.598	2028.53
476.97	2071.02
477.341	2094.3
477.713	2156.67
478.084	2174.07
478.455	2239.38
478.827	2246.83
479.198	2325.25
479.569	2325.93
479.94	2401.63
480.311	2456.55
480.682	2480.05
481.053	2576.77
481.424	2606.15
481.795	2618.8
482.166	2698.35
482.537	2729.08
482.908	2835.52
483.279	2851.56
483.65	2903.77
484.021	2985.35
484.391	3020.15
484.762	3067.38
485.133	3118.68
485.503	3184.21
485.874	3285
486.244	3282.06
486.615	3422.62
486.985	3452.23
487.356	3505.11
487.726	3572
488.097	3659.68
488.467	3677.3
488.837	3787.81
489.207	3825.1
489.578	3893.12
489.948	4017.86
490.318	4041.81
490.688	4060.8
491.058	4159.1
491.428	4191.42
491.798	4287.91
492.168	4401.81
492.538	4418.3
492.908	4481.13
493.278	4592.76
493.648	4590.05
494.017	4668.92
494.387	4699.65
494.757	4789.59
495.126	4894.67
495.496	4886.31
495.866	4931.96
496.235	4979.19
496.605	5071.84
496.974	5121.79
497.344	5177.6
497.713	5216.25
498.082	5266.19
498.452	5313.87
498.821	5315.45
499.19	5393.42
499.559	5438.39
499.928	5516.8
500.298	5551.38
500.667	5654.88
501.036	5680.42
501.405	5735.1
501.774	5714.09
502.143	5812.39
502.512	5834.99
502.88	5836.34
503.249	5893.29
503.618	5973.52
503.987	5978.03
504.356	6054.87
504.724	6111.59
505.093	6124.47
505.462	6168.76
505.83	6212.83
506.199	6245.37
506.567	6328.08
506.936	6303.68
507.304	6352.94
507.672	6430.23
508.041	6449.21
508.409	6471.81
508.777	6526.72
509.145	6584.57
509.514	6584.35
509.882	6658.69
510.25	6705.7
510.618	6721.07
510.986	6709.54
511.354	6801.06
511.722	6891.68
512.09	6921.96
512.458	6924.22
512.826	6951.34
513.193	7014.84
513.561	7041.06
513.929	6975.52
514.297	7120.83
514.664	7143.43
515.032	7262.52
515.4	7249.87
515.767	7180.72
516.135	7313.14
516.502	7192.47
516.869	7402.4
517.237	7369.41
517.604	7386.81
517.972	7470.43
518.339	7497.09
518.706	7412.8
519.073	7534.38
519.44	7568.95
519.808	7653.25
520.175	7637.2
520.542	7706.13
520.909	7764.65
521.276	7733.24
521.643	7855.73
522.009	7873.35
522.376	7931.2
522.743	7985.89
523.11	8005.1
523.477	8114.25
523.843	8119.67
524.21	8191.76
524.577	8241.03
524.943	8235.38
525.31	8310.4
525.676	8313.79
526.043	8385.43
526.409	8446.44
526.776	8483.96
527.142	8585.65
527.508	8612.09
527.874	8621.58
528.241	8681.01
528.607	8699.55
528.973	8773.22
529.339	8767.79
529.705	8848.92
530.071	8863.61
530.437	8916.26
530.803	9034.23
531.169	8992.87
531.535	9016.6
531.901	9095.69
532.267	9205.97
532.632	9198.06
532.998	9247.55
533.364	9318.74
533.73	9332.97
534.095	9412.52
534.461	9453.65
534.826	9544.72
535.192	9481.22
535.557	9607.54
535.923	9538.85
536.288	9609.58
536.653	9641.89
537.019	9681.67
537.384	9635.34
537.749	9756.24
538.114	9753.75
538.479	9819.06
538.845	9860.87
539.21	9912.39
539.575	9880.76
539.94	9930.02
540.305	10022.45
540.67	10050.47
541.034	10072.84
541.399	10103.35
541.764	10172.5
542.129	10210.24
542.494	10257.92
542.858	10308.09
543.223	10297.02
543.587	10464.02
543.952	10410.46
544.316	10416.79
544.681	10410.01
545.045	10516.67
545.41	10608.87
545.774	10611.59
546.138	10581.53
546.503	10698.59
546.867	10711.24
547.231	10781.98
547.595	10781.75
547.959	10767.51
548.324	10917.79
548.688	10981.52
549.052	10912.14
549.416	10952.82
549.779	11033.27
550.143	11031.01
550.507	11134.96
550.871	11123.21
551.235	11065.81
551.599	11267.84
551.962	11285.69
552.326	11295.41
552.689	11404.56
553.053	11358.23
553.417	11275.97
553.78	11516.87
554.143	11368.85
554.507	11432.58
554.87	11511.22
555.234	11679.35
555.597	11529.98
555.96	11589.86
556.323	11688.85
556.686	11677.32
557.05	11757.77
557.413	11860.59
557.776	11764.78
558.139	11938.56
558.502	11924.09
558.865	11911.44
559.228	11955.73
559.59	12015.39
559.953	12084.32
560.316	12135.16
560.679	12191.43
561.041	12254.25
561.404	12352.1
561.767	12430.52
562.129	12298.09
562.492	12483.85
562.854	12435.04
563.217	12486.34
563.579	12491.54
563.941	12564.08
564.304	12675.71
564.666	12731.76
565.028	12810.17
565.39	12696.95
565.753	12781.7
566.115	12853.33
566.477	12909.6
566.839	12863.05
567.201	12997.96
567.563	12992.54
567.925	13111.18
568.287	13182.37
568.648	13174
569.01	13262.82
569.372	13290.39
569.734	13348.69
570.095	13363.6
570.457	13486.31
570.819	13550.72
571.18	13424.84
571.542	13581.45
571.903	13659.87
572.265	13762.69
572.626	13815.34
572.987	13826.64
573.349	13893.76
573.71	13964.49
574.071	14122.23
574.432	14158.84
574.794	14268.89
575.155	14285.16
575.516	14268.66
575.877	14405.38
576.238	14523.8
576.599	14483.8
576.96	14717.47
577.32	14682.89
577.681	14896.9
578.042	15034.07
578.403	15079.04
578.763	15198.58
579.124	15266.15
579.485	15477.67
579.845	15590.66
580.206	15635.86
580.566	15747.04
580.927	15841.73
581.287	16119.24
581.648	16232.68
582.008	16432
582.368	16502.28
582.728	16779.78
583.089	16876.05
583.449	17032.66
583.809	17201.69
584.169	17457.96
584.529	17635.13
584.889	18001.9
585.249	17977.27
585.609	18122.35
585.969	18425.39
586.329	18654.09
586.688	18914.42
587.048	19101.98
587.408	19331.36
587.768	19623.55
588.127	19751.68
588.487	19903.54
588.846	20289.75
589.206	20452
589.565	20693.35
589.925	21079.11
590.284	21254.24
590.643	21552.54
591.003	21889.25
591.362	22144.16
591.721	22283.37
592.08	22658.95
592.44	23009.9
592.799	23308.88
593.158	23524.69
593.517	23802.2
593.876	24090.1
594.235	24285.58
594.593	24676.07
594.952	24857.99
595.311	25095.95
595.67	25410.29
596.029	25795.59
596.387	26100.9
596.746	26445.75
597.104	26542.69
597.463	26839.18
597.822	27229.23
598.18	27494.76
598.538	27741.08
598.897	28165.25
599.255	28042.99
599.613	28733.59
599.972	28866.02
600.33	29095.39
600.688	29197.31
601.046	29585.78
601.404	29946.22
601.762	30158.87
602.12	30548.46
602.478	30712.53
602.836	31053.08
603.194	31089.24
603.552	31420.76
603.91	31518.38
604.268	31854.64
604.625	31867.98
604.983	32341.64
605.341	32432.25
605.698	32704.79
606.056	32992.24
606.413	33176.19
606.771	33452.11
607.128	33726.01
607.485	33778.89
607.843	33933.23
608.2	34224.3
608.557	34638.52
608.914	34721.01
609.272	35058.17
609.629	35168.45
609.986	35445.73
610.343	35398.96
610.7	35883.01
611.057	35869
611.414	36137.24
611.771	36381.98
612.127	36546.5
612.484	36682.99
612.841	36900.84
613.198	36968.41
613.554	37158.91
613.911	37296.31
614.267	37460.14
614.624	37623.53
614.98	37766.35
615.337	37945.33
615.693	38202.5
616.05	38188.49
616.406	38383.96
616.762	38440.91
617.118	38585.09
617.475	38787.34
617.831	39050.84
618.187	39037.5
618.543	39211.96
618.899	39538.06
619.255	39588.22
619.611	39591.61
619.967	39804.94
620.323	39910.02
620.678	39947.31
621.034	39861.66
621.39	39980.76
621.746	40117.7
622.101	40580.97
622.457	40224.82
622.812	40314.31
623.168	40526.05
623.523	40597.69
623.879	40888.76
624.234	40593.85
624.589	40876.33
624.945	41010.11
625.3	41062.99
625.655	41012.37
626.01	41130.1
626.365	41250.1
626.72	41230.44
627.075	41295.75
627.43	41298.24
627.785	41185.47
628.14	41438.8
628.495	41483.99
628.85	41474.73
629.205	41318.35
629.559	41565.8
629.914	41435.41
630.269	41458.23
630.623	41479.47
630.978	41455.75
631.332	41527.38
631.687	41807.6
632.041	41656.64
632.396	41808.73
632.75	41640.15
633.104	41711.78
633.459	41526.93
633.813	41572.35
634.167	41679.24
634.521	41641.96
634.875	41576.87
635.229	41716.98
635.583	41530.32
635.937	41485.58
636.291	41560.83
636.645	41680.15
636.999	41570.55
637.352	41802.18
637.706	41540.49
638.06	41704.78
638.413	41508.85
638.767	41485.35
639.121	41690.54
639.474	41392.7
639.828	41352.25
640.181	41368.06
640.534	41553.37
640.888	41404.9
641.241	41293.94
641.594	41386.37
641.947	41516.99
642.301	41328.74
642.654	41413.04
643.007	41421.85
643.36	41367.84
643.713	41378.23
644.066	41437.22
644.419	41238.35
644.771	40960.62
645.124	40491.03
645.477	40576.45
645.83	40302.56
646.182	40225.27
646.535	40068.89
646.888	40154.09
647.24	39981.66
647.593	40233.63
647.945	40077.7
648.298	39831.83
648.65	39953.41
649.002	39849.23
649.355	40027.99
649.707	39959.06
650.059	40129.91
650.411	40533.96
650.763	40473.17
651.115	41110.44
651.467	40816.44
651.819	40834.07
652.171	40846.95
652.523	40794.29
652.875	40692.83
653.227	40615.54
653.578	40842.2
653.93	40704.81
654.282	40672.72
654.633	40436.11
654.985	40500.07
655.337	40648.54
655.688	40546.62
656.039	40717.23
656.391	40447.64
656.742	40472.72
657.094	40489.22
657.445	40672.04
657.796	40482.44
658.147	40384.59
658.498	40370.12
658.849	40384.14
659.2	40396.11
659.551	40227.76
659.902	40470.24
660.253	40420.07
660.604	40425.72
660.955	40314.76
661.306	40410.58
661.656	40312.27
662.007	40333.06
662.358	40301.88
662.708	40288.09
663.059	40281.09
663.409	40091.71
663.76	40314.53
664.11	40254.87
664.461	40455.55
664.811	40266.17
665.161	40260.75
665.511	40255.33
665.862	40241.31
666.212	40534.87
666.562	40439.73
666.912	40271.14
667.262	40276.79
667.612	40301.43
667.962	40210.36
668.312	40213.97
668.662	40391.59
669.011	40302.56
669.361	40217.13
669.711	40215.55
670.06	40104.82
670.41	40073.18
670.76	40136.68
671.109	40263.24
671.459	40004.03
671.808	40150.24
672.157	40170.13
672.507	39878.16
672.856	39824.38
673.205	39989.34
673.554	40030.92
673.904	39840.87
674.253	40115.89
674.602	39937.82
674.951	39376.48
675.3	39265.75
675.649	39811.04
675.998	39758.84
676.346	39811.04
676.695	39959.97
677.044	39594.78
677.393	39721.1
677.741	39850.36
678.09	39801.55
678.438	39623.48
678.787	39673.65
679.135	39667.54
679.484	39395.01
679.832	39565.4
680.181	39384.84
680.529	39459.64
680.877	39427.55
681.225	39333.09
681.573	39587.32
681.922	39256.26
682.27	39204.73
682.618	39236.6
682.966	39126.54
683.314	39029.14
683.661	38989.14
684.009	38879.99
684.357	38884.06
684.705	38629.83
685.053	38872.09
685.4	38837.51
685.748	38499.44
686.095	38454.92
686.443	38460.34
686.79	38482.72
687.138	38320.01
687.485	38406.79
687.832	38347.58
688.18	38366.79
688.527	38057.19
688.874	38053.35
689.221	37946.23
689.568	37946.01
689.915	37945.56
690.262	37854.26
690.609	37752.11
690.956	37581.05
691.303	37789.4
691.65	37495.62
691.997	37432.12
692.344	37187.61
692.69	37271.9
693.037	37149.19
693.383	36795.53
693.73	37057.44
694.077	36836.66
694.423	36765.47
694.769	36766.15
695.116	36518.47
695.462	36558.47
695.808	36253.62
696.155	36457.91
696.501	36082.55
696.847	36092.27
697.193	35983.57
697.539	36042.1
697.885	35697.25
698.231	35685.73
698.577	35682.79
698.923	35660.64
699.269	35455
699.614	35290.48
699.96	35319.86
700.306	35301.11
700.651	35231.05
700.997	35125.07
701.342	35070.38
701.688	35048.68
702.033	34841.68
702.379	34890.95
702.724	34740.67
703.069	34755.58
703.415	34262.49
703.76	34476.72
704.105	34378.19
704.45	34334.35
704.795	34173.68
705.14	33945.89
705.485	34037.41
705.83	33979.56
706.175	34000.35
706.52	33871.09
706.865	33682.39
707.209	33723.29
707.554	33604.43
707.899	33648.49
708.243	33384.55
708.588	33490.98
708.932	33139.13
709.277	33168.96
709.621	33164.21
709.966	32933.71
710.31	32958.34
710.654	32701.17
710.998	32793.38
711.342	32761.96
711.687	32702.76
712.031	32447.4
712.375	32439.49
712.719	32513.61
713.063	32498.47
713.407	32475.19
713.75	32343.22
714.094	32253.95
714.438	32194.97
714.782	32153.62
715.125	32015.32
715.469	32111.13
715.812	31960.4
716.156	31909.1
716.499	31853.96
716.843	31783.01
717.186	31579.17
717.53	31894.87
717.873	31703.01
718.216	31687.87
718.559	31466.86
718.902	31310.02
719.246	31478.16
719.589	31305.96
719.932	31262.57
720.275	31192.06
720.617	31124.04
720.96	31013.31
721.303	30972.18
721.646	31040.88
721.989	30906.19
722.331	30898.74
722.674	30826.65
723.016	30837.27
723.359	30782.58
723.701	30769.25
724.044	30576.26
724.386	30479.76
724.729	30649.48
725.071	30494.68
725.413	30417.62
725.755	30521.34
726.097	30277.06
726.439	30242.93
726.782	30123.84
727.124	30293.78
727.465	30167.23
727.807	30098.98
728.149	30120.9
728.491	29934.69
728.833	29988.48
729.175	29957.07
729.516	29884.75
729.858	29861.47
730.199	29772.21
730.541	29780.12
730.882	29669.62
731.224	29743.29
731.565	29586.68
731.906	29416.97
732.248	29588.71
732.589	29343.52
732.93	29282.51
733.271	29371.54
733.612	29349.85
733.953	29413.58
734.294	29281.6
734.635	29143.53
734.976	29205.67
735.317	29019.69
735.658	29198.44
735.999	29075.96
736.339	29015.4
736.68	29022.63
737.021	28970.65
737.361	28895.85
737.702	29045.45
738.042	28824.21
738.383	28841.39
738.723	28930.65
739.063	28677.55
739.404	28688.85
739.744	28642.75
740.084	28636.42
740.424	28523.2
740.764	28516.88
741.104	28525.24
741.444	28345.36
741.784	28441.17
742.124	28459.48
742.464	28465.13
742.804	28291.8
743.143	28162.08
743.483	28275.75
743.823	28211.8
744.162	28176.77
744.502	28194.4
744.841	27996.66
745.181	28028.3
745.52	27948.98
745.86	28065.36
746.199	27981.98
746.538	27846.61
746.877	28007.06
747.216	27885.71
747.556	27852.71
747.895	27818.14
748.234	27682.55
748.573	27603.68
748.911	27689.78
749.25	27632.38
749.589	27535.21
749.928	27526.85
750.267	27514.87
750.605	27400.75
750.944	27468.54
751.283	27263.8
751.621	27315.55
751.96	27191.04
752.298	27203.69
752.636	27198.49
752.975	27098.38
753.313	26977.26
753.651	27083.69
753.989	26849.58
754.327	26943.36
754.666	26763.48
755.004	26782.23
755.342	26813.65
755.679	26740.65
756.017	26587.66
756.355	26746.3
756.693	26540.21
757.031	26551.28
757.368	26428.8
757.706	26360.78
758.044	26319.42
758.381	26304.28
