Data from hue_190_FLMS001491_00009.txt Node
Date: Tue Feb 07 16:44:43 GMT 2017
User: dcchb
Spectrometer: FLMS00149
Trigger mode: 0
Integration Time (sec): 2.000000E-2
Scans to average: 10
Electric dark correction enabled: true
Nonlinearity correction enabled: false
Boxcar width: 0
XAxis mode: Wavelengths
Number of Pixels in Spectrum: 2048
>>>>>Begin Spectral Data<<<<<
341.393	-20.11
341.776	-20.11
342.16	-20.11
342.543	-50.39
342.927	-73.22
343.31	-70.96
343.693	-70.28
344.077	-58.76
344.46	-61.02
344.843	-59.89
345.226	-47.46
345.61	-25.54
345.993	-8.59
346.376	-12.66
346.759	11.75
347.142	10.4
347.525	56.04
347.908	64.86
348.291	78.19
348.674	75.03
349.057	118.87
349.44	121.8
349.823	122.03
350.206	153.89
350.588	207.45
350.971	178.98
351.354	224.17
351.737	230.73
352.119	251.29
352.502	271.63
352.884	281.57
353.267	275.7
353.65	284.74
354.032	310.27
354.414	314.34
354.797	311.4
355.179	336.04
355.562	315.02
355.944	323.16
356.326	341.91
356.709	322.7
357.091	331.74
357.473	357.73
357.855	340.1
358.238	337.17
358.62	327.9
359.002	340.1
359.384	327.22
359.766	344.17
360.148	341.46
360.53	340.78
360.912	339.43
361.294	343.72
361.676	335.81
362.057	322.25
362.439	333.78
362.821	324.29
363.203	333.55
363.584	306.43
363.966	321.12
364.348	308.69
364.729	312.31
365.111	300.11
365.493	310.95
365.874	320.44
366.256	322.03
366.637	307.34
367.019	307.79
367.4	315.02
367.781	314.12
368.163	300.11
368.544	299.2
368.925	301.91
369.306	317.96
369.688	303.27
370.069	295.13
370.45	319.99
370.831	320.9
371.212	302.59
371.593	310.5
371.974	304.85
372.355	315.02
372.736	315.92
373.117	308.24
373.498	308.92
373.879	300.11
374.26	312.31
374.641	308.01
375.021	310.95
375.402	295.13
375.783	331.97
376.163	320.44
376.544	323.16
376.925	319.09
377.305	322.25
377.686	314.79
378.066	305.08
378.447	329.03
378.827	320.22
379.208	327.22
379.588	341.91
379.968	326.77
380.349	327
380.729	324.29
381.109	348.92
381.489	339.65
381.87	310.27
382.25	344.4
382.63	338.97
383.01	316.38
383.39	322.25
383.77	353.89
384.15	334
384.53	337.62
384.91	319.09
385.29	328.8
385.67	351.63
386.049	335.58
386.429	351.18
386.809	351.18
387.189	336.71
387.568	362.48
387.948	327.9
388.328	343.72
388.707	342.36
389.087	357.05
389.466	360.22
389.846	340.78
390.225	355.7
390.605	357.5
390.984	346.43
391.363	350.05
391.743	386.43
392.122	371.97
392.501	371.06
392.881	362.93
393.26	343.49
393.639	379.43
394.018	377.39
394.397	387.11
394.776	356.37
395.155	373.78
395.534	372.19
395.913	358.41
396.292	374
396.671	397.05
397.05	368.58
397.429	395.24
397.808	378.52
398.186	376.26
398.565	374.23
398.944	385.07
399.323	412.87
399.701	394.34
400.08	387.79
400.458	388.01
400.837	397.5
401.215	397.28
401.594	414.9
401.972	405.19
402.351	395.02
402.729	421.46
403.107	438.86
403.486	439.76
403.864	424.85
404.242	444.96
404.62	422.36
404.999	427.56
405.377	435.02
405.755	441.12
406.133	456.49
406.511	442.47
406.889	446.32
407.267	474.34
407.645	458.29
408.023	460.33
408.401	470.5
408.779	465.98
409.156	501.68
409.534	492.19
409.912	487.9
410.29	503.94
410.667	522.47
411.045	509.59
411.422	505.52
411.8	538.29
412.178	542.58
412.555	548.46
412.933	552.53
413.31	578.97
413.687	575.35
414.065	585.52
414.442	580.32
414.819	600.44
415.197	605.41
415.574	598.18
415.951	630.94
416.328	637.27
416.705	653.32
417.082	617.84
417.46	646.99
417.837	662.58
418.214	651.06
418.591	688.8
418.967	672.52
419.344	701.45
419.721	698.96
420.098	704.16
420.475	697.83
420.852	744.84
421.228	726.53
421.605	750.94
421.982	763.6
422.358	776.48
422.735	781.9
423.111	814.22
423.488	816.25
423.864	832.75
424.241	844.95
424.617	839.98
424.994	879.52
425.37	875.91
425.746	904.16
426.123	899.19
426.499	910.48
426.875	936.7
427.251	936.02
427.627	974.21
428.003	985.96
428.379	1003.82
428.756	972.63
429.132	982.35
429.507	1018.5
429.883	1023.93
430.259	1030.71
430.635	1041.55
431.011	1057.83
431.387	1077.03
431.763	1079.75
432.138	1092.17
432.514	1102.8
432.89	1123.81
433.265	1173.98
433.641	1178.95
434.016	1202.68
434.392	1227.31
434.767	1246.29
435.143	1256.01
435.518	1257.14
435.894	1283.58
436.269	1332.39
436.644	1334.65
437.02	1368.78
437.395	1373.07
437.77	1421.21
438.145	1430.7
438.52	1457.59
438.895	1461.2
439.271	1510.47
439.646	1529.23
440.021	1550.02
440.395	1560.64
440.77	1562.9
441.145	1583.01
441.52	1605.38
441.895	1614.65
442.27	1681.54
442.645	1639.73
443.019	1697.58
443.394	1685.83
443.769	1711.59
444.143	1714.98
444.518	1760.86
444.892	1788.65
445.267	1752.04
445.641	1785.26
446.016	1842.89
446.39	1832.27
446.764	1870.69
447.139	1831.59
447.513	1881.31
447.887	1877.69
448.262	1903.45
448.636	1911.36
449.01	1940.51
449.384	1961.98
449.758	1950.68
450.132	1964.47
450.506	2044.24
450.88	2019.38
451.254	1987.07
451.628	2039.49
452.002	2084.92
452.376	2120.4
452.75	2134.63
453.123	2143.9
453.497	2161.75
453.871	2189.77
454.244	2212.82
454.618	2241.07
454.992	2291.01
455.365	2252.14
455.739	2328.3
456.112	2333.27
456.486	2374.63
456.859	2366.27
457.232	2432.93
457.606	2432.7
457.979	2502.53
458.352	2524.23
458.725	2578.01
459.099	2561.29
459.472	2610.55
459.845	2629.31
460.218	2679.7
460.591	2695.07
460.964	2705.69
461.337	2784.33
461.71	2821.39
462.083	2850.09
462.456	2868.4
462.829	2839.93
463.201	2907.95
463.574	2932.8
463.947	2968.96
464.32	3069.52
464.692	3062.07
465.065	3105.46
465.438	3145
465.81	3181.16
466.183	3178.45
466.555	3313.81
466.928	3312.68
467.3	3310.65
467.672	3379.8
468.045	3479.91
468.417	3464.77
468.789	3521.72
469.161	3522.62
469.534	3606.01
469.906	3668.38
470.278	3727.59
470.65	3763.97
471.022	3819.11
471.394	3904.08
471.766	3930.52
472.138	3972.1
472.51	4035.83
472.882	4142.26
473.253	4158.99
473.625	4237.63
473.997	4339.55
474.369	4382.94
474.74	4362.6
475.112	4471.29
475.484	4560.11
475.855	4657.96
476.227	4711.29
476.598	4818.86
476.97	4899.76
477.341	4961.9
477.713	5079.41
478.084	5078.06
478.455	5251.61
478.827	5253.42
479.198	5450.93
479.569	5411.16
479.94	5583.81
480.311	5613.64
480.682	5746.52
481.053	5926.85
481.424	5957.13
481.795	6090.46
482.166	6105.83
482.537	6183.11
482.908	6328.2
483.279	6414.07
483.65	6542.2
484.021	6677.56
484.391	6735.19
484.762	6773.38
485.133	6821.52
485.503	6958.24
485.874	7087.5
486.244	7134.05
486.615	7311.45
486.985	7396.42
487.356	7558.67
487.726	7579.91
488.097	7721.83
488.467	7737.2
488.837	7920.24
489.207	7989.39
489.578	8141.71
489.948	8192.78
490.318	8230.29
490.688	8326.56
491.058	8434.58
491.428	8581.92
491.798	8675.25
492.168	8757.74
492.538	8884.96
492.908	8918.86
493.278	9061.23
493.648	9090.16
494.017	9135.13
494.387	9198.63
494.757	9310.26
495.126	9388
495.496	9461.22
495.866	9429.36
496.235	9585.28
496.605	9578.51
496.974	9618.28
497.344	9724.49
497.713	9764.71
498.082	9850.59
498.452	9867.76
498.821	9930.59
499.19	10016.01
499.559	10058.49
499.928	10075.44
500.298	10125.38
500.667	10172.16
501.036	10110.92
501.405	10256.68
501.774	10211.71
502.143	10255.32
502.512	10316.11
502.88	10419.61
503.249	10404.92
503.618	10415.09
503.987	10435.66
504.356	10518.82
504.724	10478.59
505.093	10653.28
505.462	10499.16
505.83	10608.99
506.199	10723.33
506.567	10851.69
506.936	10696.22
507.304	10805.59
507.672	10846.72
508.041	10841.07
508.409	10875.19
508.777	10975.3
509.145	11006.49
509.514	10956.77
509.882	10932.82
510.25	10988.86
510.618	10990.22
510.986	11039.26
511.354	11089.43
511.722	11112.02
512.09	11091.91
512.458	11011.69
512.826	11130.33
513.193	11152.93
513.561	11131.23
513.929	11176.43
514.297	11313.6
514.664	11317.22
515.032	11246.71
515.4	11268.4
515.767	11318.57
516.135	11259.14
516.502	11190.67
516.869	11362.19
517.237	11381.4
517.604	11234.28
517.972	11319.93
518.339	11394.05
518.706	11314.96
519.073	11350.44
519.44	11329.65
519.808	11401.96
520.175	11302.98
520.542	11413.94
520.909	11413.71
521.276	11393.15
521.643	11413.26
522.009	11391.79
522.376	11469.3
522.743	11420.04
523.11	11472.01
523.477	11571.22
523.843	11469.53
524.21	11567.83
524.577	11511.11
524.943	11556.53
525.31	11497.78
525.676	11567.83
526.043	11559.7
526.409	11507.04
526.776	11520.38
527.142	11481.05
527.508	11502.75
527.874	11450.77
528.241	11489.87
528.607	11514.95
528.973	11466.37
529.339	11405.12
529.705	11526.25
530.071	11490.09
530.437	11358.57
530.803	11451.9
531.169	11399.7
531.535	11274.05
531.901	11236.09
532.267	11262.53
532.632	11236.31
532.998	11174.17
533.364	11186.6
533.73	11137.56
534.095	11143.66
534.461	11102.31
534.826	11102.08
535.192	11054.62
535.557	11036.77
535.923	10905.48
536.288	10930.56
536.653	10886.95
537.019	10814.86
537.384	10814.4
537.749	10781.64
538.114	10701.41
538.479	10622.55
538.845	10621.42
539.21	10495.09
539.575	10555.65
539.94	10447.86
540.305	10357.02
540.67	10361.54
541.034	10274.53
541.399	10250.13
541.764	10248.54
542.129	10186.17
542.494	10168.55
542.858	10114.31
543.223	9979.85
543.587	10052.17
543.952	9933.3
544.316	9880.64
544.681	9852.17
545.045	9802.91
545.41	9771.04
545.774	9745.73
546.138	9705.51
546.503	9589.58
546.867	9592.74
547.231	9528.11
547.595	9501.67
547.959	9524.72
548.324	9441.79
548.688	9340.09
549.052	9344.61
549.416	9274.56
549.779	9252.19
550.143	9148.01
550.507	9108.69
550.871	9158.63
551.235	9013.32
551.599	9103.72
551.962	8993.89
552.326	8869.6
552.689	8856.94
553.053	8861.91
553.417	8781.01
553.78	8779.66
554.143	8706.44
554.507	8699.21
554.87	8699.66
555.234	8701.01
555.597	8559.55
555.96	8570.4
556.323	8576.95
556.686	8520.23
557.05	8523.39
557.413	8479.33
557.776	8411.3
558.139	8455.37
558.502	8397.52
558.865	8437.74
559.228	8393
559.59	8335.15
559.953	8249.95
560.316	8337.86
560.679	8282.27
561.041	8289.5
561.404	8219.44
561.767	8314.81
562.129	8181.93
562.492	8248.37
562.854	8189.62
563.217	8238.88
563.579	8163.4
563.941	8176.06
564.304	8223.74
564.666	8233
565.028	8120.46
565.39	8129.96
565.753	8162.5
566.115	8156.4
566.477	8052.22
566.839	8061.03
567.201	8160.24
567.563	8207.24
567.925	8108.49
568.287	8133.12
568.648	8160.69
569.01	8123.4
569.372	8185.55
569.734	8039.11
570.095	8155.72
570.457	8130.41
570.819	8136.74
571.18	8082.95
571.542	8101.48
571.903	8054.48
572.265	8124.31
572.626	8081.14
572.987	8113.68
573.349	8047.92
573.71	8103.29
574.071	8118.43
574.432	8087.47
574.794	8132.89
575.155	8122.95
575.516	8101.93
575.877	8091.99
576.238	8044.53
576.599	8058.55
576.96	8117.3
577.32	8128.15
577.681	8081.14
578.042	8112.56
578.403	8019.22
578.763	8015.16
579.124	8110.07
579.485	8131.31
579.845	8043.18
580.206	8001.82
580.566	8029.17
580.927	8001.6
581.287	8102.84
581.648	8046.34
582.008	8103.52
582.368	8052.9
582.728	8034.82
583.089	7985.78
583.449	7972.22
583.809	8014.03
584.169	7987.36
584.529	7965.89
584.889	8019.68
585.249	7936.06
585.609	7879.11
585.969	7999.11
586.329	7918.44
586.688	7934.71
587.048	7903.3
587.408	7838.89
587.768	7885.89
588.127	7904.65
588.487	7855.61
588.846	7920.7
589.206	7761.83
589.565	7813.58
589.925	7856.74
590.284	7821.94
590.643	7771.32
591.003	7862.17
591.362	7835.5
591.721	7800.92
592.08	7825.56
592.44	7796.86
592.799	7863.07
593.158	7782.17
593.517	7712.79
593.876	7745.11
594.235	7686.58
594.593	7730.42
594.952	7732.23
595.311	7722.28
595.67	7672.11
596.029	7735.39
596.387	7706.46
596.746	7697.88
597.104	7679.8
597.463	7701.94
597.822	7672.34
598.18	7604.32
598.538	7608.16
598.897	7653.13
599.255	7559.58
599.613	7638.9
599.972	7656.3
600.33	7648.84
600.688	7596.41
601.046	7594.38
601.404	7668.5
601.762	7598.9
602.12	7702.62
602.478	7623.3
602.836	7580.59
603.194	7593.47
603.552	7577.65
603.91	7602.06
604.268	7539.24
604.625	7580.37
604.983	7619.69
605.341	7457.88
605.698	7584.66
606.056	7577.2
606.413	7570.65
606.771	7541.27
607.128	7590.76
607.485	7617.88
607.843	7572.23
608.2	7582.85
608.557	7568.16
608.914	7587.15
609.272	7619.91
609.629	7622.62
609.986	7624.88
610.343	7570.87
610.7	7652.91
611.057	7588.28
611.414	7627.82
611.771	7567.94
612.127	7668.5
612.484	7672.57
612.841	7643.64
613.198	7600.7
613.554	7645.67
613.911	7606.58
614.267	7642.51
614.624	7573.59
614.98	7667.6
615.337	7701.72
615.693	7625.34
616.05	7708.95
616.406	7698.78
616.762	7599.35
617.118	7676.63
617.475	7716.63
617.831	7696.29
618.187	7739.23
618.543	7715.5
618.899	7743.53
619.255	7677.09
619.611	7696.52
619.967	7744.66
620.323	7759.34
620.678	7739.68
621.034	7685.22
621.39	7735.62
621.746	7736.29
622.101	7761.38
622.457	7733.36
622.812	7695.16
623.168	7775.61
623.523	7731.1
623.879	7770.42
624.234	7684.09
624.589	7714.37
624.945	7748.27
625.3	7734.26
625.655	7757.76
626.01	7775.39
626.365	7689.06
626.72	7713.47
627.075	7699.01
627.43	7711.44
627.785	7714.37
628.14	7691.1
628.495	7744.66
628.85	7659.23
629.205	7619.01
629.559	7705.33
629.914	7638.44
630.269	7621.04
630.623	7599.8
630.978	7662.85
631.332	7672.11
631.687	7667.82
632.041	7586.92
632.396	7613.36
632.75	7612
633.104	7623.3
633.459	7561.38
633.813	7531.55
634.167	7494.49
634.521	7571.33
634.875	7579.01
635.229	7520.93
635.583	7496.75
635.937	7487.03
636.291	7438.22
636.645	7498.11
636.999	7487.03
637.352	7484.1
637.706	7423.53
638.06	7495.17
638.413	7450.43
638.767	7470.99
639.121	7465.11
639.474	7409.3
639.828	7406.36
640.181	7347.15
640.534	7437.32
640.888	7379.92
641.241	7348.51
641.594	7360.71
641.947	7417.66
642.301	7430.31
642.654	7301.95
643.007	7387.6
643.36	7367.04
643.713	7394.38
644.066	7301.5
644.419	7311.9
644.771	7237.78
645.124	7213.6
645.477	7115.29
645.83	7196.19
646.182	7062.64
646.535	7105.8
646.888	7133.15
647.24	7061.06
647.593	7122.98
647.945	7159.13
648.298	7093.15
648.65	7137.21
649.002	7102.19
649.355	7098.8
649.707	7160.72
650.059	7140.6
650.411	7202.52
650.763	7204.56
651.115	7342.18
651.467	7280.03
651.819	7269.64
652.171	7285.68
652.523	7261.96
652.875	7295.4
653.227	7288.85
653.578	7354.38
653.93	7290.66
654.282	7212.92
654.633	7199.58
654.985	7278.23
655.337	7282.07
655.688	7273.71
656.039	7288.4
656.391	7240.71
656.742	7253.14
657.094	7269.19
657.445	7284.78
657.796	7267.61
658.147	7251.11
658.498	7284.33
658.849	7355.74
659.2	7333.37
659.551	7265.35
659.902	7275.29
660.253	7337.21
660.604	7337.66
660.955	7285.23
661.306	7374.5
661.656	7356.42
662.007	7345.34
662.358	7323.88
662.708	7329.75
663.059	7307.38
663.409	7295.63
663.76	7380.82
664.11	7382.18
664.461	7352.35
664.811	7392.57
665.161	7328.85
665.511	7346.25
665.862	7384.21
666.212	7342.63
666.562	7359.35
666.912	7352.58
667.262	7346.7
667.612	7388.28
667.962	7372.24
668.312	7391.9
668.662	7395.06
669.011	7324.33
669.361	7370.88
669.711	7395.51
670.06	7361.16
670.41	7305.12
670.76	7339.47
671.109	7398.45
671.459	7367.04
671.808	7281.84
672.157	7405.68
672.507	7306.02
672.856	7309.64
673.205	7273.26
673.554	7346.93
673.904	7357.32
674.253	7354.83
674.602	7355.29
674.951	7243.2
675.3	7178.12
675.649	7261.05
675.998	7254.05
676.346	7292.46
676.695	7262.63
677.044	7219.02
677.393	7210.66
677.741	7250.66
678.09	7207.72
678.438	7180.38
678.787	7241.62
679.135	7149.19
679.484	7187.38
679.832	7154.16
680.181	7176.31
680.529	7175.18
680.877	7161.39
681.225	7125.46
681.573	7176.53
681.922	7113.26
682.27	7077.1
682.618	7035.52
682.966	7023.09
683.314	7001.62
683.661	7042.53
684.009	7046.59
684.357	6946.03
684.705	6971.79
685.053	6970.66
685.4	6949.2
685.748	6942.64
686.095	6873.94
686.443	6860.38
686.79	6892.25
687.138	6879.14
687.485	6880.5
687.832	6831.01
688.18	6803.44
688.527	6808.86
688.874	6796.88
689.221	6835.53
689.568	6766.15
689.915	6792.59
690.262	6694.97
690.609	6654.51
690.956	6685.93
691.303	6673.5
691.65	6642.99
691.997	6683.21
692.344	6551.92
692.69	6605.02
693.037	6551.24
693.383	6502.2
693.73	6534.52
694.077	6501.3
694.423	6449.77
694.769	6403.67
695.116	6398.25
695.462	6447.06
695.808	6386.5
696.155	6400.51
696.501	6325.48
696.847	6301.76
697.193	6287.52
697.539	6310.12
697.885	6253.39
698.231	6176.56
698.577	6191.93
698.923	6144.25
699.269	6173.62
699.614	6093.85
699.96	6099.73
700.306	6107.41
700.651	6026.51
700.997	6070.35
701.342	5995.77
701.688	6020.86
702.033	5970.46
702.379	6003.23
702.724	5940.63
703.069	5962.33
703.415	5892.27
703.76	5889.56
704.105	5867.42
704.45	5845.95
704.795	5831.71
705.14	5789.68
705.485	5786.51
705.83	5756.01
706.175	5811.6
706.52	5720.75
706.865	5746.52
707.209	5691.6
707.554	5624.94
707.899	5651.15
708.243	5641.43
708.588	5657.7
708.932	5619.29
709.277	5585.16
709.621	5600.3
709.966	5580.19
710.31	5530.93
710.654	5486.86
710.998	5489.35
711.342	5513.08
711.687	5516.24
712.031	5487.99
712.375	5469.69
712.719	5468.78
713.063	5453.64
713.407	5487.09
713.75	5416.58
714.094	5407.09
714.438	5424.04
714.782	5402.57
715.125	5376.58
715.469	5375.68
715.812	5353.53
716.156	5324.38
716.499	5328.45
716.843	5360.09
717.186	5312.85
717.53	5322.57
717.873	5299.3
718.216	5330.48
718.559	5299.3
718.902	5280.99
719.246	5293.87
719.589	5271.73
719.932	5223.37
720.275	5285.28
720.617	5237.83
720.96	5224.04
721.303	5257.94
721.646	5229.24
721.989	5216.36
722.331	5196.7
722.674	5185.17
723.016	5172.29
723.359	5195.12
723.701	5180.65
724.044	5157.6
724.386	5169.81
724.729	5211.84
725.071	5228.79
725.413	5161.22
725.755	5180.43
726.097	5190.6
726.439	5148.11
726.782	5147.89
727.124	5229.24
727.465	5186.08
727.807	5196.7
728.149	5171.84
728.491	5157.15
728.833	5186.98
729.175	5173.2
729.516	5173.2
729.858	5118.74
730.199	5196.47
730.541	5191.05
730.882	5169.81
731.224	5174.55
731.565	5155.8
731.906	5146.08
732.248	5181.78
732.589	5174.78
732.93	5144.27
733.271	5156.7
733.612	5138.62
733.953	5184.5
734.294	5148.79
734.635	5135.01
734.976	5191.28
735.317	5173.2
735.658	5200.77
735.999	5193.08
736.339	5156.25
736.68	5232.86
737.021	5183.37
737.361	5192.18
737.702	5222.24
738.042	5174.78
738.383	5224.72
738.723	5222.69
739.063	5237.38
739.404	5209.13
739.744	5217.94
740.084	5255.91
740.424	5310.14
740.764	5255.23
741.104	5310.59
741.444	5349.01
741.784	5279.18
742.124	5346.3
742.464	5326.87
742.804	5367.09
743.143	5353.76
743.483	5396.47
743.823	5417.03
744.162	5438.05
744.502	5452.74
744.841	5478.05
745.181	5600.53
745.52	5514.43
745.86	5593.07
746.199	5601.66
746.538	5593.3
746.877	5691.38
747.216	5765.95
747.556	5782.9
747.895	5831.03
748.234	5837.81
748.573	5885.95
748.911	5974.53
749.25	5964.59
749.589	6044.59
749.928	6132.72
750.267	6205.26
750.605	6273.06
750.944	6313.96
751.283	6413.62
751.621	6500.39
751.96	6494.07
752.298	6669.66
752.636	6727.28
752.975	6765.7
753.313	6890.89
753.651	6994.39
753.989	7069.87
754.327	7192.81
754.666	7276.87
755.004	7435.51
755.342	7583.08
755.679	7741.27
756.017	7757.54
756.355	7940.36
756.693	8002.28
757.031	8276.84
757.368	8307.58
757.706	8480
758.044	8638.64
758.381	8818.75
758.719	8986.43
759.056	9177.61
759.394	9315.24
759.731	9442.69
760.068	9629.58
760.405	9768.78
760.743	9872.51
761.08	10079.73
761.417	10176
761.754	10446.28
762.091	10619.38
762.428	10784.35
762.765	10931.01
763.102	11165.13
763.438	11321.51
763.775	11472.92
764.112	11697.09
764.449	11902.51
764.785	12017.54
765.122	12215.72
765.458	12262.5
765.795	12564.19
766.131	12694.58
766.467	12817.97
766.804	12978.42
767.14	13071.97
