Data from hue_180_FLMS001491_00028.txt Node
Date: Tue Feb 07 16:46:46 GMT 2017
User: dcchb
Spectrometer: FLMS00149
Trigger mode: 0
Integration Time (sec): 2.000000E-2
Scans to average: 10
Electric dark correction enabled: true
Nonlinearity correction enabled: false
Boxcar width: 0
XAxis mode: Wavelengths
Number of Pixels in Spectrum: 2048
>>>>>Begin Spectral Data<<<<<
341.393	-17.53
341.776	-17.53
342.16	-17.53
342.543	-81.48
342.927	-93.01
343.31	-83.51
343.693	-67.92
344.077	-61.59
344.46	-65.66
344.843	-57.53
345.226	-46.91
345.61	-34.7
345.993	-8.26
346.376	10.95
346.759	15.47
347.142	48.01
347.525	45.97
347.908	59.31
348.291	73.77
348.674	79.87
349.057	92.75
349.44	115.8
349.823	142.92
350.206	141.79
350.588	198.74
350.971	211.84
351.354	204.84
351.737	233.77
352.119	232.41
352.502	253.43
352.884	264.72
353.267	282.58
353.65	301.79
354.032	283.71
354.414	287.1
354.797	302.01
355.179	292.97
355.562	313.99
355.944	317.6
356.326	345.4
356.709	330.94
357.091	318.28
357.473	330.94
357.855	336.36
358.238	341.11
358.62	335.23
359.002	337.49
359.384	329.81
359.766	347.43
360.148	334.78
360.53	327.1
360.912	323.48
361.294	338.85
361.676	328.68
362.057	334.55
362.439	322.8
362.821	320.99
363.203	324.38
363.584	298.17
363.966	303.14
364.348	305.85
364.729	318.73
365.111	318.96
365.493	292.75
365.874	293.42
366.256	280.77
366.637	309.47
367.019	304.5
367.4	303.59
367.781	304.72
368.163	315.57
368.544	322.35
368.925	330.49
369.306	300.2
369.688	330.03
370.069	323.93
370.45	313.08
370.831	303.59
371.212	291.62
371.593	314.44
371.974	314.44
372.355	304.95
372.736	313.76
373.117	316.7
373.498	296.59
373.879	316.02
374.26	307.89
374.641	311.28
375.021	288.45
375.402	311.73
375.783	296.81
376.163	310.37
376.544	309.02
376.925	335.68
377.305	315.12
377.686	310.15
378.066	307.89
378.447	313.08
378.827	332.97
379.208	302.69
379.588	337.94
379.968	316.02
380.349	318.73
380.729	326.19
381.109	323.48
381.489	336.81
381.87	306.31
382.25	326.87
382.63	340.2
383.01	322.58
383.39	316.93
383.77	308.11
384.15	337.72
384.53	339.75
384.91	307.44
385.29	341.78
385.67	341.11
386.049	332.07
386.429	351.05
386.809	342.91
387.189	355.12
387.568	347.43
387.948	340.43
388.328	349.69
388.707	355.57
389.087	331.84
389.466	356.93
389.846	344.95
390.225	342.24
390.605	358.28
390.984	368.68
391.363	353.99
391.743	351.73
392.122	368
392.501	372.29
392.881	371.39
393.26	364.61
393.639	356.7
394.018	360.32
394.397	377.72
394.776	374.55
395.155	366.19
395.534	371.61
395.913	344.04
396.292	366.87
396.671	383.82
397.05	387.89
397.429	370.26
397.808	400.99
398.186	387.21
398.565	396.92
398.944	373.42
399.323	392.63
399.701	400.09
400.08	390.82
400.458	411.16
400.837	397.15
401.215	401.22
401.594	387.21
401.972	410.71
402.351	405.74
402.729	397.38
403.107	403.48
403.486	409.58
403.864	437.38
404.242	419.75
404.62	393.99
404.999	432.63
405.377	415
405.755	438.73
406.133	431.27
406.511	435.57
406.889	449.35
407.267	454.32
407.645	438.05
408.023	452.06
408.401	452.29
408.779	462.91
409.156	455
409.534	486.41
409.912	487.32
410.29	492.29
410.667	495.45
411.045	494.32
411.422	502.23
411.8	502.91
412.178	529.12
412.555	537.03
412.933	525.06
413.31	533.19
413.687	549.01
414.065	560.54
414.442	581.78
414.819	570.71
415.197	593.3
415.574	583.13
415.951	594.66
416.328	570.03
416.705	593.76
417.082	619.74
417.46	599.63
417.837	630.36
418.214	620.65
418.591	646.64
418.967	652.74
419.344	652.96
419.721	637.82
420.098	659.74
420.475	683.02
420.852	678.5
421.228	693.87
421.605	685.73
421.982	690.93
422.358	722.57
422.735	728.89
423.111	719.18
423.488	745.16
423.864	767.99
424.241	752.17
424.617	782.23
424.994	814.77
425.37	799.4
425.746	788.1
426.123	832.62
426.499	808.67
426.875	846.18
427.251	845.5
427.627	862.22
428.003	875.78
428.379	868.1
428.756	920.07
429.132	903.13
429.507	914.2
429.883	904.03
430.259	940.87
430.635	933.63
431.011	930.02
431.387	988.32
431.763	981.77
432.138	975.67
432.514	1028.77
432.89	1020.19
433.265	1046.17
433.641	1060.18
434.016	1070.35
434.392	1099.96
434.767	1099.5
435.143	1139.73
435.518	1145.61
435.894	1154.19
436.269	1171.37
436.644	1189.22
437.02	1189.67
437.395	1209.78
437.77	1239.39
438.145	1264.47
438.52	1270.8
438.895	1298.6
439.271	1305.6
439.646	1323
440.021	1351.25
440.395	1348.31
440.77	1345.83
441.145	1382.66
441.52	1391.7
441.895	1400.51
442.27	1430.57
442.645	1416.11
443.019	1448.65
443.394	1450.68
443.769	1490.23
444.143	1480.74
444.518	1523.22
444.892	1524.35
445.267	1562.32
445.641	1552.6
446.016	1556.22
446.39	1574.07
446.764	1568.87
447.139	1589.66
447.513	1599.15
447.887	1607.06
448.262	1627.4
448.636	1608.87
449.01	1659.94
449.384	1664.46
449.758	1687.29
450.132	1712.14
450.506	1722.99
450.88	1731.58
451.254	1749.43
451.628	1764.35
452.002	1766.83
452.376	1794.85
452.75	1798.24
453.123	1818.13
453.497	1883.21
453.871	1864.91
454.244	1900.84
454.618	1912.36
454.992	1969.76
455.365	1941.74
455.739	2042.76
456.112	2029.2
456.486	2020.61
456.859	2061.29
457.232	2108.52
457.606	2084.11
457.979	2111.46
458.352	2166.14
458.725	2229.42
459.099	2226.93
459.472	2251.57
459.845	2257.44
460.218	2299.7
460.591	2303.09
460.964	2320.94
461.337	2366.36
461.71	2400.26
462.083	2459.47
462.456	2463.76
462.829	2525
463.201	2516.19
463.574	2514.61
463.947	2555.74
464.32	2612.69
464.692	2639.35
465.065	2705.11
465.438	2703.53
465.81	2737.88
466.183	2817.65
466.555	2859.46
466.928	2835.5
467.3	2906.46
467.672	2918.44
468.045	2992.11
468.417	3016.97
468.789	3060.81
469.161	3108.04
469.534	3130.64
469.906	3235.27
470.278	3247.25
470.65	3278.88
471.022	3311.65
471.394	3407.69
471.766	3424.87
472.138	3488.82
472.51	3578.08
472.882	3652.43
473.253	3684.75
473.625	3720.23
473.997	3811.52
474.369	3871.18
474.74	3910.05
475.112	4035.7
475.484	4104.62
475.855	4140.78
476.227	4204.51
476.598	4304.39
476.97	4352.53
477.341	4466.2
477.713	4548
478.084	4565.85
478.455	4723.59
478.827	4769.69
479.198	4917.48
479.569	4931.04
479.94	5100.08
480.311	5138.04
480.682	5306.63
481.053	5427.53
481.424	5474.53
481.795	5514.3
482.166	5641.98
482.537	5724.47
482.908	5859.38
483.279	5888.31
483.65	6044.91
484.021	6217.56
484.391	6279.03
484.762	6328.97
485.133	6427.73
485.503	6533.26
485.874	6691
486.244	6740.26
486.615	6843.99
486.985	6986.81
487.356	7163.3
487.726	7205.33
488.097	7344.54
488.467	7373.01
488.837	7523.06
489.207	7671.54
489.578	7770.97
489.948	7846.9
490.318	7991.53
490.688	8019.78
491.058	8214.35
491.428	8309.03
491.798	8325.76
492.168	8566.43
492.538	8528.01
492.908	8741.34
493.278	8849.13
493.648	8791.96
494.017	9024.49
494.387	9056.81
494.757	9063.59
495.126	9230.36
495.496	9207.09
495.866	9298.16
496.235	9351.94
496.605	9480.53
496.974	9521.66
497.344	9677.36
497.713	9647.08
498.082	9781.31
498.452	9787.41
498.821	9845.04
499.19	9815.43
499.559	9920.97
499.928	9961.42
500.298	10106.95
500.667	10140.17
501.036	10132.49
501.405	10183.11
501.774	10243.9
502.143	10270.34
502.512	10401.86
502.88	10435.53
503.249	10465.59
503.618	10495.87
503.987	10521.86
504.356	10629.42
504.724	10664.68
505.093	10602.53
505.462	10627.16
505.83	10644.56
506.199	10749.42
506.567	10849.31
506.936	10803.43
507.304	10904.44
507.672	10912.58
508.041	10861.51
508.409	11029.41
508.777	11074.16
509.145	11102.41
509.514	11070.77
509.882	11166.13
510.25	11153.7
510.618	11226.02
510.986	11221.05
511.354	11325
511.722	11263.53
512.09	11369.29
512.458	11323.87
512.826	11424.66
513.193	11403.41
513.561	11382.85
513.929	11465.79
514.297	11549.63
514.664	11536.74
515.032	11549.85
515.4	11599.79
515.767	11616.97
516.135	11597.31
516.502	11548.95
516.869	11654.71
517.237	11584.88
517.604	11545.33
517.972	11683.18
518.339	11709.4
518.706	11721.15
519.073	11718.89
519.44	11701.94
519.808	11822.16
520.175	11738.55
520.542	11796.17
520.909	11773.57
521.276	11812.9
521.643	11862.61
522.009	11858.77
522.376	11910.52
522.743	11867.13
523.11	11921.59
523.477	11961.82
523.843	11996.85
524.21	11998.88
524.577	12042.49
524.943	12014.02
525.31	11973.34
525.676	12030.97
526.043	12109.61
526.409	12079.56
526.776	12157.52
527.142	12060.8
527.508	12082.72
527.874	11991.42
528.241	12098.54
528.607	12074.58
528.973	12101.25
529.339	12026.22
529.705	12097.41
530.071	12090.85
530.437	12113.23
530.803	12042.27
531.169	11988.48
531.535	12043.85
531.901	11955.04
532.267	12009.73
532.632	11999.56
532.998	11903.97
533.364	11995.49
533.73	11863.06
534.095	11854.93
534.461	11878.2
534.826	11871.88
535.192	11841.14
535.557	11815.38
535.923	11707.14
536.288	11789.85
536.653	11677.53
537.019	11608.83
537.384	11658.1
537.749	11581.49
538.114	11579.46
538.479	11498.78
538.845	11391.44
539.21	11375.84
539.575	11360.93
539.94	11288.39
540.305	11330.42
540.67	11297.88
541.034	11235.96
541.399	11219.01
541.764	11211.1
542.129	11129.98
542.494	11064.89
542.858	11028.28
543.223	11029.19
543.587	11010.88
543.952	10928.85
544.316	10901.73
544.681	10884.78
545.045	10810.44
545.41	10813.6
545.774	10715.07
546.138	10720.72
546.503	10695.64
546.867	10640.5
547.231	10634.62
547.595	10623.55
547.959	10520.05
548.324	10507.17
548.688	10382.88
549.052	10469.43
549.416	10371.13
549.779	10371.8
550.143	10292.48
550.507	10242.99
550.871	10195.31
551.235	10100.62
551.599	10135.65
551.962	10103.79
552.326	10017.46
552.689	10086.61
553.053	9894.98
553.417	9949.22
553.78	10024.92
554.143	9912.83
554.507	9904.92
554.87	9863.34
555.234	9848.65
555.597	9799.39
555.96	9748.77
556.323	9822.67
556.686	9744.25
557.05	9722.33
557.413	9709.67
557.776	9662.9
558.139	9753.74
558.502	9649.34
558.865	9588.32
559.228	9685.95
559.59	9609.11
559.953	9565.72
560.316	9581.77
560.679	9613.18
561.041	9578.6
561.404	9567.76
561.767	9606.4
562.129	9527.76
562.492	9532.96
562.854	9518.27
563.217	9410.02
563.579	9536.35
563.941	9459.96
564.304	9490.7
564.666	9553.75
565.028	9500.64
565.39	9467.87
565.753	9489.11
566.115	9548.55
566.477	9532.28
566.839	9506.74
567.201	9565.5
567.563	9469.68
567.925	9528.89
568.287	9447.76
568.648	9550.13
569.01	9545.84
569.372	9543.8
569.734	9486.4
570.095	9550.81
570.457	9567.76
570.819	9573.63
571.18	9503.35
571.542	9533.18
571.903	9507.65
572.265	9562.11
572.626	9518.72
572.987	9572.28
573.349	9528.66
573.71	9544.71
574.071	9561.88
574.432	9476.69
574.794	9585.38
575.155	9544.03
575.516	9544.03
575.877	9523.01
576.238	9478.04
576.599	9504.03
576.96	9498.38
577.32	9497.02
577.681	9511.71
578.042	9542.9
578.403	9513.07
578.763	9490.92
579.124	9479.62
579.485	9538.61
579.845	9408.67
580.206	9518.94
580.566	9532.96
580.927	9453.86
581.287	9495.44
581.648	9524.14
582.008	9478.27
582.368	9524.82
582.728	9494.99
583.089	9402.56
583.449	9466.52
583.809	9415.9
584.169	9564.59
584.529	9431.04
584.889	9460.87
585.249	9421.32
585.609	9316.92
585.969	9414.77
586.329	9302.23
586.688	9329.57
587.048	9371.15
587.408	9273.75
587.768	9298.84
588.127	9241.44
588.487	9261.1
588.846	9274.43
589.206	9263.58
589.565	9250.7
589.925	9251.38
590.284	9274.43
590.643	9237.14
591.003	9271.95
591.362	9301.55
591.721	9203.47
592.08	9227.2
592.44	9182.46
592.799	9249.35
593.158	9151.5
593.517	9158.05
593.876	9171.38
594.235	9130.03
594.593	9175.9
594.952	9119.63
595.311	9128.45
595.67	9174.09
596.029	9177.26
596.387	9169.58
596.746	9189.91
597.104	9205.28
597.463	9109.46
597.822	9151.95
598.18	9107.66
598.538	9128.45
598.897	9124.15
599.255	9102.23
599.613	9192.85
599.972	9061.56
600.33	9110.59
600.688	9092.97
601.046	9096.58
601.404	9104.04
601.762	9034.21
602.12	9131.38
602.478	9103.81
602.836	9113.31
603.194	9014.33
603.552	9006.42
603.91	9007.55
604.268	9065.17
604.625	9027.66
604.983	9092.74
605.341	9037.15
605.698	9054.32
606.056	9028.56
606.413	9042.12
606.771	9032.4
607.128	9061.56
607.485	9021.56
607.843	9088.45
608.2	9062.23
608.557	9087.32
608.914	9068.56
609.272	9029.69
609.629	9094.1
609.986	9052.97
610.343	9050.03
610.7	9148.33
611.057	9134.32
611.414	9049.13
611.771	9086.41
612.127	9204.6
612.484	9123.47
612.841	9130.93
613.198	9140.65
613.554	9099.97
613.911	9170.03
614.267	9142.01
614.624	9131.38
614.98	9193.53
615.337	9105.17
615.693	9220.2
616.05	9194.21
616.406	9238.05
616.762	9186.75
617.118	9207.99
617.475	9199.41
617.831	9209.57
618.187	9230.14
618.543	9195.34
618.899	9230.59
619.255	9275.34
619.611	9277.14
619.967	9253.87
620.323	9299.06
620.678	9200.99
621.034	9167.99
621.39	9234.21
621.746	9246.64
622.101	9314.66
622.457	9173.42
622.812	9218.84
623.168	9329.8
623.523	9245.73
623.879	9286.41
624.234	9215.22
624.589	9238.27
624.945	9229.01
625.3	9270.14
625.655	9235.34
626.01	9179.97
626.365	9264.49
626.72	9199.63
627.075	9229.69
627.43	9227.88
627.785	9176.58
628.14	9217.26
628.495	9224.49
628.85	9173.64
629.205	9145.85
629.559	9189.01
629.914	9118.73
630.269	9200.99
630.623	9086.19
630.978	9144.49
631.332	9143.36
631.687	9161.21
632.041	9102.46
632.396	9098.84
632.75	9076.47
633.104	9086.64
633.459	9085.74
633.813	9045.96
634.167	9057.71
634.521	9059.3
634.875	8976.13
635.229	9001.44
635.583	8996.47
635.937	8995.79
636.291	9003.48
636.645	8956.93
636.999	8937.72
637.352	8970.94
637.706	8967.32
638.06	8936.36
638.413	8903.59
638.767	8910.15
639.121	8919.86
639.474	8876.7
639.828	8900.2
640.181	8904.5
640.534	8858.85
640.888	8847.32
641.241	8808.45
641.594	8789.7
641.947	8811.17
642.301	8814.56
642.654	8796.48
643.007	8787.44
643.36	8816.59
643.713	8815.46
644.066	8824.05
644.419	8728.68
644.771	8727.33
645.124	8677.84
645.477	8625.41
645.83	8583.83
646.182	8556.26
646.535	8524.85
646.888	8557.39
647.24	8500.44
647.593	8570.27
647.945	8565.3
648.298	8473.32
648.65	8426.09
649.002	8446.2
649.355	8464.96
649.707	8487.11
650.059	8517.16
650.411	8617.73
650.763	8651.4
651.115	8701.11
651.467	8723.94
651.819	8660.66
652.171	8675.8
652.523	8679.19
652.875	8700.21
653.227	8653.66
653.578	8703.37
653.93	8735.24
654.282	8586.77
654.633	8647.33
654.985	8737.72
655.337	8711.96
655.688	8671.28
656.039	8753.32
656.391	8658.4
656.742	8681.23
657.094	8628.35
657.445	8732.07
657.796	8685.07
658.147	8657.5
658.498	8728.68
658.849	8760.55
659.2	8744.28
659.551	8765.29
659.902	8798.96
660.253	8700.44
660.604	8789.25
660.955	8700.44
661.306	8747.21
661.656	8761.68
662.007	8804.84
662.358	8753.77
662.708	8708.34
663.059	8794.44
663.409	8719.87
663.76	8784.73
664.11	8767.55
664.461	8814.78
664.811	8795.12
665.161	8760.09
665.511	8754.44
665.862	8745.86
666.212	8789.7
666.562	8789.47
666.912	8742.02
667.262	8823.37
667.612	8805.29
667.962	8844.16
668.312	8840.54
668.662	8821.11
669.011	8791.05
669.361	8836.48
669.711	8841.45
670.06	8825.86
670.41	8793.09
670.76	8721.23
671.109	8780.43
671.459	8746.54
671.808	8746.76
672.157	8716.71
672.507	8792.64
672.856	8707.89
673.205	8733.2
673.554	8757.83
673.904	8722.81
674.253	8726.88
674.602	8751.28
674.951	8570.95
675.3	8539.54
675.649	8727.1
675.998	8619.08
676.346	8672.41
676.695	8714.67
677.044	8697.27
677.393	8661.57
677.741	8640.32
678.09	8623.15
678.438	8628.12
678.787	8546.99
679.135	8583.83
679.484	8533.89
679.832	8490.72
680.181	8494.34
680.529	8524.62
680.877	8510.38
681.225	8439.2
681.573	8501.12
681.922	8451.85
682.27	8466.09
682.618	8463.15
682.966	8421.8
683.314	8401.46
683.661	8392.42
684.009	8338.86
684.357	8369.37
684.705	8317.17
685.053	8342.93
685.4	8318.3
685.748	8299.99
686.095	8316.26
686.443	8210.28
686.79	8203.72
687.138	8236.49
687.485	8210.28
687.832	8189.71
688.18	8212.09
688.527	8140.22
688.874	8096.16
689.221	8043.73
689.568	8071.07
689.915	8076.95
690.262	7996.27
690.609	7958.53
690.956	7981.36
691.303	7963.05
691.65	7884.86
691.997	7956.95
692.344	7865.88
692.69	7873.79
693.037	7801.93
693.383	7740.01
693.73	7710.18
694.077	7751.76
694.423	7725.09
694.769	7652.55
695.116	7690.29
695.462	7613.91
695.808	7547.92
696.155	7649.16
696.501	7505.89
696.847	7528.26
697.193	7490.07
697.539	7490.75
697.885	7462.5
698.231	7444.87
698.577	7368.27
698.923	7358.78
699.269	7310.64
699.614	7289.4
699.96	7233.36
700.306	7225.9
700.651	7208.5
700.997	7153.13
701.342	7183.64
701.688	7130.31
702.033	7072.91
702.379	7060.48
702.724	7082.4
703.069	7074.26
703.415	6976.86
703.76	6929.18
704.105	6944.1
704.45	6889.64
704.795	6915.62
705.14	6884.21
705.485	6886.47
705.83	6831.56
706.175	6855.06
706.52	6803.31
706.865	6770.54
707.209	6755.4
707.554	6705.69
707.899	6692.58
708.243	6705.91
708.588	6678.57
708.932	6689.41
709.277	6586.14
709.621	6603.09
709.966	6585.01
710.31	6561.28
710.654	6581.17
710.998	6566.25
711.342	6499.36
711.687	6517.89
712.031	6474.05
712.375	6483.09
712.719	6454.84
713.063	6447.39
713.407	6436.54
713.75	6492.36
714.094	6382.76
714.438	6424.34
714.782	6336.43
715.125	6335.75
715.469	6365.81
715.812	6292.59
716.156	6371.46
716.499	6278.35
716.843	6286.94
717.186	6246.71
717.53	6351.12
717.873	6294.17
718.216	6270.44
718.559	6231.12
718.902	6210.56
719.246	6238.13
719.589	6223.21
719.932	6188.41
720.275	6222.53
720.617	6170.78
720.96	6230.9
721.303	6219.14
721.646	6224.57
721.989	6163.55
722.331	6182.54
722.674	6179.82
723.016	6183.67
723.359	6163.55
723.701	6159.48
724.044	6141.63
724.386	6098.7
724.729	6153.16
725.071	6170.33
725.413	6117.45
725.755	6136.21
726.097	6060.73
726.439	6049.66
726.782	6084.23
727.124	6155.19
727.465	6081.29
727.807	6135.76
728.149	6043.78
728.491	6089.43
728.833	6101.86
729.175	6028.41
729.516	6085.81
729.858	6144.12
730.199	6056.89
730.541	6064.35
730.882	6077.23
731.224	6067.74
731.565	6025.25
731.906	6100.96
732.248	6034.29
732.589	6091.01
732.93	6030
733.271	6063.89
733.612	6071.58
733.953	6112.48
734.294	6103.44
734.635	6116.55
734.976	6084.91
735.317	6114.74
735.658	6157
735.999	6073.61
736.339	6062.76
736.68	6140.5
737.021	6177.11
737.361	6052.14
737.702	6139.6
738.042	6149.77
738.383	6124.68
738.723	6197
739.063	6115.42
739.404	6142.54
739.744	6172.14
740.084	6181.86
740.424	6197.9
740.764	6193.61
741.104	6265.7
741.444	6169.2
741.784	6222.99
742.124	6287.17
742.464	6243.55
742.804	6285.58
743.143	6318.35
743.483	6296.88
743.823	6307.28
744.162	6367.62
744.502	6379.59
744.841	6406.48
745.181	6481.74
745.52	6406.48
745.86	6476.99
746.199	6584.33
746.538	6550.89
746.877	6611.22
747.216	6653.48
747.556	6698.23
747.895	6755.4
748.234	6798.34
748.573	6873.36
748.911	6955.62
749.25	6959.46
749.589	6996.3
749.928	7065.9
750.267	7150.42
750.605	7182.28
750.944	7234.71
751.283	7337.76
751.621	7378.44
751.96	7546.57
752.298	7552.67
752.636	7692.33
752.975	7762.83
753.313	7838.08
753.651	8013
753.989	8053.45
754.327	8188.36
754.666	8206.89
755.004	8438.3
755.342	8550.38
755.679	8663.15
756.017	8742.24
756.355	8906.53
756.693	8994.89
757.031	9150.14
757.368	9320.98
757.706	9412.05
758.044	9508.78
758.381	9752.84
758.719	9840.07
759.056	10035.54
759.394	10202.32
759.731	10316.44
760.068	10458.81
760.405	10561.86
760.743	10776.54
761.08	10936.53
761.417	11052.01
761.754	11273.47
762.091	11459.68
762.428	11628.04
762.765	11699.23
763.102	11993.23
763.438	12064.19
763.775	12279.55
764.112	12370.85
764.449	12574.91
764.785	12754.57
765.122	12849.03
765.458	12941.45
765.795	13153.88
766.131	13310.48
