Data from hue_00_FLMS001491_99.txt Node
Date: Mon Feb 06 15:30:42 GMT 2017
User: dcchb
Spectrometer: FLMS00149
Trigger mode: 0
Integration Time (sec): 2.000000E-2
Scans to average: 10
Electric dark correction enabled: true
Nonlinearity correction enabled: false
Boxcar width: 0
XAxis mode: Wavelengths
Number of Pixels in Spectrum: 2048
>>>>>Begin Spectral Data<<<<<
341.393	-9.58
341.776	-9.58
342.16	-9.58
342.543	-84.38
342.927	-71.5
343.31	-64.94
343.693	-68.56
344.077	-55.45
344.46	-100.2
344.843	-52.96
345.226	-24.49
345.61	-19.52
345.993	-13.64
346.376	-11.61
346.759	3.53
347.142	23.42
347.525	30.87
347.908	62.96
348.291	86.01
348.674	79.91
349.057	124.66
349.44	110.19
349.823	163.53
350.206	181.15
350.588	203.53
350.971	217.31
351.354	225.9
351.737	222.96
352.119	252.34
352.502	242.62
352.884	267.7
353.267	293.69
353.65	288.72
354.032	298.66
354.414	278.55
354.797	315.39
355.179	344.54
355.562	328.27
355.944	306.12
356.326	347.02
356.709	333.92
357.091	352
357.473	335.73
357.855	326.69
358.238	345.89
358.62	346.35
359.002	328.95
359.384	322.84
359.766	335.5
360.148	329.62
360.53	341.6
360.912	352.67
361.294	338.21
361.676	328.49
362.057	336.86
362.439	325.33
362.821	335.73
363.203	333.69
363.584	336.18
363.966	329.17
364.348	325.33
364.729	334.82
365.111	331.21
365.493	328.49
365.874	305.67
366.256	301.6
366.637	320.81
367.019	334.37
367.4	335.05
367.781	330.53
368.163	316.97
368.544	298.21
368.925	324.43
369.306	335.95
369.688	312
370.069	326.01
370.45	323.3
370.831	310.42
371.212	310.19
371.593	326.46
371.974	321.94
372.355	274.26
372.736	319.91
373.117	323.3
373.498	309.06
373.879	320.13
374.26	304.54
374.641	320.81
375.021	307.03
375.402	304.99
375.783	314.71
376.163	327.59
376.544	308.61
376.925	316.74
377.305	323.97
377.686	336.4
378.066	316.29
378.447	324.43
378.827	319.23
379.208	334.82
379.588	328.72
379.968	338.21
380.349	316.74
380.729	318.1
381.109	318.1
381.489	325.56
381.87	328.27
382.25	336.18
382.63	346.12
383.01	348.15
383.39	352.22
383.77	319.68
384.15	321.71
384.53	342.96
384.91	345.44
385.29	333.47
385.67	331.88
386.049	349.74
386.429	327.82
386.809	356.74
387.189	336.4
387.568	362.62
387.948	352.45
388.328	358.1
388.707	351.77
389.087	349.28
389.466	365.56
389.846	328.95
390.225	342.05
390.605	389.28
390.984	353.8
391.363	342.73
391.743	365.1
392.122	359.68
392.501	367.82
392.881	362.39
393.26	350.87
393.639	369.4
394.018	352.9
394.397	380.47
394.776	358.78
395.155	375.72
395.534	362.84
395.913	358.1
396.292	363.75
396.671	378.44
397.05	364.88
397.429	350.87
397.808	383.18
398.186	399
398.565	376.18
398.944	385.44
399.323	397.42
399.701	380.02
400.08	392.67
400.458	401.94
400.837	367.36
401.215	385.22
401.594	382.28
401.972	394.93
402.351	380.24
402.729	387.25
403.107	399
403.486	390.41
403.864	392.45
404.242	394.03
404.62	395.84
404.999	387.7
405.377	412.79
405.755	406.23
406.133	400.81
406.511	417.08
406.889	416.4
407.267	423.63
407.645	426.12
408.023	420.7
408.401	424.99
408.779	428.15
409.156	412.79
409.534	413.46
409.912	431.54
410.29	431.32
410.667	438.1
411.045	440.81
411.422	425.44
411.8	467.7
412.178	450.52
412.555	455.72
412.933	455.27
413.31	464.99
413.687	442.84
414.065	458.43
414.442	468.38
414.819	455.5
415.197	463.18
415.574	452.33
415.951	517.64
416.328	483.07
416.705	463.41
417.082	483.97
417.46	499.79
417.837	509.73
418.214	493.01
418.591	494.59
418.967	486.68
419.344	492.56
419.721	490.98
420.098	509.73
420.475	495.27
420.852	496.85
421.228	515.16
421.605	508.6
421.982	517.42
422.358	524.87
422.735	521.94
423.111	497.76
423.488	548.6
423.864	551.31
424.241	557.19
424.617	536.17
424.994	535.04
425.37	543.63
425.746	556.51
426.123	545.44
426.499	573.69
426.875	570.75
427.251	554.25
427.627	541.6
428.003	570.52
428.379	570.52
428.756	564.19
429.132	565.55
429.507	578.21
429.883	582.95
430.259	598.77
430.635	590.63
431.011	636.73
431.387	596.06
431.763	619.56
432.138	641.93
432.514	625.89
432.89	627.7
433.265	624.76
433.641	646
434.016	652.78
434.392	650.97
434.767	665.21
435.143	642.61
435.518	672.44
435.894	681.71
436.269	662.5
436.644	683.06
437.02	696.17
437.395	681.71
437.77	704.3
438.145	695.94
438.52	700.46
438.895	700.46
439.271	711.53
439.646	726.45
440.021	735.04
440.395	724.42
440.77	712.89
441.145	741.36
441.52	743.17
441.895	728.94
442.27	757.41
442.645	754.02
443.019	754.7
443.394	737.52
443.769	770.97
444.143	761.03
444.518	766.67
444.892	765.54
445.267	768.48
445.641	769.16
446.016	776.17
446.39	755.15
446.764	800.35
447.139	795.37
447.513	786.79
447.887	777.75
448.262	796.73
448.636	818.88
449.01	813.23
449.384	811.42
449.758	836.96
450.132	832.89
450.506	831.98
450.88	818.2
451.254	838.54
451.628	838.99
452.002	864.98
452.376	853.45
452.75	830.18
453.123	850.74
453.497	875.37
453.871	863.17
454.244	905.2
454.618	901.13
454.992	899.1
455.365	910.17
455.739	907.24
456.112	923.05
456.486	931.19
456.859	939.78
457.232	936.39
457.606	986.1
457.979	958.76
458.352	982.04
458.725	977.06
459.099	989.72
459.472	994.69
459.845	1012.77
460.218	1046.67
460.591	1025.65
460.964	1023.17
461.337	1057.06
461.71	1062.49
462.083	1092.99
462.456	1060.23
462.829	1078.08
463.201	1106.33
463.574	1092.99
463.947	1107.68
464.32	1121.47
464.692	1135.25
465.065	1111.07
465.438	1186.32
465.81	1181.81
466.183	1140
466.555	1219.54
466.928	1160.79
467.3	1232.88
467.672	1229.49
468.045	1250.28
468.417	1250.28
468.789	1257.74
469.161	1272.88
469.534	1276.04
469.906	1300.22
470.278	1319.65
470.65	1310.84
471.022	1358.52
471.394	1366.21
471.766	1398.3
472.138	1398.75
472.51	1445.3
472.882	1465.19
473.253	1502.7
473.625	1482.36
473.997	1552.19
474.369	1507.45
474.74	1546.09
475.112	1590.38
475.484	1608.46
475.855	1617.27
476.227	1641.23
476.598	1695.69
476.97	1712.86
477.341	1763.71
477.713	1760.09
478.084	1814.78
478.455	1838.96
478.827	1873.09
479.198	1896.59
479.569	1885.29
479.94	1982.24
480.311	1955.8
480.682	2017.26
481.053	2038.05
481.424	2059.75
481.795	2103.14
482.166	2119.18
482.537	2196.92
482.908	2199.41
483.279	2205.06
483.65	2286.86
484.021	2301.32
484.391	2351.49
484.762	2401.43
485.133	2407.54
485.503	2456.57
485.874	2519.17
486.244	2535.44
486.615	2582.9
486.985	2598.94
487.356	2634.65
487.726	2686.85
488.097	2755.55
488.467	2738.15
488.837	2801.88
489.207	2809.33
489.578	2874.19
489.948	2892.27
490.318	2930.46
490.688	2905.6
491.058	3003.45
491.428	3002.55
491.798	3073.05
492.168	3123.9
492.538	3172.94
492.908	3179.94
493.278	3221.3
493.648	3245.48
494.017	3267.17
494.387	3308.53
494.757	3336.32
495.126	3367.51
495.496	3428.98
495.866	3445.47
496.235	3480.5
496.605	3523.66
496.974	3514.4
497.344	3562.08
497.713	3623.55
498.082	3594.17
498.452	3668.75
498.821	3652.25
499.19	3704.45
499.559	3684.79
499.928	3715.98
500.298	3725.47
500.667	3781.28
501.036	3775.64
501.405	3832.58
501.774	3832.58
502.143	3857.21
502.512	3873.03
502.88	3933.6
503.249	3894.73
503.618	3951.9
503.987	3960.04
504.356	3963.43
504.724	4012.47
505.093	4064.44
505.462	4036.87
505.83	4099.92
506.199	4106.47
506.567	4134.72
506.936	4139.47
507.304	4165
507.672	4181.05
508.041	4235.51
508.409	4246.58
508.777	4247.04
509.145	4333.59
509.514	4309.63
509.882	4313.02
510.25	4342.4
510.618	4363.64
510.986	4374.04
511.354	4390.53
511.722	4386.24
512.09	4442.28
512.458	4423.53
512.826	4472.79
513.193	4457.43
513.561	4544.88
513.929	4511.44
514.297	4562.28
514.664	4581.04
515.032	4615.84
515.4	4588.27
515.767	4641.15
516.135	4623.97
516.502	4609.96
516.869	4708.27
517.237	4684.76
517.604	4709.4
517.972	4747.14
518.339	4753.69
518.706	4772.22
519.073	4789.17
519.44	4818.77
519.808	4821.71
520.175	4824.42
520.542	4872.78
520.909	4907.36
521.276	4844.99
521.643	4947.58
522.009	4941.25
522.376	4950.07
522.743	5023.74
523.11	5021.48
523.477	5072.78
523.843	5058.99
524.21	5087.01
524.577	5177.41
524.943	5132.44
525.31	5212.89
525.676	5276.39
526.043	5276.39
526.409	5293.34
526.776	5400.68
527.142	5293.56
527.508	5355.48
527.874	5426.21
528.241	5417.85
528.607	5465.99
528.973	5489.94
529.339	5472.77
529.705	5530.17
530.071	5534.01
530.437	5596.15
530.803	5630.5
531.169	5634.57
531.535	5671.18
531.901	5658.75
532.267	5722.48
532.632	5724.51
532.998	5782.36
533.364	5786.88
533.73	5762.25
534.095	5809.93
534.461	5825.52
534.826	5831.4
535.192	5877.5
535.557	5978.06
535.923	5903.94
536.288	5986.42
536.653	5987.1
537.019	5993.66
537.384	6020.1
537.749	6063.26
538.114	6078.4
538.479	6055.58
538.845	6125.63
539.21	6104.16
539.575	6117.49
539.94	6200.88
540.305	6210.83
540.67	6204.72
541.034	6235.23
541.399	6269.13
541.764	6298.05
542.129	6255.8
542.494	6389.35
542.858	6385.06
543.223	6369.92
543.587	6433.64
543.952	6388.9
544.316	6502.57
544.681	6461.89
545.045	6495.56
545.41	6560.19
545.774	6597.26
546.138	6572.4
546.503	6571.04
546.867	6567.2
547.231	6711.83
547.595	6670.7
547.959	6703.02
548.324	6684.71
548.688	6712.28
549.052	6776.46
549.416	6797.7
549.779	6813.75
550.143	6806.06
550.507	6834.31
550.871	6790.7
551.235	6857.14
551.599	6939.62
551.962	6929.9
552.326	6989.11
552.689	6993.18
553.053	6987.53
553.417	7011.26
553.78	7073.63
554.143	7097.81
554.507	7050.8
554.87	7077.7
555.234	7191.59
555.597	7164.47
555.96	7158.6
556.323	7256
556.686	7230.69
557.05	7292.83
557.413	7272.72
557.776	7365.15
558.139	7333.51
558.502	7317.91
558.865	7405.14
559.228	7431.81
559.59	7440.85
559.953	7481.53
560.316	7566.5
560.679	7511.13
561.041	7564.01
561.404	7591.35
561.767	7669.54
562.129	7584.12
562.492	7705.93
562.854	7660.5
563.217	7679.26
563.579	7730.33
563.941	7761.29
564.304	7825.25
564.666	7820.27
565.028	7855.75
565.39	7843.1
565.753	7888.07
566.115	7949.31
566.477	7876.54
566.839	7922.42
567.201	8009.65
567.563	7984.56
567.925	8059.14
568.287	8102.98
568.648	8131.68
569.01	8152.47
569.372	8191.11
569.734	8203.99
570.095	8170.1
570.457	8292.58
570.819	8329.87
571.18	8320.6
571.542	8410.77
571.903	8387.72
572.265	8446.92
572.626	8498
572.987	8537.32
573.349	8530.31
573.71	8663.42
574.071	8638.11
574.432	8770.98
574.794	8791.32
575.155	8839
575.516	8795.84
575.877	8906.8
576.238	8926.23
576.599	9076.74
576.96	9063.18
577.32	9186.34
577.681	9260.91
578.042	9243.74
578.403	9343.4
578.763	9392.21
579.124	9558.31
579.485	9600.11
579.845	9674.46
580.206	9811.63
580.566	9876.04
580.927	9946.09
581.287	10129.37
581.648	10210.49
582.008	10323.94
582.368	10444.39
582.728	10517.38
583.089	10678.5
583.449	10776.81
583.809	10944.71
584.169	11056.57
584.529	11245.72
584.889	11523.91
585.249	11496.56
585.609	11634.41
585.969	11963.44
586.329	12038.47
586.688	12255.41
587.048	12355.07
587.408	12581.51
587.768	12782.86
588.127	12919.35
588.487	13157.99
588.846	13482.27
589.206	13635.04
589.565	13785.09
589.925	14054.46
590.284	14249.71
590.643	14544.39
591.003	14865.51
591.362	15070.71
591.721	15190.48
592.08	15455.78
592.44	15773.96
592.799	16035.65
593.158	16235.42
593.517	16460.73
593.876	16830.66
594.235	16980.49
594.593	17300.03
594.952	17526.23
595.311	17775.27
595.67	18090.51
596.029	18403.95
596.387	18671.06
596.746	18984.27
597.104	19144.72
597.463	19325.06
597.822	19807.98
598.18	19898.83
598.538	20184.47
598.897	20556.66
599.255	20683.67
599.613	21217.44
599.972	21317.55
600.33	21639.35
600.688	21796.18
601.046	22158.65
601.404	22416.5
601.762	22673.9
602.12	22982.36
602.478	23237.5
602.836	23449.92
603.194	23625.51
603.552	23809.23
603.91	24001.77
604.268	24463.23
604.625	24571.02
604.983	24845.59
605.341	24916.55
605.698	25378.68
606.056	25658.9
606.413	25745.23
606.771	26105.44
607.128	26265.89
607.485	26381.59
607.843	26571.42
608.2	27018.41
608.557	27220.44
608.914	27292.08
609.272	27617.72
609.629	27806.87
609.986	28161.43
610.343	28153.3
610.7	28509.22
611.057	28647.98
611.414	28830.57
611.771	28991.47
612.127	29375.87
612.484	29343.78
612.841	29686.14
613.198	29712.81
613.554	29781.05
613.911	30189.4
614.267	30198.9
614.624	30394.37
614.98	30501.49
615.337	30746.9
615.693	30887.01
616.05	31000
616.406	31315.02
616.762	31271.86
617.118	31519.31
617.475	31520.44
617.831	31696.26
618.187	31934.22
618.543	32089.24
618.899	32264.83
619.255	32313.64
619.611	32453.53
619.967	32675.67
620.323	32868.2
620.678	32696.68
621.034	32807.19
621.39	32955.88
621.746	32968.09
622.101	33467.06
622.457	33251.7
622.812	33390.22
623.168	33663.21
623.523	33592.48
623.879	33754.28
624.234	33660.27
624.589	33833.6
624.945	33886.26
625.3	34019.36
625.655	34135.29
626.01	34147.04
626.365	34218.22
626.72	34187.26
627.075	34377.77
627.43	34386.13
627.785	34398.78
628.14	34466.13
628.495	34675.84
628.85	34639.68
629.205	34475.62
629.559	34781.83
629.914	34735.5
630.269	34722.17
630.623	34686.23
630.978	34629.29
631.332	34880.13
631.687	34958.09
632.041	34915.16
632.396	34925.1
632.75	34940.24
633.104	34889.85
633.459	34880.35
633.813	34757.65
634.167	34948.37
634.521	34914.93
634.875	34884.87
635.229	34895.72
635.583	34833.12
635.937	34870.41
636.291	34865.67
636.645	35013.46
636.999	34930.3
637.352	35137.07
637.706	34872.9
638.06	35008.71
638.413	34930.97
638.767	34907.7
639.121	35001.03
639.474	34758.78
639.828	34908.38
640.181	34711.32
640.534	34944.53
640.888	34777.08
641.241	34759.91
641.594	34745.44
641.947	34925.1
642.301	34799.9
642.654	34836.51
643.007	34829.73
643.36	34825.44
643.713	34869.28
644.066	34970.75
644.419	34802.39
644.771	34459.57
645.124	34220.03
645.477	34187.72
645.83	34033.37
646.182	33956.76
646.535	33799.48
646.888	33806.26
647.24	33659.37
647.593	33887.39
647.945	33844.22
648.298	33673.83
648.65	33557
649.002	33421.41
649.355	33655.08
649.707	33489.2
650.059	33736.43
650.411	34167.6
650.763	34223.42
651.115	34526.01
651.467	34390.42
651.819	34486.01
652.171	34282.18
652.523	34262.97
652.875	34345.9
653.227	34245.12
653.578	34338.22
653.93	34323.98
654.282	34171.45
654.633	34112.46
654.985	34153.37
655.337	34303.65
655.688	34218.45
656.039	34392.01
656.391	34082.41
656.742	34004.9
657.094	34201.05
657.445	34326.02
657.796	34173.71
658.147	34152.46
658.498	34041.96
658.849	34170.99
659.2	34157.44
659.551	34006.48
659.902	34164.44
660.253	34076.53
660.604	34236.98
660.955	33907.5
661.306	34089.87
661.656	33983.2
662.007	34074.73
662.358	34029.75
662.708	34061.39
663.059	34007.16
663.409	33781.63
663.76	34061.17
664.11	34088.51
664.461	34084.44
664.811	34091.67
665.161	34106.82
665.511	33841.29
665.862	34097.55
666.212	34016.2
666.562	34043.99
666.912	33881.74
667.262	33945.24
667.612	33993.15
667.962	33848.74
668.312	33906.14
668.662	34057.78
669.011	33837.67
669.361	33971.9
669.711	33832.47
670.06	33737.11
670.41	33827.5
670.76	33801.51
671.109	34000.6
671.459	33731.46
671.808	33771.91
672.157	33929.19
672.507	33582.76
672.856	33620.27
673.205	33706.83
673.554	33844.68
673.904	33684.91
674.253	33959.7
674.602	33866.14
674.951	33215.09
675.3	33019.61
675.649	33664.34
675.998	33683.55
676.346	33562.2
676.695	33787.5
677.044	33469.32
677.393	33604
677.741	33676.77
678.09	33594.96
678.438	33533.04
678.787	33565.81
679.135	33473.84
679.484	33351.81
679.832	33500.28
680.181	33196.1
680.529	33346.38
680.877	33234.97
681.225	33242.88
681.573	33481.75
681.922	33133.96
682.27	33041.76
682.618	33079.27
682.966	32908.2
683.314	33083.79
683.661	32913.4
684.009	32840.63
684.357	32801.76
684.705	32785.72
685.053	32681.99
685.4	32682.22
685.748	32621.2
686.095	32484.71
686.443	32489.46
686.79	32412.85
687.138	32549.34
687.485	32359.97
687.832	32339.4
688.18	32366.3
688.527	32162.01
688.874	32063.25
689.221	32100.77
689.568	31951.17
689.915	31934.67
690.262	31859.87
690.609	31784.39
690.956	31533.78
691.303	31633.21
691.65	31539.88
691.997	31468.24
692.344	31352.76
692.69	31262.6
693.037	31368.13
693.383	30954.36
693.73	31245.2
694.077	31059.44
694.423	31028.93
694.769	30904.19
695.116	30885.43
695.462	30891.76
695.808	30674.59
696.155	30806.11
696.501	30560.24
696.847	30620.58
697.193	30350.76
697.539	30393.69
697.885	30253.36
698.231	30144.43
698.577	30166.58
698.923	30095.85
699.269	29920.71
699.614	29862.86
699.96	29810.2
700.306	29709.87
700.651	29644.33
700.997	29558.46
701.342	29542.19
701.688	29455.19
702.033	29297
702.379	29351.01
702.724	29199.83
703.069	29355.98
703.415	28904.24
703.76	28965.93
704.105	29085.7
704.45	28975.88
704.795	28765.71
705.14	28673.06
705.485	28720.06
705.83	28739.05
706.175	28635.09
706.52	28486.85
706.865	28459.96
707.209	28498.37
707.554	28307.19
707.899	28399.17
708.243	28184.03
708.588	28254.31
708.932	27945.17
709.277	28021.78
709.621	27929.12
709.966	27793.76
710.31	27833.53
710.654	27683.71
710.998	27707.66
711.342	27659.75
711.687	27612.52
712.031	27353.32
712.375	27269.03
712.719	27466.99
713.063	27311.51
713.407	27322.36
713.75	27135.25
714.094	27215.7
714.438	27069.49
714.782	27197.84
715.125	26998.08
715.469	27071.75
715.812	26907.23
716.156	26733.9
716.499	26845.76
716.843	26828.36
717.186	26580.01
717.53	26821.58
717.873	26769.38
718.216	26651.64
718.559	26614.36
718.902	26384.31
719.246	26408.71
719.589	26332.1
719.932	26317.87
720.275	26380.92
720.617	26348.15
720.96	26266.12
721.303	26137.31
721.646	26214.59
721.989	25986.12
722.331	26133.47
722.674	25973.92
723.016	25966.46
723.359	26013.92
723.701	26050.3
724.044	25860.7
724.386	25671.1
724.729	25757.88
725.071	25686.02
725.413	25854.6
725.755	25656.19
726.097	25527.38
726.439	25435.86
726.782	25529.64
727.124	25460.04
727.465	25385.24
727.807	25480.38
728.149	25398.12
728.491	25181.63
728.833	25318.35
729.175	25252.58
729.516	25139.59
729.858	25140.95
730.199	25177.11
730.541	25076.32
730.882	25083.55
731.224	25142.08
731.565	24964.46
731.906	24951.58
732.248	24889.43
732.589	24877.91
732.93	24750.68
733.271	24762.43
733.612	24838.81
733.953	24770.79
734.294	24697.8
734.635	24627.29
734.976	24633.17
735.317	24609.66
735.658	24532.38
735.999	24552.94
736.339	24512.72
736.68	24487.18
737.021	24406.28
737.361	24297.13
737.702	24372.38
738.042	24271.14
738.383	24177.13
738.723	24283.57
739.063	24282.21
739.404	24269.79
739.744	24088.1
740.084	24059.4
740.424	24099.62
740.764	24034.76
741.104	24118.6
741.444	23965.84
741.784	23830.02
742.124	23791.61
742.464	23944.6
742.804	23880.19
743.143	23851.27
743.483	23795
743.823	23676.13
744.162	23720.2
744.502	23651.72
744.841	23642.46
745.181	23624.83
745.52	23640.65
745.86	23536.02
746.199	23563.14
746.538	23399.53
746.877	23484.72
747.216	23564.49
747.556	23415.57
747.895	23409.02
748.234	23361.33
748.573	23272.75
748.911	23287.66
749.25	23318.85
749.589	23139.65
749.928	23174.67
750.267	23296.25
750.605	23124.05
750.944	23169.7
751.283	22975.13
751.621	22902.59
751.96	22872.31
752.298	22897.39
752.636	22757.06
752.975	22756.38
753.313	22697.62
753.651	22825.98
753.989	22804.74
754.327	22561.58
754.666	22517.52
755.004	22531.75
755.342	22489.72
755.679	22463.51
756.017	22462.38
756.355	22432.77
756.693	22338.99
757.031	22275.94
757.368	22145.1
757.706	22069.17
758.044	22166.56
758.381	22181.7
758.719	21952.78
759.056	22070.97
759.394	21948.94
759.731	21784.88
760.068	21743.75
760.405	21653.13
760.743	21666.92
761.08	21682.51
761.417	21517.32
761.754	21646.13
