Data from hue_00_FLMS001491_40.txt Node
Date: Mon Feb 06 15:29:38 GMT 2017
User: dcchb
Spectrometer: FLMS00149
Trigger mode: 0
Integration Time (sec): 2.000000E-2
Scans to average: 10
Electric dark correction enabled: true
Nonlinearity correction enabled: false
Boxcar width: 0
XAxis mode: Wavelengths
Number of Pixels in Spectrum: 2048
>>>>>Begin Spectral Data<<<<<
341.393	-18.63
341.776	-18.63
342.16	-18.63
342.543	-58.4
342.927	-67.22
343.31	-79.19
343.693	-73.54
344.077	-57.95
344.46	-47.1
344.843	-28.12
345.226	-50.94
345.61	-37.39
345.993	-30.83
346.376	-8.69
346.759	4.42
347.142	34.02
347.525	36.06
347.908	43.52
348.291	78.32
348.674	106.34
349.057	111.08
349.44	122.84
349.823	132.1
350.206	159.44
350.588	199.44
350.971	191.99
351.354	223.85
351.737	222.49
352.119	224.75
352.502	266.33
352.884	266.11
353.267	285.32
353.65	304.75
354.032	302.04
354.414	309.5
354.797	310.18
355.179	308.82
355.562	330.51
355.944	307.24
356.326	320.12
356.709	335.71
357.091	335.94
357.473	328.71
357.855	338.65
358.238	323.96
358.62	335.71
359.002	333.68
359.384	326.9
359.766	330.06
360.148	326.67
360.53	333.68
360.912	350.17
361.294	324.64
361.676	304.53
362.057	320.34
362.439	331.87
362.821	338.2
363.203	325.77
363.584	326.22
363.966	316.95
364.348	332.32
364.729	324.41
365.111	327.8
365.493	309.72
365.874	326.22
366.256	327.8
366.637	300.23
367.019	314.24
367.4	315.37
367.781	322.83
368.163	336.39
368.544	313.79
368.925	320.34
369.306	316.95
369.688	302.94
370.069	293.45
370.45	300.01
370.831	303.62
371.212	312.89
371.593	309.5
371.974	314.7
372.355	314.47
372.736	319.67
373.117	321.25
373.498	325.77
373.879	341.14
374.26	294.58
374.641	307.24
375.021	304.07
375.402	327.8
375.783	311.53
376.163	345.2
376.544	332.55
376.925	333.23
377.305	320.12
377.686	314.02
378.066	319.44
378.447	325.99
378.827	304.3
379.208	320.12
379.588	329.38
379.968	322.6
380.349	303.85
380.729	316.95
381.109	311.98
381.489	316.05
381.87	319.44
382.25	343.62
382.63	347.46
383.01	334.81
383.39	320.8
383.77	329.61
384.15	306.11
384.53	333.45
384.91	349.95
385.29	336.62
385.67	355.37
386.049	342.49
386.429	328.25
386.809	354.69
387.189	340.91
387.568	328.25
387.948	346.33
388.328	323.28
388.707	364.64
389.087	347.69
389.466	359.89
389.846	370.51
390.225	338.65
390.605	359.21
390.984	386.11
391.363	364.19
391.743	366.22
392.122	346.78
392.501	357.63
392.881	373.22
393.26	344.75
393.639	369.38
394.018	365.32
394.397	360.8
394.776	384.75
395.155	370.74
395.534	370.74
395.913	357.86
396.292	377.97
396.671	389.04
397.05	356.73
397.429	379.1
397.808	371.87
398.186	384.52
398.565	369.61
398.944	377.52
399.323	373.9
399.701	381.59
400.08	387.46
400.458	367.8
400.837	399.66
401.215	379.33
401.594	391.08
401.972	377.29
402.351	381.59
402.729	399.66
403.107	404.86
403.486	397.63
403.864	391.3
404.242	387.01
404.62	404.41
404.999	395.6
405.377	409.16
405.755	410.06
406.133	397.63
406.511	407.8
406.889	433.79
407.267	418.65
407.645	422.71
408.023	443.05
408.401	431.98
408.779	415.03
409.156	439.21
409.534	430.62
409.912	451.19
410.29	437.18
410.667	425.65
411.045	454.58
411.422	427.91
411.8	434.92
412.178	442.6
412.555	451.64
412.933	457.29
413.31	443.05
413.687	450.96
414.065	466.1
414.442	463.84
414.819	472.21
415.197	480.11
415.574	492.32
415.951	482.15
416.328	491.87
416.705	495.03
417.082	493.45
417.46	479.21
417.837	483.5
418.214	489.38
418.591	479.66
418.967	501.58
419.344	497.74
419.721	506.78
420.098	494.13
420.475	490.51
420.852	521.24
421.228	514.46
421.605	508.36
421.982	546.1
422.358	536.61
422.735	521.92
423.111	534.12
423.488	544.97
423.864	549.49
424.241	534.58
424.617	541.81
424.994	549.94
425.37	560.79
425.746	541.36
426.123	559.66
426.499	546.33
426.875	561.69
427.251	570.28
427.627	593.56
428.003	590.17
428.379	584.97
428.756	574.35
429.132	581.13
429.507	591.98
429.883	579.55
430.259	600.11
430.635	598.76
431.011	590.62
431.387	616.61
431.763	636.04
432.138	644.4
432.514	645.76
432.89	638.98
433.265	659.32
433.641	626.78
434.016	660.67
434.392	649.15
434.767	666.1
435.143	672.43
435.518	664.52
435.894	666.32
436.269	693.67
436.644	683.5
437.02	683.5
437.395	677.4
437.77	707.91
438.145	707.45
438.52	723.95
438.895	719.88
439.271	713.78
439.646	716.49
440.021	737.73
440.395	752.88
440.77	742.25
441.145	715.59
441.52	738.86
441.895	744.29
442.27	764.17
442.645	742.71
443.019	776.83
443.394	751.07
443.769	753.33
444.143	777.06
444.518	771.41
444.892	773.21
445.267	771.41
445.641	807.11
446.016	765.08
446.39	779.99
446.764	787.23
447.139	772.54
447.513	800.78
447.887	813.67
448.262	792.87
448.636	791.52
449.01	819.77
449.384	822.93
449.758	815.25
450.132	824.51
450.506	824.51
450.88	819.09
451.254	833.78
451.628	865.87
452.002	843.04
452.376	870.16
452.75	853.21
453.123	864.06
453.497	865.19
453.871	888.92
454.244	889.37
454.618	895.24
454.992	894.34
455.365	919.42
455.739	904.28
456.112	912.19
456.486	926.88
456.859	923.04
457.232	962.36
457.606	951.97
457.979	952.42
458.352	961.01
458.725	961.46
459.099	986.77
459.472	998.97
459.845	1006.65
460.218	1034.9
460.591	1016.15
460.964	1028.12
461.337	1032.42
461.71	1075.13
462.083	1050.27
462.456	1079.19
462.829	1071.74
463.201	1059.76
463.574	1091.17
463.947	1098.63
464.32	1114.22
464.692	1132.75
465.065	1165.29
465.438	1145.63
465.81	1195.12
466.183	1179.53
466.555	1207.1
466.928	1207.1
467.3	1205.29
467.672	1230.6
468.045	1245.52
468.417	1250.26
468.789	1270.38
469.161	1271.51
469.534	1298.17
469.906	1317.61
470.278	1333.2
470.65	1364.61
471.022	1388.57
471.394	1385.18
471.766	1403.48
472.138	1410.26
472.51	1439.19
472.882	1473.76
473.253	1462.24
473.625	1470.37
473.997	1542.91
474.369	1557.15
474.74	1567.77
475.112	1558.96
475.484	1603.47
475.855	1649.58
476.227	1640.54
476.598	1690.48
476.97	1692.06
477.341	1761.89
477.713	1740.87
478.084	1790.81
478.455	1826.52
478.827	1833.98
479.198	1913.07
479.569	1937.48
479.94	1981.77
480.311	1965.05
480.682	2002.33
481.053	2047.98
481.424	2110.13
481.795	2147.64
482.166	2162.56
482.537	2177.02
482.908	2238.26
483.279	2275.77
483.65	2283.91
484.021	2338.37
484.391	2422.66
484.762	2410.01
485.133	2464.02
485.503	2473.28
485.874	2530.23
486.244	2565.03
486.615	2659.72
486.985	2670.57
487.356	2685.25
487.726	2680.28
488.097	2776.78
488.467	2778.59
488.837	2887.73
489.207	2906.72
489.578	2944
489.948	2976.77
490.318	2997.56
490.688	2993.72
491.058	3079.37
491.428	3129.08
491.798	3181.96
492.168	3223.09
492.538	3247.27
492.908	3269.42
493.278	3342.19
493.648	3313.71
494.017	3398.68
494.387	3396.2
494.757	3427.83
495.126	3480.71
495.496	3454.27
495.866	3525.91
496.235	3560.94
496.605	3608.17
496.974	3635.51
497.344	3672.35
497.713	3696.08
498.082	3692.91
498.452	3706.02
498.821	3753.47
499.19	3762.97
499.559	3858.33
499.928	3839.12
500.298	3853.81
500.667	3900.59
501.036	3894.26
501.405	3941.27
501.774	3958.22
502.143	3977.65
502.512	3952.11
502.88	4008.16
503.249	3981.49
503.618	4079.57
503.987	4052.22
504.356	4089.51
504.724	4116.63
505.093	4152.33
505.462	4168.61
505.83	4165.44
506.199	4155.27
506.567	4228.72
506.936	4244.76
507.304	4240.24
507.672	4307.13
508.041	4271.65
508.409	4304.87
508.777	4338.09
509.145	4381.71
509.514	4401.82
509.882	4409.05
510.25	4400.01
510.618	4446.34
510.986	4475.49
511.354	4478.2
511.722	4544.41
512.09	4588.03
512.458	4548.03
512.826	4566.11
513.193	4569.95
513.561	4570.18
513.929	4590.97
514.297	4651.3
514.664	4628.03
515.032	4670.74
515.4	4684.07
515.767	4685.2
516.135	4746.67
516.502	4715.26
516.869	4739.44
517.237	4736.73
517.604	4751.19
517.972	4831.86
518.339	4820.79
518.706	4786.44
519.073	4807.91
519.44	4853.56
519.808	4852.2
520.175	4882.03
520.542	4894.46
520.909	4944.86
521.276	4935.36
521.643	4962.93
522.009	5014.46
522.376	4975.59
522.743	5004.97
523.11	5056.27
523.477	5096.49
523.843	5095.59
524.21	5120.67
524.577	5178.07
524.943	5169.03
525.31	5246.77
525.676	5280.89
526.043	5287.67
526.409	5315.47
526.776	5332.19
527.142	5334.45
527.508	5397.5
527.874	5388.46
528.241	5468.23
528.607	5453.09
528.973	5460.55
529.339	5508.46
529.705	5543.48
530.071	5545.97
530.437	5548.68
530.803	5597.95
531.169	5659.64
531.535	5609.02
531.901	5634.33
532.267	5690.37
532.632	5704.38
532.998	5769.47
533.364	5736.25
533.73	5769.01
534.095	5810.6
534.461	5882.23
534.826	5830.03
535.192	5880.65
535.557	5908.22
535.923	5920.88
536.288	5955.9
536.653	6033.64
537.019	6022.57
537.384	6001.1
537.749	6040.42
538.114	6104.6
538.479	6123.13
538.845	6095.79
539.21	6072.74
539.575	6118.84
539.94	6193.86
540.305	6220.3
540.67	6221.21
541.034	6253.3
541.399	6252.17
541.764	6274.54
542.129	6317.48
542.494	6393.41
542.858	6382.11
543.223	6362.22
543.587	6441.09
543.952	6453.52
544.316	6476.34
544.681	6499.39
545.045	6543.01
545.41	6542.55
545.774	6591.37
546.138	6638.6
546.503	6575.1
546.867	6603.8
547.231	6677.92
547.595	6658.94
547.959	6707.07
548.324	6781.42
548.688	6778.25
549.052	6805.37
549.416	6799.5
549.779	6835.43
550.143	6841.76
550.507	6865.48
550.871	6900.96
551.235	6918.14
551.599	6957.68
551.962	7042.43
552.326	7048.08
552.689	7022.09
553.053	7032.03
553.417	7083.78
553.78	7122.2
554.143	7061.18
554.507	7145.48
554.87	7142.99
555.234	7143.22
555.597	7130.34
555.96	7234.74
556.323	7222.76
556.686	7235.42
557.05	7302.53
557.413	7333.95
557.776	7292.14
558.139	7349.99
558.502	7389.54
558.865	7416.66
559.228	7423.43
559.59	7426.6
559.953	7432.02
560.316	7564.67
560.679	7554.28
561.041	7559.48
561.404	7615.52
561.767	7640.15
562.129	7600.38
562.492	7727.83
562.854	7659.36
563.217	7654.16
563.579	7794.27
563.941	7843.31
564.304	7853.25
564.666	7840.82
565.028	7927.83
565.39	7891.22
565.753	7905
566.115	7951.78
566.477	7968.05
566.839	7957.88
567.201	8045.57
567.563	8018.22
567.925	8093.25
568.287	8090.31
568.648	8070.88
569.01	8203.98
569.372	8227.71
569.734	8249.18
570.095	8309.97
570.457	8309.06
570.819	8359.68
571.18	8448.04
571.542	8460.7
571.903	8420.02
572.265	8515.16
572.626	8519.9
572.987	8563.74
573.349	8617.98
573.71	8713.8
574.071	8690.75
574.432	8829.05
574.794	8886.9
575.155	8933.68
575.516	8917.18
575.877	8982.04
576.238	9062.26
576.599	9185.87
576.96	9144.97
577.32	9304.52
577.681	9399.2
578.042	9395.13
578.403	9482.14
578.763	9607.11
579.124	9741.34
579.485	9758.51
579.845	9921.22
580.206	10018.85
580.566	10128
580.927	10218.39
581.287	10449.57
581.648	10490.02
582.008	10637.81
582.368	10761.65
582.728	10881.42
583.089	11058.82
583.449	11181.53
583.809	11453.84
584.169	11577.22
584.529	11806.37
584.889	12031.45
585.249	12112.13
585.609	12304.21
585.969	12610.87
586.329	12792.33
586.688	12949.17
587.048	13162.04
587.408	13383.73
587.768	13638.86
588.127	13833.66
588.487	14061.68
588.846	14369.01
589.206	14592.96
589.565	14915.67
589.925	15224.36
590.284	15431.13
590.643	15612.15
591.003	15967.62
591.362	16265.24
591.721	16503.65
592.08	16842.85
592.44	17189.28
592.799	17405.55
593.158	17702.26
593.517	18023.16
593.876	18339.31
594.235	18615.46
594.593	18835.56
594.952	19185.61
595.311	19445.94
595.67	19891.81
596.029	20277.79
596.387	20481.17
596.746	20891.78
597.104	21056.52
597.463	21383.52
597.822	21797.97
598.18	21905.09
598.538	22348.24
598.897	22770.6
599.255	22870.03
599.613	23484.71
599.972	23704.36
600.33	24027.97
600.688	24244.01
601.046	24588.41
601.404	24943.43
601.762	25140.48
602.12	25513.13
602.478	25750.41
602.836	26125.09
603.194	26304.52
603.552	26545.19
603.91	26749.25
604.268	27164.16
604.625	27291.61
604.983	27765.5
605.341	27880.52
605.698	28273.96
606.056	28535.42
606.413	28667.4
606.771	29086.59
607.128	29246.14
607.485	29452.91
607.843	29704.43
608.2	29965.67
608.557	30435.71
608.914	30477.74
609.272	30737.4
609.629	31055.58
609.986	31469.36
610.343	31379.19
610.7	31903.02
611.057	32034.77
611.414	32256.91
611.771	32415.77
612.127	32767.85
612.484	32797
612.841	33100.27
613.198	33243.32
613.554	33438.34
613.911	33705.91
614.267	33877.88
614.624	33972.79
614.98	34295.27
615.337	34515.15
615.693	34582.95
616.05	34743.39
616.406	35081.24
616.762	35053.89
617.118	35213.21
617.475	35394
617.831	35636.03
618.187	35760.32
618.543	35932.97
618.899	36243.47
619.255	36263.35
619.611	36426.74
619.967	36606.4
620.323	36674.19
620.678	36709.22
621.034	36854.53
621.39	36854.07
621.746	37007.74
622.101	37493.6
622.457	37333.83
622.812	37508.52
623.168	37645.01
623.523	37726.37
623.879	37963.42
624.234	37687.72
624.589	37944.67
624.945	37974.72
625.3	38112.35
625.655	38253.81
626.01	38279.8
626.365	38402.73
626.72	38427.37
627.075	38535.39
627.43	38401.83
627.785	38456.29
628.14	38749.16
628.495	38751.42
628.85	38737.41
629.205	38722.5
629.559	39073.9
629.914	38843.63
630.269	38906.67
630.623	38950.74
630.978	38890.18
631.332	39073.9
631.687	39320.22
632.041	39100.57
632.396	39312.77
632.75	39164.52
633.104	39171.53
633.459	39162.71
633.813	39229.6
634.167	39280.45
634.521	39187.12
634.875	39274.12
635.229	39321.81
635.583	39108.93
635.937	39232.32
636.291	39062.15
636.645	39228.25
636.999	39154.13
637.352	39361.35
637.706	39099.89
638.06	39368.58
638.413	39349.15
638.767	39199.77
639.121	39291.52
639.474	39119.55
639.828	39159.32
640.181	39288.13
640.534	39335.14
640.888	39104.86
641.241	39088.59
641.594	39243.16
641.947	39269.83
642.301	39146.44
642.654	39157.06
643.007	39162.04
643.36	39195.25
643.713	39104.18
644.066	39236.61
644.419	39053.79
644.771	38889.73
645.124	38365.9
645.477	38402.96
645.83	38254.04
646.182	38199.12
646.535	37918.45
646.888	38126.13
647.24	37893.59
647.593	38086.81
647.945	38041.16
648.298	37792.81
648.65	37873.48
649.002	37747.84
649.355	37783.99
649.707	37845.23
650.059	38056.3
650.411	38343.98
650.763	38518.44
651.115	38899.67
651.467	38681.37
651.819	38826
652.171	38742.84
652.523	38614.71
652.875	38611.09
653.227	38521.37
653.578	38807.24
653.93	38746.9
654.282	38504.65
654.633	38366.8
654.985	38495.16
655.337	38582.62
655.688	38580.13
656.039	38648.83
656.391	38328.38
656.742	38438.66
657.094	38453.35
657.445	38648.15
657.796	38457.42
658.147	38354.15
658.498	38349.85
658.849	38490.64
659.2	38433.01
659.551	38198.9
659.902	38388.95
660.253	38419.91
660.604	38507.59
660.955	38289.52
661.306	38303.98
661.656	38338.1
662.007	38294.04
662.358	38303.75
662.708	38442.73
663.059	38216.52
663.409	38039.58
663.76	38380.36
664.11	38300.59
664.461	38282.28
664.811	38469.17
665.161	38282.06
665.511	38253.58
665.862	38159.12
666.212	38216.75
666.562	38377.42
666.912	38149.63
667.262	38257.88
667.612	38297.2
667.962	38277.31
668.312	38157.54
668.662	38335.62
669.011	38255.84
669.361	38250.19
669.711	38139.92
670.06	38085.91
670.41	38046.13
670.76	38067.83
671.109	38225.56
671.459	38214.94
671.808	38041.84
672.157	38170.2
672.507	37816.99
672.856	37912.58
673.205	37995.06
673.554	38182.85
673.904	37907.83
674.253	38214.49
674.602	37954.16
674.951	37339.48
675.3	37465.81
675.649	37790.32
675.998	37886.36
676.346	37827.16
676.695	37955.29
677.044	37605.24
677.393	37791.45
677.741	37841.62
678.09	37706.71
678.438	37600.04
678.787	37737.67
679.135	37664.22
679.484	37454.51
679.832	37602.75
680.181	37340.61
680.529	37573.6
680.877	37351.01
681.225	37399.82
681.573	37538.58
681.922	37205.02
682.27	37187.17
682.618	37244.35
682.966	37242.09
683.314	37242.09
683.661	37040.28
684.009	36993.96
684.357	36917.8
684.705	36900.63
685.053	37001.87
685.4	36857.92
685.748	36686.17
686.095	36647.3
686.443	36640.29
686.79	36553.97
687.138	36572.05
687.485	36476
687.832	36434.65
688.18	36543.8
688.527	36246.18
688.874	36299.96
689.221	36191.72
689.568	36126.41
689.915	35953.98
690.262	36031.95
690.609	35918.96
690.956	35813.42
691.303	35687.78
691.65	35520.32
691.997	35564.84
692.344	35518.06
692.69	35402.59
693.037	35441.91
693.383	35088.02
693.73	35207.34
694.077	35025.65
694.423	34980.45
694.769	34931.64
695.116	34889.15
695.462	34875.82
695.808	34723.73
696.155	34713.34
696.501	34586.56
696.847	34464.98
697.193	34298.21
697.539	34335.04
697.885	34059.8
698.231	34067.25
698.577	33966.01
698.923	33865
699.269	33959.23
699.614	33609.86
699.96	33567.15
700.306	33664.33
700.651	33423.2
700.997	33403.54
701.342	33368.06
701.688	33362.19
702.033	33175.53
702.379	33126.71
702.724	32992.03
703.069	33194.28
703.415	32760.62
703.76	32717.68
704.105	32750.68
704.45	32617.12
704.795	32496
705.14	32417.35
705.485	32340.07
705.83	32223.23
706.175	32326.96
706.52	32179.85
706.865	32026.63
707.209	32077.25
707.554	31918.61
707.899	32049
708.243	31829.12
708.588	31746.41
708.932	31487.66
709.277	31607.21
709.621	31617.83
709.966	31416.48
710.31	31480.66
710.654	31212.41
710.998	31196.82
711.342	31273.2
711.687	31148.23
712.031	31076.37
712.375	30863.04
712.719	30900.11
713.063	30958.18
713.407	30980.56
713.75	30818.98
714.094	30760
714.438	30609.72
714.782	30630.73
715.125	30550.06
715.469	30532.21
715.812	30398.65
716.156	30355.26
716.499	30397.75
716.843	30334.02
717.186	30178.77
717.53	30270.52
717.873	30344.41
718.216	30152.78
718.559	30025.78
718.902	29845.9
719.246	29867.14
719.589	29784.2
719.932	29786.01
720.275	29739.23
720.617	29698.33
720.96	29699.46
721.303	29448.39
721.646	29531.1
721.989	29306.02
722.331	29560.03
722.674	29256.76
723.016	29352.12
723.359	29236.87
723.701	29288.17
724.044	29042.98
724.386	29098.8
724.729	29216.53
725.071	29052.47
725.413	29028.29
725.755	28958.01
726.097	28831.91
726.439	28761.63
726.782	28758.92
727.124	28895.64
727.465	28730.22
727.807	28736.32
728.149	28642.76
728.491	28647.51
728.833	28664.68
729.175	28516.67
729.516	28421.07
729.858	28436.22
730.199	28465.14
730.541	28420.85
730.882	28344.01
731.224	28347.4
731.565	28185.37
731.906	28289.1
732.248	28185.15
732.589	28019.96
732.93	27991.03
733.271	27989.67
733.612	28004.59
733.953	28031.25
734.294	27840.75
734.635	27688.66
734.976	27920.3
735.317	27750.13
735.658	27741.77
735.999	27699.51
736.339	27830.36
736.68	27766.85
737.021	27588.78
737.361	27553.3
737.702	27700.42
738.042	27572.74
738.383	27446.41
738.723	27585.84
739.063	27478.5
739.404	27417.26
739.744	27379.07
740.084	27306.75
740.424	27321.44
740.764	27189.02
741.104	27260.2
741.444	27266.53
741.784	27111.28
742.124	27145.85
742.464	27123.03
742.804	27017.72
743.143	27000.55
743.483	27102.69
743.823	26825.18
744.162	26864.96
744.502	26855.24
744.841	26770.27
745.181	26798.74
745.52	26818.41
745.86	26690.95
746.199	26582.03
746.538	26558.52
746.877	26529.6
747.216	26639.43
747.556	26471.52
747.895	26532.54
748.234	26406.21
748.573	26358.98
748.911	26306.33
749.25	26206.67
749.589	26159.21
749.928	26100.23
750.267	26163.73
750.605	26131.42
750.944	26062.04
751.283	25991.08
751.621	25996.96
751.96	25815.49
752.298	25938.43
752.636	25779.79
752.975	25763.52
753.313	25655.05
753.651	25816.4
753.989	25553.58
754.327	25576.63
754.666	25465.9
755.004	25424.54
755.342	25477.88
755.679	25440.59
756.017	25342.06
756.355	25358.56
756.693	25176.87
757.031	25323.98
757.368	25102.07
757.706	25145
758.044	24985.23
758.381	25086.47
758.719	24972.8
759.056	24987.49
759.394	24776.88
759.731	24625.02
760.068	24640.84
760.405	24612.59
760.743	24524.91
