Data from hue_280_FLMS001491_00034.txt Node
Date: Tue Feb 07 15:55:11 GMT 2017
User: dcchb
Spectrometer: FLMS00149
Trigger mode: 0
Integration Time (sec): 2.000000E-2
Scans to average: 10
Electric dark correction enabled: true
Nonlinearity correction enabled: false
Boxcar width: 0
XAxis mode: Wavelengths
Number of Pixels in Spectrum: 2048
>>>>>Begin Spectral Data<<<<<
341.393	-16.24
341.776	-16.24
342.16	-16.24
342.543	-66.18
342.927	-67.31
343.31	-59.18
343.693	-58.95
344.077	-74.55
344.46	-63.25
344.843	-64.38
345.226	-34.1
345.61	-17.37
345.993	-28.9
346.376	-3.81
346.759	12.68
347.142	37.54
347.525	44.55
347.908	61.72
348.291	68.73
348.674	77.09
349.057	102.17
349.44	123.41
349.823	153.24
350.206	171.1
350.588	190.08
350.971	178.78
351.354	197.31
351.737	229.63
352.119	237.76
352.502	255.84
352.884	273.47
353.267	283.41
353.65	275.05
354.032	284.09
354.414	312.11
354.797	286.57
355.179	311.21
355.562	301.04
355.944	306.01
356.326	302.62
356.709	321.83
357.091	342.62
357.473	342.39
357.855	321.83
358.238	322.05
358.62	328.83
359.002	342.39
359.384	352.34
359.766	323.64
360.148	317.99
360.53	329.74
360.912	329.29
361.294	313.24
361.676	320.02
362.057	341.49
362.439	317.99
362.821	325.22
363.203	310.3
363.584	328.16
363.966	332
364.348	287.03
364.729	293.81
365.111	341.71
365.493	316.4
365.874	315.95
366.256	309.17
366.637	289.96
367.019	315.5
367.4	289.51
367.781	279.79
368.163	301.26
368.544	298.33
368.925	302.85
369.306	290.87
369.688	317.53
370.069	321.6
370.45	303.3
370.831	299.46
371.212	327.93
371.593	305.1
371.974	298.1
372.355	295.16
372.736	284.54
373.117	308.72
373.498	310.3
373.879	306.91
374.26	305.1
374.641	285.67
375.021	314.37
375.402	327.25
375.783	309.4
376.163	321.6
376.544	318.89
376.925	327.03
377.305	339.91
377.686	312.34
378.066	327.93
378.447	299.91
378.827	313.01
379.208	307.36
379.588	305.56
379.968	335.84
380.349	344.88
380.729	323.86
381.109	322.05
381.489	333.35
381.87	335.61
382.25	325.22
382.63	320.47
383.01	327.93
383.39	326.12
383.77	343.52
384.15	336.06
384.53	318.21
384.91	322.96
385.29	345.33
385.67	352.34
386.049	354.14
386.429	343.97
386.809	346.01
387.189	351.88
387.568	354.6
387.948	333.35
388.328	354.14
388.707	330.42
389.087	330.64
389.466	351.88
389.846	352.34
390.225	370.19
390.605	361.15
390.984	375.84
391.363	361.6
391.743	393.24
392.122	374.26
392.501	367.48
392.881	383.07
393.26	362.28
393.639	376.29
394.018	370.41
394.397	384.2
394.776	361.6
395.155	381.49
395.534	367.48
395.913	370.87
396.292	384.65
396.671	386.91
397.05	382.17
397.429	365.67
397.808	403.63
398.186	382.17
398.565	380.36
398.944	385.33
399.323	377.42
399.701	401.37
400.08	419
400.458	403.86
400.837	426.23
401.215	404.31
401.594	421.49
401.972	400.24
402.351	411.32
402.729	438.66
403.107	428.72
403.486	425.55
403.864	443.86
404.242	452.22
404.62	454.71
404.999	427.14
405.377	454.71
405.755	447.93
406.133	469.17
406.511	447.93
406.889	458.1
407.267	483.41
407.645	456.29
408.023	474.37
408.401	480.69
408.779	485.21
409.156	480.47
409.534	476.63
409.912	506.23
410.29	502.39
410.667	510.98
411.045	536.51
411.422	523.86
411.8	553.46
412.178	533.57
412.555	553.23
412.933	559.34
413.31	536.96
413.687	567.47
414.065	575.83
414.442	577.19
414.819	557.3
415.197	595.49
415.574	603.18
415.951	612.67
416.328	612.89
416.705	615.61
417.082	639.11
417.46	625.77
417.837	653.12
418.214	619.45
418.591	661.48
418.967	667.13
419.344	679.33
419.721	679.56
420.098	700.12
420.475	714.81
420.852	685.66
421.228	715.04
421.605	718.88
421.982	706.22
422.358	736.96
422.735	761.14
423.111	763.17
423.488	751.87
423.864	768.6
424.241	774.02
424.617	788.03
424.994	816.5
425.37	809.27
425.746	795.26
426.123	810.4
426.499	826.45
426.875	818.99
427.251	835.26
427.627	873.45
428.003	867.8
428.379	874.58
428.756	901.93
429.132	891.08
429.507	905.32
429.883	938.76
430.259	931.76
430.635	920.46
431.011	950.74
431.387	964.52
431.763	964.97
432.138	973.34
432.514	984.41
432.89	999.78
433.265	1023.73
433.641	1050.4
434.016	1055.82
434.392	1087.68
434.767	1084.29
435.143	1081.36
435.518	1105.54
435.894	1124.07
436.269	1130.85
436.644	1135.37
437.02	1155.7
437.395	1177.17
437.77	1186.89
438.145	1212.43
438.52	1224.4
438.895	1202.48
439.271	1219.21
439.646	1273.89
440.021	1253.1
440.395	1269.6
440.77	1260.11
441.145	1294.01
441.52	1303.72
441.895	1317.06
442.27	1342.82
442.645	1314.12
443.019	1349.6
443.394	1352.99
443.769	1363.38
444.143	1348.69
444.518	1387.79
444.892	1369.03
445.267	1387.56
445.641	1427.56
446.016	1410.61
446.39	1436.6
446.764	1447.9
447.139	1423.04
447.513	1470.72
447.887	1453.32
448.262	1429.6
448.636	1483.15
449.01	1489.03
449.384	1493.55
449.758	1517.95
450.132	1490.61
450.506	1500.55
450.88	1495.13
451.254	1506.88
451.628	1503.04
452.002	1527.22
452.376	1556.15
452.75	1567.44
453.123	1580.33
453.497	1598.18
453.871	1600.89
454.244	1631.62
454.618	1654.9
454.992	1644.73
455.365	1627.78
455.739	1705.97
456.112	1693.09
456.486	1696.48
456.859	1696.48
457.232	1741.9
457.606	1752.98
457.979	1748.23
458.352	1791.85
458.725	1797.27
459.099	1809.02
459.472	1822.81
459.845	1859.64
460.218	1853.09
460.591	1872.07
460.964	1846.08
461.337	1903.93
461.71	1947.1
462.083	1964.27
462.456	1961.78
462.829	1948.68
463.201	1978.28
463.574	1983.03
463.947	2017.15
464.32	2027.55
464.692	2060.54
465.065	2073.65
465.438	2108.9
465.81	2096.7
466.183	2104.61
466.555	2166.98
466.928	2178.95
467.3	2145.73
467.672	2169.24
468.045	2272.06
468.417	2283.58
468.789	2293.3
469.161	2293.3
469.534	2270.03
469.906	2333.53
470.278	2335.11
470.65	2370.59
471.022	2420.08
471.394	2421.21
471.766	2456.91
472.138	2490.13
472.51	2525.61
472.882	2528.55
473.253	2595.21
473.625	2557.25
473.997	2663.01
474.369	2664.14
474.74	2681.77
475.112	2720.41
475.484	2724.48
475.855	2735.78
476.227	2787.3
476.598	2847.41
476.97	2824.59
477.341	2892.61
477.713	2946.84
478.084	2958.59
478.455	3009.44
478.827	3034.3
479.198	3084.01
479.569	3126.5
479.94	3162.88
480.311	3169.21
480.682	3251.92
481.053	3289.21
481.424	3319.04
481.795	3341.41
482.166	3384.57
482.537	3417.11
482.908	3444.23
483.279	3485.13
483.65	3540.95
484.021	3595.64
484.391	3626.6
484.762	3696.2
485.133	3686.03
485.503	3745.01
485.874	3799.7
486.244	3813.49
486.615	3822.53
486.985	3909.76
487.356	3933.71
487.726	3971
488.097	3989.3
488.467	4049.41
488.837	4118.56
489.207	4172.8
489.578	4161.05
489.948	4242.18
490.318	4262.06
490.688	4283.31
491.058	4335.06
491.428	4361.72
491.798	4385
492.168	4509.74
492.538	4436.97
492.908	4494.15
493.278	4528.72
493.648	4546.8
494.017	4600.59
494.387	4624.09
494.757	4645.56
495.126	4682.62
495.496	4751.54
495.866	4723.75
496.235	4755.61
496.605	4781.82
496.974	4785.67
497.344	4882.61
497.713	4860.01
498.082	4835.83
498.452	4909.05
498.821	4897.3
499.19	4980.01
499.559	4982.72
499.928	5012.78
500.298	5050.97
500.667	5057.75
501.036	5016.62
501.405	5102.27
501.774	5098.65
502.143	5089.39
502.512	5129.38
502.88	5205.09
503.249	5194.69
503.618	5239.66
503.987	5192.21
504.356	5234.47
504.724	5271.75
505.093	5272.21
505.462	5252.77
505.83	5255.94
506.199	5328.25
506.567	5307.23
506.936	5391.3
507.304	5418.19
507.672	5429.94
508.041	5446.89
508.409	5494.57
508.777	5489.6
509.145	5504.74
509.514	5477.17
509.882	5568.92
510.25	5508.58
510.618	5559.2
510.986	5570.28
511.354	5615.25
511.722	5593.1
512.09	5715.81
512.458	5606.21
512.826	5711.52
513.193	5682.14
513.561	5771.85
513.929	5736.83
514.297	5784.73
514.664	5814.34
515.032	5776.83
515.4	5801.46
515.767	5851.85
516.135	5849.37
516.502	5822.7
516.869	5858.86
517.237	5875.58
517.604	5878.97
517.972	5947.22
518.339	5898.4
518.706	5959.42
519.073	5975.46
519.44	5969.14
519.808	5953.32
520.175	6043.26
520.542	6064.5
520.909	6047.33
521.276	6090.94
521.643	6078.29
522.009	6124.16
522.376	6125.06
522.743	6167.1
523.11	6247.77
523.477	6238.06
523.843	6254.33
524.21	6322.35
524.577	6302.24
524.943	6333.2
525.31	6376.36
525.676	6439.86
526.043	6416.81
526.409	6425.4
526.776	6425.62
527.142	6461.55
527.508	6459.75
527.874	6540.65
528.241	6589.23
528.607	6590.14
528.973	6633.07
529.339	6604.37
529.705	6693.86
530.071	6708.55
530.437	6700.19
530.803	6750.81
531.169	6741.77
531.535	6723.47
531.901	6792.62
532.267	6837.81
532.632	6889.34
532.998	6852.05
533.364	6870.13
533.73	6927.98
534.095	6953.52
534.461	6877.81
534.826	6989.9
535.192	6936.34
535.557	6955.78
535.923	7019.28
536.288	6975.89
536.653	6970.92
537.019	7032.39
537.384	7024.25
537.749	7021.09
538.114	7094.08
538.479	7084.14
538.845	7087.75
539.21	7131.82
539.575	7125.04
539.94	7128.65
540.305	7207.75
540.67	7180.4
541.034	7189.22
541.399	7220.86
541.764	7207.3
542.129	7240.74
542.494	7224.25
542.858	7294.3
543.223	7261.76
543.587	7329.33
543.952	7279.84
544.316	7356.44
544.681	7349.67
545.045	7373.39
545.41	7424.92
545.774	7403.22
546.138	7435.99
546.503	7407.07
546.867	7424.69
547.231	7477.57
547.595	7427.4
547.959	7530.9
548.324	7461.08
548.688	7474.86
549.052	7566.83
549.416	7524.8
549.779	7521.41
550.143	7515.31
550.507	7617.68
550.871	7603.22
551.235	7521.86
551.599	7654.74
551.962	7634.63
552.326	7610.45
552.689	7697.9
553.053	7615.65
553.417	7629.43
553.78	7774.51
554.143	7685.93
554.507	7693.16
554.87	7751.91
555.234	7831.69
555.597	7726.83
555.96	7789.65
556.323	7857.22
556.686	7815.87
557.05	7887.5
557.413	7892.7
557.776	7868.75
558.139	7888.63
558.502	7941.29
558.865	7944.23
559.228	7974.28
559.59	8019.7
559.953	8030.33
560.316	8051.34
560.679	8053.83
561.041	8093.37
561.404	8131.34
561.767	8147.38
562.129	8137.89
562.492	8210.43
562.854	8157.1
563.217	8203.43
563.579	8241.85
563.941	8293.82
564.304	8214.28
564.666	8339.7
565.028	8368.4
565.39	8419.92
565.753	8408.85
566.115	8407.72
566.477	8445.68
566.839	8506.47
567.201	8511.22
567.563	8545.11
567.925	8598.9
568.287	8621.04
568.648	8648.61
569.01	8621.95
569.372	8726.13
569.734	8648.84
570.095	8758.89
570.457	8758.22
570.819	8753.47
571.18	8799.8
571.542	8847.03
571.903	8865.11
572.265	8874.82
572.626	8956.85
572.987	8963.86
573.349	8929.51
573.71	8992.79
574.071	9069.17
574.432	9133.35
574.794	9179.9
575.155	9080.92
575.516	9145.1
575.877	9220.35
576.238	9306
576.599	9313.68
576.96	9358.88
577.32	9403.4
577.681	9416.5
578.042	9450.63
578.403	9461.02
578.763	9514.13
579.124	9659.21
579.485	9562.94
579.845	9736.27
580.206	9686.1
580.566	9672.09
580.927	9738.3
581.287	9855.59
581.648	9854.46
582.008	9926.55
582.368	9991.63
582.728	10085.19
583.089	10075.7
583.449	10047.22
583.809	10179.87
584.169	10223.04
584.529	10251.51
584.889	10307.33
585.249	10348.91
585.609	10417.61
585.969	10449.92
586.329	10508.9
586.688	10559.3
587.048	10601.11
587.408	10611.05
587.768	10731.72
588.127	10788.67
588.487	10854.21
588.846	11018.72
589.206	10895.11
589.565	11044.48
589.925	11201.32
590.284	11151.83
590.643	11211.26
591.003	11364.7
591.362	11394.98
591.721	11430.91
592.08	11492.61
592.44	11596.11
592.799	11590.23
593.158	11706.61
593.517	11787.06
593.876	11852.15
594.235	11912.03
594.593	11953.39
594.952	12041.97
595.311	12007.85
595.67	12160.84
596.029	12269.54
596.387	12280.38
596.746	12371.23
597.104	12275.64
597.463	12411
597.822	12500.94
598.18	12482.86
598.538	12549.3
598.897	12718.11
599.255	12676.76
599.613	12886.92
599.972	12817.77
600.33	12880.14
600.688	12924.21
601.046	12955.85
601.404	13082.85
601.762	13070.65
602.12	13207.59
602.478	13246.23
602.836	13180.7
603.194	13202.84
603.552	13245.78
603.91	13240.13
604.268	13410.3
604.625	13446.23
604.983	13543.85
605.341	13464.53
605.698	13545.43
606.056	13590.41
606.413	13616.39
606.771	13733.23
607.128	13747.01
607.485	13659.78
607.843	13760.34
608.2	13780
608.557	13898.19
608.914	13849.38
609.272	13994.91
609.629	13942.71
609.986	14040.34
610.343	13997.17
610.7	14127.79
611.057	14176.15
611.414	14168.7
611.771	14214.57
612.127	14302.48
612.484	14283.72
612.841	14362.14
613.198	14334.57
613.554	14263.38
613.911	14444.85
614.267	14437.61
614.624	14429.25
614.98	14454.11
615.337	14589.93
615.693	14478.74
616.05	14523.94
616.406	14627.21
616.762	14598.06
617.118	14686.42
617.475	14691.85
617.831	14683.71
618.187	14735.01
618.543	14699.53
618.899	14915.12
619.255	14840.54
619.611	14818.17
619.967	14810.71
620.323	14844.61
620.678	14902.46
621.034	14809.13
621.39	14918.05
621.746	14722.8
622.101	14950.6
622.457	14829.47
622.812	14948.56
623.168	14929.81
623.523	14952.63
623.879	14976.13
624.234	14937.26
624.589	14965.96
624.945	14949.47
625.3	14933.87
625.655	15018.62
626.01	14983.82
626.365	15014.77
626.72	15028.79
627.075	15055.23
627.43	14909.24
627.785	15012.97
628.14	15028.33
628.495	15057.49
628.85	15070.59
629.205	15036.7
629.559	15130.25
629.914	15000.76
630.269	15048.22
630.623	15040.31
630.978	14999.86
631.332	14956.7
631.687	15063.14
632.041	14957.15
632.396	14960.76
632.75	14941.1
633.104	14821.56
633.459	14925.06
633.813	14844.38
634.167	14895.46
634.521	14890.71
634.875	14895.46
635.229	14817.49
635.583	14742.24
635.937	14843.25
636.291	14716.93
636.645	14830.15
636.999	14760.09
637.352	14730.94
637.706	14705.86
638.06	14834.21
638.413	14760.77
638.767	14746.76
639.121	14718.96
639.474	14643.94
639.828	14588.35
640.181	14628.8
640.534	14630.15
640.888	14574.56
641.241	14608.91
641.594	14580.89
641.947	14691.39
642.301	14570.04
642.654	14666.76
643.007	14592.86
643.36	14567.55
643.713	14591.96
644.066	14678.29
644.419	14500.66
644.771	14423.15
645.124	14356.71
645.477	14297.05
645.83	14257.73
646.182	14143.84
646.535	14102.93
646.888	14172.76
647.24	14146.77
647.593	14149.49
647.945	14183.38
648.298	14047.34
648.65	14051.86
649.002	14055.25
649.355	14063.84
649.707	14070.84
650.059	14174.57
650.411	14268.13
650.763	14368.01
651.115	14463.6
651.467	14387.67
651.819	14443.49
652.171	14428.58
652.523	14509.25
652.875	14369.59
653.227	14370.5
653.578	14531.62
653.93	14450.27
654.282	14409.37
654.633	14357.16
654.985	14369.14
655.337	14466.54
655.688	14416.6
656.039	14477.39
656.391	14345.41
656.742	14379.54
657.094	14356.49
657.445	14514
657.796	14462.02
658.147	14335.02
658.498	14377.28
658.849	14494.79
659.2	14389.03
659.551	14423.6
659.902	14455.02
660.253	14433.55
660.604	14472.19
660.955	14348.35
661.306	14427.9
661.656	14445.07
662.007	14448.01
662.358	14443.94
662.708	14462.7
663.059	14475.81
663.409	14408.91
663.76	14455.02
664.11	14526.65
664.461	14501.79
664.811	14544.5
665.161	14491.4
665.511	14465.86
665.862	14522.81
666.212	14572.98
666.562	14539.08
666.912	14408.46
667.262	14522.36
667.612	14504.96
667.962	14532.75
668.312	14535.01
668.662	14546.09
669.011	14598.29
669.361	14500.44
669.711	14509.7
670.06	14449.14
670.41	14423.15
670.76	14420.21
671.109	14503.83
671.459	14444.85
671.808	14392.19
672.157	14503.83
672.507	14374.79
672.856	14434
673.205	14437.84
673.554	14426.32
673.904	14342.48
674.253	14459.31
674.602	14439.87
674.951	14169.15
675.3	14068.58
675.649	14307.45
675.998	14249.6
676.346	14270.84
676.695	14232.87
677.044	14190.62
677.393	14219.09
677.741	14263.61
678.09	14222.03
678.438	14198.52
678.787	14216.6
679.135	14247.79
679.484	14123.05
679.832	14175.02
680.181	14139.32
680.529	14128.7
680.877	14133.44
681.225	14060.22
681.573	14108.36
681.922	13984.07
682.27	13920.11
682.618	13990.85
682.966	13953.79
683.314	13958.98
683.661	13996.95
684.009	13816.84
684.357	13803.96
684.705	13787.46
685.053	13797.41
685.4	13715.37
685.748	13765.77
686.095	13707.92
686.443	13622.72
686.79	13633.12
687.138	13623.17
687.485	13650.29
687.832	13571.2
688.18	13648.71
688.527	13495.72
688.874	13480.35
689.221	13443.29
689.568	13396.51
689.915	13376.4
690.262	13309.06
690.609	13293.69
690.956	13254.37
691.303	13254.59
691.65	13160.36
691.997	13206.46
692.344	13070.65
692.69	13041.95
693.037	13011.66
693.383	12910.42
693.73	13046.92
694.077	12919.46
694.423	12908.84
694.769	12809.86
695.116	12773.03
695.462	12708.39
695.808	12704.1
696.155	12712.91
696.501	12671.79
696.847	12601.05
697.193	12565.35
697.539	12555.63
697.885	12457.1
698.231	12389.08
698.577	12459.81
698.923	12348.86
699.269	12302.53
699.614	12239.71
699.96	12160.16
700.306	12163.78
700.651	12101.86
700.997	12016.21
701.342	12073.38
701.688	12000.16
702.033	11875.65
702.379	11910.45
702.724	11920.17
703.069	11904.12
703.415	11672.04
703.76	11701.42
704.105	11730.34
704.45	11730.34
704.795	11623.45
705.14	11610.12
705.485	11523.57
705.83	11524.7
706.175	11498.48
706.52	11458.48
706.865	11453.51
707.209	11388.66
707.554	11398.82
707.899	11380.97
708.243	11306.4
708.588	11350.01
708.932	11200.64
709.277	11114.76
709.621	11244.03
709.966	11122.67
710.31	11132.39
710.654	11027.53
710.998	11066.18
711.342	11017.14
711.687	10977.59
712.031	10958.38
712.375	10948.21
712.719	10926.29
713.063	10880.42
713.407	10925.62
713.75	10849.01
714.094	10908.22
714.438	10793.19
714.782	10812.85
715.125	10753.19
715.469	10741.67
715.812	10735.57
716.156	10618.51
716.499	10639.75
716.843	10632.52
717.186	10638.62
717.53	10690.14
717.873	10623.93
718.216	10589.58
718.559	10527.66
718.902	10512.29
719.246	10503.93
719.589	10535.12
719.932	10460.54
720.275	10507.55
720.617	10456.93
720.96	10486.08
721.303	10461.67
721.646	10446.08
721.989	10427.78
722.331	10384.84
722.674	10422.81
723.016	10435.91
723.359	10454.44
723.701	10367.67
724.044	10333.99
724.386	10280.44
724.729	10319.08
725.071	10296.93
725.413	10354.11
725.755	10270.27
726.097	10338.06
726.439	10193.66
726.782	10230.95
727.124	10286.99
727.465	10261.23
727.807	10227.56
728.149	10163.38
728.491	10210.16
728.833	10204.28
729.175	10213.55
729.516	10218.97
729.858	10113.66
730.199	10185.75
730.541	10149.37
730.882	10146.65
731.224	10168.35
731.565	10058.29
731.906	10155.69
732.248	10188.91
732.589	10102.81
732.93	10108.69
733.271	10129.48
733.612	10195.92
733.953	10198.63
734.294	10183.72
734.635	10096.94
734.976	10161.79
735.317	10113.89
735.658	10123.83
735.999	10086.99
736.339	10163.15
736.68	10188.69
737.021	10159.99
737.361	10119.76
737.702	10208.8
738.042	10186.88
738.383	10164.28
738.723	10192.53
739.063	10103.04
739.404	10245.18
739.744	10159.99
740.084	10197.95
740.424	10237.5
740.764	10225.97
741.104	10276.82
741.444	10214.45
741.784	10186.43
742.124	10234.79
742.464	10269.36
742.804	10284.73
743.143	10333.99
743.483	10342.58
743.823	10308.46
744.162	10342.13
744.502	10434.78
744.841	10421.9
745.181	10524.27
745.52	10479.53
745.86	10516.59
746.199	10630.71
746.538	10632.74
746.877	10685.4
747.216	10655.57
747.556	10690.37
747.895	10797.03
748.234	10914.09
748.573	10905.28
748.911	10961.55
749.25	10988.44
749.589	10973.3
749.928	11114.09
750.267	11171.49
750.605	11269.56
750.944	11317.24
751.283	11435.89
751.621	11446.96
751.96	11573.96
752.298	11693.73
752.636	11713.17
752.975	11808.08
753.313	11881.52
753.651	12012.59
753.989	12072.93
754.327	12132.82
754.666	12198.58
755.004	12373.26
755.342	12497.78
755.679	12669.07
756.017	12658.45
756.355	12808.28
756.693	12902.06
757.031	13135.28
757.368	13141.6
757.706	13340.69
758.044	13438.09
758.381	13577.75
758.719	13729.84
759.056	13824.52
759.394	14005.54
759.731	14158.98
