Data from hue_100_FLMS001491_00079.txt Node
Date: Tue Feb 07 17:03:39 GMT 2017
User: dcchb
Spectrometer: FLMS00149
Trigger mode: 0
Integration Time (sec): 2.000000E-2
Scans to average: 10
Electric dark correction enabled: true
Nonlinearity correction enabled: false
Boxcar width: 0
XAxis mode: Wavelengths
Number of Pixels in Spectrum: 2048
>>>>>Begin Spectral Data<<<<<
341.393	-4.39
341.776	-4.39
342.16	-4.39
342.543	-63.6
342.927	-71.06
343.31	-57.5
343.693	-82.58
344.077	-84.84
344.46	-51.85
344.843	-60.44
345.226	-35.35
345.61	-33.32
345.993	-11.17
346.376	-7.1
346.759	11.2
347.142	42.16
347.525	53.69
347.908	54.36
348.291	54.81
348.674	94.14
349.057	113.8
349.44	128.94
349.823	131.65
350.206	150.18
350.588	195.15
350.971	219.33
351.354	250.97
351.737	231.08
352.119	263.17
352.502	239.89
352.884	259.33
353.267	295.71
353.65	291.42
354.032	297.07
354.414	319.21
354.797	330.29
355.179	304.98
355.562	323.28
355.944	337.97
356.326	332.55
356.709	314.24
357.091	324.41
357.473	337.52
357.855	327.35
358.238	342.72
358.62	345.65
359.002	337.97
359.384	343.17
359.766	328.25
360.148	346.56
360.53	330.97
360.912	344.3
361.294	322.15
361.676	359.89
362.057	316.5
362.439	323.06
362.821	327.35
363.203	307.92
363.584	305.88
363.966	316.05
364.348	333.68
364.729	327.35
365.111	318.31
365.493	329.61
365.874	313.79
366.256	313.34
366.637	328.48
367.019	318.31
367.4	328.48
367.781	330.51
368.163	295.49
368.544	318.31
368.925	304.75
369.306	334.36
369.688	306.11
370.069	330.06
370.45	308.14
370.831	316.5
371.212	313.79
371.593	338.2
371.974	312.89
372.355	319.67
372.736	334.58
373.117	336.16
373.498	308.37
373.879	322.38
374.26	314.24
374.641	324.64
375.021	326.67
375.402	332.32
375.783	314.47
376.163	324.86
376.544	337.97
376.925	343.85
377.305	327.35
377.686	336.39
378.066	349.95
378.447	321.47
378.827	346.33
379.208	332.77
379.588	346.78
379.968	333
380.349	346.78
380.729	337.29
381.109	344.52
381.489	333.45
381.87	336.84
382.25	332.32
382.63	336.16
383.01	352.66
383.39	331.64
383.77	339.1
384.15	348.37
384.53	330.06
384.91	358.76
385.29	362.6
385.67	375.94
386.049	350.17
386.429	371.87
386.809	336.39
387.189	371.64
387.568	340.91
387.948	367.12
388.328	380
388.707	383.39
389.087	371.64
389.466	392.66
389.846	372.32
390.225	386.11
390.605	379.33
390.984	379.78
391.363	371.19
391.743	396.73
392.122	375.94
392.501	393.11
392.881	388.59
393.26	407.12
393.639	388.59
394.018	408.48
394.397	384.75
394.776	401.25
395.155	408.03
395.534	402.15
395.913	407.57
396.292	424.97
396.671	408.03
397.05	414.58
397.429	412.77
397.808	406.44
398.186	403.05
398.565	413.68
398.944	436.95
399.323	436.05
399.701	427.69
400.08	413.9
400.458	434.69
400.837	423.84
401.215	420
401.594	431.75
401.972	415.03
402.351	433.11
402.729	417.52
403.107	426.33
403.486	418.65
403.864	425.2
404.242	433.11
404.62	457.74
404.999	439.44
405.377	450.06
405.755	451.19
406.133	442.38
406.511	451.41
406.889	459.32
407.267	461.81
407.645	456.61
408.023	458.87
408.401	466.56
408.779	489.61
409.156	483.5
409.534	493.9
409.912	477.18
410.29	493.45
410.667	501.81
411.045	515.59
411.422	506.33
411.8	496.84
412.178	509.94
412.555	524.86
412.933	545.42
413.31	531.41
413.687	517.85
414.065	513.33
414.442	536.38
414.819	547.46
415.197	544.29
415.574	551.53
415.951	529.15
416.328	548.36
416.705	569.38
417.082	561.47
417.46	543.62
417.837	537.74
418.214	551.3
418.591	591.75
418.967	574.35
419.344	570.06
419.721	586.1
420.098	570.96
420.475	588.81
420.852	603.5
421.228	609.15
421.605	596.95
421.982	608.7
422.358	594.46
422.735	641.92
423.111	630.39
423.488	619.55
423.864	634.01
424.241	632.65
424.617	640.11
424.994	649.38
425.37	626.78
425.746	638.08
426.123	644.63
426.499	654.8
426.875	658.41
427.251	674.01
427.627	657.06
428.003	678.3
428.379	711.29
428.756	672.88
429.132	694.12
429.507	681.92
429.883	718.75
430.259	725.76
430.635	708.13
431.011	736.6
431.387	735.93
431.763	737.06
432.138	748.81
432.514	769.82
432.89	742.48
433.265	773.89
433.641	776.6
434.016	788.13
434.392	801.24
434.767	794.23
435.143	805.53
435.518	803.27
435.894	805.53
436.269	818.18
436.644	811.18
437.02	825.42
437.395	865.19
437.77	857.96
438.145	850.05
438.52	908.58
438.895	865.64
439.271	862.7
439.646	902.48
440.021	914.45
440.395	913.1
440.77	904.96
441.145	915.36
441.52	940.89
441.895	918.97
442.27	952.42
442.645	924.62
443.019	966.88
443.394	962.59
443.769	953.1
444.143	961.01
444.518	975.47
444.892	964.85
445.267	993.55
445.641	1006.65
446.016	992.42
446.39	1004.17
446.764	1023.38
447.139	1019.76
447.513	1026.54
447.887	1035.81
448.262	1032.87
448.636	1039.87
449.01	1063.83
449.384	1095.24
449.758	1050.27
450.132	1098.86
450.506	1083.49
450.88	1098.4
451.254	1105.18
451.628	1092.3
452.002	1130.49
452.376	1125.07
452.75	1145.63
453.123	1135.92
453.497	1159.42
453.871	1160.32
454.244	1195.58
454.618	1190.83
454.992	1223.6
455.365	1239.64
455.739	1237.83
456.112	1247.33
456.486	1256.59
456.859	1273.54
457.232	1271.51
457.606	1288.68
457.979	1305.4
458.352	1358.96
458.725	1365.97
459.099	1348.57
459.472	1375.01
459.845	1409.13
460.218	1424.27
460.591	1434.67
460.964	1423.37
461.337	1476.7
461.71	1489.35
462.083	1495.91
462.456	1508.79
462.829	1540.2
463.201	1574.32
463.574	1583.14
463.947	1589.69
464.32	1638.73
464.692	1636.47
465.065	1669.69
465.438	1680.76
465.81	1722.12
466.183	1755.34
466.555	1739.97
466.928	1768.22
467.3	1832.62
467.672	1846.18
468.045	1878.27
468.417	1876.01
468.789	1927.31
469.161	1930.7
469.534	2005.95
469.906	2037.59
470.278	2044.14
470.65	2094.54
471.022	2128.21
471.394	2189.67
471.766	2196.45
472.138	2231.71
472.51	2314.42
472.882	2365.26
473.253	2353.06
473.625	2439.84
473.997	2471.25
474.369	2522.77
474.74	2579.04
475.112	2616.1
475.484	2700.62
475.855	2745.37
476.227	2809.77
476.598	2894.97
476.97	2962.54
477.341	3023.78
477.713	3092.25
478.084	3191.91
478.455	3266.93
478.827	3338.34
479.198	3405.01
479.569	3487.49
479.94	3611.11
480.311	3680.03
480.682	3776.3
481.053	3889.52
481.424	3988.5
481.795	4067.59
482.166	4158.44
482.537	4265.1
482.908	4345.32
483.279	4475.72
483.65	4612.66
484.021	4763.84
484.391	4906.44
484.762	4982.14
485.133	5129.26
485.503	5216.04
485.874	5347.56
486.244	5444.73
486.615	5649.24
486.985	5740.77
487.356	5902.12
487.726	5986.41
488.097	6172.85
488.467	6348.21
488.837	6519.73
489.207	6681.53
489.578	6797.01
489.948	6914.97
490.318	7040.85
490.688	7177.34
491.058	7394.51
491.428	7517.22
491.798	7674.05
492.168	7887.38
492.538	7955.62
492.908	8125.34
493.278	8340.02
493.648	8365.1
494.017	8573.24
494.387	8744.3
494.757	8844.41
495.126	8983.85
495.496	9128.47
495.866	9216.61
496.235	9378.86
496.605	9556.94
496.974	9702.47
497.344	9851.85
497.713	9951.05
498.082	10019.52
498.452	10236.69
498.821	10323.25
499.19	10410.7
499.559	10652.05
499.928	10660.64
500.298	10775.21
500.667	10954.87
501.036	10990.8
501.405	11155.31
501.774	11221.08
502.143	11296.1
502.512	11431.01
502.88	11533.16
503.249	11613.16
503.618	11765.69
503.987	11826.48
504.356	11942.41
504.724	11943.77
505.093	12103.31
505.462	12195.29
505.83	12221.27
506.199	12423.08
506.567	12641.83
506.936	12620.13
507.304	12725.89
507.672	12861.26
508.041	12884.99
508.409	13035.04
508.777	13137.41
509.145	13155.26
509.514	13191.64
509.882	13213.34
510.25	13311.64
510.618	13449.72
510.986	13458.53
511.354	13635.25
511.722	13689.48
512.09	13810.84
512.458	13783.95
512.826	13877.28
513.193	14019.42
513.561	14018.52
513.929	14105.07
514.297	14221.45
514.664	14287.66
515.032	14343.03
515.4	14351.84
515.767	14412.18
516.135	14478.84
516.502	14440.88
516.869	14788.44
517.237	14627.54
517.604	14574.89
517.972	14731.94
518.339	14864.37
518.706	14841.77
519.073	14834.31
519.44	14957.93
519.808	15092.39
520.175	14971.71
520.542	15159.95
520.909	15177.36
521.276	15230.69
521.643	15301.87
522.009	15367.86
522.376	15433.39
522.743	15441.3
523.11	15519.95
523.477	15571.02
523.843	15631.58
524.21	15786.15
524.577	15914.74
524.943	15905.02
525.31	15879.48
525.676	16029.76
526.043	15959.03
526.409	16001.06
526.776	16203.32
527.142	16173.94
527.508	16198.57
527.874	16273.37
528.241	16259.13
528.607	16256.42
528.973	16349.98
529.339	16333.71
529.705	16328.29
530.071	16494.83
530.437	16483.99
530.803	16492.57
531.169	16498
531.535	16440.6
531.901	16498.68
532.267	16497.77
532.632	16521.95
532.998	16451.67
533.364	16573.48
533.73	16490.31
534.095	16568.51
534.461	16633.81
534.826	16527.15
535.192	16606.92
535.557	16608.05
535.923	16526.25
536.288	16621.38
536.653	16566.47
537.019	16501.61
537.384	16527.15
537.749	16582.29
538.114	16444.67
538.479	16457.77
538.845	16447.38
539.21	16482.86
539.575	16463.88
539.94	16432.46
540.305	16555.4
540.67	16473.37
541.034	16410.09
541.399	16407.61
541.764	16285.8
542.129	16352.01
542.494	16260.26
542.858	16308.17
543.223	16262.75
543.587	16260.04
543.952	16239.7
544.316	16260.49
544.681	16154.73
545.045	16196.09
545.41	16207.38
545.774	16082.87
546.138	16124.9
546.503	16119.7
546.867	16044.23
547.231	16138.69
547.595	16084
547.959	15918.35
548.324	16056.43
548.688	15917.9
549.052	15970.1
549.416	15909.77
549.779	15846.94
550.143	15772.59
550.507	15957.67
550.871	15886.04
551.235	15823.21
551.599	15892.36
551.962	15793.84
552.326	15808.98
552.689	15874.06
553.053	15723.33
553.417	15672.26
553.78	15869.09
554.143	15704.35
554.507	15732.14
554.87	15725.59
555.234	15738.7
555.597	15656.66
555.96	15704.35
556.323	15649.89
556.686	15662.77
557.05	15720.62
557.413	15618.47
557.776	15678.81
558.139	15798.13
558.502	15680.17
558.865	15661.86
559.228	15708.64
559.59	15757.23
559.953	15745.25
560.316	15767.62
560.679	15718.81
561.041	15723.1
561.404	15850.78
561.767	15871.35
562.129	15804.91
562.492	15811.01
562.854	15811.01
563.217	15730.79
563.579	15796.77
563.941	15860.95
564.304	15870.67
564.666	16058.69
565.028	15937.34
565.39	16038.8
565.753	16042.87
566.115	15996.77
566.477	16048.74
566.839	16126.93
567.201	16138.01
567.563	16140.04
567.925	16145.92
568.287	16155.41
568.648	16192.24
569.01	16195.41
569.372	16241.96
569.734	16155.86
570.095	16262.3
570.457	16363.54
570.819	16315.86
571.18	16342.3
571.542	16394.05
571.903	16374.16
572.265	16411.22
572.626	16505.23
572.987	16371.22
573.349	16436.76
573.71	16458.45
574.071	16491.22
574.432	16537.09
574.794	16641.95
575.155	16597.43
575.516	16566.92
575.877	16643.31
576.238	16652.12
576.599	16546.36
576.96	16587.49
577.32	16639.92
577.681	16567.15
578.042	16646.47
578.403	16630.2
578.763	16591.78
579.124	16603.08
579.485	16640.82
579.845	16719.69
580.206	16623.64
580.566	16641.95
580.927	16614.15
581.287	16656.19
581.648	16572.57
582.008	16699.12
582.368	16635.62
582.728	16663.64
583.089	16641.05
583.449	16643.76
583.809	16743.64
584.169	16704.77
584.529	16559.01
584.889	16700.93
585.249	16572.35
585.609	16532.57
585.969	16608.73
586.329	16489.86
586.688	16596.98
587.048	16523.53
587.408	16518.79
587.768	16546.58
588.127	16479.92
588.487	16486.25
588.846	16632.68
589.206	16502.74
589.565	16470.43
589.925	16567.38
590.284	16498.9
590.643	16462.29
591.003	16437.44
591.362	16512.24
591.721	16558.79
592.08	16404.22
592.44	16517.88
592.799	16456.42
593.158	16517.21
593.517	16423.42
593.876	16483.31
594.235	16333.93
594.593	16450.54
594.952	16455.97
595.311	16293.48
595.67	16400.83
596.029	16493.93
596.387	16472.01
596.746	16547.26
597.104	16394.95
597.463	16392.92
597.822	16427.49
598.18	16352.47
598.538	16345.46
598.897	16436.98
599.255	16295.97
599.613	16561.27
599.972	16408.51
600.33	16414.38
600.688	16416.19
601.046	16472.01
601.404	16545.23
601.762	16446.02
602.12	16573.02
602.478	16526.25
602.836	16525.12
603.194	16409.41
603.552	16472.91
603.91	16375.74
604.268	16446.25
604.625	16361.73
604.983	16540.71
605.341	16424.55
605.698	16487.83
606.056	16357.21
606.413	16441.73
606.771	16471.11
607.128	16486.93
607.485	16478.56
607.843	16405.12
608.2	16613.02
608.557	16553.36
608.914	16510.2
609.272	16578
609.629	16521.27
609.986	16562.63
610.343	16577.77
610.7	16641.05
611.057	16594.04
611.414	16550.65
611.771	16604.66
612.127	16699.12
612.484	16652.34
612.841	16720.14
613.198	16716.07
613.554	16617.54
613.911	16709.29
614.267	16695.28
614.624	16763.53
614.98	16654.6
615.337	16848.72
615.693	16862.51
616.05	16858.44
616.406	16904.32
616.762	16792.68
617.118	16812.11
617.475	16850.31
617.831	16909.06
618.187	16856.41
618.543	16877.88
618.899	17021.37
619.255	16930.76
619.611	16911.09
619.967	17003.3
620.323	16949.74
620.678	16947.7
621.034	16904.32
621.39	16965.1
621.746	16877.88
622.101	17108.38
622.457	16947.93
622.812	17055.5
623.168	16989.28
623.523	16999.91
623.879	17069.06
624.234	16906.35
624.589	17019.57
624.945	16977.08
625.3	16985.22
625.655	17056.18
626.01	16955.61
626.365	16957.42
626.72	16948.16
627.075	16761.04
627.43	16917.42
627.785	16901.83
628.14	16942.96
628.495	16895.5
628.85	16837.2
629.205	16848.95
629.559	16859.57
629.914	16832
630.269	16910.42
630.623	16797.88
630.978	16715.85
631.332	16825.9
631.687	16860.7
632.041	16721.72
632.396	16817.99
632.75	16831.1
633.104	16744.77
633.459	16575.96
633.813	16646.24
634.167	16686.47
634.521	16730.53
634.875	16681.95
635.229	16625.9
635.583	16502.97
635.937	16541.39
636.291	16607.37
636.645	16503.2
636.999	16500.48
637.352	16557.21
637.706	16420.71
638.06	16557.88
638.413	16445.57
638.767	16415.06
639.121	16376.19
639.474	16311.56
639.828	16303.43
640.181	16397.66
640.534	16359.24
640.888	16314.73
641.241	16239.93
641.594	16271.79
641.947	16369.87
642.301	16305.69
642.654	16317.44
643.007	16287.16
643.36	16230.43
643.713	16215.29
644.066	16297.55
644.419	16127.84
644.771	16114.28
645.124	15926.49
645.477	16022.53
645.83	15786.83
646.182	15636.78
646.535	15835.42
646.888	15700.96
647.24	15624.8
647.593	15753.39
647.945	15637.91
648.298	15563.79
648.65	15615.99
649.002	15566.27
649.355	15627.51
649.707	15652.14
650.059	15798.81
650.411	15922.42
650.763	15967.62
651.115	15969.2
651.467	16029.54
651.819	16024.56
652.171	16019.59
652.523	15967.39
652.875	15998.35
653.227	15826.6
653.578	16099.36
653.93	15946.37
654.282	15935.08
654.633	15959.48
654.985	15866.6
655.337	15985.92
655.688	16017.56
656.039	16039.48
656.391	15926.04
656.742	15991.8
657.094	16000.16
657.445	16006.03
657.796	15949.76
658.147	15993.15
658.498	15988.41
658.849	16081.06
659.2	16028.63
659.551	15921.06
659.902	16026.15
660.253	16061.4
660.604	15979.82
660.955	15921.52
661.306	16000.61
661.656	16046.71
662.007	16085.58
662.358	16056.88
662.708	16027.5
663.059	15946.15
663.409	15998.58
663.76	16065.92
664.11	16066.37
664.461	16128.52
664.811	15994.73
665.161	16018.24
665.511	16026.82
665.862	15992.7
666.212	16070.67
666.562	16058.69
666.912	15984.57
667.262	15982.53
667.612	15979.59
667.962	16007.16
668.312	16067.95
668.662	16031.57
669.011	16050.1
669.361	15981.18
669.711	16043.1
670.06	16076.77
670.41	15886.94
670.76	15924.45
671.109	15974.4
671.459	15947.28
671.808	15893.04
672.157	15895.08
672.507	15802.42
672.856	15835.42
673.205	15951.35
673.554	15958.8
673.904	15806.72
674.253	15923.55
674.602	15871.8
674.951	15655.31
675.3	15556.33
675.649	15741.63
675.998	15735.31
676.346	15865.47
676.695	15839.26
677.044	15697.34
677.393	15803.78
677.741	15722.2
678.09	15721.07
678.438	15702.99
678.787	15682.65
679.135	15739.15
679.484	15694.4
679.832	15679.94
680.181	15506.84
680.529	15618.47
680.877	15513.17
681.225	15436.56
681.573	15566.5
681.922	15456.67
682.27	15365.37
682.618	15399.04
682.966	15312.49
683.314	15404.92
683.661	15227.75
684.009	15205.15
684.357	15153.18
684.705	15164.47
685.053	15146.17
685.4	15189.33
685.748	15057.58
686.095	15065.04
686.443	14909.34
686.79	14984.59
687.138	15042.9
687.485	14969.23
687.832	14962.9
688.18	14929.45
688.527	14780.76
688.874	14839.74
689.221	14833.18
689.568	14808.33
689.915	14786.4
690.262	14674.77
690.609	14680.42
690.956	14582.57
691.303	14578.73
691.65	14522.01
691.997	14500.99
692.344	14435.91
692.69	14330.82
693.037	14355
693.383	14230.49
693.73	14294.21
694.077	14161.34
694.423	14213.31
694.769	14110.49
695.116	14051.51
695.462	14045.41
695.808	14021.91
696.155	13942.36
696.501	13878.41
696.847	13863.72
697.193	13745.75
697.539	13858.75
697.885	13659.65
698.231	13563.16
698.577	13614.68
698.923	13577.4
699.269	13530.84
699.614	13433.22
699.96	13440.68
700.306	13390.51
700.651	13298.31
700.997	13212.66
701.342	13244.07
701.688	13188.71
702.033	13117.07
702.379	13183.28
702.724	13117.07
703.069	13044.98
703.415	13023.51
703.76	12931.54
704.105	12988.94
704.45	12845.89
704.795	12783.07
705.14	12735.84
705.485	12809.51
705.83	12638.44
706.175	12592.79
706.52	12650.64
706.865	12570.87
707.209	12560.93
707.554	12563.64
707.899	12567.25
708.243	12376.07
708.588	12467.37
708.932	12346.02
709.277	12290.65
709.621	12323.64
709.966	12266.7
710.31	12240.03
710.654	12102.18
710.998	12151.9
711.342	12120.71
711.687	12135.85
712.031	12058.57
712.375	12018.57
712.719	12064.89
713.063	12044.78
713.407	12034.16
713.75	11924.11
714.094	11876.65
714.438	11831.45
714.782	11942.64
715.125	11855.41
715.469	11844.79
715.812	11769.31
716.156	11791.91
716.499	11785.81
716.843	11757.11
717.186	11659.48
717.53	11682.31
717.873	11713.72
718.216	11665.36
718.559	11610.22
718.902	11513.95
719.246	11552.59
719.589	11538.58
719.932	11415.42
720.275	11437.11
720.617	11487.51
720.96	11456.78
721.303	11446.38
721.646	11539.71
721.989	11416.55
722.331	11495.87
722.674	11391.92
723.016	11398.47
723.359	11351.92
723.701	11375.42
724.044	11310.34
724.386	11277.57
724.729	11333.16
725.071	11330.45
725.413	11248.19
725.755	11299.72
726.097	11276.44
726.439	11239.15
726.782	11222.66
727.124	11313.95
727.465	11243.22
727.807	11164.81
728.149	11135.65
728.491	11193.28
728.833	11191.92
729.175	11108.31
729.516	11192.6
729.858	11139.5
730.199	11157.8
730.541	11173.62
730.882	11111.93
731.224	11199.61
731.565	11088.2
731.906	11153.96
732.248	11174.75
732.589	11102.43
732.93	11108.54
733.271	11113.06
733.612	11125.03
733.953	11068.31
734.294	11117.8
734.635	11059.27
734.976	11101.76
735.317	11053.4
735.658	11014.75
735.999	11062.21
736.339	11126.16
736.68	11127.29
737.021	11139.5
737.361	11087.29
737.702	11157.12
738.042	11101.76
738.383	11065.6
738.723	11092.49
739.063	11115.32
739.404	11125.26
739.744	11114.86
740.084	11156.22
740.424	11195.99
740.764	11136.33
741.104	11200.28
741.444	11179.04
741.784	11147.18
742.124	11204.58
742.464	11225.59
742.804	11196.44
743.143	11261.98
743.483	11345.59
743.823	11258.14
744.162	11353.5
744.502	11335.87
744.841	11324.58
745.181	11436.21
745.52	11398.02
745.86	11430.34
746.199	11456.55
746.538	11472.37
746.877	11522.54
747.216	11631.23
747.556	11611.35
747.895	11713.49
748.234	11695.41
748.573	11806.14
748.911	11773.6
749.25	11882.3
749.589	11919.59
749.928	12040.04
750.267	12126.81
750.605	12182.86
750.944	12246.36
751.283	12220.14
751.621	12442.51
751.96	12475.51
752.298	12534.49
752.636	12656.52
752.975	12767.48
753.313	12793.46
753.651	12980.12
753.989	13016.96
754.327	13156.84
754.666	13207.69
755.004	13345.54
755.342	13508.7
755.679	13650.39
