Data from hue_270_FLMS001491_00090.txt Node
Date: Tue Feb 07 15:57:50 GMT 2017
User: dcchb
Spectrometer: FLMS00149
Trigger mode: 0
Integration Time (sec): 2.000000E-2
Scans to average: 10
Electric dark correction enabled: true
Nonlinearity correction enabled: false
Boxcar width: 0
XAxis mode: Wavelengths
Number of Pixels in Spectrum: 2048
>>>>>Begin Spectral Data<<<<<
341.393	5.41
341.776	5.41
342.16	5.41
342.543	-30.75
342.927	-78.88
343.31	-82.95
343.693	-54.25
344.077	-66.45
344.46	-74.81
344.843	-43.18
345.226	-57.19
345.61	-32.33
345.993	-20.35
346.376	-2.5
346.759	7.22
347.142	36.37
347.525	49.93
347.908	56.93
348.291	78.18
348.674	93.77
349.057	111.62
349.44	122.92
349.823	152.07
350.206	143.71
350.588	198.62
350.971	181.9
351.354	219.87
351.737	242.01
352.119	245.18
352.502	257.15
352.884	277.27
353.267	272.97
353.65	278.85
354.032	279.07
354.414	300.54
354.797	304.38
355.179	319.53
355.562	329.02
355.944	336.02
356.326	324.27
356.709	325.85
357.091	336.93
357.473	340.99
357.855	350.03
358.238	336.02
358.62	330.6
359.002	354.78
359.384	329.69
359.766	350.71
360.148	346.42
360.53	340.54
360.912	328.56
361.294	329.24
361.676	313.2
362.057	326.53
362.439	330.15
362.821	345.06
363.203	332.63
363.584	322.69
363.966	322.01
364.348	306.64
364.729	325.4
365.111	340.09
365.493	304.38
365.874	324.72
366.256	297.38
366.637	319.3
367.019	320.66
367.4	324.95
367.781	317.04
368.163	291.05
368.544	319.98
368.925	332.41
369.306	308
369.688	314.78
370.069	305.97
370.45	321.33
370.831	313.42
371.212	315.46
371.593	322.24
371.974	320.88
372.355	317.94
372.736	322.24
373.117	331.5
373.498	309.81
373.879	299.41
374.26	315.46
374.641	333.99
375.021	322.01
375.402	330.6
375.783	337.38
376.163	325.63
376.544	328.11
376.925	331.5
377.305	324.72
377.686	343.03
378.066	319.98
378.447	341.22
378.827	320.88
379.208	307.55
379.588	341.45
379.968	334.21
380.349	350.71
380.729	347.55
381.109	341.45
381.489	343.48
381.87	337.83
382.25	336.25
382.63	329.02
383.01	351.62
383.39	339.64
383.77	327.66
384.15	336.25
384.53	333.76
384.91	364.72
385.29	344.16
385.67	352.29
386.049	352.29
386.429	342.12
386.809	368.79
387.189	371.73
387.568	351.16
387.948	371.5
388.328	346.64
388.707	355.23
389.087	348
389.466	385.74
389.846	366.76
390.225	357.04
390.605	375.57
390.984	382.12
391.363	389.58
391.743	384.16
392.122	383.48
392.501	379.86
392.881	386.64
393.26	373.54
393.639	371.95
394.018	398.39
394.397	375.57
394.776	370.15
395.155	360.65
395.534	395.68
395.913	394.33
396.292	397.49
396.671	390.94
397.05	380.77
397.429	416.47
397.808	413.08
398.186	393.2
398.565	423.25
398.944	407.66
399.323	420.99
399.701	397.49
400.08	414.66
400.458	444.95
400.837	427.55
401.215	421.67
401.594	439.97
401.972	428.45
402.351	440.88
402.729	430.71
403.107	426.87
403.486	456.02
403.864	430.71
404.242	436.13
404.62	467.32
404.999	457.37
405.377	459.86
405.755	458.05
406.133	464.83
406.511	461.44
406.889	461.67
407.267	462.57
407.645	484.04
408.023	457.6
408.401	495.79
408.779	505.06
409.156	484.49
409.534	505.28
409.912	512.74
410.29	538.5
410.667	504.38
411.045	526.07
411.422	536.47
411.8	567.2
412.178	561.1
412.555	540.99
412.933	540.31
413.31	564.72
413.687	575.79
414.065	585.73
414.442	597.48
414.819	569.46
415.197	582.34
415.574	598.61
415.951	608.56
416.328	621.66
416.705	614.66
417.082	624.15
417.46	644.49
417.837	662.34
418.214	641.1
418.591	651.72
418.967	665.51
419.344	658.05
419.721	677.93
420.098	701.21
420.475	676.13
420.852	705.73
421.228	704.6
421.605	712.06
421.982	732.85
422.358	737.14
422.735	747.54
423.111	750.93
423.488	759.74
423.864	778.27
424.241	774.2
424.617	789.34
424.994	797.71
425.37	823.47
425.746	852.39
426.123	838.83
426.499	843.81
426.875	835.9
427.251	877.02
427.627	889.91
428.003	885.61
428.379	900.08
428.756	914.99
429.132	911.6
429.507	950.92
429.883	916.12
430.259	955.21
430.635	953.86
431.011	968.1
431.387	1004.93
431.763	992.28
432.138	1010.81
432.514	1036.79
432.89	1042.67
433.265	1057.81
433.641	1056.91
434.016	1104.14
434.392	1105.27
434.767	1131.48
435.143	1114.98
435.518	1138.94
435.894	1193.4
436.269	1174.87
436.644	1203.8
437.02	1220.29
437.395	1228.88
437.77	1276.34
438.145	1273.62
438.52	1275.88
438.895	1319.73
439.271	1317.69
439.646	1311.36
440.021	1324.92
440.395	1333.28
440.77	1353.17
441.145	1349.1
441.52	1391.81
441.895	1399.72
442.27	1409.44
442.645	1395.43
443.019	1443.34
443.394	1446.05
443.769	1441.76
444.143	1434.75
444.518	1461.64
444.892	1472.49
445.267	1493.28
445.641	1511.36
446.016	1486.05
446.39	1528.76
446.764	1560.85
447.139	1557.23
447.513	1525.82
447.887	1561.53
448.262	1583.22
448.636	1582.77
449.01	1612.6
449.384	1604.92
449.758	1628.87
450.132	1603.33
450.506	1618.93
450.88	1642.2
451.254	1651.47
451.628	1657.57
452.002	1675.87
452.376	1689.66
452.75	1694.86
453.123	1759.26
453.497	1767.62
453.871	1762.43
454.244	1782.76
454.618	1790.67
454.992	1811.01
455.365	1826.83
455.739	1836.32
456.112	1886.04
456.486	1840.39
456.859	1885.36
457.232	1918.35
457.606	1907.05
457.979	1935.53
458.352	1980.5
458.725	1976.21
459.099	1981.85
459.472	2056.88
459.845	2050.1
460.218	2055.98
460.591	2091.68
460.964	2087.16
461.337	2108.41
461.71	2161.74
462.083	2154.05
462.456	2145.24
462.829	2166.93
463.201	2223.2
463.574	2196.09
463.947	2254.16
464.32	2280.38
464.692	2293.03
465.065	2312.24
465.438	2330.77
465.81	2364.22
466.183	2372.13
466.555	2420.26
466.928	2415.52
467.3	2409.41
467.672	2460.71
468.045	2518.79
468.417	2523.99
468.789	2548.39
469.161	2570.09
469.534	2579.13
469.906	2651.89
470.278	2682.63
470.65	2668.84
471.022	2683.31
471.394	2746.35
471.766	2788.61
472.138	2821.38
472.51	2826.58
472.882	2871.32
473.253	2907.48
473.625	2942.73
473.997	2993.35
474.369	2960.81
474.74	3017.08
475.112	3086.01
475.484	3089.17
475.855	3155.16
476.227	3199.9
476.598	3223.4
476.97	3233.12
477.341	3328.26
477.713	3330.29
478.084	3354.7
478.455	3483.06
478.827	3448.03
479.198	3538.42
479.569	3553.56
479.94	3618.2
480.311	3681.25
480.682	3744.97
481.053	3786.33
481.424	3847.57
481.795	3857.74
482.166	3870.39
482.537	3948.13
482.908	3994.46
483.279	4026.77
483.65	4072.42
484.021	4179.76
484.391	4205.75
484.762	4227.45
485.133	4219.08
485.503	4282.59
485.874	4333.43
486.244	4377.95
486.615	4460.43
486.985	4515.57
487.356	4574.78
487.726	4594.44
488.097	4627.66
488.467	4679.41
488.837	4704.49
489.207	4801.44
489.578	4814.1
489.948	4849.58
490.318	4909.01
490.688	4934.55
491.058	4992.4
491.428	5026.52
491.798	5052.73
492.168	5111.94
492.538	5186.52
492.908	5243.46
493.278	5232.62
493.648	5282.33
494.017	5301.54
494.387	5277.59
494.757	5346.29
495.126	5407.53
495.496	5416.34
495.866	5478.71
496.235	5506.51
496.605	5537.02
496.974	5546.51
497.344	5623.79
497.713	5596
498.082	5683.68
498.452	5709.44
498.821	5730
499.19	5713.06
499.559	5808.42
499.928	5790.57
500.298	5808.65
500.667	5897.01
501.036	5808.87
501.405	5949.43
501.774	5897.01
502.143	5942.88
502.512	5924.8
502.88	5995.31
503.249	5983.11
503.618	6014.52
503.987	6033.5
504.356	6047.96
504.724	6055.65
505.093	6134.29
505.462	6120.95
505.83	6167.96
506.199	6143.1
506.567	6214.96
506.936	6202.31
507.304	6205.25
507.672	6292.02
508.041	6234.62
508.409	6343.77
508.777	6358.01
509.145	6330.67
509.514	6339.25
509.882	6415.41
510.25	6369.08
510.618	6403.43
510.986	6411.57
511.354	6420.83
511.722	6482.08
512.09	6533.15
512.458	6508.74
512.826	6548.29
513.193	6517.1
513.561	6566.14
513.929	6598.23
514.297	6598.23
514.664	6617.44
515.032	6628.74
515.4	6653.82
515.767	6640.26
516.135	6687.72
516.502	6655.18
516.869	6727.27
517.237	6730.66
517.604	6655.86
517.972	6795.06
518.339	6847.49
518.706	6785.12
519.073	6776.76
519.44	6807.49
519.808	6833.93
520.175	6837.55
520.542	6823.76
520.909	6908.73
521.276	6853.14
521.643	6914.38
522.009	6987.82
522.376	6967.49
522.743	7050.2
523.11	7018.11
523.477	7040.48
523.843	7077.31
524.21	7126.58
524.577	7088.39
524.943	7174.49
525.31	7107.37
525.676	7231.89
526.043	7201.83
526.409	7185.79
526.776	7263.75
527.142	7288.38
527.508	7269.4
527.874	7348.72
528.241	7409.06
528.607	7402.05
528.973	7388.72
529.339	7359.79
529.705	7440.24
530.071	7475.72
530.437	7537.19
530.803	7481.37
531.169	7500.58
531.535	7527.02
531.901	7534.03
532.267	7520.01
532.632	7564.31
532.998	7568.83
533.364	7665.32
533.73	7601.14
534.095	7627.81
534.461	7640.46
534.826	7622.38
535.192	7684.76
535.557	7698.99
535.923	7630.75
536.288	7670.97
536.653	7717.75
537.019	7626.45
537.384	7712.1
537.749	7806.79
538.114	7743.51
538.479	7702.83
538.845	7717.52
539.21	7713.91
539.575	7751.65
539.94	7767.92
540.305	7729.73
540.67	7786
541.034	7760.46
541.399	7800.91
541.764	7804.07
542.129	7845.2
542.494	7850.4
542.858	7854.92
543.223	7819.67
543.587	7908.93
543.952	7889.95
544.316	7867.8
544.681	7880.46
545.045	7908.03
545.41	7912.77
545.774	7978.76
546.138	7915.94
546.503	7908.03
546.867	7910.74
547.231	7960.91
547.595	8038.42
547.959	7940.57
548.324	7996.84
548.688	7960.68
549.052	8051.75
549.416	7985.31
549.779	8012.2
550.143	8024.18
550.507	8045.42
550.871	8018.31
551.235	8052.2
551.599	8050.85
551.962	8013.33
552.326	8070.73
552.689	8095.82
553.053	8037.51
553.417	8023.73
553.78	8103.28
554.143	8119.09
554.507	8131.3
554.87	8086.55
555.234	8191.86
555.597	8174.23
555.96	8211.97
556.323	8256.04
556.686	8206.55
557.05	8215.14
557.413	8271.41
557.776	8267.11
558.139	8352.53
558.502	8294.68
558.865	8272.31
559.228	8358.41
559.59	8366.55
559.953	8418.07
560.316	8445.19
560.679	8447.22
561.041	8495.13
561.404	8495.81
561.767	8591.4
562.129	8482.02
562.492	8628.69
562.854	8621.45
563.217	8559.99
563.579	8644.96
563.941	8674.11
564.304	8721.79
564.666	8709.81
565.028	8726.76
565.39	8741.22
565.753	8837.49
566.115	8830.71
566.477	8839.53
566.839	8896.02
567.201	8934.67
567.563	8983.93
567.925	8980.99
568.287	9039.52
568.648	9056.47
569.01	9037.94
569.372	9110.93
569.734	9114.1
570.095	9116.36
570.457	9209.91
570.819	9209.24
571.18	9169.91
571.542	9301.21
571.903	9257.6
572.265	9292.62
572.626	9347.08
572.987	9338.5
573.349	9420.98
573.71	9460.08
574.071	9443.58
574.432	9498.49
574.794	9517.48
575.155	9588.66
575.516	9546.4
575.877	9523.13
576.238	9612.16
576.599	9721.31
576.96	9657.36
577.32	9744.59
577.681	9756.57
578.042	9826.17
578.403	9839.05
578.763	9805.38
579.124	9859.16
579.485	9832.72
579.845	9943
580.206	9933.74
580.566	10001.08
580.927	9980.06
581.287	10073.17
581.648	10019.84
582.008	10081.53
582.368	10162.43
582.728	10124.24
583.089	10144.58
583.449	10167.18
583.809	10173.28
584.169	10213.73
584.529	10235.87
584.889	10317.68
585.249	10300.51
585.609	10290.56
585.969	10388.87
586.329	10410.79
586.688	10400.39
587.048	10459.15
587.408	10398.13
587.768	10519.94
588.127	10498.01
588.487	10481.97
588.846	10590.22
589.206	10496.43
589.565	10510.44
589.925	10632.93
590.284	10586.37
590.643	10705.02
591.003	10660.95
591.362	10686.71
591.721	10719.25
592.08	10718.57
592.44	10724
592.799	10780.72
593.158	10701.4
593.517	10841.06
593.876	10845.35
594.235	10797.22
594.593	10865.46
594.952	10917.21
595.311	10916.99
595.67	10923.09
596.029	10966.25
596.387	10978.68
596.746	10995.4
597.104	10983.2
597.463	10979.36
597.822	11091.67
598.18	11014.61
598.538	11081.28
598.897	11128.05
599.255	11010.54
599.613	11182.97
599.972	11137.77
600.33	11116.53
600.688	11187.26
601.046	11190.43
601.404	11205.34
601.762	11254.61
602.12	11333.25
602.478	11272.23
602.836	11240.14
603.194	11259.12
603.552	11299.58
603.91	11243.53
604.268	11237.2
604.625	11237.88
604.983	11302.29
605.341	11278.79
605.698	11339.57
606.056	11309.52
606.413	11317.2
606.771	11368.73
607.128	11391.55
607.485	11387.94
607.843	11423.87
608.2	11440.14
608.557	11534.6
608.914	11443.75
609.272	11463.64
609.629	11559.23
609.986	11608.04
610.343	11528.5
610.7	11637.87
611.057	11580.02
611.414	11575.73
611.771	11606.46
612.127	11542.28
612.484	11609.62
612.841	11555.16
613.198	11562.39
613.554	11565.11
613.911	11683.97
614.267	11687.14
614.624	11633.13
614.98	11642.17
615.337	11691.88
615.693	11726.91
616.05	11685.55
616.406	11746.57
616.762	11697.98
617.118	11790.64
617.475	11778.66
617.831	11794.03
618.187	11741.6
618.543	11810.97
618.899	11891.88
619.255	11866.34
619.611	11824.76
619.967	11875.83
620.323	11883.29
620.678	11851.43
621.034	11784.53
621.39	11752.9
621.746	11850.3
622.101	11952.44
622.457	11856.4
622.812	11944.53
623.168	11944.98
623.523	11880.8
623.879	11941.14
624.234	11800.58
624.589	11873.35
624.945	11907.47
625.3	11844.42
625.655	11895.27
626.01	11872.22
626.365	11874.93
626.72	11863.18
627.075	11907.7
627.43	11854.14
627.785	11808.49
628.14	11923.74
628.495	11917.64
628.85	11841.71
629.205	11811.2
629.559	11841.03
629.914	11776.4
630.269	11813.69
630.623	11749.73
630.978	11780.47
631.332	11801.48
631.687	11748.38
632.041	11743.86
632.396	11777.3
632.75	11703.63
633.104	11756.29
633.459	11700.92
633.813	11682.62
634.167	11670.19
634.521	11688.94
634.875	11657.98
635.229	11649.17
635.583	11575.05
635.937	11628.15
636.291	11595.16
636.645	11567.59
636.999	11533.92
637.352	11585.22
637.706	11523.75
638.06	11516.52
638.413	11543.86
638.767	11470.64
639.121	11577.76
639.474	11494.15
639.828	11496.86
640.181	11467.25
640.534	11476.97
640.888	11451.89
641.241	11336.41
641.594	11397.65
641.947	11391.78
642.301	11389.52
642.654	11398.1
643.007	11403.53
643.36	11401.49
643.713	11382.96
644.066	11357.88
644.419	11356.07
644.771	11249.86
645.124	11183.65
645.477	11169.64
645.83	11097.1
646.182	11014.39
646.535	10986.82
646.888	11028.85
647.24	10961.28
647.593	10954.5
647.945	10986.82
648.298	10942.75
648.65	10993.14
649.002	10879.25
649.355	10980.49
649.707	11008.28
650.059	10984.1
650.411	11166.02
650.763	11135.29
651.115	11243.53
651.467	11254.38
651.819	11211.22
652.171	11234.04
652.523	11140.48
652.875	11182.06
653.227	11091.22
653.578	11212.57
653.93	11163.99
654.282	11136.42
654.633	11160.14
654.985	11173.48
655.337	11250.31
655.688	11170.99
656.039	11182.29
656.391	11089.41
656.742	11194.49
657.094	11276.07
657.445	11241.72
657.796	11211.22
658.147	11215.06
658.498	11192.69
658.849	11224.78
659.2	11184.78
659.551	11192.23
659.902	11253.25
660.253	11237.43
660.604	11290.08
660.955	11107.72
661.306	11215.96
661.656	11140.71
662.007	11149.75
662.358	11217.09
662.708	11210.76
663.059	11176.42
663.409	11185.91
663.76	11217.77
664.11	11255.51
664.461	11193.14
664.811	11135.51
665.161	11144.78
665.511	11199.47
665.862	11168.73
666.212	11183.42
666.562	11137.55
666.912	11163.76
667.262	11160.6
667.612	11189.97
667.962	11203.76
668.312	11171.67
668.662	11193.59
669.011	11164.89
669.361	11219.13
669.711	11139.35
670.06	11131.44
670.41	11145.68
670.76	11054.38
671.109	11177.77
671.459	11109.75
671.808	11103.2
672.157	11124.44
672.507	11080.15
672.856	11068.4
673.205	11098.23
673.554	11088.06
673.904	11071.79
674.253	11128.05
674.602	11112.69
674.951	10930.32
675.3	10847.84
675.649	11065.91
675.998	11071.79
676.346	11080.15
676.695	10987.04
677.044	10920.6
677.393	10980.71
677.741	10993.82
678.09	10968.29
678.438	10928.74
678.787	10886.03
679.135	10979.13
679.484	10892.13
679.832	10888.97
680.181	10818.23
680.529	10882.64
680.877	10860.94
681.225	10861.62
681.573	10827.27
681.922	10769.19
682.27	10711.12
682.618	10725.35
682.966	10612.36
683.314	10731.91
683.661	10704.11
684.009	10588.41
684.357	10665.47
684.705	10587.28
685.053	10620.95
685.4	10665.69
685.748	10575.98
686.095	10555.87
686.443	10487.39
686.79	10530.56
687.138	10548.18
687.485	10475.64
687.832	10478.13
688.18	10488.98
688.527	10388.64
688.874	10371.46
689.221	10349.09
689.568	10322.65
689.915	10301.41
690.262	10306.61
690.609	10194.29
690.956	10207.4
691.303	10185.71
691.65	10088.08
691.997	10149.55
692.344	10042.21
692.69	10083.11
693.037	10051.7
693.383	9968.31
693.73	9978.71
694.077	9872.72
694.423	9888.99
694.769	9904.13
695.116	9854.87
695.462	9777.13
695.808	9753.18
696.155	9747.53
696.501	9707.53
696.847	9656.68
697.193	9608.09
697.539	9528.55
697.885	9535.78
698.231	9529.9
698.577	9529.45
698.923	9488.1
699.269	9488.78
699.614	9404.71
699.96	9396.35
700.306	9353.19
700.651	9341.66
700.997	9376.46
701.342	9295.79
701.688	9288.1
702.033	9206.52
702.379	9205.85
702.724	9193.87
703.069	9155
703.415	9075.68
703.76	9076.81
704.105	9115.45
704.45	8995
704.795	8936.7
705.14	8965.4
705.485	8991.39
705.83	8969.47
706.175	8924.72
706.52	8875.23
706.865	8875.46
707.209	8781.45
707.554	8733.09
707.899	8849.24
708.243	8710.72
708.588	8652.64
708.932	8705.52
709.277	8649.25
709.621	8589.36
709.966	8620.55
710.31	8545.75
710.654	8562.25
710.998	8583.49
711.342	8561.34
711.687	8460.78
712.031	8503.72
712.375	8456.94
712.719	8383.27
713.063	8402.7
713.407	8470.27
713.75	8332.2
714.094	8385.98
714.438	8347.56
714.782	8426.66
715.125	8325.64
715.469	8360.67
715.812	8303.5
716.156	8225.08
716.499	8276.15
716.843	8259.43
717.186	8250.84
717.53	8228.24
717.873	8257.62
718.216	8192.99
718.559	8277.06
718.902	8122.26
719.246	8168.81
719.589	8118.64
719.932	8110.28
720.275	8143.5
720.617	8076.61
720.96	8105.99
721.303	8072.32
721.646	8118.87
721.989	8049.49
722.331	8083.16
722.674	8043.62
723.016	8015.82
723.359	7997.06
723.701	8003.84
724.044	7979.21
724.386	7957.74
724.729	7978.76
725.071	7955.71
725.413	8070.96
725.755	7956.16
726.097	7914.13
726.439	7963.17
726.782	7951.42
727.124	7930.62
727.465	7910.29
727.807	7942.6
728.149	7915.03
728.491	7942.83
728.833	7896.28
729.175	7889.95
729.516	7852.66
729.858	7918.65
730.199	7912.55
730.541	7860.12
730.882	7905.77
731.224	7915.48
731.565	7840.01
731.906	7883.39
732.248	7905.31
732.589	7869.38
732.93	7815.83
733.271	7814.24
733.612	7845.43
733.953	7839.33
734.294	7876.84
734.635	7847.46
734.976	7888.37
735.317	7822.15
735.658	7868.71
735.999	7749.61
736.339	7836.62
736.68	7822.15
737.021	7777.86
737.361	7826.22
737.702	7830.06
738.042	7923.85
738.383	7845.66
738.723	7896.28
739.063	7864.19
739.404	7908.93
739.744	7886.33
740.084	7884.75
740.424	7859.21
740.764	7908.48
741.104	7911.42
741.444	7937.63
741.784	7946.9
742.124	7909.38
742.464	7900.8
742.804	7915.48
743.143	7908.7
743.483	7950.74
743.823	7941.7
744.162	7994.58
744.502	8020.57
744.841	8016.27
745.181	8091.52
745.52	8069.6
745.86	8118.42
746.199	8163.39
746.538	8122.94
746.877	8226.89
747.216	8278.41
747.556	8241.58
747.895	8278.86
748.234	8315.02
748.573	8370.61
748.911	8415.58
749.25	8490.38
749.589	8498.29
749.928	8606.77
750.267	8662.36
750.605	8688.57
750.944	8732.41
751.283	8779.19
751.621	8896.25
751.96	8927.21
752.298	9107.32
752.636	9134.66
752.975	9151.84
753.313	9249.23
753.651	9402.45
753.989	9392.51
754.327	9467.08
754.666	9618.72
755.004	9786.4
755.342	9872.49
755.679	9935.77
756.017	10152.04
756.355	10273.61
756.693	10317.68
757.031	10495.53
757.368	10561.29
757.706	10753.6
758.044	10827.95
758.381	10984.78
758.719	11141.84
759.056	11255.74
759.394	11434.94
759.731	11584.09
760.068	11686.01
760.405	11787.02
760.743	12007.13
761.08	12135.71
761.417	12198.08
761.754	12453.67
762.091	12608.47
762.428	12719.2
762.765	12836.03
