Data from hue_28_FLMS001491_00010.txt Node
Date: Tue Feb 07 17:16:48 GMT 2017
User: dcchb
Spectrometer: FLMS00149
Trigger mode: 0
Integration Time (sec): 2.000000E-2
Scans to average: 10
Electric dark correction enabled: true
Nonlinearity correction enabled: false
Boxcar width: 0
XAxis mode: Wavelengths
Number of Pixels in Spectrum: 2048
>>>>>Begin Spectral Data<<<<<
341.393	-21.21
341.776	-21.21
342.16	-21.21
342.543	-59.86
342.927	-72.29
343.31	-56.69
343.693	-69.35
344.077	-72.74
344.46	-58.28
344.843	-60.99
345.226	-34.77
345.61	-22.8
345.993	-27.99
346.376	5.23
346.759	1.61
347.142	16.52
347.525	51.55
347.908	49.29
348.291	77.77
348.674	106.24
349.057	95.39
349.44	124.32
349.823	140.36
350.206	179.01
350.588	200.93
350.971	212.23
351.354	233.47
351.737	235.95
352.119	260.36
352.502	244.54
352.884	274.15
353.267	280.02
353.65	276.18
354.032	327.03
354.414	315.95
354.797	317.99
355.179	324.09
355.562	297.2
355.944	316.63
356.326	312.11
356.709	328.38
357.091	346.69
357.473	339.45
357.855	350.75
358.238	341.94
358.62	370.64
359.002	346.01
359.384	323.18
359.766	323.41
360.148	341.49
360.53	340.58
360.912	337.87
361.294	317.99
361.676	344.65
362.057	304.2
362.439	340.36
362.821	308.04
363.203	327.93
363.584	325.22
363.966	323.86
364.348	319.57
364.729	312.11
365.111	306.91
365.493	330.64
365.874	313.01
366.256	303.52
366.637	324.31
367.019	325.44
367.4	307.59
367.781	317.08
368.163	346.46
368.544	301.04
368.925	318.44
369.306	322.73
369.688	323.18
370.069	316.86
370.45	327.93
370.831	314.82
371.212	317.31
371.593	331.09
371.974	341.94
372.355	316.4
372.736	322.96
373.117	316.86
373.498	309.4
373.879	315.73
374.26	326.35
374.641	317.53
375.021	338.55
375.402	332
375.783	324.54
376.163	328.16
376.544	319.79
376.925	327.03
377.305	313.24
377.686	322.96
378.066	312.34
378.447	327.48
378.827	320.7
379.208	327.93
379.588	334.03
379.968	324.99
380.349	340.36
380.729	327.7
381.109	351.21
381.489	360.92
381.87	350.53
382.25	339.45
382.63	355.27
383.01	340.36
383.39	375.39
383.77	339.68
384.15	354.6
384.53	356.18
384.91	340.36
385.29	376.29
385.67	361.15
386.049	362.96
386.429	357.31
386.809	332
387.189	355.73
387.568	355.05
387.948	380.36
388.328	371.32
388.707	375.84
389.087	381.04
389.466	366.57
389.846	360.47
390.225	364.09
390.605	364.31
390.984	383.52
391.363	379.91
391.743	386.68
392.122	382.17
392.501	382.17
392.881	383.52
393.26	376.29
393.639	379.23
394.018	384.2
394.397	377.87
394.776	392.79
395.155	364.99
395.534	388.27
395.913	414.93
396.292	409.96
396.671	406.12
397.05	384.2
397.429	388.49
397.808	391.66
398.186	405.44
398.565	399.34
398.944	410.86
399.323	423.52
399.701	395.95
400.08	387.14
400.458	391.88
400.837	430.75
401.215	422.62
401.594	421.26
401.972	420.13
402.351	405.67
402.729	408.83
403.107	420.81
403.486	424.2
403.864	428.04
404.242	425.33
404.62	423.75
404.999	430.07
405.377	422.62
405.755	455.38
406.133	447.93
406.511	440.24
406.889	460.13
407.267	446.8
407.645	453.35
408.023	452.67
408.401	429.17
408.779	435.72
409.156	454.25
409.534	459.45
409.912	450.64
410.29	476.63
410.667	472.11
411.045	471.2
411.422	480.24
411.8	494.48
412.178	487.93
412.555	507.13
412.933	483.63
413.31	487.47
413.687	497.64
414.065	481.82
414.442	496.06
414.819	494.48
415.197	505.1
415.574	533.57
415.951	537.42
416.328	535.83
416.705	528.83
417.082	522.95
417.46	534.03
417.837	553.69
418.214	553.69
418.591	534.03
418.967	570.86
419.344	526.34
419.721	544.65
420.098	554.36
420.475	530.64
420.852	550.75
421.228	563.18
421.605	564.08
421.982	569.05
422.358	578.54
422.735	564.53
423.111	584.87
423.488	589.17
423.864	585.78
424.241	605.21
424.617	574.93
424.994	581.93
425.37	599.79
425.746	579.9
426.123	609.73
426.499	626
426.875	602.5
427.251	641.82
427.627	637.53
428.003	641.14
428.379	639.33
428.756	633.91
429.132	660.12
429.507	671.42
429.883	669.84
430.259	671.87
430.635	685.21
431.011	682.95
431.387	692.44
431.763	698.09
432.138	697.41
432.514	704.64
432.89	720.24
433.265	710.29
433.641	740.35
434.016	728.14
434.392	746.9
434.767	754.36
435.143	765.21
435.518	736.73
435.894	752.78
436.269	745.55
436.644	764.53
437.02	773.79
437.395	776.51
437.77	800.01
438.145	803.4
438.52	825.32
438.895	830.06
439.271	818.54
439.646	838.2
440.021	827.8
440.395	827.13
440.77	842.49
441.145	826.67
441.52	858.99
441.895	854.24
442.27	865.32
442.645	872.77
443.019	880.01
443.394	888.59
443.769	879.33
444.143	887.46
444.518	885.2
444.892	870.29
445.267	897.86
445.641	893.79
446.016	886.11
446.39	922.26
446.764	934.24
447.139	908.7
447.513	925.43
447.887	922.26
448.262	935.14
448.636	944.64
449.01	924.52
449.384	951.19
449.758	954.81
450.132	954.13
450.506	961.58
450.88	1005.43
451.254	978.53
451.628	987.35
452.002	1015.82
452.376	1000
452.75	1046.55
453.123	1036.84
453.497	1034.58
453.871	1030.06
454.244	1058.53
454.618	1053.11
454.992	1055.59
455.365	1082.03
455.739	1088.36
456.112	1104.86
456.486	1113.45
456.859	1105.31
457.232	1133.56
457.606	1116.16
457.979	1135.59
458.352	1169.49
458.725	1179.66
459.099	1205.87
459.472	1220.34
459.845	1204.52
460.218	1237.06
460.591	1240
460.964	1232.54
461.337	1274.35
461.71	1305.53
462.083	1322.71
462.456	1309.37
462.829	1322.03
463.201	1327.68
463.574	1359.54
463.947	1351.86
464.32	1387.11
464.692	1387.79
465.065	1389.14
465.438	1399.99
465.81	1483.38
466.183	1464.4
466.555	1517.5
466.928	1514.34
467.3	1521.57
467.672	1537.39
468.045	1581.46
468.417	1568.8
468.789	1558.63
469.161	1614.45
469.534	1633.66
469.906	1681.79
470.278	1668.91
470.65	1672.53
471.022	1742.13
471.394	1759.53
471.766	1774.44
472.138	1802.92
472.51	1868.68
472.882	1851.5
473.253	1864.61
473.625	1940.99
473.997	1938.73
474.369	1978.96
474.74	1999.07
475.112	2037.26
475.484	2121.78
475.855	2098.5
476.227	2119.07
476.598	2181.89
476.97	2200.2
477.341	2262.57
477.713	2316.13
478.084	2357.25
478.455	2362.68
478.827	2428.44
479.198	2465.73
479.569	2504.6
479.94	2584.59
480.311	2594.54
480.682	2668.66
481.053	2736.45
481.424	2756.79
481.795	2810.8
482.166	2837.02
482.537	2897.58
482.908	2980.97
483.279	3019.61
483.65	3046.73
484.021	3152.49
484.391	3188.19
484.762	3227.51
485.133	3279.94
485.503	3337.57
485.874	3400.62
486.244	3466.83
486.615	3528.3
486.985	3558.13
487.356	3651.01
487.726	3661.4
488.097	3761.96
488.467	3780.72
488.837	3873.82
489.207	3941.17
489.578	3973.26
489.948	4058.9
490.318	4096.87
490.688	4151.56
491.058	4235.17
491.428	4298.67
491.798	4343.87
492.168	4435.39
492.538	4424.32
492.908	4544.54
493.278	4585.67
493.648	4595.39
494.017	4682.39
494.387	4689.4
494.757	4798.09
495.126	4840.8
495.496	4869.28
495.866	4907.7
496.235	5036.73
496.605	5060.69
496.974	5070.18
497.344	5119.22
497.713	5150.63
498.082	5224.07
498.452	5290.51
498.821	5328.02
499.19	5309.27
499.559	5350.17
499.928	5403.5
500.298	5478.3
500.667	5504.52
501.036	5510.39
501.405	5577.06
501.774	5621.8
502.143	5619.77
502.512	5648.47
502.88	5709.03
503.249	5742.48
503.618	5825.86
503.987	5892.08
504.356	5888.46
504.724	5925.97
505.093	5899.76
505.462	5948.57
505.83	6003.94
506.199	6032.64
506.567	6193.76
506.936	6129.36
507.304	6194.89
507.672	6145.4
508.041	6273.31
508.409	6301.78
508.777	6310.14
509.145	6349.92
509.514	6380.2
509.882	6428.56
510.25	6411.61
510.618	6432.4
510.986	6503.81
511.354	6551.49
511.722	6652.28
512.09	6640.31
512.458	6674.2
512.826	6684.37
513.193	6744.71
513.561	6682.34
513.929	6817.25
514.297	6842.79
514.664	6909
515.032	6891.82
515.4	6966.17
515.767	6971.6
516.135	7053.18
516.502	6977.25
516.869	7068.09
517.237	7090.24
517.604	7069.9
517.972	7174.98
518.339	7220.86
518.706	7228.54
519.073	7246.62
519.44	7255.2
519.808	7353.73
520.175	7312.38
520.542	7392.6
520.909	7410
521.276	7445.26
521.643	7593.05
522.009	7552.37
522.376	7607.51
522.743	7701.75
523.11	7708.75
523.477	7742.2
523.843	7820.16
524.21	7817.22
524.577	7990.1
524.943	7892.02
525.31	8028.29
525.676	8035.98
526.043	8141.96
526.409	8156.65
526.776	8164.79
527.142	8221.51
527.508	8261.96
527.874	8311.22
528.241	8297.89
528.607	8373.14
528.973	8461.5
529.339	8450.43
529.705	8523.42
530.071	8589.63
530.437	8652.46
530.803	8670.76
531.169	8703.08
531.535	8684.09
531.901	8765
532.267	8820.14
532.632	8864.65
532.998	8918.21
533.364	8916.4
533.73	8918.89
534.095	9029.85
534.461	8964.76
534.826	9058.77
535.192	9147.36
535.557	9232.78
535.923	9202.95
536.288	9254.02
536.653	9310.52
537.019	9305.32
537.384	9378.99
537.749	9368.14
538.114	9373.12
538.479	9411.31
538.845	9522.04
539.21	9479.1
539.575	9530.63
539.94	9528.59
540.305	9659.89
540.67	9600.91
541.034	9704.63
541.399	9704.63
541.764	9775.59
542.129	9856.04
542.494	9837.51
542.858	9855.36
543.223	9882.71
543.587	9957.28
543.952	9974.91
544.316	9997.51
544.681	10015.13
545.045	10078.18
545.41	10235.92
545.774	10175.35
546.138	10210.38
546.503	10212.87
546.867	10276.14
547.231	10384.16
547.595	10326.08
547.959	10383.71
548.324	10468
548.688	10406.76
549.052	10514.33
549.416	10548.9
549.779	10516.59
550.143	10578.28
550.507	10633.42
550.871	10716.36
551.235	10681.33
551.599	10728.79
551.962	10797.26
552.326	10915.9
552.689	10954.32
553.053	10859.63
553.417	10832.51
553.78	11032.28
554.143	10976.24
554.507	11027.53
554.87	11007.65
555.234	11149.79
555.597	11077.03
555.96	11183.46
556.323	11205.38
556.686	11195.44
557.05	11318.6
557.413	11312.27
557.776	11358.37
558.139	11429.56
558.502	11415.32
558.865	11469.56
559.228	11532.38
559.59	11591.14
559.953	11621.87
560.316	11661.19
560.679	11719.95
561.041	11715.43
561.404	11725.14
561.767	11837.23
562.129	11767.85
562.492	11966.04
562.854	12030.22
563.217	11992.48
563.579	11964.23
563.941	11989.77
564.304	12086.04
564.666	12235.64
565.028	12207.62
565.39	12264.79
565.753	12310.89
566.115	12357.44
566.477	12358.57
566.839	12401.06
567.201	12565.8
567.563	12561.51
567.925	12578.23
568.287	12640.15
568.648	12655.51
569.01	12794.72
569.372	12832.01
569.734	12722.63
570.095	12750.88
570.457	12905.45
570.819	12938.45
571.18	12978.67
571.542	13072.23
571.903	13043.98
572.265	13130.98
572.626	13189.51
572.987	13253.01
573.349	13302.96
573.71	13442.16
574.071	13481.93
574.432	13488.71
574.794	13733.23
575.155	13709.05
575.516	13750.18
575.877	13860.91
576.238	13897.74
576.599	14008.25
576.96	14056.16
577.32	14152.65
577.681	14238.07
578.042	14373.89
578.403	14379.54
578.763	14432.87
579.124	14688
579.485	14765.29
579.845	14937.71
580.206	15030.14
580.566	15218.39
580.927	15295.22
581.287	15451.15
581.648	15505.61
582.008	15738.6
582.368	15876.67
582.728	16038.02
583.089	16167.96
583.449	16389.43
583.809	16563.89
584.169	16779.47
584.529	16963.65
584.889	17322.96
585.249	17277.77
585.609	17494.03
585.969	17818.32
586.329	18029.38
586.688	18220.57
587.048	18348.92
587.408	18552.08
587.768	18850.61
588.127	19090.6
588.487	19234.55
588.846	19689
589.206	19761.99
589.565	20099.16
589.925	20434.29
590.284	20580.96
590.643	20932.36
591.003	21160.6
591.362	21725.33
591.721	21816.63
592.08	22016.62
592.44	22351.76
592.799	22620.68
593.158	22782.03
593.517	23131.4
593.876	23518.05
594.235	23777.93
594.593	24040.75
594.952	24452.72
595.311	24628.76
595.67	24994.63
596.029	25297.89
596.387	25647.72
596.746	26062.17
597.104	26122.05
597.463	26506
597.822	26862.15
598.18	27065.53
598.538	27312.98
598.897	27719.98
599.255	27873.65
599.613	28562.67
599.972	28477.02
600.33	28915.43
600.688	29135.53
601.046	29407.84
601.404	29819.36
601.762	29998.56
602.12	30504.31
602.478	30716.96
602.836	30956.5
603.194	31065.2
603.552	31306.1
603.91	31664.73
604.268	32126.87
604.625	32100.88
604.983	32629.9
605.341	32703.8
605.698	33036
606.056	33318.7
606.413	33564.57
606.771	33846.37
607.128	34099.92
607.485	34077.32
607.843	34346.7
608.2	34724.99
608.557	35094.92
608.914	35074.59
609.272	35625.76
609.629	35858.75
609.986	36082.24
610.343	36153.2
610.7	36490.59
611.057	36637.71
611.414	36867.99
611.771	37083.8
612.127	37351.81
612.484	37515.2
612.841	37764.68
613.198	37839.71
613.554	38074.51
613.911	38330.77
614.267	38434.95
614.624	38543.2
614.98	38865.22
615.337	39108.83
615.693	39214.82
616.05	39473.79
616.406	39648.93
616.762	39749.27
617.118	39930.73
617.475	40049.14
617.831	40155.58
618.187	40229.93
618.543	40350.61
618.899	40796.7
619.255	40766.64
619.611	40691.61
619.967	41032.62
620.323	41243.69
620.678	41175.22
621.034	41151.71
621.39	41265.16
621.746	41382.67
622.101	41790.12
622.457	41714.64
622.812	41936.78
623.168	42067.62
623.523	42247.96
623.879	42241.86
624.234	42177
624.589	42334.96
624.945	42453.6
625.3	42625.57
625.655	42700.37
626.01	42849.98
626.365	42826.47
626.72	42754.38
627.075	42846.13
627.43	42862.86
627.785	42762.29
628.14	42965
628.495	42956.19
628.85	42936.53
629.205	42949.63
629.559	43205.67
629.914	43215.84
630.269	43186.46
630.623	43148.27
630.978	43235.5
631.332	43337.65
631.687	43599.33
632.041	43299.23
632.396	43561.14
632.75	43411.09
633.104	43554.82
633.459	43418.32
633.813	43371.54
634.167	43424.2
634.521	43456.74
634.875	43571.99
635.229	43507.81
635.583	43313.47
635.937	43422.62
636.291	43334.26
636.645	43463.52
636.999	43374.71
637.352	43569.5
637.706	43339.45
638.06	43559.56
638.413	43512.1
638.767	43483.4
639.121	43493.35
639.474	43282.51
639.828	43307.82
640.181	43258.78
640.534	43435.5
640.888	43185.56
641.241	43148.27
641.594	43281.83
641.947	43455.61
642.301	43387.81
642.654	43360.47
643.007	43117.54
643.36	43263.07
643.713	43104.21
644.066	43353.01
644.419	43117.54
644.771	43010.87
645.124	42625.12
645.477	42557.33
645.83	42212.25
646.182	42282.31
646.535	42042.99
646.888	42043.44
647.24	41984.01
647.593	42208.41
647.945	42048.19
648.298	42009.09
648.65	41943.11
649.002	41928.64
649.355	42055.87
649.707	41913.28
650.059	42184.23
650.411	42405.24
650.763	42625.35
651.115	43153.24
651.467	43015.39
651.819	42876.19
652.171	42719.81
652.523	42820.82
652.875	42607.95
653.227	42664.44
653.578	42969.29
653.93	42774.72
654.282	42737.89
654.633	42484.11
654.985	42530.44
655.337	42666.93
655.688	42694.72
656.039	42700.6
656.391	42469.42
656.742	42488.18
657.094	42620.6
657.445	42724.78
657.796	42598.91
658.147	42571.11
658.498	42548.74
658.849	42520.04
659.2	42563.43
659.551	42456.77
659.902	42566.59
660.253	42474.17
660.604	42545.12
660.955	42323.21
661.306	42604.33
661.656	42378.12
662.007	42389.2
662.358	42420.38
662.708	42418.12
663.059	42487.95
663.409	42189.65
663.76	42493.6
664.11	42587.38
664.461	42525.92
664.811	42559.36
665.161	42545.8
665.511	42320.27
665.862	42508.97
666.212	42518.01
666.562	42569.08
666.912	42412.92
667.262	42393.72
667.612	42286.37
667.962	42375.19
668.312	42311.91
668.662	42682.52
669.011	42422.42
669.361	42276.2
669.711	42509.19
670.06	42390.78
670.41	42254.96
670.76	42184.46
671.109	42297
671.459	42287.73
671.808	42070.33
672.157	42228.52
672.507	42004.57
672.856	41945.59
673.205	42116.89
673.554	42238.69
673.904	42103.1
674.253	42244.12
674.602	42109.88
674.951	41515.32
675.3	41346.06
675.649	42001.86
675.998	41938.36
676.346	41908.3
676.695	42083.22
677.044	41868.31
677.393	41858.59
677.741	41988.08
678.09	41918.47
678.438	41845.48
678.787	41907.85
679.135	41901.53
679.484	41549.44
679.832	41741.08
680.181	41591.48
680.529	41769.78
680.877	41542.89
681.225	41436.23
681.573	41889.32
681.922	41510.58
682.27	41433.06
682.618	41443.23
682.966	41178.61
683.314	41360.3
683.661	41235.55
684.009	41138.38
684.357	40848.22
684.705	40878.5
685.053	40929.57
685.4	40998.5
685.748	40630.37
686.095	40778.62
686.443	40581.79
686.79	40662.69
687.138	40631.73
687.485	40590.6
687.832	40509.7
688.18	40459.76
688.527	40408.68
688.874	40274.45
689.221	40191.29
689.568	40081.01
689.915	40019.77
690.262	40029.26
690.609	39883.95
690.956	39698.87
691.303	39775.03
691.65	39546.11
691.997	39570.97
692.344	39437.18
692.69	39317.86
693.037	39388.6
693.383	39026.8
693.73	39210.3
694.077	38935.5
694.423	39094.37
694.769	38770.99
695.116	38823.19
695.462	38731.89
695.808	38542.52
696.155	38596.3
696.501	38231.11
696.847	38351.56
697.193	37980.95
697.539	38209.87
697.885	38058.46
698.231	37897.79
698.577	37956.54
698.923	37842.42
699.269	37759.26
699.614	37533.96
699.96	37411.7
700.306	37433.62
700.651	37183.46
700.997	37199.95
701.342	37066.17
701.688	37223.23
702.033	37030.69
702.379	36919.74
702.724	36822.79
703.069	36920.64
703.415	36411.95
703.76	36464.15
704.105	36565.39
704.45	36384.83
704.795	36251.05
705.14	36098.06
705.485	36099.64
705.83	35971.51
706.175	36068.91
706.52	35894.68
706.865	35831.63
707.209	35744.63
707.554	35600
707.899	35749.37
708.243	35532.43
708.588	35490.85
708.932	35324.75
709.277	35220.35
709.621	35293.79
709.966	34921.14
710.31	35056.73
710.654	34806.57
710.998	34820.13
711.342	34779
711.687	34695.61
712.031	34653.13
712.375	34470.31
712.719	34501.72
713.063	34481.83
713.407	34484.77
713.75	34443.19
714.094	34355.06
714.438	34125.46
714.782	34272.35
715.125	34098.11
715.469	34059.25
715.812	33873.71
716.156	33809.53
716.499	33850.21
716.843	33895.86
717.186	33544.91
717.53	33680.95
717.873	33704.9
718.216	33680.05
718.559	33532.93
718.902	33304.69
719.246	33320.96
719.589	33193.96
719.932	33140.4
720.275	33129.1
720.617	33073.51
720.96	33013.4
721.303	32962.55
721.646	32972.04
721.989	32859.28
722.331	32881.88
722.674	32766.4
723.016	32905.15
723.359	32703.8
723.701	32754.2
724.044	32584.71
724.386	32450.25
724.729	32557.14
725.071	32502.45
725.413	32424.71
725.755	32516.69
726.097	32266.98
726.439	32145.4
726.782	32120.99
727.124	32312.4
727.465	32069.47
727.807	32012.52
728.149	32022.46
728.491	31888
728.833	31929.81
729.175	31914.9
729.516	31914.22
729.858	31725.07
730.199	31846.87
730.541	31705.18
730.882	31572.98
731.224	31634
731.565	31466.32
731.906	31606.43
732.248	31458.64
732.589	31330.28
732.93	31287.57
733.271	31291.63
733.612	31379.99
733.953	31284.18
734.294	31174.58
734.635	31072.43
734.976	31138.64
735.317	31041.92
735.658	31038.99
735.999	31062.49
736.339	30886
736.68	31025.65
737.021	30788.82
737.361	30811.42
737.702	30855.94
738.042	30835.15
738.383	30724.42
738.723	30854.36
739.063	30641.71
739.404	30615.27
739.744	30640.58
740.084	30488.27
740.424	30528.72
740.764	30453.69
741.104	30647.81
741.444	30472.67
741.784	30213.02
742.124	30332.56
742.464	30360.36
742.804	30223.19
743.143	30149.74
743.483	30200.59
743.823	30059.35
744.162	29874.27
744.502	29991.78
744.841	29778.68
745.181	29894.16
745.52	29829.07
745.86	29795.18
746.199	29793.37
746.538	29659.81
746.877	29876.98
747.216	29761.96
747.556	29590.89
747.895	29678.57
748.234	29636.54
748.573	29533.26
748.911	29523.32
749.25	29486.94
749.589	29425.92
749.928	29337.79
750.267	29303.44
750.605	29347.73
750.944	29238.81
751.283	29072.94
751.621	29215.31
751.96	29105.25
752.298	29015.76
752.636	29024.8
752.975	28858.48
753.313	28839.27
753.651	29032.03
753.989	28836.11
754.327	28728.31
754.666	28592.5
755.004	28547.3
755.342	28670.91
755.679	28512.05
756.017	28372.84
756.355	28568.99
756.693	28323.35
757.031	28555.89
757.368	28300.53
757.706	28198.16
758.044	28160.19
758.381	28138.5
758.719	28068.89
759.056	28053.98
759.394	27900.09
