Data from hue_20_FLMS001491_36.txt Node
Date: Mon Feb 06 15:33:59 GMT 2017
User: dcchb
Spectrometer: FLMS00149
Trigger mode: 0
Integration Time (sec): 2.000000E-2
Scans to average: 10
Electric dark correction enabled: true
Nonlinearity correction enabled: false
Boxcar width: 0
XAxis mode: Wavelengths
Number of Pixels in Spectrum: 2048
>>>>>Begin Spectral Data<<<<<
341.393	-12.36
341.776	-12.36
342.16	-12.36
342.543	-47.39
342.927	-83.09
343.31	-67.05
343.693	-73.37
344.077	-50.32
344.46	-66.59
344.843	-41.96
345.226	-36.31
345.61	-36.09
345.993	-22.53
346.376	-2.87
346.759	17.47
347.142	12.5
347.525	30.13
347.908	57.47
348.291	69.45
348.674	102.44
349.057	107.64
349.44	113.74
349.823	139.73
350.206	154.87
350.588	207.07
350.971	206.62
351.354	221.76
351.737	262.44
352.119	230.12
352.502	259.05
352.884	263.79
353.267	279.84
353.65	292.72
354.032	307.41
354.414	330.23
354.797	301.76
355.179	321.87
355.562	327.75
355.944	304.47
356.326	322.77
356.709	337.91
357.091	347.86
357.473	350.12
357.855	339.72
358.238	338.59
358.62	341.76
359.002	361.19
359.384	340.17
359.766	332.94
360.148	342.66
360.53	342.43
360.912	354.86
361.294	333.4
361.676	335.2
362.057	328.65
362.439	309.22
362.821	329.55
363.203	302.66
363.584	316.67
363.966	338.59
364.348	303.11
364.729	325.26
365.111	330.91
365.493	316.22
365.874	313.73
366.256	311.25
366.637	299.72
367.019	334.98
367.4	327.75
367.781	318.71
368.163	323.23
368.544	330.23
368.925	323
369.306	335.43
369.688	323.23
370.069	313.96
370.45	299.5
370.831	309.67
371.212	307.86
371.593	306.05
371.974	305.6
372.355	309.44
372.736	321.64
373.117	311.25
373.498	326.16
373.879	308.99
374.26	321.42
374.641	315.99
375.021	302.44
375.402	304.92
375.783	325.94
376.163	332.04
376.544	324.36
376.925	297.46
377.305	339.04
377.686	329.78
378.066	327.75
378.447	325.71
378.827	342.66
379.208	331.14
379.588	332.27
379.968	331.81
380.349	323.45
380.729	327.75
381.109	331.81
381.489	332.72
381.87	332.49
382.25	315.32
382.63	335.43
383.01	360.74
383.39	338.14
383.77	361.19
384.15	334.75
384.53	353.51
384.91	321.64
385.29	332.94
385.67	330.46
386.049	357.35
386.429	345.15
386.809	348.08
387.189	353.96
387.568	347.18
387.948	349.44
388.328	335.66
388.707	346.5
389.087	329.78
389.466	358.25
389.846	361.64
390.225	353.96
390.605	351.7
390.984	374.98
391.363	351.25
391.743	367.52
392.122	349.67
392.501	364.35
392.881	360.97
393.26	358.93
393.639	370.46
394.018	354.19
394.397	365.94
394.776	373.62
395.155	374.07
395.534	386.5
395.913	364.81
396.292	362.32
396.671	356.22
397.05	381.08
397.429	363
397.808	361.87
398.186	387.41
398.565	371.59
398.944	389.66
399.323	367.52
399.701	398.48
400.08	394.41
400.458	375.88
400.837	383.11
401.215	381.98
401.594	385.15
401.972	362.55
402.351	391.7
402.729	374.3
403.107	394.86
403.486	394.86
403.864	405.48
404.242	387.86
404.62	403
404.999	396.67
405.377	390.79
405.755	395.09
406.133	402.77
406.511	412.49
406.889	431.02
407.267	395.99
407.645	411.59
408.023	419.04
408.401	420.85
408.779	432.15
409.156	424.69
409.534	427.18
409.912	442.09
410.29	426.73
410.667	440.29
411.045	412.94
411.422	413.62
411.8	439.16
412.178	447.29
412.555	455.2
412.933	455.88
413.31	447.52
413.687	466.5
414.065	442.54
414.442	435.31
414.819	450
415.197	452.04
415.574	452.71
415.951	467.18
416.328	462.43
416.705	454.97
417.082	464.69
417.46	495.42
417.837	472.15
418.214	438.7
418.591	464.24
418.967	484.35
419.344	469.21
419.721	476.67
420.098	462.43
420.475	491.13
420.852	472.6
421.228	480.28
421.605	476.89
421.982	482.54
422.358	483.22
422.735	494.29
423.111	501.3
423.488	518.7
423.864	515.76
424.241	503.33
424.617	516.89
424.994	501.53
425.37	502.66
425.746	506.95
426.123	520.51
426.499	527.51
426.875	556.21
427.251	532.71
427.627	512.15
428.003	540.17
428.379	557.34
428.756	542.88
429.132	537.68
429.507	545.14
429.883	557.8
430.259	571.58
430.635	571.81
431.011	570
431.387	591.69
431.763	587.63
432.138	577.23
432.514	593.05
432.89	599.6
433.265	579.94
433.641	590.79
434.016	590.11
434.392	620.85
434.767	610
435.143	627.17
435.518	612.71
435.894	629.88
436.269	637.34
436.644	618.81
437.02	620.85
437.395	635.08
437.77	630.79
438.145	634.86
438.52	637.57
438.895	638.02
439.271	621.75
439.646	664.46
440.021	647.96
440.395	654.29
440.77	647.06
441.145	663.1
441.52	675.99
441.895	684.57
442.27	696.78
442.645	684.8
443.019	680.28
443.394	680.05
443.769	686.83
444.143	695.42
444.518	714.18
444.892	707.4
445.267	715.76
445.641	704.91
446.016	698.36
446.39	732.03
446.764	725.93
447.139	724.35
447.513	724.35
447.887	722.76
448.262	742.88
448.636	740.16
449.01	752.59
449.384	747.62
449.758	747.85
450.132	774.97
450.506	781.52
450.88	752.14
451.254	746.72
451.628	766.83
452.002	762.99
452.376	796.89
452.75	783.33
453.123	786.04
453.497	805.7
453.871	780.16
454.244	805.7
454.618	842.31
454.992	833.04
455.365	841.18
455.739	806.6
456.112	833.72
456.486	850.44
456.859	861.74
457.232	873.49
457.606	862.87
457.979	859.94
458.352	896.32
458.725	920.05
459.099	885.02
459.472	909.43
459.845	907.62
460.218	937.22
460.591	941.74
460.964	920.72
461.337	943.55
461.71	954.17
462.083	993.72
462.456	963.66
462.829	966.6
463.201	1003.21
463.574	1012.02
463.947	1013.15
464.32	994.39
464.692	1034.17
465.065	1039.82
465.438	1057.9
465.81	1059.48
466.183	1099.02
466.555	1100.15
466.928	1107.39
467.3	1072.13
467.672	1113.04
468.045	1116.88
468.417	1153.03
468.789	1148.97
469.161	1164.11
469.534	1186.25
469.906	1195.97
470.278	1205.01
470.65	1222.19
471.022	1219.93
471.394	1257.21
471.766	1268.06
472.138	1280.26
472.51	1336.08
472.882	1332.69
473.253	1329.53
473.625	1369.98
473.997	1377.89
474.369	1403.2
474.74	1445
475.112	1428.96
475.484	1482.07
475.855	1472.57
476.227	1494.49
476.598	1547.83
476.97	1556.64
477.341	1578.33
477.713	1643.42
478.084	1637.77
478.455	1666.92
478.827	1692.23
479.198	1742.17
479.569	1777.65
479.94	1790.76
480.311	1801.61
480.682	1875.73
481.053	1896.74
481.424	1897.2
481.795	1950.08
482.166	2008.83
482.537	2001.15
482.908	2056.29
483.279	2099.68
483.65	2138.77
484.021	2185.55
484.391	2207.24
484.762	2226.9
485.133	2273.23
485.503	2279.33
485.874	2353.46
486.244	2363.4
486.615	2397.97
486.985	2458.54
487.356	2451.31
487.726	2489.27
488.097	2558.87
488.467	2575.82
488.837	2628.93
489.207	2652.66
489.578	2677.06
489.948	2753.9
490.318	2768.59
490.688	2774.46
491.058	2830.05
491.428	2887.45
491.798	2895.36
492.168	3000.44
492.538	3023.95
492.908	3045.19
493.278	3050.16
493.648	3094.68
494.017	3098.52
494.387	3134.9
494.757	3189.59
495.126	3225.3
495.496	3261
495.866	3273.88
496.235	3311.85
496.605	3330.15
496.974	3350.27
497.344	3378.96
497.713	3442.01
498.082	3480.66
498.452	3485.18
498.821	3480.66
499.19	3515.91
499.559	3567.21
499.928	3549.36
500.298	3581.22
500.667	3606.08
501.036	3639.3
501.405	3671.61
501.774	3667.32
502.143	3723.14
502.512	3736.47
502.88	3706.87
503.249	3757.26
503.618	3772.4
503.987	3803.36
504.356	3814.66
504.724	3868.67
505.093	3866.86
505.462	3858.5
505.83	3928.55
506.199	3925.84
506.567	3983.92
506.936	3966.07
507.304	4003.81
507.672	4024.82
508.041	4045.84
508.409	4039.74
508.777	4078.38
509.145	4089.23
509.514	4138.04
509.882	4125.16
510.25	4152.28
510.618	4145.95
510.986	4187.08
511.354	4173.07
511.722	4271.6
512.09	4254.42
512.458	4259.17
512.826	4300.75
513.193	4331.71
513.561	4310.24
513.929	4350.24
514.297	4334.42
514.664	4394.98
515.032	4415.1
515.4	4397.7
515.767	4446.06
516.135	4430.24
516.502	4387.3
516.869	4520.18
517.237	4539.39
517.604	4553.62
517.972	4573.51
518.339	4531.02
518.706	4541.42
519.073	4578.71
519.44	4609.44
519.808	4629.33
520.175	4629.78
520.542	4666.61
520.909	4670.68
521.276	4642.43
521.643	4706.16
522.009	4732.6
522.376	4766.72
522.743	4790
523.11	4819.83
523.477	4855.31
523.843	4822.32
524.21	4892.15
524.577	4942.99
524.943	4952.48
525.31	4976.21
525.676	5022.99
526.043	5038.36
526.409	5062.54
526.776	5070.9
527.142	5102.76
527.508	5185.47
527.874	5123.1
528.241	5199.71
528.607	5229.31
528.973	5243.77
529.339	5251.23
529.705	5277.22
530.071	5319.03
530.437	5345.69
530.803	5394.28
531.169	5455.97
531.535	5330.78
531.901	5371.23
532.267	5417.1
532.632	5470.44
532.998	5475.86
533.364	5542.75
533.73	5500.72
534.095	5597.89
534.461	5605.57
534.826	5606.02
535.192	5639.24
535.557	5676.98
535.923	5649.19
536.288	5666.81
536.653	5686.02
537.019	5753.82
537.384	5773.25
537.749	5793.59
538.114	5793.36
538.479	5809.41
538.845	5841.5
539.21	5842.85
539.575	5815.74
539.94	5858.22
540.305	5915.62
540.67	5934.6
541.034	5969.18
541.399	6005.11
541.764	6001.95
542.129	6028.16
542.494	6037.2
542.858	6038.56
543.223	6105.67
543.587	6147.03
543.952	6134.6
544.316	6187.7
544.681	6161.94
545.045	6244.43
545.41	6248.95
545.774	6251.43
546.138	6277.87
546.503	6331.43
546.867	6260.47
547.231	6371.88
547.595	6424.08
547.959	6434.48
548.324	6381.15
548.688	6397.87
549.052	6479
549.416	6510.41
549.779	6500.46
550.143	6478.09
550.507	6537.07
550.871	6570.52
551.235	6664.3
551.599	6577.75
551.962	6675.6
552.326	6648.48
552.689	6693.45
553.053	6686.67
553.417	6728.48
553.78	6775.71
554.143	6768.93
554.507	6792.66
554.87	6766.22
555.234	6837.63
555.597	6813.68
555.96	6861.59
556.323	6929.61
556.686	6915.82
557.05	6954.46
557.413	7028.81
557.776	6965.99
558.139	7012.54
558.502	7003.95
558.865	7130.5
559.228	7093.44
559.59	7107
559.953	7142.93
560.316	7175.7
560.679	7125.53
561.041	7291.63
561.404	7285.08
561.767	7267.9
562.129	7228.13
562.492	7314.91
562.854	7346.09
563.217	7338.86
563.579	7379.31
563.941	7370.5
564.304	7436.71
564.666	7400.33
565.028	7453.89
565.39	7476.03
565.753	7589.25
566.115	7556.93
566.477	7605.07
566.839	7599.64
567.201	7628.57
567.563	7596.03
567.925	7731.39
568.287	7704.5
568.648	7756.93
569.01	7794.89
569.372	7836.93
569.734	7840.09
570.095	7918.05
570.457	7914.66
570.819	7967.54
571.18	7949.92
571.542	8036.02
571.903	8036.24
572.265	8038.28
572.626	8097.94
572.987	8176.58
573.349	8216.58
573.71	8273.98
574.071	8288.89
574.432	8343.81
574.794	8450.24
575.155	8456.35
575.516	8439.4
575.877	8582.44
576.238	8602.56
576.599	8681.65
576.96	8726.17
577.32	8704.25
577.681	8880.97
578.042	8874.41
578.403	8936.11
578.763	9039.15
579.124	9082.32
579.485	9170.9
579.845	9337.45
580.206	9362.54
580.566	9513.27
580.927	9557.33
581.287	9730.44
581.648	9760.27
582.008	9894.95
582.368	9984.44
582.728	10144.66
583.089	10262.85
583.449	10327.93
583.809	10463.98
584.169	10706.68
584.529	10846.57
584.889	11055.37
585.249	11091.53
585.609	11276.84
585.969	11487
586.329	11642.48
586.688	11875.69
587.048	12126.08
587.408	12211.73
587.768	12413.98
588.127	12641.77
588.487	12807.42
588.846	13206.5
589.206	13315.65
589.565	13471.35
589.925	13794.28
590.284	13975.52
590.643	14227.49
591.003	14519.24
591.362	14794.94
591.721	14926.68
592.08	15181.82
592.44	15577.51
592.799	15803.95
593.158	16026.32
593.517	16307.66
593.876	16663.36
594.235	16885.73
594.593	17184.48
594.952	17485.49
595.311	17707.18
595.67	17940.62
596.029	18398.46
596.387	18619.47
596.746	18928.39
597.104	19125.67
597.463	19388.71
597.822	19822.83
598.18	20002.93
598.538	20263.72
598.897	20679.07
599.255	20711.16
599.613	21408.55
599.972	21485.83
600.33	21853.06
600.688	22025.93
601.046	22426.15
601.404	22723.99
601.762	22987.94
602.12	23307.03
602.478	23577.08
602.836	23949.05
603.194	23947.92
603.552	24332.31
603.91	24493.21
604.268	24861.34
604.625	25070.6
604.983	25412.51
605.341	25470.81
605.698	25914.19
606.056	26201.64
606.413	26291.13
606.771	26722.98
607.128	26894.5
607.485	27146.7
607.843	27382.18
608.2	27601.6
608.557	28022.61
608.914	28071.65
609.272	28429.83
609.629	28694.46
609.986	28905.3
610.343	28938.07
610.7	29419.41
611.057	29613.53
611.414	29753.64
611.771	29945.27
612.127	30303.23
612.484	30420.51
612.841	30638.59
613.198	30782.09
613.554	30881.52
613.911	31260.49
614.267	31368.06
614.624	31643.98
614.98	31606.25
615.337	32065.44
615.693	32107.25
616.05	32251.88
616.406	32491.19
616.762	32642.83
617.118	32806.44
617.475	32848.02
617.831	33126.88
618.187	33219.54
618.543	33569.13
618.899	33691.61
619.255	33770.93
619.611	33977.93
619.967	34123.69
620.323	34407.75
620.678	34282.79
621.034	34299.73
621.39	34550.35
621.746	34511.03
622.101	34956.44
622.457	34819.27
622.812	35023.56
623.168	35233.27
623.523	35165.93
623.879	35424.22
624.234	35457.9
624.589	35583.99
624.945	35595.74
625.3	35809.3
625.655	35726.36
626.01	35787.38
626.365	35968.84
626.72	35929.52
627.075	36100.14
627.43	36096.75
627.785	36109.63
628.14	36253.35
628.495	36235.05
628.85	36466
629.205	36454.71
629.559	36618.54
629.914	36468.94
630.269	36608.6
630.623	36561.6
630.978	36563.18
631.332	36796.17
631.687	36965.88
632.041	36824.19
632.396	36767.24
632.75	36771.08
633.104	36823.51
633.459	36657.86
633.813	36874.36
634.167	36666.45
634.521	36754.81
634.875	36862.15
635.229	36921.81
635.583	36728.14
635.937	36779.89
636.291	36903.73
636.645	36908.93
636.999	36791.42
637.352	36994.35
637.706	36740.8
638.06	36984.41
638.413	36837.29
638.767	36768.82
639.121	36893.79
639.474	36804.07
639.828	36860.57
640.181	36835.49
640.534	37018.08
640.888	36734.47
641.241	36705.77
641.594	36775.15
641.947	36868.25
642.301	36800.91
642.654	36824.19
643.007	36851.31
643.36	36723.4
643.713	36735.15
644.066	37038.42
644.419	36734.25
644.771	36440.69
645.124	36207.93
645.477	36234.82
645.83	35996.64
646.182	35831.9
646.535	35745.35
646.888	35791.22
647.24	35623.54
647.593	35844.33
647.945	35738.57
648.298	35586.93
648.65	35671.22
649.002	35612.02
649.355	35741.5
649.707	35522.98
650.059	35705.35
650.411	36114.38
650.763	36139.69
651.115	36641.37
651.467	36496.06
651.819	36425.1
652.171	36473.46
652.523	36371.54
652.875	36406.34
653.227	36233.02
653.578	36591.2
653.93	36409.28
654.282	36144.88
654.633	36236.86
654.985	36292.22
655.337	36239.8
655.688	36324.09
656.039	36517.3
656.391	36129.97
656.742	36149.4
657.094	36122.28
657.445	36325.67
657.796	36195.73
658.147	36189.63
658.498	36149.18
658.849	36068.5
659.2	36121.15
659.551	36095.39
659.902	36277.08
660.253	36164.09
660.604	36238.67
660.955	36110.99
661.306	36210.42
661.656	35997.32
662.007	36148.95
662.358	36193.7
662.708	36196.41
663.059	36125.45
663.409	35863.31
663.76	36097.88
664.11	36051.33
664.461	36092.23
664.811	36153.47
665.161	36059.01
665.511	35955.28
665.862	35990.31
666.212	36092.23
666.562	36089.52
666.912	36080.03
667.262	36001.61
667.612	35976.98
667.962	36000.25
668.312	35969.07
668.662	36116.64
669.011	36084.55
669.361	35993.47
669.711	36065.34
670.06	35936.07
670.41	35892.91
670.76	35749.87
671.109	36017.43
671.459	35840.71
671.808	35732.69
672.157	35950.76
672.507	35695.63
672.856	35695.18
673.205	35729.98
673.554	35883.19
673.904	35645.69
674.253	35911.22
674.602	35851.78
674.951	35220.84
675.3	34991.47
675.649	35697.21
675.998	35619.7
676.346	35748.96
676.695	35707.15
677.044	35451.57
677.393	35624.9
677.741	35547.16
678.09	35496.09
678.438	35366.15
678.787	35540.61
679.135	35412.92
679.484	35221.97
679.832	35393.49
680.181	35271.69
680.529	35421.29
680.877	35199.15
681.225	35274.85
681.573	35395.3
681.922	35182.65
682.27	35073.5
682.618	35113.95
682.966	34905.14
683.314	35035.76
683.661	34929.32
684.009	34915.08
684.357	34671.48
684.705	34767.29
685.053	34748.08
685.4	34661.53
685.748	34433.97
686.095	34476
686.443	34345.83
686.79	34365.04
687.138	34384.93
687.485	34387.42
687.832	34262.22
688.18	34309.9
688.527	34078.04
688.874	34173.41
689.221	33985.62
689.568	33862.23
689.915	33885.73
690.262	33832.85
690.609	33770.71
690.956	33690.48
691.303	33634.89
691.65	33470.15
691.997	33436.25
692.344	33243.49
692.69	33156.71
693.037	33335.01
693.383	33016.6
693.73	33251.4
694.077	32987.23
694.423	32883.73
694.769	32837.63
695.116	32791.3
695.462	32804.18
695.808	32551.31
696.155	32692.09
696.501	32441.7
696.847	32468.37
697.193	32236.96
697.539	32334.59
697.885	32120.58
698.231	32127.14
698.577	32062.73
698.923	32048.72
699.269	31884.66
699.614	31585.23
699.96	31594.04
700.306	31592.91
700.651	31656.87
700.997	31302.07
701.342	31308.17
701.688	31356.99
702.033	31195.86
702.379	31135.52
702.724	31078.58
703.069	31167.84
703.415	30745.93
703.76	30790.67
704.105	30874.51
704.45	30709.32
704.795	30523.79
705.14	30428.42
705.485	30430
705.83	30366.5
706.175	30426.39
706.52	30371.48
706.865	30181.42
707.209	30097.36
707.554	30112.95
707.899	30024.59
708.243	29992.05
708.588	29826.41
708.932	29777.14
709.277	29659.86
709.621	29690.36
709.966	29513.64
710.31	29605.85
710.654	29381.22
710.998	29397.04
711.342	29448.11
711.687	29494.66
712.031	29176.48
712.375	29222.81
712.719	29180.55
713.063	29035.92
713.407	29144.84
713.75	29039.31
714.094	29018.52
714.438	28799.77
714.782	29065.75
715.125	28743.04
715.469	28783.27
715.812	28738.98
716.156	28440.23
716.499	28427.35
716.843	28520.68
717.186	28364.75
717.53	28362.94
717.873	28369.95
718.216	28340.79
718.559	28074.13
718.902	28093.12
719.246	28135.15
719.589	27958.43
719.932	27973.12
720.275	27780.36
720.617	27918.21
720.96	27927.47
721.303	27808.6
721.646	27935.16
721.989	27664.43
722.331	27701.49
722.674	27667.59
723.016	27626.46
723.359	27561.15
723.701	27519.12
724.044	27480.03
724.386	27293.14
724.729	27467.15
725.071	27352.57
725.413	27231.9
725.755	27341.95
726.097	27136.31
726.439	27159.13
726.782	27093.82
727.124	27195.97
727.465	27028.51
727.807	26955.07
728.149	26941.06
728.491	26781.97
728.833	26893.37
729.175	26741.06
729.516	26713.72
729.858	26811.34
730.199	26780.16
730.541	26698.8
730.882	26617.68
731.224	26707.16
731.565	26475.98
731.906	26518.92
732.248	26516.21
732.589	26384.69
732.93	26334.75
733.271	26329.55
733.612	26348.3
733.953	26363.45
734.294	26282.54
734.635	26170.46
734.976	26203.9
735.317	26108.99
735.658	26104.92
735.999	26149.44
736.339	25903.12
736.68	26186.5
737.021	25856.34
737.361	25839.84
737.702	26082.1
738.042	25900.18
738.383	25792.39
738.723	25857.92
739.063	25729.79
739.404	25857.47
739.744	25614.76
740.084	25640.3
740.424	25619.74
740.764	25525.05
741.104	25689.79
741.444	25429.91
741.784	25414.77
742.124	25353.53
742.464	25537.7
742.804	25231.27
743.143	25276.02
743.483	25299.29
743.823	25280.31
744.162	25168.67
744.502	25261.78
744.841	25192.4
745.181	25203.7
745.52	25053.65
745.86	25085.74
746.199	25073.54
746.538	24973.2
746.877	24962.8
747.216	25093.87
747.556	25001.22
747.895	24961.9
748.234	24857.27
748.573	24940.43
748.911	24804.16
749.25	24829.93
749.589	24695.69
749.928	24681.46
750.267	24772.53
750.605	24734.34
750.944	24610.5
751.283	24563.04
751.621	24521.91
751.96	24335.93
752.298	24325.76
752.636	24320.79
752.975	24328.47
753.313	24302.03
753.651	24452.54
753.989	24212.09
754.327	24147.01
754.666	23920.12
755.004	24088.7
755.342	24128.93
755.679	24042.38
756.017	23894.13
756.355	23911.08
756.693	23912.21
757.031	23853.91
757.368	23619.79
757.706	23778.65
758.044	23632.44
758.381	23700.01
758.719	23635.61
759.056	23556.74
759.394	23400.59
759.731	23351.55
760.068	23318.1
760.405	23198.56
760.743	23216.64
761.08	23170.08
761.417	23119.91
