Data from hue_350_FLMS001491_58.txt Node
Date: Mon Feb 06 15:38:14 GMT 2017
User: dcchb
Spectrometer: FLMS00149
Trigger mode: 0
Integration Time (sec): 2.000000E-2
Scans to average: 10
Electric dark correction enabled: true
Nonlinearity correction enabled: false
Boxcar width: 0
XAxis mode: Wavelengths
Number of Pixels in Spectrum: 2048
>>>>>Begin Spectral Data<<<<<
341.393	0.14
341.776	0.14
342.16	0.14
342.543	-70.82
342.927	-76.01
343.31	-40.08
343.693	-71.27
344.077	-69.01
344.46	-61.1
344.843	-31.27
345.226	-47.32
345.61	-32.85
345.993	-10.93
346.376	-17.26
346.759	3.76
347.142	13.47
347.525	35.39
347.908	73.36
348.291	66.13
348.674	89.4
349.057	99.57
349.44	127.37
349.823	145.67
350.206	176.18
350.588	199.46
350.971	200.36
351.354	215.5
351.737	246.46
352.119	232.9
352.502	260.25
352.884	272.45
353.267	280.13
353.65	294.82
354.032	297.76
354.414	307.93
354.797	331.21
355.179	342.28
355.562	312.9
355.944	322.62
356.326	336.4
356.709	335.27
357.091	329.85
357.473	336.4
357.855	339.34
358.238	347.93
358.62	338.44
359.002	333.92
359.384	340.02
359.766	324.65
360.148	333.69
360.53	335.05
360.912	326.46
361.294	348.38
361.676	347.93
362.057	339.79
362.439	332.79
362.821	330.3
363.203	317.65
363.584	328.95
363.966	310.19
364.348	329.17
364.729	313.35
365.111	316.74
365.493	308.83
365.874	316.52
366.256	311.09
366.637	297.08
367.019	301.83
367.4	330.98
367.781	316.74
368.163	301.38
368.544	310.42
368.925	319.68
369.306	347.25
369.688	307.25
370.069	310.42
370.45	327.14
370.831	328.04
371.212	311.55
371.593	312
371.974	309.51
372.355	303.64
372.736	316.74
373.117	298.21
373.498	307.25
373.879	311.09
374.26	322.84
374.641	316.29
375.021	316.52
375.402	309.06
375.783	317.87
376.163	290.08
376.544	305.67
376.925	320.81
377.305	307.7
377.686	292.79
378.066	326.46
378.447	317.2
378.827	342.05
379.208	316.52
379.588	349.74
379.968	310.42
380.349	322.39
380.729	334.37
381.109	331.21
381.489	337.76
381.87	336.86
382.25	326.23
382.63	315.84
383.01	330.08
383.39	339.57
383.77	324.88
384.15	333.92
384.53	330.3
384.91	339.34
385.29	322.17
385.67	332.34
386.049	325.33
386.429	351.54
386.809	325.1
387.189	333.24
387.568	336.86
387.948	331.43
388.328	327.82
388.707	339.12
389.087	354.93
389.466	315.61
389.846	339.12
390.225	344.76
390.605	334.6
390.984	357.42
391.363	373.01
391.743	351.54
392.122	354.48
392.501	370.53
392.881	362.84
393.26	357.65
393.639	365.78
394.018	380.47
394.397	367.14
394.776	354.03
395.155	377.53
395.534	369.62
395.913	337.08
396.292	367.14
396.671	352.67
397.05	365.78
397.429	366.23
397.808	379.34
398.186	379.34
398.565	360.58
398.944	372.11
399.323	373.24
399.701	366.91
400.08	372.79
400.458	392.22
400.837	378.21
401.215	368.95
401.594	387.02
401.972	379.11
402.351	396.51
402.729	390.19
403.107	404.65
403.486	397.19
403.864	405.78
404.242	393.13
404.62	409.17
404.999	396.29
405.377	396.29
405.755	389.74
406.133	418.21
406.511	409.17
406.889	427.93
407.267	428.6
407.645	417.98
408.023	425.44
408.401	406.68
408.779	418.66
409.156	393.35
409.534	460.02
409.912	438.32
410.29	425.44
410.667	447.59
411.045	425.44
411.422	425.67
411.8	450.98
412.178	438.77
412.555	463.63
412.933	426.57
413.31	450.75
413.687	438.55
414.065	455.27
414.442	493.91
414.819	474.48
415.197	446.46
415.574	481.03
415.951	479.9
416.328	473.12
416.705	494.37
417.082	501.6
417.46	490.52
417.837	501.82
418.214	508.38
418.591	483.74
418.967	472.22
419.344	499.34
419.721	502.95
420.098	514.7
420.475	503.4
420.852	513.57
421.228	512.67
421.605	522.84
421.982	494.37
422.358	516.06
422.735	544.08
423.111	546.34
423.488	507.92
423.864	557.64
424.241	535.27
424.617	559.67
424.994	532.33
425.37	559.67
425.746	567.13
426.123	543.18
426.499	547.02
426.875	570.52
427.251	576.17
427.627	591.31
428.003	580.69
428.379	601.71
428.756	572.78
429.132	614.14
429.507	585.21
429.883	617.07
430.259	627.7
430.635	597.87
431.011	578.66
431.387	630.63
431.763	625.21
432.138	620.69
432.514	642.61
432.89	648.49
433.265	630.18
433.641	656.4
434.016	652.1
434.392	655.94
434.767	635.15
435.143	663.4
435.518	666.34
435.894	674.02
436.269	693.23
436.644	665.66
437.02	715.15
437.395	690.74
437.77	705.89
438.145	700.24
438.52	704.76
438.895	715.6
439.271	707.92
439.646	730.74
440.021	739.78
440.395	731.42
440.77	729.84
441.145	718.54
441.52	735.49
441.895	720.35
442.27	774.36
442.645	751.76
443.019	771.19
443.394	747.24
443.769	763.51
444.143	757.64
444.518	759.9
444.892	768.71
445.267	781.14
445.641	780.01
446.016	788.82
446.39	798.31
446.764	797.41
447.139	779.1
447.513	815.49
447.887	793.11
448.262	795.37
448.636	792.44
449.01	801.93
449.384	826.33
449.758	836.28
450.132	829.05
450.506	818.42
450.88	824.07
451.254	813
451.628	816.84
452.002	847.12
452.376	851.64
452.75	871.08
453.123	864.98
453.497	855.71
453.871	855.49
454.244	878.08
454.618	882.83
454.992	922.83
455.365	883.06
455.739	900.91
456.112	894.36
456.486	901.81
456.859	930.29
457.232	937.74
457.606	939.1
457.979	929.38
458.352	942.94
458.725	977.52
459.099	965.99
459.472	977.52
459.845	985.65
460.218	987.69
460.591	1011.87
460.964	1019.32
461.337	1015.03
461.71	1003.05
462.083	1063.39
462.456	1014.8
462.829	1041.47
463.201	1082.15
463.574	1098.42
463.947	1054.58
464.32	1102.03
464.692	1085.08
465.065	1106.1
465.438	1109.26
465.81	1100.9
466.183	1128.7
466.555	1151.98
466.928	1131.86
467.3	1181.58
467.672	1181.35
468.045	1174.8
468.417	1214.12
468.789	1224.52
469.161	1222.48
469.534	1250.96
469.906	1278.07
470.278	1288.02
470.65	1292.54
471.022	1287.34
471.394	1322.37
471.766	1329.82
472.138	1338.86
472.51	1401.23
472.882	1395.13
473.253	1420.67
473.625	1415.7
473.997	1414.79
474.369	1454.11
474.74	1470.61
475.112	1492.31
475.484	1497.05
475.855	1558.52
476.227	1556.71
476.598	1612.3
476.97	1614.34
477.341	1633.77
477.713	1660.89
478.084	1673.54
478.455	1723.03
478.827	1753.77
479.198	1765.74
479.569	1794.44
479.94	1830.38
480.311	1822.01
480.682	1890.49
481.053	1915.8
481.424	1956.7
481.795	1986.53
482.166	2017.49
482.537	2034.44
482.908	2052.29
483.279	2088.45
483.65	2111.72
484.021	2243.47
484.391	2201.44
484.762	2252.29
485.133	2263.81
485.503	2273.3
485.874	2324.83
486.244	2344.94
486.615	2402.11
486.985	2436.46
487.356	2451.15
487.726	2502.67
488.097	2535.44
488.467	2537.25
488.837	2615.89
489.207	2609.79
489.578	2664.93
489.948	2685.04
490.318	2739.5
490.688	2767.53
491.058	2774.08
491.428	2807.3
491.798	2824.93
492.168	2870.12
492.538	2902.21
492.908	2967.29
493.278	2986.73
493.648	3033.28
494.017	3033.51
494.387	3044.81
494.757	3109.66
495.126	3141.3
495.496	3115.09
495.866	3193.96
496.235	3252.03
496.605	3229.21
496.974	3226.5
497.344	3235.08
497.713	3242.32
498.082	3321.64
498.452	3346.04
498.821	3374.06
499.19	3350.11
499.559	3414.74
499.928	3394.85
500.298	3456.55
500.667	3495.64
501.036	3439.15
501.405	3515.98
501.774	3514.17
502.143	3520.73
502.512	3546.04
502.88	3581.06
503.249	3599.37
503.618	3601.63
503.987	3638.24
504.356	3612.25
504.724	3641.4
505.093	3664.68
505.462	3712.81
505.83	3712.59
506.199	3729.08
506.567	3735.86
506.936	3757.1
507.304	3828.74
507.672	3795.75
508.041	3810.66
508.409	3857.44
508.777	3854.5
509.145	3822.41
509.514	3866.48
509.882	3906.03
510.25	3908.97
510.618	3940.6
510.986	3934.05
511.354	3943.54
511.722	3981.51
512.09	3997.55
512.458	4020.6
512.826	4061.05
513.193	4025.57
513.561	4030.09
513.929	4030.09
514.297	4071.67
514.664	4101.28
515.032	4106.02
515.4	4132.69
515.767	4115.51
516.135	4133.59
516.502	4112.8
516.869	4193.48
517.237	4230.09
517.604	4185.79
517.972	4205.23
518.339	4231.67
518.706	4231.89
519.073	4230.09
519.44	4260.59
519.808	4295.85
520.175	4280.93
520.542	4330.2
520.909	4317.32
521.276	4313.7
521.643	4344.89
522.009	4411.55
522.376	4387.37
522.743	4405.22
523.11	4422.17
523.477	4480.02
523.843	4519.57
524.21	4547.37
524.577	4528.84
524.943	4565.22
525.31	4592.79
525.676	4619
526.043	4619.23
526.409	4655.16
526.776	4722.73
527.142	4706.01
527.508	4706.01
527.874	4766.34
528.241	4740.13
528.607	4784.65
528.973	4802.5
529.339	4811.09
529.705	4852.67
530.071	4896.51
530.437	4868.71
530.803	4934.93
531.169	4963.4
531.535	4922.95
531.901	4953.23
532.267	4983.51
532.632	4996.62
532.998	4987.58
533.364	5043.85
533.73	5052.44
534.095	5086.79
534.461	5088.37
534.826	5101.25
535.192	5126.33
535.557	5205.65
535.923	5233.22
536.288	5202.94
536.653	5236.61
537.019	5240.23
537.384	5258.31
537.749	5287.46
538.114	5250.17
538.479	5285.65
538.845	5313
539.21	5354.58
539.575	5359.1
539.94	5404.97
540.305	5439.77
540.67	5436.83
541.034	5436.83
541.399	5479.09
541.764	5521.13
542.129	5561.35
542.494	5604.74
542.858	5585.53
543.223	5548.24
543.587	5634.12
543.952	5598.64
544.316	5657.17
544.681	5633.67
545.045	5694.68
545.41	5733.55
545.774	5742.14
546.138	5784.4
546.503	5808.12
546.867	5779.65
547.231	5877.05
547.595	5826.65
547.959	5855.13
548.324	5884.05
548.688	5925.41
549.052	5933.32
549.416	5938.52
549.779	5978.06
550.143	5976.26
550.507	6028.46
550.871	6071.62
551.235	5999.08
551.599	6063.26
551.962	6089.92
552.326	6136.48
552.689	6103.03
553.053	6128.12
553.417	6147.78
553.78	6246.3
554.143	6204.5
554.507	6284.27
554.87	6283.82
555.234	6273.42
555.597	6258.06
555.96	6278.39
556.323	6335.57
556.686	6287.21
557.05	6380.54
557.413	6341.9
557.776	6328.34
558.139	6437.94
558.502	6410.37
558.865	6429.35
559.228	6468.45
559.59	6493.53
559.953	6511.38
560.316	6560.42
560.679	6569.46
561.041	6565.17
561.404	6632.28
561.767	6627.76
562.129	6603.36
562.492	6657.14
562.854	6672.51
563.217	6631.15
563.579	6689.23
563.941	6782.79
564.304	6797.02
564.666	6796.57
565.028	6800.41
565.39	6842
565.753	6898.49
566.115	6908.89
566.477	6907.3
566.839	6891.94
567.201	6957.92
567.563	6998.38
567.925	6936.68
568.287	6986.85
568.648	7052.16
569.01	7105.04
569.372	7182.78
569.734	7157.47
570.095	7189.33
570.457	7207.64
570.819	7206.28
571.18	7231.36
571.542	7303.45
571.903	7267.29
572.265	7383.45
572.626	7410.34
572.987	7409.66
573.349	7456.44
573.71	7557.23
574.071	7549.32
574.432	7573.5
574.794	7755.64
575.155	7770.56
575.516	7722.65
575.877	7872.48
576.238	7915.87
576.599	7976.43
576.96	8066.14
577.32	8038.12
577.681	8177.55
578.042	8275.86
578.403	8290.09
578.763	8392.24
579.124	8470.43
579.485	8537.32
579.845	8733.02
580.206	8740.02
580.566	8843.98
580.927	8926.91
581.287	9140.47
581.648	9222.95
582.008	9387.01
582.368	9506.78
582.728	9672.66
583.089	9719.43
583.449	9928.47
583.809	10012.76
584.169	10147.9
584.529	10356.71
584.889	10582.24
585.249	10671.73
585.609	10818.39
585.969	11067.87
586.329	11223.57
586.688	11457.92
587.048	11711.7
587.408	11821.3
587.768	12140.84
588.127	12349.42
588.487	12515.29
588.846	12828.73
589.206	13040.7
589.565	13263.3
589.925	13550.52
590.284	13740.57
590.643	14063.05
591.003	14275.25
591.362	14531.28
591.721	14881.33
592.08	15121.55
592.44	15386.18
592.799	15726.73
593.158	15827.52
593.517	16153.61
593.876	16538.24
594.235	16723.32
594.593	17053.7
594.952	17310.65
595.311	17621.15
595.67	17916.05
596.029	18299.77
596.387	18635.81
596.746	18933.88
597.104	19175
597.463	19455.45
597.822	19789.9
598.18	20085.71
598.538	20315.77
598.897	20794.85
599.255	20812.02
599.613	21466.47
599.972	21566.81
600.33	21879.57
600.688	22136.73
601.046	22542.37
601.404	22734.46
601.762	23048.35
602.12	23364.5
602.478	23670.71
602.836	24032.05
603.194	24123.12
603.552	24451.93
603.91	24557.01
604.268	24895.31
604.625	25240.16
604.983	25465.46
605.341	25632.69
605.698	25988.16
606.056	26360.58
606.413	26605.32
606.771	26965.53
607.128	27079.66
607.485	27189.93
607.843	27533.88
608.2	27878.28
608.557	28112.85
608.914	28315.1
609.272	28576.79
609.629	28819.72
609.986	29083.22
610.343	29224.91
610.7	29604.11
611.057	29747.83
611.414	29906.02
611.771	29900.6
612.127	30374.71
612.484	30646.12
612.841	30815.15
613.198	30856.05
613.554	31063.28
613.911	31386.21
614.267	31518.41
614.624	31642.93
614.98	31798.63
615.337	32080.88
615.693	32274.32
616.05	32309.35
616.406	32597.25
616.762	32630.02
617.118	32859.16
617.475	33013.96
617.831	33206.73
618.187	33375.53
618.543	33570.56
618.899	33762.64
619.255	33898.91
619.611	33824.79
619.967	34192.69
620.323	34351.1
620.678	34324.44
621.034	34379.8
621.39	34395.62
621.746	34527.37
622.101	35038.54
622.457	34854.59
622.812	35050.29
623.168	35105.43
623.523	35165.77
623.879	35303.17
624.234	35198.99
624.589	35448.7
624.945	35630.62
625.3	35673.78
625.655	35779.09
626.01	35712.42
626.365	35861.12
626.72	35939.99
627.075	36066.09
627.43	36103.82
627.785	35947.9
628.14	36147.67
628.495	36268.34
628.85	36385.17
629.205	36436.47
629.559	36664.94
629.914	36337.94
630.269	36518.73
630.623	36400.99
630.978	36490.03
631.332	36624.49
631.687	36727.09
632.041	36527.99
632.396	36641.44
632.75	36545.85
633.104	36676.92
633.459	36504.49
633.813	36566.86
634.167	36569.8
634.521	36681.21
634.875	36720.31
635.229	36695.67
635.583	36704.03
635.937	36686.41
636.291	36772.06
636.645	36684.6
636.999	36575.9
637.352	36705.84
637.706	36520.54
638.06	36649.57
638.413	36554.21
638.767	36690.02
639.121	36679.4
639.474	36586.98
639.828	36583.59
640.181	36639.4
640.534	36770.25
640.888	36572.51
641.241	36501.33
641.594	36628.1
641.947	36690.25
642.301	36590.37
642.654	36692.74
643.007	36550.37
643.36	36564.83
643.713	36535.68
644.066	36718.72
644.419	36313.31
644.771	36318.96
645.124	35889.14
645.477	35886.2
645.83	35839.65
646.182	35584.52
646.535	35417.06
646.888	35597.4
647.24	35431.3
647.593	35630.16
647.945	35527.57
648.298	35139.33
648.65	35351.3
649.002	35281.25
649.355	35573.67
649.707	35363.96
650.059	35532.77
650.411	35846.88
650.763	35832.65
651.115	36394.44
651.467	36370.94
651.819	36132.75
652.171	36210.94
652.523	36129.13
652.875	36107.44
653.227	35924.62
653.578	36167.1
653.93	36145.18
654.282	35915.13
654.633	35924.17
654.985	36001.45
655.337	36024.28
655.688	36038.74
656.039	36128.91
656.391	35779.99
656.742	35787.22
657.094	35958.52
657.445	36019.99
657.796	35917.16
658.147	35829.93
658.498	35888.01
658.849	35955.13
659.2	35822.7
659.551	35791.74
659.902	35947.67
660.253	35859.99
660.604	35992.42
660.955	35696.6
661.306	35834.68
661.656	35787.45
662.007	35699.09
662.358	35824.06
662.708	35759.65
663.059	35740.44
663.409	35499.55
663.76	35765.98
664.11	35707.9
664.461	35738.64
664.811	35830.16
665.161	35785.41
665.511	35820.89
665.862	35646.44
666.212	35854.57
666.562	35821.57
666.912	35629.94
667.262	35563.05
667.612	35736.38
667.962	35789.71
668.312	35807.56
668.662	35806.88
669.011	35762.82
669.361	35509.49
669.711	35667.23
670.06	35604.85
670.41	35516.27
670.76	35656.83
671.109	35763.72
671.459	35569.83
671.808	35432.43
672.157	35631.75
672.507	35346.56
672.856	35282.15
673.205	35538.64
673.554	35520.79
673.904	35445.08
674.253	35540.22
674.602	35432.2
674.951	34839.45
675.3	34742.96
675.649	35369.83
675.998	35372.32
676.346	35327.12
676.695	35325.99
677.044	35173.23
677.393	35395.82
677.741	35322.83
678.09	35173.45
678.438	35078.99
678.787	35251.42
679.135	35142.95
679.484	34906.12
679.832	35126.9
680.181	35005.32
680.529	35049.84
680.877	34897.3
681.225	35037.19
681.573	35031.31
681.922	34725.33
682.27	34721.04
682.618	34646.91
682.966	34660.02
683.314	34724.2
683.661	34493.25
684.009	34507.48
684.357	34443.08
684.705	34373.7
685.053	34397.43
685.4	34318.79
685.748	34106.14
686.095	34312.46
686.443	34185.01
686.79	34065.01
687.138	34180.26
687.485	34068.17
687.832	33942.53
688.18	34015.97
688.527	33796.77
688.874	33802.42
689.221	33672.93
689.568	33618.01
689.915	33587.73
690.262	33635.19
690.609	33413.27
690.956	33432.93
691.303	33286.05
691.65	33045.37
691.997	33159.95
692.344	33021.42
692.69	33024.13
693.037	32961.53
693.383	32743.24
693.73	32885.6
694.077	32591.83
694.423	32598.15
694.769	32544.14
695.116	32370.59
695.462	32400.65
695.808	32300.08
696.155	32397.26
696.501	32107.32
696.847	32129.47
697.193	31986.87
697.539	31974.44
697.885	31773.54
698.231	31692.42
698.577	31673.66
698.923	31599.99
699.269	31462.82
699.614	31294.69
699.96	31219.43
700.306	31305.53
700.651	31118.87
700.997	31028.7
701.342	30997.97
701.688	30935.37
702.033	30896.05
702.379	30873.68
702.724	30703.29
703.069	30929.05
703.415	30386.69
703.76	30455.39
704.105	30478.89
704.45	30332.23
704.795	30298.55
705.14	30200.93
705.485	30105.34
705.83	30018.56
706.175	30080.48
706.52	29960.48
706.865	29917.55
707.209	29814.27
707.554	29623.32
707.899	29711.9
708.243	29653.15
708.588	29639.14
708.932	29420.16
709.277	29428.97
709.621	29310.78
709.966	29183.55
710.31	29199.6
710.654	29007.74
710.998	29098.36
711.342	29101.52
711.687	29048.87
712.031	28933.84
712.375	28878.93
712.719	28813.85
713.063	28802.55
713.407	28696.11
713.75	28758.03
714.094	28610.24
714.438	28530.69
714.782	28556.68
715.125	28435.1
715.469	28450.01
715.812	28288.44
716.156	28108.33
716.499	28168.21
716.843	28190.59
717.186	27939.52
717.53	28074.21
717.873	28130.25
718.216	27949.46
718.559	27958.05
718.902	27676.7
719.246	27772.52
719.589	27580.88
719.932	27561.68
720.275	27557.38
720.617	27679.19
720.96	27499.76
721.303	27524.62
721.646	27519.19
721.989	27243.72
722.331	27466.76
722.674	27294.11
723.016	27363.26
723.359	27229.93
723.701	27287.56
724.044	27189.26
724.386	26951.07
724.729	27050.96
725.071	27085.53
725.413	27010.28
725.755	26933.67
726.097	26794.46
726.439	26774.35
726.782	26752.21
727.124	26945.65
727.465	26732.77
727.807	26723.96
728.149	26603.96
728.491	26488.03
728.833	26622.49
729.175	26505.66
729.516	26417.75
729.858	26490.74
730.199	26488.94
730.541	26336.85
730.882	26187.48
731.224	26378.88
731.565	26151.32
731.906	26209.62
732.248	26210.75
732.589	26040.81
732.93	26003.98
733.271	25930.98
733.612	26010.3
733.953	26129.17
734.294	25891.66
734.635	25810.31
734.976	25910.42
735.317	25832.91
735.658	25807.82
735.999	25781.84
736.339	25709.97
736.68	25747.03
737.021	25643.08
737.361	25490.77
737.702	25730.54
738.042	25655.06
738.383	25506.82
738.723	25519.7
739.063	25479.92
739.404	25429.98
739.744	25333.26
740.084	25317.67
740.424	25271.79
740.764	25206.71
741.104	25374.16
741.444	25152.47
741.784	25119.93
742.124	25243.55
742.464	25091.91
742.804	25000.61
743.143	24973.27
743.483	25079.03
743.823	24896.66
744.162	24831.35
744.502	24881.75
744.841	24656.22
745.181	24891.46
745.52	24730.56
745.86	24730.11
746.199	24657.35
746.538	24580.51
746.877	24679.27
747.216	24648.76
747.556	24583.45
747.895	24684.69
748.234	24506.62
748.573	24518.82
748.911	24491.25
749.25	24495.77
749.589	24266.17
749.928	24383.23
750.267	24335.77
750.605	24232.27
750.944	24114.54
751.283	24107.53
751.621	24201.54
751.96	24050.81
752.298	24036.12
752.636	24109.79
752.975	23798.16
753.313	23823.02
753.651	23912.28
753.989	23857.59
754.327	23761.1
754.666	23667.32
755.004	23632.29
755.342	23690.82
755.679	23568.56
756.017	23541.22
756.355	23532.18
756.693	23427.77
757.031	23414.21
757.368	23275.46
757.706	23237.04
758.044	23235.24
758.381	23305.07
758.719	23116.82
759.056	23197.72
759.394	23071.62
759.731	22909.82
760.068	22960.89
760.405	22836.6
760.743	22863.95
