Data from hue_10_FLMS001491_76.txt Node
Date: Mon Feb 06 15:32:31 GMT 2017
User: dcchb
Spectrometer: FLMS00149
Trigger mode: 0
Integration Time (sec): 2.000000E-2
Scans to average: 10
Electric dark correction enabled: true
Nonlinearity correction enabled: false
Boxcar width: 0
XAxis mode: Wavelengths
Number of Pixels in Spectrum: 2048
>>>>>Begin Spectral Data<<<<<
341.393	-10.56
341.776	-10.56
342.16	-10.56
342.543	-83.78
342.927	-64.35
343.31	-85.59
343.693	-98.25
344.077	-67.06
344.46	-50.11
344.843	-44.91
345.226	-22.32
345.61	-50.79
345.993	-29.1
346.376	2.99
346.759	12.71
347.142	35.99
347.525	63.33
347.908	43.45
348.291	81.41
348.674	97.46
349.057	110.79
349.44	115.99
349.823	127.74
350.206	155.76
350.588	205.93
350.971	203.44
351.354	231.01
351.737	227.62
352.119	260.84
352.502	271.69
352.884	283.66
353.267	287.51
353.65	291.57
354.032	299.03
354.414	301.07
354.797	299.26
355.179	303.1
355.562	309.65
355.944	323.44
356.326	308.75
356.709	325.7
357.091	314.4
357.473	357.56
357.855	323.44
358.238	338.13
358.62	331.12
359.002	352.14
359.384	325.25
359.766	350.1
360.148	307.39
360.53	328.64
360.912	340.39
361.294	315.08
361.676	316.88
362.057	320.5
362.439	335.41
362.821	324.57
363.203	328.18
363.584	333.61
363.966	341.29
364.348	312.14
364.729	316.21
365.111	294.96
365.493	310.1
365.874	312.82
366.256	336.32
366.637	318.92
367.019	302.2
367.4	312.59
367.781	299.94
368.163	301.52
368.544	290.67
368.925	311.69
369.306	312.14
369.688	306.04
370.069	313.27
370.45	314.17
370.831	294.74
371.212	315.53
371.593	313.72
371.974	308.75
372.355	313.27
372.736	320.27
373.117	307.62
373.498	305.36
373.879	295.87
374.26	325.7
374.641	304.91
375.021	302.65
375.402	329.31
375.783	315.75
376.163	318.69
376.544	308.97
376.925	333.83
377.305	328.18
377.686	312.59
378.066	312.82
378.447	314.4
378.827	322.53
379.208	311.46
379.588	329.09
379.968	320.5
380.349	335.87
380.729	317.34
381.109	332.03
381.489	324.79
381.87	320.73
382.25	318.69
382.63	340.84
383.01	325.92
383.39	345.36
383.77	324.57
384.15	321.4
384.53	327.96
384.91	338.13
385.29	341.29
385.67	336.32
386.049	333.16
386.429	351.01
386.809	312.59
387.189	337.22
387.568	345.81
387.948	350.56
388.328	342.87
388.707	334.51
389.087	334.51
389.466	337.9
389.846	344.68
390.225	345.58
390.605	334.74
390.984	353.72
391.363	340.61
391.743	356.21
392.122	356.21
392.501	349.43
392.881	376.32
393.26	351.69
393.639	361.63
394.018	348.75
394.397	345.81
394.776	347.84
395.155	370.44
395.534	376.54
395.913	361.4
396.292	386.94
396.671	343.78
397.05	358.01
397.429	347.84
397.808	360.72
398.186	370.44
398.565	349.2
398.944	371.12
399.323	370.67
399.701	370.22
400.08	362.31
400.458	394.85
400.837	378.13
401.215	376.32
401.594	382.42
401.972	382.42
402.351	380.16
402.729	369.76
403.107	393.49
403.486	388.29
403.864	381.52
404.242	391.46
404.62	377.67
404.999	376.77
405.377	382.19
405.755	386.26
406.133	384.91
406.511	399.82
406.889	425.81
407.267	394.17
407.645	384.45
408.023	400.72
408.401	406.6
408.779	417.45
409.156	418.8
409.534	400.5
409.912	392.59
410.29	402.98
410.667	390.78
411.045	404.57
411.422	412.48
411.8	407.73
412.178	428.52
412.555	448.18
412.933	406.6
413.31	421.06
413.687	451.34
414.065	435.75
414.442	433.04
414.819	435.75
415.197	434.17
415.574	445.02
415.951	433.04
416.328	453.6
416.705	426.03
417.082	415.41
417.46	436.2
417.837	450.89
418.214	462.87
418.591	458.35
418.967	456.32
419.344	444.11
419.721	468.29
420.098	449.54
420.475	446.6
420.852	453.38
421.228	464.45
421.605	451.34
421.982	463.32
422.358	440.04
422.735	465.81
423.111	458.12
423.488	474.85
423.864	472.13
424.241	494.96
424.617	489.08
424.994	494.51
425.37	489.99
425.746	487.5
426.123	500.38
426.499	478.24
426.875	500.38
427.251	506.71
427.627	487.95
428.003	507.16
428.379	502.64
428.756	507.84
429.132	506.71
429.507	516.65
429.883	524.11
430.259	508.07
430.635	522.98
431.011	527.05
431.387	538.12
431.763	519.36
432.138	562.75
432.514	530.44
432.89	544.9
433.265	549.42
433.641	549.65
434.016	553.04
434.392	566.82
434.767	547.39
435.143	556.2
435.518	566.37
435.894	574.73
436.269	593.94
436.644	579.48
437.02	606.14
437.395	585.35
437.77	596.65
438.145	592.58
438.52	616.99
438.895	591.23
439.271	621.74
439.646	627.61
440.021	613.37
440.395	615.63
440.77	620.61
441.145	624.9
441.52	627.16
441.895	633.49
442.27	624.22
442.645	635.29
443.019	603.43
443.394	637.33
443.769	641.85
444.143	647.95
444.518	641.62
444.892	648.18
445.267	642.53
445.641	645.46
446.016	638.23
446.39	661.73
446.764	661.28
447.139	647.72
447.513	674.62
447.887	683.65
448.262	675.74
448.636	666.48
449.01	683.2
449.384	711.22
449.758	689.53
450.132	680.04
450.506	691.79
450.88	702.86
451.254	688.17
451.628	697.89
452.002	727.04
452.376	708.96
452.75	719.36
453.123	721.85
453.497	726.82
453.871	728.85
454.244	753.03
454.618	746.03
454.992	774.27
455.365	739.47
455.739	749.64
456.112	763.2
456.486	774.27
456.859	776.99
457.232	789.19
457.606	771.79
457.979	809.53
458.352	808.62
458.725	811.79
459.099	790.77
459.472	847.94
459.845	836.42
460.218	850.88
460.591	830.77
460.964	814.27
461.337	846.81
461.71	875.74
462.083	870.54
462.456	857.89
462.829	878.45
463.201	894.72
463.574	887.72
463.947	902.63
464.32	896.98
464.692	937.43
465.065	942.18
465.438	936.76
465.81	926.36
466.183	946.02
466.555	967.71
466.928	981.05
467.3	987.38
467.672	1005.23
468.045	1030.76
468.417	1015.17
468.789	1037.32
469.161	1030.54
469.534	1062.18
469.906	1077.77
470.278	1089.07
470.65	1096.3
471.022	1132.23
471.394	1126.58
471.766	1135.39
472.138	1155.96
472.51	1157.99
472.882	1176.07
473.253	1201.61
473.625	1225.79
473.997	1243.19
474.369	1266.69
474.74	1253.58
475.112	1280.47
475.484	1321.38
475.855	1349.63
476.227	1369.51
476.598	1380.13
476.97	1370.87
477.341	1441.15
477.713	1462.16
478.084	1460.13
478.455	1504.42
478.827	1503.97
479.198	1571.77
479.569	1568.38
479.94	1621.03
480.311	1669.84
480.682	1651.76
481.053	1715.27
481.424	1788.03
481.795	1762.72
482.166	1810.4
482.537	1837.3
482.908	1870.97
483.279	1937.86
483.65	1953
484.021	1974.02
484.391	2026.67
484.762	2044.3
485.133	2067.35
485.503	2083.84
485.874	2165.2
486.244	2186.89
486.615	2222.37
486.985	2265.53
487.356	2287.91
487.726	2349.15
488.097	2380.11
488.467	2385.98
488.837	2453.55
489.207	2487.9
489.578	2555.7
489.948	2567.9
490.318	2605.41
490.688	2612.42
491.058	2647.9
491.428	2760.66
491.798	2739.42
492.168	2797.27
492.538	2829.59
492.908	2874.11
493.278	2931.28
493.648	2914.1
494.017	2979.19
494.387	2994.55
494.757	3057.83
495.126	3077.94
495.496	3075.91
495.866	3098.05
496.235	3159.97
496.605	3172.4
496.974	3224.83
497.344	3223.7
497.713	3234.1
498.082	3311.16
498.452	3315.68
498.821	3345.73
499.19	3351.83
499.559	3396.35
499.928	3410.59
500.298	3426.18
500.667	3446.97
501.036	3473.41
501.405	3503.02
501.774	3527.65
502.143	3512.05
502.512	3561.09
502.88	3615.33
503.249	3593.41
503.618	3593.63
503.987	3607.65
504.356	3643.12
504.724	3684.25
505.093	3639.06
505.462	3708.43
505.83	3725.38
506.199	3769.9
506.567	3791.37
506.936	3769
507.304	3863.01
507.672	3850.12
508.041	3861.42
508.409	3861.88
508.777	3905.04
509.145	3921.31
509.514	3896.9
509.882	3936.9
510.25	3971.25
510.618	3978.93
510.986	3988.65
511.354	4011.7
511.722	4052.38
512.09	4078.59
512.458	4010.35
512.826	4115.43
513.193	4065.71
513.561	4094.64
513.929	4123.34
514.297	4090.57
514.664	4133.06
515.032	4148.42
515.4	4165.37
515.767	4181.19
516.135	4185.48
516.502	4166.05
516.869	4226.16
517.237	4230.68
517.604	4213.51
517.972	4224.35
518.339	4261.41
518.706	4263.67
519.073	4240.62
519.44	4268.64
519.808	4298.93
520.175	4255.76
520.542	4355.2
520.909	4352.26
521.276	4308.87
521.643	4363.56
522.009	4412.37
522.376	4394.07
522.743	4394.07
523.11	4420.96
523.477	4449.88
523.843	4406.04
524.21	4481.75
524.577	4490.56
524.943	4572.82
525.31	4517.9
525.676	4597.45
526.043	4604.68
526.409	4635.41
526.776	4658.47
527.142	4649.43
527.508	4691.91
527.874	4698.69
528.241	4754.06
528.607	4749.08
528.973	4768.29
529.339	4831.79
529.705	4786.6
530.071	4882.19
530.437	4820.04
530.803	4851.68
531.169	4910.21
531.535	4842.19
531.901	4918.12
532.267	4904.11
532.632	4923.32
532.998	4981.62
533.364	4981.62
533.73	5061.84
534.095	5049.64
534.461	5071.11
534.826	5102.75
535.192	5125.8
535.557	5132.58
535.923	5114.95
536.288	5131.45
536.653	5163.08
537.019	5164.67
537.384	5155.63
537.749	5197.21
538.114	5214.38
538.479	5225.68
538.845	5249.64
539.21	5228.85
539.575	5295.74
539.94	5355.85
540.305	5422.96
540.67	5353.81
541.034	5363.76
541.399	5427.48
541.764	5428.84
542.129	5432.91
542.494	5453.47
542.858	5491.66
543.223	5547.71
543.587	5593.58
543.952	5570.98
544.316	5612.79
544.681	5590.19
545.045	5607.14
545.41	5695.95
545.774	5703.18
546.138	5712.45
546.503	5699.79
546.867	5750.87
547.231	5793.8
547.595	5730.98
547.959	5837.64
548.324	5826.12
548.688	5860.92
549.052	5851.88
549.416	5874.25
549.779	5857.98
550.143	5903.63
550.507	5989.73
550.871	5945.21
551.235	5981.82
551.599	6009.84
551.962	6026.79
552.326	6038.32
552.689	6073.34
553.053	6100.69
553.417	6085.32
553.78	6118.31
554.143	6100.24
554.507	6178.65
554.87	6159.67
555.234	6160.35
555.597	6198.31
555.96	6203.28
556.323	6246.45
556.686	6250.06
557.05	6254.13
557.413	6335.94
557.776	6297.52
558.139	6286.22
558.502	6323.28
558.865	6391.3
559.228	6342.04
559.59	6430.4
559.953	6417.74
560.316	6498.42
560.679	6448.93
561.041	6443.05
561.404	6469.49
561.767	6523.95
562.129	6537.74
562.492	6542.94
562.854	6562.37
563.217	6563.05
563.579	6598.08
563.941	6633.78
564.304	6625.19
564.666	6680.78
565.028	6708.81
565.39	6735.7
565.753	6742.93
566.115	6779.09
566.477	6784.51
566.839	6824.06
567.201	6850.27
567.563	6888.01
567.925	6925.75
568.287	6934.11
568.648	6905.64
569.01	6983.38
569.372	7028.12
569.734	6996.03
570.095	7010.27
570.457	7080.77
570.819	7109.02
571.18	7117.61
571.542	7245.97
571.903	7193.09
572.265	7255.68
572.626	7231.5
572.987	7320.54
573.349	7353.31
573.71	7445.06
574.071	7488
574.432	7479.63
574.794	7557.6
575.155	7646.18
575.516	7663.58
575.877	7732.73
576.238	7811.6
576.599	7879.17
576.96	7974.76
577.32	8081.2
577.681	8153.51
578.042	8238.26
578.403	8346.73
578.763	8401.19
579.124	8524.35
579.485	8604.35
579.845	8742.88
580.206	8848.41
580.566	9001.85
580.927	9088.63
581.287	9301.96
581.648	9262.41
582.008	9548.51
582.368	9657.88
582.728	9845.22
583.089	10006.12
583.449	10208.6
583.809	10356.17
584.169	10614.92
584.529	10804.74
584.889	11068.47
585.249	11170.61
585.609	11352.98
585.969	11804.49
586.329	11877.48
586.688	12114.54
587.048	12442.22
587.408	12686.28
587.768	12905.03
588.127	13132.82
588.487	13426.82
588.846	13822.97
589.206	14008.05
589.565	14341.6
589.925	14616.4
590.284	14990.62
590.643	15294.34
591.003	15664.05
591.362	16057.26
591.721	16304.94
592.08	16694.31
592.44	17156.67
592.799	17388.53
593.158	17662.64
593.517	18039.36
593.876	18421.04
594.235	18731.32
594.593	19146.22
594.952	19541.69
595.311	19883.6
595.67	20234.55
596.029	20757.02
596.387	21104.81
596.746	21400.62
597.104	21829.76
597.463	22145.01
597.822	22529.41
598.18	22865.44
598.538	23163.74
598.897	23648.7
599.255	23907.22
599.613	24571.16
599.972	24843.02
600.33	25214.08
600.688	25516.45
601.046	25892.93
601.404	26431
601.762	26731.78
602.12	27078.89
602.478	27457.87
602.836	27862.6
603.194	28064.18
603.552	28364.96
603.91	28623.48
604.268	29042.91
604.625	29369.68
604.983	29692.16
605.341	29991.36
605.698	30421.63
606.056	30805.35
606.413	31083.53
606.771	31479.68
607.128	31795.38
607.485	31984.75
607.843	32238.53
608.2	32681.91
608.557	33029.47
608.914	33258.84
609.272	33577.7
609.629	33952.16
609.986	34160.06
610.343	34443.44
610.7	34786.03
611.057	35040.49
611.414	35273.25
611.771	35569.97
612.127	35812.67
612.484	36004.53
612.841	36284.98
613.198	36396.61
613.554	36835.92
613.911	37201.79
614.267	37389.58
614.624	37625.73
614.98	37681.55
615.337	38186.62
615.693	38155.89
616.05	38359.5
616.406	38764.46
616.762	38749.55
617.118	39104.11
617.475	39208.74
617.831	39589.98
618.187	39816.18
618.543	39820.03
618.899	40149.51
619.255	40237.64
619.611	40407.81
619.967	40614.36
620.323	40868.59
620.678	40786.78
621.034	40790.85
621.39	40972.31
621.746	41172.99
622.101	41638.74
622.457	41505.63
622.812	41635.8
623.168	41894.77
623.523	42001.21
623.879	42153.07
624.234	42224.26
624.589	42196.69
624.945	42320.53
625.3	42487.07
625.655	42543.34
626.01	42791.47
626.365	42767.07
626.72	42825.6
627.075	42885.03
627.43	42792.38
627.785	42965.03
628.14	43272.59
628.495	43339.71
628.85	43353.27
629.205	43359.14
629.559	43487.5
629.914	43342.19
630.269	43576.31
630.623	43410.89
630.978	43603.2
631.332	43694.05
631.687	43895.63
632.041	43783.31
632.396	43895.17
632.75	43721.17
633.104	43802.07
633.459	43712.81
633.813	43796.87
634.167	43826.47
634.521	43819.24
634.875	43929.75
635.229	43787.38
635.583	43713.94
635.937	43782.18
636.291	43773.82
636.645	43928.39
636.999	43955.28
637.352	43976.75
637.706	43785.35
638.06	43977.43
638.413	43829.64
638.767	43860.82
639.121	43986.02
639.474	43807.49
639.828	43667.38
640.181	43816.31
640.534	43961.84
640.888	43654.28
641.241	43747.38
641.594	43795.29
641.947	43803.65
642.301	43818.79
642.654	43866.93
643.007	43843.2
643.36	43908.51
643.713	43840.94
644.066	43968.17
644.419	43532.7
644.771	43474.17
645.124	43034.86
645.477	43075.76
645.83	42773.62
646.182	42715.09
646.535	42712.61
646.888	42782.21
647.24	42525.49
647.593	42808.87
647.945	42762.1
648.298	42574.53
648.65	42445.04
649.002	42309.23
649.355	42514.42
649.707	42424.48
650.059	42641.65
650.411	43108.75
650.763	43115.08
651.115	43591
651.467	43446.82
651.819	43461.74
652.171	43509.19
652.523	43385.36
652.875	43211.12
653.227	43159.6
653.578	43346.71
653.93	43380.84
654.282	43158.47
654.633	43113.95
654.985	43233.95
655.337	43176.32
655.688	43248.41
656.039	43331.12
656.391	43061.07
656.742	43119.83
657.094	43010
657.445	43207.73
657.796	43096.55
658.147	43002.77
658.498	43045.7
658.849	43148.53
659.2	43031.69
659.551	42936.33
659.902	43229.2
660.253	43085.48
660.604	43107.4
660.955	42934.29
661.306	43135.87
661.656	42913.05
662.007	42927.06
662.358	42927.29
662.708	42958.02
663.059	42878.7
663.409	42753.06
663.76	42995.54
664.11	43016.33
664.461	42987.17
664.811	43054.97
665.161	42856.1
665.511	42709.22
665.862	42908.31
666.212	42938.81
666.562	43018.59
666.912	42913.28
667.262	42845.94
667.612	42876.44
667.962	42948.98
668.312	42873.28
668.662	42941.98
669.011	42890
669.361	42788.99
669.711	42690.01
670.06	42763.45
670.41	42628.77
670.76	42680.06
671.109	42751.7
671.459	42778.59
671.808	42643.23
672.157	42780.4
672.507	42583.12
672.856	42635.09
673.205	42672.83
673.554	42633.29
673.904	42585.6
674.253	42868.31
674.602	42716.67
674.951	42137.48
675.3	41825.62
675.649	42511.48
675.998	42396.46
676.346	42403.46
676.695	42668.09
677.044	42185.84
677.393	42401.88
677.741	42380.86
678.09	42320.98
678.438	42294.54
678.787	42393.97
679.135	42426.29
679.484	41984.26
679.832	42181.77
680.181	41869.46
680.529	42194.2
680.877	41975.45
681.225	41961.44
681.573	42163.24
681.922	41958.95
682.27	41775.91
682.618	41823.36
682.966	41651.84
683.314	41645.97
683.661	41632.41
684.009	41341.57
684.357	41391.28
684.705	41300.21
685.053	41499.76
685.4	41219.99
685.748	41200.33
686.095	41072.2
686.443	41104.51
686.79	41011.86
687.138	40982.71
687.485	41012.54
687.832	40830.17
688.18	40750.85
688.527	40749.95
688.874	40668.14
689.221	40669.5
689.568	40581.36
689.915	40412.78
690.262	40437.86
690.609	40374.81
690.956	40114.03
691.303	40228.83
691.65	39986.58
691.997	39976.63
692.344	39672.69
692.69	39750.88
693.037	39678.11
693.383	39416.42
693.73	39618.9
694.077	39418
694.423	39427.27
694.769	39226.6
695.116	39039.71
695.462	39123.55
695.808	38982.99
696.155	38923.78
696.501	38753.16
696.847	38698.25
697.193	38587.97
697.539	38564.01
697.885	38324.7
698.231	38193.85
698.577	38211.93
698.923	38146.62
699.269	37934.43
699.614	37788.89
699.96	37811.27
700.306	37725.84
700.651	37760.19
700.997	37604.04
701.342	37470.26
701.688	37466.87
702.033	37220.77
702.379	37269.13
702.724	37151.17
703.069	37174.22
703.415	36824.4
703.76	36813.33
704.105	36898.3
704.45	36816.72
704.795	36583.05
705.14	36510.06
705.485	36401.13
705.83	36298.76
706.175	36416.73
706.52	36239.1
706.865	35957.98
707.209	36082.72
707.554	35935.83
707.899	36155.72
708.243	35899.9
708.588	35859.23
708.932	35536.07
709.277	35703.98
709.621	35560.7
709.966	35253.82
710.31	35412.68
710.654	35291.33
710.998	35132.24
711.342	35175.85
711.687	35099.92
712.031	34882.76
712.375	34812.93
712.719	34912.13
713.063	34760.05
713.407	34657.68
713.75	34671.01
714.094	34660.61
714.438	34602.99
714.782	34533.84
715.125	34280.29
715.469	34427.4
715.812	34248.42
716.156	34003.91
716.499	34228.76
716.843	34138.59
717.186	33915.77
717.53	34041.42
717.873	33988.99
718.216	33897.02
718.559	33854.53
718.902	33636.69
719.246	33655.44
719.589	33502.9
719.932	33361.44
720.275	33380.2
720.617	33328.67
720.96	33349.91
721.303	33255.91
721.646	33375.45
721.989	33077.15
722.331	33247.77
722.674	33176.81
723.016	33068.79
723.359	33077.38
723.701	33043.03
724.044	32737.5
724.386	32697.05
724.729	32834.45
725.071	32602.82
725.413	32766.2
725.755	32735.24
726.097	32580.22
726.439	32427
726.782	32360.11
727.124	32552.87
727.465	32221.58
727.807	32366.66
728.149	32229.94
728.491	32192.43
728.833	32280.34
729.175	31916.73
729.516	32031.98
729.858	31946.79
730.199	32039.21
730.541	31842.16
730.882	31879.44
731.224	31998.31
731.565	31766.45
731.906	31853.46
732.248	31793.8
732.589	31714.93
732.93	31601.49
733.271	31492.79
733.612	31461.83
733.953	31525.33
734.294	31298.67
734.635	31249.18
734.976	31439.91
735.317	31151.1
735.658	31147.94
735.999	31154.72
736.339	31134.61
736.68	31260.25
737.021	31046.02
737.361	30862.07
737.702	30955.17
738.042	30994.95
738.383	30728.29
738.723	30996.08
739.063	30880.83
739.404	30787.72
739.744	30745.69
740.084	30639.7
740.424	30611.91
740.764	30569.2
741.104	30633.83
741.444	30566.71
741.784	30451.01
742.124	30439.71
742.464	30304.34
742.804	30278.81
743.143	30288.53
743.483	30359.03
743.823	30121.98
744.162	30229.09
744.502	30272.03
744.841	29931.47
745.181	30095.99
745.52	29921.98
745.86	29984.8
746.199	29876.11
746.538	29925.82
746.877	30014.86
747.216	29855.99
747.556	29829.55
747.895	29756.56
748.234	29645.6
748.573	29611.93
748.911	29581.2
749.25	29496.91
749.589	29392.05
749.928	29430.02
750.267	29452.39
750.605	29311.15
750.944	29330.81
751.283	29217.82
751.621	29119.52
751.96	29003.36
752.298	29065.28
752.636	29138.5
752.975	28903.93
753.313	28803.37
753.651	28924.72
753.989	28737.15
754.327	28662.58
754.666	28586.2
755.004	28620.77
755.342	28583.49
755.679	28480.44
756.017	28426.65
756.355	28427.78
756.693	28373.1
757.031	28343.49
757.368	28145.98
757.706	28090.39
758.044	28111.86
758.381	28124.29
758.719	28110.05
759.056	27970.39
759.394	27945.76
759.731	27636.62
760.068	27702.38
760.405	27572.21
760.743	27529.95
761.08	27510.75
761.417	27399.56
