Data from hue_230_FLMS001491_00090.txt Node
Date: Tue Feb 07 16:37:52 GMT 2017
User: dcchb
Spectrometer: FLMS00149
Trigger mode: 0
Integration Time (sec): 2.000000E-2
Scans to average: 10
Electric dark correction enabled: true
Nonlinearity correction enabled: false
Boxcar width: 0
XAxis mode: Wavelengths
Number of Pixels in Spectrum: 2048
>>>>>Begin Spectral Data<<<<<
341.393	-15.83
341.776	-15.83
342.16	-15.83
342.543	-58.09
342.927	-80.69
343.31	-76.17
343.693	-79.11
344.077	-66.23
344.46	-74.36
344.843	-51.76
345.226	-37.3
345.61	-42.72
345.993	-0.69
346.376	-13.35
346.759	2.25
347.142	23.71
347.525	42.47
347.908	53.77
348.291	89.48
348.674	109.36
349.057	120.66
349.44	131.06
349.823	128.8
350.206	147.78
350.588	201.11
350.971	194.78
351.354	200.43
351.737	244.27
352.119	239.53
352.502	234.78
352.884	253.76
353.267	267.1
353.65	270.04
354.032	279.98
354.414	280.88
354.797	311.62
355.179	331.73
355.562	323.37
355.944	316.36
356.326	321.11
356.709	316.36
357.091	320.66
357.473	325.18
357.855	336.93
358.238	332.86
358.62	326.08
359.002	334.21
359.384	343.25
359.766	333.54
360.148	326.76
360.53	321.11
360.912	325.18
361.294	331.95
361.676	334.67
362.057	333.31
362.439	317.04
362.821	316.36
363.203	321.11
363.584	315.46
363.966	312.52
364.348	323.14
364.729	324.05
365.111	313.2
365.493	333.99
365.874	331.95
366.256	334.44
366.637	315.68
367.019	310.71
367.4	304.84
367.781	298.96
368.163	306.42
368.544	309.58
368.925	301.67
369.306	315.46
369.688	305.97
370.069	314.78
370.45	317.49
370.831	317.49
371.212	300.99
371.593	300.77
371.974	303.25
372.355	313.65
372.736	327.66
373.117	303.03
373.498	293.76
373.879	298.51
374.26	302.35
374.641	306.64
375.021	317.72
375.402	319.3
375.783	303.25
376.163	313.88
376.544	321.33
376.925	324.5
377.305	313.42
377.686	311.16
378.066	306.64
378.447	316.59
378.827	315.46
379.208	310.94
379.588	324.95
379.968	335.12
380.349	345.74
380.729	307.1
381.109	324.05
381.489	324.95
381.87	329.69
382.25	340.77
382.63	333.54
383.01	332.63
383.39	320.43
383.77	320.43
384.15	341.22
384.53	342.12
384.91	343.03
385.29	344.61
385.67	337.38
386.049	338.96
386.429	336.25
386.809	366.3
387.189	346.64
387.568	347.1
387.948	360.2
388.328	358.39
388.707	360.88
389.087	363.37
389.466	355.23
389.846	335.12
390.225	359.98
390.605	363.14
390.984	337.38
391.363	343.93
391.743	345.97
392.122	347.32
392.501	366.3
392.881	361.33
393.26	358.17
393.639	391.84
394.018	370.15
394.397	345.51
394.776	362.46
395.155	394.78
395.534	377.6
395.913	399.3
396.292	366.08
396.671	390.71
397.05	395.46
397.429	367.66
397.808	388.9
398.186	392.07
398.565	385.51
398.944	404.95
399.323	382.12
399.701	380.09
400.08	409.24
400.458	408.79
400.837	420.31
401.215	403.82
401.594	424.16
401.972	405.85
402.351	406.75
402.729	411.95
403.107	381.22
403.486	437.49
403.864	416.02
404.242	421.22
404.62	438.84
404.999	416.47
405.377	432.06
405.755	428.45
406.133	444.04
406.511	431.61
406.889	446.08
407.267	423.48
407.645	458.05
408.023	472.97
408.401	446.08
408.779	464.83
409.156	456.7
409.534	483.36
409.912	478.39
410.29	500.54
410.667	482.69
411.045	500.09
411.422	510.71
411.8	491.95
412.178	524.94
412.555	519.29
412.933	526.75
413.31	558.39
413.687	537.15
414.065	543.47
414.442	562.91
414.819	558.84
415.197	566.52
415.574	583.93
415.951	572.63
416.328	602
416.705	585.51
417.082	576.47
417.46	608.11
417.837	611.5
418.214	610.37
418.591	618.95
418.967	624.15
419.344	632.51
419.721	644.04
420.098	662.57
420.475	678.61
420.852	655.56
421.228	653.75
421.605	675
421.982	676.13
422.358	694.43
422.735	714.77
423.111	716.58
423.488	747.31
423.864	730.81
424.241	761.1
424.617	757.48
424.994	774.65
425.37	776.91
425.746	759.74
426.123	795.9
426.499	819.17
426.875	815.11
427.251	814.2
427.627	825.95
428.003	854.65
428.379	871.6
428.756	858.95
429.132	870.47
429.507	861.43
429.883	904.14
430.259	926.06
430.635	906.85
431.011	911.37
431.387	943.69
431.763	951.6
432.138	964.93
432.514	981.2
432.89	955.89
433.265	1003.58
433.641	993.63
434.016	1042.44
434.392	1045.61
434.767	1080.18
435.143	1073.4
435.518	1080.64
435.894	1100.75
436.269	1101.43
436.644	1132.84
437.02	1144.14
437.395	1188.43
437.77	1194.53
438.145	1192.5
438.52	1204.7
438.895	1240.18
439.271	1254.42
439.646	1261.2
440.021	1302.32
440.395	1283.12
440.77	1289.67
441.145	1328.31
441.52	1345.49
441.895	1349.55
442.27	1350.91
442.645	1362.89
443.019	1372.61
443.394	1372.15
443.769	1379.38
444.143	1406.5
444.518	1435.65
444.892	1448.54
445.267	1449.67
445.641	1445.82
446.016	1454.41
446.39	1464.58
446.764	1502.09
447.139	1485.82
447.513	1503.45
447.887	1506.16
448.262	1520.4
448.636	1538.93
449.01	1563.11
449.384	1560.17
449.758	1554.97
450.132	1560.17
450.506	1574.41
450.88	1601.3
451.254	1620.96
451.628	1658.47
452.002	1651.92
452.376	1626.38
452.75	1650.11
453.123	1702.77
453.497	1717.45
453.871	1736.44
454.244	1726.72
454.618	1762.88
454.992	1786.15
455.365	1801.52
455.739	1787.74
456.112	1837
456.486	1836.32
456.859	1857.56
457.232	1896.66
457.606	1888.07
457.979	1895.53
458.352	1925.36
458.725	1960.16
459.099	1984.57
459.472	2008.97
459.845	2015.07
460.218	2045.36
460.591	2062.53
460.964	2055.07
461.337	2116.99
461.71	2150.44
462.083	2195.41
462.456	2159.7
462.829	2152.7
463.201	2189.53
463.574	2215.97
463.947	2269.53
464.32	2294.61
464.692	2325.12
465.065	2350.21
465.438	2356.31
465.81	2345.23
466.183	2391.11
466.555	2432.01
466.928	2422.52
467.3	2435.85
467.672	2484.67
468.045	2559.92
468.417	2536.42
468.789	2575.74
469.161	2633.14
469.534	2643.08
469.906	2669.29
470.278	2717.65
470.65	2747.94
471.022	2752.68
471.394	2816.86
471.766	2855.96
472.138	2889.85
472.51	2916.52
472.882	2925.56
473.253	2976.63
473.625	3003.75
473.997	3057.98
474.369	3096.85
474.74	3104.09
475.112	3155.84
475.484	3207.36
475.855	3270.41
476.227	3289.16
476.598	3340.01
476.97	3324.64
477.341	3432.89
477.713	3507.92
478.084	3492.55
478.455	3598.76
478.827	3628.14
479.198	3689.38
479.569	3681.25
479.94	3761.92
480.311	3784.29
480.682	3907.68
481.053	3976.15
481.424	3997.39
481.795	4020.45
482.166	4098.64
482.537	4148.8
482.908	4193.55
483.279	4216.37
483.65	4327.56
484.021	4344.96
484.391	4391.51
484.762	4423.82
485.133	4478.29
485.503	4525.29
485.874	4586.08
486.244	4652.97
486.615	4702.01
486.985	4758.5
487.356	4832.4
487.726	4889.8
488.097	4986.75
488.467	4947.43
488.837	5070.36
489.207	5073.52
489.578	5159.62
489.948	5206.63
490.318	5302.67
490.688	5221.77
491.058	5324.37
491.428	5409.56
491.798	5415.44
492.168	5511.03
492.538	5516.68
492.908	5586.05
493.278	5583.79
493.648	5647.97
494.017	5722.1
494.387	5715.99
494.757	5764.13
495.126	5839.38
495.496	5829.66
495.866	5886.84
496.235	5921.41
496.605	5979.49
496.974	6001.64
497.344	5996.44
497.713	6043.67
498.082	6093.38
498.452	6129.77
498.821	6129.54
499.19	6167.96
499.559	6236.66
499.928	6220.39
500.298	6295.64
500.667	6266.71
501.036	6301.74
501.405	6370.67
501.774	6386.71
502.143	6395.98
502.512	6408.86
502.88	6421.74
503.249	6427.84
503.618	6490.21
503.987	6452.7
504.356	6494.28
504.724	6559.81
505.093	6524.33
505.462	6609.3
505.83	6589.42
506.199	6617.44
506.567	6700.15
506.936	6668.96
507.304	6703.31
507.672	6683.65
508.041	6743.99
508.409	6760.03
508.777	6792.12
509.145	6848.39
509.514	6841.16
509.882	6896.08
510.25	6898.34
510.618	6860.37
510.986	6927.71
511.354	6966.13
511.722	6992.12
512.09	6960.71
512.458	6948.28
512.826	7010.2
513.193	7022.63
513.561	7006.36
513.929	7063.3
514.297	7088.39
514.664	7146.24
515.032	7143.07
515.4	7128.61
515.767	7188.95
516.135	7160.7
516.502	7121.15
516.869	7236.63
517.237	7179.23
517.604	7142.85
517.972	7224.43
518.339	7208.84
518.706	7207.93
519.073	7237.99
519.44	7258.33
519.808	7277.08
520.175	7257.42
520.542	7318.21
520.909	7337.42
521.276	7291.32
521.643	7348.95
522.009	7357.98
522.376	7381.94
522.743	7369.74
523.11	7365.67
523.477	7419.68
523.843	7450.64
524.21	7555.72
524.577	7503.07
524.943	7488.6
525.31	7503.74
525.676	7504.2
526.043	7647.92
526.409	7534.25
526.776	7627.13
527.142	7566.11
527.508	7580.8
527.874	7641.14
528.241	7637.98
528.607	7643.63
528.973	7671.2
529.339	7595.04
529.705	7713.91
530.071	7671.65
530.437	7686.11
530.803	7652.44
531.169	7678.65
531.535	7603.4
531.901	7647.92
532.267	7663.51
532.632	7663.97
532.998	7657.86
533.364	7703.06
533.73	7689.28
534.095	7712.78
534.461	7684.3
534.826	7742.38
535.192	7666
535.557	7599.56
535.923	7696.28
536.288	7657.41
536.653	7687.24
537.019	7538.77
537.384	7628.94
537.749	7627.36
538.114	7564.76
538.479	7571.31
538.845	7570.18
539.21	7540.13
539.575	7563.4
539.94	7552.56
540.305	7542.39
540.67	7440.02
541.034	7487.02
541.399	7449.73
541.764	7480.24
542.129	7462.84
542.494	7442.5
542.858	7479.56
543.223	7451.54
543.587	7499.9
543.952	7359.57
544.316	7451.77
544.681	7398.44
545.045	7487.7
545.41	7417.42
545.774	7368.38
546.138	7378.32
546.503	7339.45
546.867	7318.66
547.231	7369.28
547.595	7385.55
547.959	7295.39
548.324	7306.69
548.688	7267.37
549.052	7273.24
549.416	7243.86
549.779	7221.26
550.143	7172.68
550.507	7322.51
550.871	7267.14
551.235	7108.27
551.599	7142.17
551.962	7206.12
552.326	7173.13
552.689	7221.04
553.053	7139.23
553.417	7127.71
553.78	7170.42
554.143	7115.96
554.507	7117.09
554.87	7104.21
555.234	7115.96
555.597	7148.95
555.96	7101.72
556.323	7101.27
556.686	7093.13
557.05	7153.47
557.413	7104.21
557.776	7122.74
558.139	7162.74
558.502	7126.35
558.865	7130.19
559.228	7206.58
559.59	7147.59
559.953	7192.34
560.316	7226.46
560.679	7158.22
561.041	7155.28
561.404	7198.89
561.767	7189.63
562.129	7200.25
562.492	7233.24
562.854	7182.17
563.217	7188.72
563.579	7167.71
563.941	7209.29
564.304	7260.36
564.666	7292
565.028	7255.84
565.39	7292.45
565.753	7336.74
566.115	7306.01
566.477	7309.4
566.839	7294.71
567.201	7396.18
567.563	7347.82
567.925	7406.34
568.287	7395.27
568.648	7398.66
569.01	7404.76
569.372	7474.37
569.734	7440.69
570.095	7437.98
570.457	7433.24
570.819	7446.12
571.18	7428.49
571.542	7594.59
571.903	7524.99
572.265	7548.71
572.626	7498.32
572.987	7578.77
573.349	7637.98
573.71	7631.2
574.071	7648.82
574.432	7616.06
574.794	7717.98
575.155	7664.42
575.516	7676.39
575.877	7704.87
576.238	7672.78
576.599	7741.25
576.96	7773.79
577.32	7759.1
577.681	7782.61
578.042	7772.89
578.403	7857.18
578.763	7858.99
579.124	7885.2
579.485	7849.5
579.845	7853.79
580.206	7832.77
580.566	7898.76
580.927	7944.41
581.287	7900.34
581.648	7907.35
582.008	7926.33
582.368	7932.43
582.728	7936.73
583.089	7930.17
583.449	7900.8
583.809	7979.21
584.169	8015.14
584.529	7987.12
584.889	8016.5
585.249	7968.82
585.609	8033.22
585.969	8079.1
586.329	7999.1
586.688	8041.13
587.048	8043.16
587.408	8015.37
587.768	8050.4
588.127	8088.13
588.487	8056.5
588.846	8127.23
589.206	8120.9
589.565	8154.12
589.925	8122.03
590.284	8151.86
590.643	8164.97
591.003	8155.7
591.362	8173.1
591.721	8162.26
592.08	8124.29
592.44	8195.7
592.799	8227.11
593.158	8207.23
593.517	8184.86
593.876	8204.97
594.235	8155.03
594.593	8243.38
594.952	8223.05
595.311	8216.94
595.67	8265.08
596.029	8242.48
596.387	8297.85
596.746	8318.64
597.104	8228.02
597.463	8233.22
597.822	8256.04
598.18	8296.26
598.538	8290.16
598.897	8331.97
599.255	8303.27
599.613	8376.49
599.972	8317.96
600.33	8306.43
600.688	8289.03
601.046	8390.27
601.404	8352.08
601.762	8340.78
602.12	8371.74
602.478	8364.51
602.836	8367.45
603.194	8350.73
603.552	8341.24
603.91	8296.94
604.268	8380.56
604.625	8354.12
604.983	8388.69
605.341	8391.86
605.698	8460.78
606.056	8413.1
606.413	8434.79
606.771	8446.54
607.128	8465.75
607.485	8341.24
607.843	8399.54
608.2	8428.46
608.557	8440.89
608.914	8400.44
609.272	8456.49
609.629	8475.24
609.986	8518.86
610.343	8473.44
610.7	8489.03
611.057	8502.36
611.414	8494.68
611.771	8537.84
612.127	8556.37
612.484	8451.74
612.841	8553.66
613.198	8528.8
613.554	8498.97
613.911	8594.34
614.267	8593.88
614.624	8582.36
614.98	8608.12
615.337	8604.73
615.693	8593.88
616.05	8595.01
616.406	8687.67
616.762	8576.71
617.118	8609.7
617.475	8658.06
617.831	8663.03
618.187	8663.26
618.543	8637.05
618.899	8693.54
619.255	8675.24
619.611	8691.51
619.967	8713.88
620.323	8711.4
620.678	8785.97
621.034	8674.33
621.39	8667.33
621.746	8659.87
622.101	8728.57
622.457	8728.8
622.812	8776.25
623.168	8728.57
623.523	8721.11
623.879	8756.59
624.234	8720.21
624.589	8732.64
624.945	8724.73
625.3	8778.06
625.655	8677.5
626.01	8678.63
626.365	8742.81
626.72	8725.63
627.075	8719.76
627.43	8723.82
627.785	8669.81
628.14	8684.73
628.495	8698.29
628.85	8698.06
629.205	8677.72
629.559	8691.51
629.914	8704.16
630.269	8583.94
630.623	8632.98
630.978	8635.92
631.332	8617.39
631.687	8674.56
632.041	8645.63
632.396	8559.31
632.75	8609.93
633.104	8577.16
633.459	8558.18
633.813	8553.21
634.167	8513.43
634.521	8555.24
634.875	8508.01
635.229	8529.71
635.583	8535.81
635.937	8531.74
636.291	8469.82
636.645	8513.21
636.999	8426.43
637.352	8462.81
637.706	8388.92
638.06	8467.11
638.413	8415.13
638.767	8422.59
639.121	8449.26
639.474	8366.09
639.828	8381.23
640.181	8377.62
640.534	8416.71
640.888	8359.99
641.241	8319.32
641.594	8342.37
641.947	8377.39
642.301	8340.11
642.654	8376.04
643.007	8393.66
643.36	8331.74
643.713	8350.5
644.066	8400.22
644.419	8333.55
644.771	8284.74
645.124	8184.18
645.477	8183.05
645.83	8127.91
646.182	8088.81
646.535	8078.87
646.888	8073.9
647.24	8030.96
647.593	8099.21
647.945	8053.56
648.298	7979.66
648.65	8007.68
649.002	8012.2
649.355	7998.42
649.707	8032.77
650.059	8048.81
650.411	8138.08
650.763	8136.04
651.115	8262.37
651.467	8182.82
651.819	8207.68
652.171	8248.58
652.523	8178.3
652.875	8185.76
653.227	8157.74
653.578	8220.56
653.93	8235.02
654.282	8142.6
654.633	8181.47
654.985	8183.95
655.337	8165.42
655.688	8122.48
656.039	8187.79
656.391	8115.48
656.742	8169.71
657.094	8159.77
657.445	8170.62
657.796	8158.19
658.147	8179.88
658.498	8192.76
658.849	8145.76
659.2	8184.4
659.551	8158.42
659.902	8165.19
660.253	8173.1
660.604	8143.5
660.955	8164.97
661.306	8173.78
661.656	8216.94
662.007	8186.89
662.358	8212.2
662.708	8161.81
663.059	8143.05
663.409	8104.18
663.76	8185.08
664.11	8165.19
664.461	8170.62
664.811	8161.35
665.161	8191.63
665.511	8160.22
665.862	8198.64
666.212	8212.88
666.562	8198.64
666.912	8210.62
667.262	8163.16
667.612	8216.49
667.962	8216.94
668.312	8160.45
668.662	8253.33
669.011	8158.42
669.361	8181.01
669.711	8212.65
670.06	8137.4
670.41	8170.84
670.76	8126.55
671.109	8202.03
671.459	8112.77
671.808	8152.77
672.157	8130.17
672.507	8105.54
672.856	8097.4
673.205	8092.2
673.554	8131.3
673.904	8110.73
674.253	8136.04
674.602	8105.08
674.951	8047.91
675.3	7953.22
675.649	8102.15
675.998	8061.02
676.346	8101.02
676.695	8152.99
677.044	8024.63
677.393	8069.6
677.741	8164.74
678.09	7980.79
678.438	8044.07
678.787	8054.69
679.135	8057.63
679.484	7895.6
679.832	7984.18
680.181	7944.86
680.529	7952.32
680.877	7940.34
681.225	7908.7
681.573	7947.35
681.922	7900.12
682.27	7832.77
682.618	7873.45
682.966	7851.08
683.314	7837.52
683.661	7830.51
684.009	7768.6
684.357	7794.58
684.705	7775.6
685.053	7744.42
685.4	7803.4
685.748	7797.97
686.095	7730.4
686.443	7715.94
686.79	7613.57
687.138	7688.37
687.485	7660.12
687.832	7596.62
688.18	7622.38
688.527	7609.05
688.874	7638.43
689.221	7580.58
689.568	7533.12
689.915	7506.91
690.262	7442.95
690.609	7429.4
690.956	7442.05
691.303	7477.08
691.65	7427.59
691.997	7411.09
692.344	7342.62
692.69	7286.12
693.037	7345.78
693.383	7251.77
693.73	7304.43
694.077	7301.94
694.423	7269.63
694.769	7236.18
695.116	7198.89
695.462	7156.86
695.808	7176.52
696.155	7186.46
696.501	7051.55
696.847	7074.15
697.193	7027.37
697.539	7080.25
697.885	7017.2
698.231	6982.85
698.577	7037.99
698.923	7010.87
699.269	6950.54
699.614	6888.84
699.96	6878.9
700.306	6894.95
700.651	6791.22
700.997	6763.88
701.342	6766.81
701.688	6757.1
702.033	6765.91
702.379	6757.55
702.724	6725.91
703.069	6689.53
703.415	6642.3
703.76	6573.37
704.105	6632.81
704.45	6623.09
704.795	6534.73
705.14	6558.46
705.485	6514.84
705.83	6507.39
706.175	6482.53
706.52	6497.22
706.865	6436.88
707.209	6446.14
707.554	6397.78
707.899	6404.56
708.243	6327.28
708.588	6383.55
708.932	6349.65
709.277	6325.24
709.621	6349.65
709.966	6326.15
710.31	6291.57
710.654	6239.6
710.998	6276.21
711.342	6266.94
711.687	6229.88
712.031	6229.43
712.375	6218.13
712.719	6221.29
713.063	6204.57
713.407	6199.14
713.75	6182.65
714.094	6117.11
714.438	6167.28
714.782	6121.86
715.125	6104.01
715.469	6167.96
715.812	6075.53
716.156	6063.56
716.499	6024.23
716.843	6112.82
717.186	5959.38
717.53	6036.66
717.873	6008.87
718.216	6014.74
718.559	6007.96
718.902	6020.17
719.246	5981.75
719.589	5935.2
719.932	5928.64
720.275	5975.65
720.617	5958.93
720.96	5965.25
721.303	5954.18
721.646	5940.62
721.989	5908.98
722.331	5988.08
722.674	5891.58
723.016	5915.31
723.359	5885.48
723.701	5889.55
724.044	5912.82
724.386	5868.76
724.729	5903.11
725.071	5871.92
725.413	5863.11
725.755	5850.23
726.097	5866.95
726.439	5883.9
726.782	5849.1
727.124	5904.69
727.465	5806.39
727.807	5788.31
728.149	5829.89
728.491	5835.09
728.833	5855.2
729.175	5811.36
729.516	5804.58
729.858	5776.78
730.199	5853.84
730.541	5790.34
730.882	5796.67
731.224	5840.28
731.565	5797.35
731.906	5784.01
732.248	5823.79
732.589	5763.45
732.93	5799.61
733.271	5820.62
733.612	5763.68
733.953	5845.03
734.294	5819.95
734.635	5781.08
734.976	5805.03
735.317	5740.4
735.658	5740.4
735.999	5820.85
736.339	5794.86
736.68	5852.26
737.021	5785.14
737.361	5761.64
737.702	5825.6
738.042	5832.15
738.383	5807.97
738.723	5835.09
739.063	5758.48
739.404	5831.02
739.744	5786.5
740.084	5791.7
740.424	5831.24
740.764	5787.63
741.104	5857.46
741.444	5859.72
741.784	5844.35
742.124	5845.71
742.464	5868.31
742.804	5852.71
743.143	5889.32
743.483	5930.45
743.823	5927.97
744.162	5944.24
744.502	6001.86
744.841	5952.82
745.181	5976.55
745.52	6007.29
745.86	6070.79
746.199	6048.87
746.538	6115.76
746.877	6169.54
747.216	6147.17
747.556	6169.77
747.895	6226.26
748.234	6164.8
748.573	6275.53
748.911	6293.38
749.25	6295.87
749.589	6378.8
749.928	6471.45
750.267	6462.64
750.605	6464
750.944	6535.86
751.283	6609.08
751.621	6679.13
751.96	6705.12
752.298	6778.34
752.636	6823.76
752.975	6887.26
753.313	6947.37
753.651	7011.1
753.989	7104.66
754.327	7114.38
754.666	7263.52
755.004	7409.06
755.342	7434.37
755.679	7476.17
756.017	7622.61
756.355	7685.21
756.693	7711.2
757.031	7929.27
757.368	7895.6
757.706	8083.62
758.044	8208.58
758.381	8297.17
758.719	8407.22
759.056	8485.41
759.394	8599.53
759.731	8666.42
760.068	8822.58
760.405	8886.31
760.743	9016.47
761.08	9163.13
761.417	9204.49
761.754	9428.89
762.091	9511.15
762.428	9573.07
762.765	9695.78
763.102	9818.03
763.438	9927.41
763.775	10012.15
764.112	10121.08
764.449	10260.06
764.785	10392.03
765.122	10411.69
765.458	10578.92
765.795	10671.34
766.131	10831.11
766.467	10919.92
766.804	10885.35
767.14	11035.18
767.476	11107.26
767.812	11237.2
768.148	11310.42
768.485	11434.26
768.821	11465.67
769.157	11523.3
