Data from hue_32_FLMS001491_00007.txt Node
Date: Tue Feb 07 17:22:50 GMT 2017
User: dcchb
Spectrometer: FLMS00149
Trigger mode: 0
Integration Time (sec): 2.000000E-2
Scans to average: 10
Electric dark correction enabled: true
Nonlinearity correction enabled: false
Boxcar width: 0
XAxis mode: Wavelengths
Number of Pixels in Spectrum: 2048
>>>>>Begin Spectral Data<<<<<
341.393	3.47
341.776	3.47
342.16	3.47
342.543	-73.36
342.927	-78.11
343.31	-68.16
343.693	-88.5
344.077	-57.99
344.46	-62.74
344.843	-52.57
345.226	-21.84
345.61	-41.95
345.993	0.54
346.376	-11.89
346.759	2.8
347.142	8.22
347.525	55.45
347.908	47.09
348.291	93.64
348.674	80.76
349.057	117.14
349.44	113.08
349.823	134.77
350.206	177.71
350.588	196.92
350.971	213.86
351.354	235.78
351.737	239.63
352.119	255.67
352.502	275.56
352.884	271.26
353.267	302.22
353.65	298.38
354.032	289.34
354.414	327.08
354.797	300.64
355.179	302.9
355.562	330.92
355.944	342.22
356.326	336.8
356.709	337.7
357.091	322.79
357.473	351.26
357.855	332.73
358.238	336.57
358.62	367.53
359.002	317.59
359.384	340.87
359.766	335.67
360.148	350.58
360.53	354.65
360.912	345.39
361.294	336.35
361.676	340.41
362.057	333.41
362.439	320.98
362.821	346.29
363.203	340.41
363.584	344.48
363.966	335.67
364.348	338.61
364.729	347.19
365.111	299.74
365.493	317.36
365.874	326.86
366.256	328.66
366.637	318.04
367.019	338.15
367.4	306.74
367.781	312.17
368.163	318.04
368.544	324.6
368.925	318.04
369.306	331.15
369.688	311.71
370.069	329.34
370.45	332.05
370.831	328.21
371.212	338.15
371.593	320.75
371.974	311.94
372.355	310.81
372.736	323.24
373.117	326.86
373.498	323.01
373.879	314.2
374.26	306.97
374.641	311.49
375.021	330.7
375.402	340.41
375.783	342.9
376.163	326.86
376.544	338.83
376.925	337.93
377.305	334.99
377.686	352.17
378.066	326.63
378.447	332.73
378.827	326.4
379.208	329.79
379.588	326.18
379.968	353.52
380.349	331.83
380.729	322.11
381.109	351.04
381.489	332.28
381.87	330.92
382.25	329.12
382.63	356.23
383.01	338.38
383.39	373.63
383.77	345.39
384.15	360.53
384.53	345.16
384.91	360.08
385.29	361.66
385.67	358.49
386.049	352.39
386.429	329.57
386.809	369.34
387.189	360.75
387.568	355.33
387.948	361.43
388.328	356.23
388.707	366.85
389.087	380.19
389.466	361.88
389.846	354.88
390.225	367.31
390.605	375.44
390.984	390.58
391.363	385.39
391.743	366.4
392.122	388.32
392.501	388.32
392.881	383.8
393.26	372.73
393.639	384.03
394.018	392.16
394.397	387.87
394.776	384.71
395.155	384.71
395.534	392.62
395.913	383.35
396.292	388.1
396.671	388.78
397.05	376.35
397.429	393.52
397.808	389.91
398.186	414.76
398.565	389
398.944	399.17
399.323	410.02
399.701	399.62
400.08	402.33
400.458	417.25
400.837	390.36
401.215	421.99
401.594	401.2
401.972	421.09
402.351	421.99
402.729	425.16
403.107	425.16
403.486	418.83
403.864	440.53
404.242	423.58
404.62	427.42
404.999	428.77
405.377	417.02
405.755	422.22
406.133	413.86
406.511	430.36
406.889	438.94
407.267	454.08
407.645	419.28
408.023	448.66
408.401	451.15
408.779	425.84
409.156	465.38
409.534	446.85
409.912	456.8
410.29	465.16
410.667	476
411.045	451.15
411.422	470.13
411.8	456.12
412.178	482.78
412.555	500.18
412.933	499.96
413.31	510.81
413.687	482.56
414.065	478.49
414.442	477.36
414.819	479.39
415.197	494.54
415.574	520.3
415.951	481.2
416.328	490.24
416.705	519.17
417.082	522.78
417.46	524.82
417.837	516.46
418.214	501.54
418.591	521.88
418.967	517.81
419.344	530.47
419.721	518.49
420.098	525.72
420.475	551.48
420.852	525.95
421.228	560.07
421.605	527.98
421.982	551.93
422.358	527.75
422.735	526.17
423.111	571.82
423.488	554.87
423.864	581.76
424.241	574.98
424.617	549.9
424.994	590.13
425.37	588.54
425.746	575.66
426.123	571.37
426.499	590.35
426.875	609.56
427.251	635.1
427.627	605.72
428.003	602.33
428.379	623.12
428.756	617.7
429.132	616.79
429.507	621.99
429.883	620.63
430.259	618.6
430.635	624.93
431.011	640.07
431.387	657.24
431.763	657.24
432.138	654.53
432.514	659.05
432.89	678.03
433.265	682.78
433.641	702.44
434.016	695.66
434.392	687.3
434.767	690.24
435.143	708.31
435.518	692.95
435.894	711.93
436.269	710.57
436.644	709.9
437.02	728.88
437.395	742.66
437.77	747.41
438.145	747.41
438.52	749.44
438.895	742.44
439.271	740.4
439.646	763.23
440.021	773.17
440.395	785.15
440.77	763
441.145	780.63
441.52	788.99
441.895	814.07
442.27	794.64
442.645	800.06
443.019	813.62
443.394	819.05
443.769	834.19
444.143	815.88
444.518	827.63
444.892	853.62
445.267	823.34
445.641	828.54
446.016	838.48
446.39	875.99
446.764	842.1
447.139	844.36
447.513	853.62
447.887	828.76
448.262	878.71
448.636	878.71
449.01	880.29
449.384	880.74
449.758	894.3
450.132	879.16
450.506	918.93
450.88	911.47
451.254	912.6
451.628	911.25
452.002	914.64
452.376	914.41
452.75	925.71
453.123	948.76
453.497	958.03
453.871	986.73
454.244	976.1
454.618	1000.96
454.992	973.17
455.365	986.27
455.739	1007.29
456.112	1025.82
456.486	1021.98
456.859	1048.42
457.232	1049.1
457.606	1060.62
457.979	1082.77
458.352	1052.49
458.725	1073.73
459.099	1127.29
459.472	1131.35
459.845	1149.89
460.218	1121.41
460.591	1153.95
460.964	1157.57
461.337	1156.44
461.71	1179.49
462.083	1202.31
462.456	1198.92
462.829	1229.43
463.201	1240.28
463.574	1235.53
463.947	1281.86
464.32	1273.95
464.692	1268.3
465.065	1305.81
465.438	1298.81
465.81	1340.84
466.183	1362.76
466.555	1375.19
466.928	1397.11
467.3	1385.59
467.672	1405.92
468.045	1444.79
468.417	1451.8
468.789	1455.41
469.161	1489.31
469.534	1506.71
469.906	1526.15
470.278	1555.3
470.65	1564.34
471.022	1580.38
471.394	1658.8
471.766	1666.03
472.138	1676.42
472.51	1706.48
472.882	1734.95
473.253	1750.55
473.625	1788.51
473.997	1810.43
474.369	1854.05
474.74	1874.39
475.112	1903.54
475.484	1950.99
475.855	1998.22
476.227	2046.81
476.598	2097.43
476.97	2110.99
477.341	2152.12
477.713	2187.37
478.084	2258.78
478.455	2318.22
478.827	2342.85
479.198	2440.25
479.569	2443.86
479.94	2467.36
480.311	2536.29
480.682	2609.96
481.053	2722.05
481.424	2751.65
481.795	2821.48
482.166	2874.59
482.537	2934.24
482.908	3027.35
483.279	3010.18
483.65	3079.55
484.021	3199.1
484.391	3261.47
484.762	3295.82
485.133	3370.17
485.503	3450.84
485.874	3536.26
486.244	3618.97
486.615	3717.73
486.985	3794.79
487.356	3859.19
487.726	3953.43
488.097	4042.24
488.467	4056.7
488.837	4182.8
489.207	4257.37
489.578	4350.48
489.948	4368.78
490.318	4544.82
490.688	4591.15
491.058	4677.25
491.428	4769.22
491.798	4858.94
492.168	4962.67
492.538	5049.9
492.908	5082.21
493.278	5217.8
493.648	5280.85
494.017	5400.62
494.387	5404.46
494.757	5471.81
495.126	5622.08
495.496	5634.06
495.866	5762.87
496.235	5812.59
496.605	5850.33
496.974	5918.8
497.344	6022.07
497.713	6073.15
498.082	6126.7
498.452	6265.68
498.821	6389.3
499.19	6387.49
499.559	6472.91
499.928	6542.51
500.298	6594.04
500.667	6660.7
501.036	6712.22
501.405	6805.1
501.774	6869.96
502.143	6965.55
502.512	6986.12
502.88	7096.62
503.249	7104.08
503.618	7179.56
503.987	7200.8
504.356	7285.54
504.724	7290.06
505.093	7457.52
505.462	7471.3
505.83	7547
506.199	7598.98
506.567	7678.53
506.936	7705.42
507.304	7852.53
507.672	7852.31
508.041	7959.65
508.409	8018.4
508.777	8061.57
509.145	8132.07
509.514	8122.36
509.882	8295.46
510.25	8165.97
510.618	8254.11
510.986	8345.85
511.354	8490.93
511.722	8541.78
512.09	8556.02
512.458	8560.54
512.826	8608.9
513.193	8731.61
513.561	8727.54
513.929	8772.51
514.297	8900.19
514.664	8924.37
515.032	8927.08
515.4	9120.75
515.767	9103.35
516.135	9179.28
516.502	9104.93
516.869	9240.52
517.237	9316.22
517.604	9212.95
517.972	9408.42
518.339	9439.84
518.706	9454.07
519.073	9506.95
519.44	9537.91
519.808	9696.78
520.175	9658.59
520.542	9742.2
520.909	9801.18
521.276	9835.08
521.643	9887.51
522.009	9993.49
522.376	10007.05
522.743	10104.9
523.11	10118.24
523.477	10280.49
523.843	10289.08
524.21	10457.66
524.577	10468.51
524.943	10492.69
525.31	10544.89
525.676	10589.64
526.043	10649.97
526.409	10772
526.776	10803.19
527.142	10833.7
527.508	10932.23
527.874	10989.17
528.241	11037.76
528.607	11081.83
528.973	11219.22
529.339	11174.71
529.705	11247.92
530.071	11415.15
530.437	11396.62
530.803	11522.95
531.169	11544.19
531.535	11546.9
531.901	11557.07
532.267	11625.09
532.632	11697.86
532.998	11718.42
533.364	11838.87
533.73	11921.58
534.095	11947.34
534.461	12018.98
534.826	12032.54
535.192	12033.89
535.557	12241.8
535.923	12188.01
536.288	12219.2
536.653	12306.65
537.019	12310.27
537.384	12374.45
537.749	12411.74
538.114	12370.15
538.479	12503.26
538.845	12599.75
539.21	12535.12
539.575	12644.05
539.94	12708.68
540.305	12812.86
540.67	12802.46
541.034	12870.71
541.399	12889.24
541.764	12954.32
542.129	13026.41
542.494	12984.83
542.858	13134.43
543.223	13125.39
543.587	13204.71
543.952	13208.33
544.316	13318.6
544.681	13329.23
545.045	13331.49
545.41	13463.46
545.774	13446.28
546.138	13486.06
546.503	13651.7
546.867	13521.09
547.231	13721.76
547.595	13741.42
547.959	13793.17
548.324	13774.86
548.688	13836.78
549.052	13930.79
549.416	14046.72
549.779	14023.22
550.143	14022.09
550.507	14114.29
550.871	14174.85
551.235	14051.69
551.599	14197.45
551.962	14347.5
552.326	14300.5
552.689	14448.74
553.053	14405.36
553.417	14462.3
553.78	14623.88
554.143	14514.51
554.507	14641.28
554.87	14653.48
555.234	14829.75
555.597	14677.89
555.96	14787.94
556.323	14786.36
556.686	14833.14
557.05	14959.01
557.413	14991.55
557.776	15049.86
558.139	15159.46
558.502	15215.28
558.865	15278.55
559.228	15341.38
559.59	15322.17
559.953	15361.04
560.316	15509.06
560.679	15484.88
561.041	15595.15
561.404	15620.01
561.767	15761.7
562.129	15690.29
562.492	15867.69
562.854	15784.75
563.217	15865.2
563.579	15839.22
563.941	16037.4
564.304	16057.97
564.666	16270.17
565.028	16176.16
565.39	16116.27
565.753	16272.88
566.115	16301.35
566.477	16354.01
566.839	16392.42
567.201	16621.34
567.563	16564.39
567.925	16651.17
568.287	16635.58
568.648	16774.78
569.01	16936.59
569.372	16994.21
569.734	16979.3
570.095	17037.15
570.457	17039.18
570.819	17098.39
571.18	17193.3
571.542	17353.75
571.903	17392.17
572.265	17500.87
572.626	17519.4
572.987	17600.53
573.349	17643.91
573.71	17833.29
574.071	17871.25
574.432	17954.41
574.794	18032.83
575.155	18166.39
575.516	18170.23
575.877	18288.19
576.238	18426.94
576.599	18455.87
576.96	18605.47
577.32	18624.45
577.681	18855.41
578.042	18972.47
578.403	19093.14
578.763	19160.03
579.124	19359.35
579.485	19492
579.845	19788.04
580.206	19810.86
580.566	19935.15
580.927	20016.73
581.287	20305.31
581.648	20398.87
582.008	20624.18
582.368	20754.79
582.728	20944.84
583.089	21030.49
583.449	21284.72
583.809	21369.01
584.169	21679.74
584.529	21832.73
584.889	22151.82
585.249	22286.5
585.609	22363.79
585.969	22812.59
586.329	22917.45
586.688	23208.97
587.048	23392.46
587.408	23617.32
587.768	23761.49
588.127	24079.9
588.487	24273.12
588.846	24721.69
589.206	24627.23
589.565	25006.88
589.925	25364.39
590.284	25445.07
590.643	25872.4
591.003	26141.77
591.362	26403.68
591.721	26763.9
592.08	26853.39
592.44	27080.73
592.799	27456.54
593.158	27783.54
593.517	27961.38
593.876	28110.98
594.235	28250.19
594.593	28607.24
594.952	29063.28
595.311	29146.66
595.67	29381.69
596.029	29806.76
596.387	30172.4
596.746	30364.26
597.104	30609
597.463	30720.86
597.822	31128.76
598.18	31258.7
598.538	31415.3
598.897	31896.65
599.255	31881.73
599.613	32394.04
599.972	32593.8
600.33	32914.02
600.688	32850.07
601.046	33151.3
601.404	33609.37
601.762	33663.83
602.12	34048.23
602.478	34249.13
602.836	34353.53
603.194	34440.99
603.552	34719.4
603.91	34850.69
604.268	35198.48
604.625	35355.99
604.983	35635.76
605.341	35515.31
605.698	35997.56
606.056	36215.4
606.413	36362.74
606.771	36595.73
607.128	36770.42
607.485	36720.25
607.843	37067.36
608.2	37197.75
608.557	37537.63
608.914	37406.78
609.272	37729.94
609.629	37948.24
609.986	38243.37
610.343	38266.88
610.7	38712.74
611.057	38590.71
611.414	38777.6
611.771	38902.56
612.127	39194.99
612.484	39289.22
612.841	39616.67
613.198	39509.1
613.554	39599.72
613.911	39910.67
614.267	39938.92
614.624	40006.94
614.98	40282.87
615.337	40492.58
615.693	40574.16
616.05	40617.55
616.406	40921.72
616.762	40832.46
617.118	40920.82
617.475	41044.66
617.831	41271.32
618.187	41354.93
618.543	41619.56
618.899	41638.54
619.255	41776.16
619.611	41745.43
619.967	41938.87
620.323	42270.61
620.678	42028.81
621.034	42044.18
621.39	42127.34
621.746	42277.62
622.101	42685.06
622.457	42441.91
622.812	42641.9
623.168	42644.84
623.523	42784.95
623.879	42882.8
624.234	42516.71
624.589	42950.14
624.945	42895.68
625.3	43061.1
625.655	43066.07
626.01	43181.1
626.365	43208.89
626.72	42941.55
627.075	43088.67
627.43	43268.33
627.785	43152.62
628.14	43304.26
628.495	43325.95
628.85	43478.26
629.205	43264.03
629.559	43511.94
629.914	43426.29
630.269	43515.32
630.623	43301.55
630.978	43401.43
631.332	43488.21
631.687	43727.75
632.041	43608.66
632.396	43566.17
632.75	43475.78
633.104	43518.71
633.459	43463.57
633.813	43559.39
634.167	43583.12
634.521	43474.42
634.875	43651.59
635.229	43634.87
635.583	43269.91
635.937	43486.85
636.291	43310.36
636.645	43398.49
636.999	43404.59
637.352	43357.36
637.706	43254.54
638.06	43468.77
638.413	43267.42
638.767	43267.2
639.121	43535.66
639.474	43121.66
639.828	43183.81
640.181	43198.72
640.534	43326.18
640.888	43217.48
641.241	43027.2
641.594	43279.4
641.947	43245.28
642.301	43255.44
642.654	43170.93
643.007	43040.53
643.36	43065.39
643.713	42978.62
644.066	43179.97
644.419	43036.92
644.771	42755.12
645.124	42285.98
645.477	42335.02
645.83	42093.89
646.182	41889.6
646.535	41919.89
646.888	41946.55
647.24	41674.24
647.593	42038.08
647.945	41915.59
648.298	41709.04
648.65	41579.33
649.002	41670.63
649.355	41817.06
649.707	41716.28
650.059	41934.35
650.411	42374.11
650.763	42348.35
651.115	42911.72
651.467	42685.29
651.819	42642.81
652.171	42569.81
652.523	42535.69
652.875	42587.44
653.227	42484.84
653.578	42548.12
653.93	42404.39
654.282	42285.3
654.633	42256.15
654.985	42337.28
655.337	42403.72
655.688	42379.76
656.039	42473.54
656.391	42075.36
656.742	42130.05
657.094	42236.26
657.445	42330.27
657.796	42269.93
658.147	42218.86
658.498	42206.21
658.849	42304.74
659.2	42212.08
659.551	42098.64
659.902	42271.74
660.253	42144.97
660.604	42266.77
660.955	41985.42
661.306	42252.76
661.656	42064.97
662.007	42180.44
662.358	42070.39
662.708	42172.31
663.059	42061.8
663.409	42025.87
663.76	42178.64
664.11	42173.21
664.461	42204.4
664.811	42107.45
665.161	42123.72
665.511	42052.09
665.862	41949.49
666.212	42165.08
666.562	42191.07
666.912	42011.18
667.262	41920.34
667.612	41851.19
667.962	42039.43
668.312	41965.53
668.662	42072.42
669.011	41962.6
669.361	41891.19
669.711	41862.71
670.06	41897.51
670.41	41842.83
670.76	41703.17
671.109	42093.67
671.459	41791.53
671.808	41727.58
672.157	41949.72
672.507	41596.96
672.856	41574.81
673.205	41711.98
673.554	41730.74
673.904	41601.48
674.253	41875.37
674.602	41644.41
674.951	41172.11
675.3	40990.19
675.649	41562.16
675.998	41601.7
676.346	41463.63
676.695	41767.12
677.044	41462.72
677.393	41662.72
677.741	41637.86
678.09	41533
678.438	41249.17
678.787	41357.19
679.135	41417.07
679.484	41181.37
679.832	41275.16
680.181	41042.85
680.529	41254.14
680.877	41094.15
681.225	41051.21
681.573	41226.12
681.922	40970.08
682.27	40860.03
682.618	40966.69
682.966	40675.4
683.314	40955.39
683.661	40764.89
684.009	40675.4
684.357	40662.29
684.705	40426.37
685.053	40658.68
685.4	40476.31
685.748	40344.11
686.095	40315.86
686.443	40311.79
686.79	40293.49
687.138	40227.28
687.485	40265.01
687.832	40027.96
688.18	40020.28
688.527	39984.8
688.874	39758.36
689.221	39757.68
689.568	39644.92
689.915	39578.71
690.262	39641.53
690.609	39519.95
690.956	39363.12
691.303	39357.02
691.65	39213.97
691.997	39133.29
692.344	39019.17
692.69	38993.41
693.037	38787.54
693.383	38527.89
693.73	38731.5
694.077	38518.39
694.423	38644.49
694.769	38388.68
695.116	38415.12
695.462	38293.09
695.808	38099.87
696.155	38258.06
696.501	37871.86
696.847	38002.25
697.193	37676.38
697.539	37826.21
697.885	37532.21
698.231	37372.89
698.577	37490.62
698.923	37378.76
699.269	37253.34
699.614	37051.54
699.96	37004.54
700.306	36951.43
700.651	36978.55
700.997	36723.64
701.342	36763.19
701.688	36580.14
702.033	36438.9
702.379	36485.68
702.724	36414.72
703.069	36581.5
703.415	36055.18
703.76	36040.95
704.105	36009.99
704.45	35947.61
704.795	35847.28
705.14	35755.53
705.485	35802.08
705.83	35517.57
706.175	35598.02
706.52	35506.27
706.865	35427.18
707.209	35281.19
707.554	35243.9
707.899	35299.04
708.243	35125.26
708.588	35028.54
708.932	34779.96
709.277	34987.41
709.621	34899.05
709.966	34665.39
710.31	34694.31
710.654	34546.75
710.998	34454.55
711.342	34502.68
711.687	34226.76
712.031	34217.04
712.375	34114.67
712.719	34124.39
713.063	34056.14
713.407	34266.98
713.75	33863.38
714.094	33977.72
714.438	33926.42
714.782	33852.3
715.125	33656.83
715.469	33859.31
715.812	33590.16
716.156	33440.79
716.499	33490.96
716.843	33418.87
717.186	33150.17
717.53	33395.14
717.873	33360.79
718.216	33264.52
718.559	32944.98
718.902	32980.91
719.246	33090.29
719.589	32817.07
719.932	32779.11
720.275	32694.59
720.617	32632.9
720.96	32580.02
721.303	32541.38
721.646	32607.81
721.989	32374.15
722.331	32499.8
722.674	32443.07
723.016	32498.89
723.359	32360.36
723.701	32285.79
724.044	32083.76
724.386	32048.51
724.729	32161.95
725.071	32007.38
725.413	32137.77
725.755	32036.3
726.097	31769.64
726.439	31714.28
726.782	31757.22
727.124	31872.24
727.465	31577.79
727.807	31695.3
728.149	31578.24
728.491	31534.4
728.833	31606.49
729.175	31462.08
729.516	31360.84
729.858	31393.16
730.199	31321.52
730.541	31229.55
730.882	31359.03
731.224	31389.54
731.565	31115.88
731.906	31204.69
732.248	31087.18
732.589	30967.41
732.93	30962.21
733.271	30882.44
733.612	30864.36
733.953	30957.91
734.294	30722.67
734.635	30836.79
734.976	30802.44
735.317	30559.28
735.658	30588.88
735.999	30470.24
736.339	30567.64
736.68	30606.29
737.021	30601.77
737.361	30325.16
737.702	30445.39
738.042	30292.4
738.383	30267.99
738.723	30425.27
739.063	30285.16
739.404	30152.29
739.744	30126.75
740.084	30107.99
740.424	30293.3
740.764	30053.98
741.104	30200.42
741.444	29971.05
741.784	29809.24
742.124	29868.68
742.464	29861.9
742.804	29844.05
743.143	29665.52
743.483	29786.87
743.823	29766.76
744.162	29607.67
744.502	29642.7
744.841	29449.03
745.181	29683.82
745.52	29477.95
745.86	29546.2
746.199	29403.38
746.538	29450.16
746.877	29517.05
747.216	29281.35
747.556	29247.68
747.895	29177.17
748.234	29103.05
748.573	29125.87
748.911	29041.58
749.25	29058.98
749.589	28904.18
749.928	28940.57
750.267	29063.73
750.605	28791.87
750.944	28747.8
751.283	28663.29
751.621	28744.19
751.96	28588.71
752.298	28607.69
752.636	28631.87
752.975	28463.29
753.313	28286.8
753.651	28423.52
753.989	28255.84
754.327	28327.7
754.666	28155.73
755.004	28195.05
755.342	28173.81
755.679	28156.41
756.017	28031.21
756.355	28096.52
756.693	27823.31
757.031	27908.28
757.368	27711.22
757.706	27657.44
