Data from hue_50_FLMS001491_13.txt Node
Date: Mon Feb 06 15:09:39 GMT 2017
User: dcchb
Spectrometer: FLMS00149
Trigger mode: 0
Integration Time (sec): 2.000000E-2
Scans to average: 10
Electric dark correction enabled: true
Nonlinearity correction enabled: false
Boxcar width: 0
XAxis mode: Wavelengths
Number of Pixels in Spectrum: 2048
>>>>>Begin Spectral Data<<<<<
341.393	-8.46
341.776	-8.46
342.16	-8.46
342.543	-41.45
342.927	-73.77
343.31	-83.03
343.693	-71.28
344.077	-76.03
344.46	-73.77
344.843	-44.39
345.226	-45.75
345.61	-16.6
345.993	-10.95
346.376	-0.55
346.759	12.1
347.142	33.8
347.525	28.15
347.908	61.59
348.291	67.7
348.674	109.05
349.057	109.95
349.44	135.94
349.823	130.07
350.206	165.55
350.588	204.19
350.971	213.91
351.354	225.88
351.737	240.35
352.119	267.69
352.502	261.36
352.884	301.36
353.267	301.81
353.65	285.32
354.032	299.1
354.414	329.16
354.797	308.82
355.179	314.02
355.562	328.25
355.944	321.25
356.326	344.75
356.709	343.17
357.091	329.61
357.473	345.88
357.855	342.27
358.238	339.78
358.62	344.07
359.002	353.56
359.384	316.73
359.766	337.07
360.148	345.43
360.53	343.17
360.912	343.39
361.294	334.58
361.676	327.58
362.057	332.77
362.439	319.21
362.821	330.74
363.203	329.16
363.584	319.67
363.966	321.02
364.348	322.6
364.729	326.9
365.111	320.57
365.493	308.14
365.874	302.27
366.256	324.64
366.637	326.22
367.019	324.64
367.4	315.6
367.781	310.18
368.163	322.6
368.544	304.75
368.925	309.95
369.306	304.3
369.688	314.7
370.069	315.37
370.45	305.88
370.831	321.47
371.212	292.1
371.593	321.47
371.974	318.31
372.355	312.21
372.736	309.5
373.117	321.02
373.498	297.97
373.879	314.24
374.26	316.73
374.641	321.93
375.021	311.53
375.402	301.36
375.783	307.46
376.163	348.82
376.544	321.7
376.925	332.77
377.305	318.54
377.686	330.29
378.066	319.67
378.447	323.28
378.827	323.06
379.208	320.12
379.588	322.15
379.968	332.1
380.349	325.54
380.729	338.42
381.109	331.64
381.489	335.03
381.87	306.33
382.25	333.45
382.63	342.94
383.01	324.64
383.39	324.64
383.77	346.33
384.15	349.95
384.53	337.97
384.91	337.29
385.29	349.5
385.67	335.94
386.049	349.04
386.429	340.46
386.809	334.81
387.189	335.94
387.568	342.72
387.948	349.27
388.328	358.54
388.707	362.6
389.087	340.01
389.466	356.28
389.846	354.92
390.225	344.07
390.605	335.49
390.984	356.05
391.363	333
391.743	339.78
392.122	353.34
392.501	340.91
392.881	365.54
393.26	362.6
393.639	363.96
394.018	346.56
394.397	389.27
394.776	368.93
395.155	363.28
395.534	372.09
395.913	345.43
396.292	362.15
396.671	349.04
397.05	368.03
397.429	367.8
397.808	364.86
398.186	382.04
398.565	358.99
398.944	362.15
399.323	362.38
399.701	365.09
400.08	380.91
400.458	373
400.837	370.06
401.215	375.26
401.594	393.56
401.972	378.87
402.351	384.3
402.729	374.81
403.107	392.43
403.486	411.42
403.864	381.59
404.242	396.5
404.62	396.73
404.999	385.2
405.377	401.02
405.755	393.56
406.133	404.64
406.511	402.83
406.889	388.14
407.267	416.84
407.645	397.18
408.023	417.07
408.401	398.99
408.779	419.33
409.156	411.87
409.534	432.43
409.912	410.29
410.29	434.69
410.667	416.39
411.045	441.47
411.422	430.4
411.8	420.91
412.178	435.82
412.555	429.04
412.933	429.27
413.31	423.17
413.687	438.99
414.065	415.03
414.442	454.35
414.819	432.66
415.197	471.08
415.574	454.35
415.951	461.81
416.328	449.38
416.705	469.04
417.082	465.2
417.46	466.78
417.837	474.24
418.214	470.17
418.591	457.74
418.967	475.82
419.344	483.28
419.721	474.46
420.098	476.05
420.475	482.6
420.852	507.68
421.228	474.92
421.605	489.15
421.982	491.41
422.358	488.02
422.735	507.23
423.111	490.51
423.488	496.84
423.864	486.44
424.241	521.02
424.617	485.09
424.994	506.55
425.37	506.55
425.746	515.59
426.123	510.62
426.499	519.44
426.875	513.11
427.251	537.29
427.627	537.06
428.003	534.8
428.379	534.58
428.756	544.52
429.132	527.8
429.507	560.79
429.883	551.75
430.259	558.76
430.635	565.08
431.011	575.48
431.387	589.94
431.763	580.68
432.138	562.37
432.514	596.5
432.89	603.05
433.265	577.97
433.641	584.97
434.016	593.33
434.392	584.97
434.767	615.03
435.143	605.99
435.518	612.54
435.894	624.74
436.269	635.59
436.644	626.55
437.02	620.9
437.395	607.79
437.77	623.84
438.145	634.23
438.52	652.09
438.895	656.61
439.271	656.61
439.646	658.19
440.021	655.25
440.395	659.54
440.77	657.06
441.145	684.63
441.52	682.82
441.895	689.15
442.27	671.07
442.645	667.91
443.019	683.72
443.394	675.36
443.769	694.35
444.143	696.38
444.518	707.23
444.892	688.02
445.267	690.96
445.641	709.04
446.016	719.66
446.39	709.04
446.764	734.57
447.139	723.05
447.513	723.95
447.887	728.02
448.262	743.16
448.636	740.22
449.01	734.8
449.384	763.5
449.758	749.26
450.132	757.62
450.506	731.41
450.88	755.81
451.254	764.85
451.628	789.94
452.002	779.99
452.376	768.47
452.75	775.47
453.123	774.34
453.497	803.72
453.871	802.37
454.244	815.47
454.618	815.92
454.992	828.35
455.365	834.68
455.739	836.26
456.112	833.78
456.486	883.49
456.859	861.12
457.232	892.76
457.606	875.58
457.979	893.21
458.352	906.09
458.725	901.35
459.099	887.56
459.472	935.7
459.845	932.76
460.218	939.09
460.591	935.24
460.964	964.62
461.337	961.68
461.71	967.33
462.083	993.32
462.456	999.87
462.829	1017.05
463.201	1016.82
463.574	1016.82
463.947	1030.61
464.32	1039.65
464.692	1078.52
465.065	1090.27
465.438	1101.79
465.81	1094.11
466.183	1116.48
466.555	1141.57
466.928	1168.46
467.3	1157.84
467.672	1178.63
468.045	1226.99
468.417	1200.55
468.789	1211.85
469.161	1217.95
469.534	1272.41
469.906	1302.69
470.278	1330.04
470.65	1349.47
471.022	1376.36
471.394	1379.53
471.766	1440.32
472.138	1406.64
472.51	1455.68
472.882	1530.71
473.253	1507.88
473.625	1550.59
473.997	1601.67
474.369	1615
474.74	1664.26
475.112	1696.13
475.484	1733.64
475.855	1779.06
476.227	1796.46
476.598	1870.59
476.97	1913.98
477.341	1952.17
477.713	1970.24
478.084	2015.89
478.455	2087.76
478.827	2179.73
479.198	2221.09
479.569	2258.82
479.94	2385.15
480.311	2398.26
480.682	2464.47
481.053	2555.99
481.424	2606.16
481.795	2692.94
482.166	2766.61
482.537	2814.52
482.908	2942.2
483.279	3021.52
483.65	3114.4
484.021	3201.4
484.391	3264.67
484.762	3359.13
485.133	3444.33
485.503	3538.79
485.874	3690.2
486.244	3730.42
486.615	3882.96
486.985	3985.33
487.356	4055.16
487.726	4195.05
488.097	4355.04
488.467	4433
488.837	4523.4
489.207	4674.35
489.578	4792.77
489.948	4934.46
490.318	4999.77
490.688	5080.67
491.058	5201.57
491.428	5356.37
491.798	5504.39
492.168	5664.84
492.538	5741.9
492.908	5914.77
493.278	6029.57
493.648	6113.64
494.017	6303.01
494.387	6384.59
494.757	6551.14
495.126	6697.8
495.496	6769.89
495.866	6882.88
496.235	6967.18
496.605	7157.91
496.974	7231.8
497.344	7430.67
497.713	7479.7
498.082	7615.52
498.452	7773.48
498.821	7908.17
499.19	7980.93
499.559	8162.62
499.928	8290.76
500.298	8401.71
500.667	8513.35
501.036	8536.4
501.405	8731.65
501.774	8781.14
502.143	8892.55
502.512	8965.54
502.88	9166.44
503.249	9238.08
503.618	9346.1
503.987	9512.19
504.356	9546.54
504.724	9662.47
505.093	9768.91
505.462	9859.53
505.83	9961.9
506.199	10116.47
506.567	10265.85
506.936	10311.72
507.304	10505.39
507.672	10566.18
508.041	10662.22
508.409	10769.56
508.777	10803.46
509.145	10958.71
509.514	11012.72
509.882	11159.38
510.25	11208.42
510.618	11347.4
510.986	11446.38
511.354	11608.18
511.722	11723.66
512.09	11790.55
512.458	11840.49
512.826	12048.17
513.193	12007.5
513.561	12191.67
513.929	12263.99
514.297	12411.55
514.664	12443.64
515.032	12580.14
515.4	12667.14
515.767	12739.45
516.135	12867.36
516.502	12851.54
516.869	13078.65
517.237	13168.14
517.604	13148.26
517.972	13288.59
518.339	13404.75
518.706	13443.62
519.073	13564.06
519.44	13670.5
519.808	13833.66
520.175	13811.97
520.542	14004.28
520.909	14096.48
521.276	14102.81
521.643	14293.54
522.009	14404.49
522.376	14510.03
522.743	14563.13
523.11	14721.77
523.477	14884.93
523.843	14890.36
524.21	15102.33
524.577	15208.31
524.943	15298.48
525.31	15350.01
525.676	15589.55
526.043	15604.01
526.409	15816.89
526.776	15908.64
527.142	15893.27
527.508	16056.2
527.874	16163.32
528.241	16253.94
528.607	16323.54
528.973	16462.29
529.339	16549.97
529.705	16663.19
530.071	16855.05
530.437	16871.55
530.803	16969.85
531.169	17084.88
531.535	17128.94
531.901	17210.07
532.267	17220.01
532.632	17370.29
532.998	17419.33
533.364	17549.04
533.73	17588.14
534.095	17784.97
534.461	17752.43
534.826	17895.25
535.192	18031.74
535.557	18082.14
535.923	18055.02
536.288	18134.34
536.653	18245.3
537.019	18227.22
537.384	18306.09
537.749	18451.39
538.114	18499.98
538.479	18525.97
538.845	18638.96
539.21	18596.93
539.575	18703.59
539.94	18825.62
540.305	18876.47
540.67	18979.06
541.034	18951.04
541.399	19164.82
541.764	19176.57
542.129	19243.01
542.494	19320.75
542.858	19318.72
543.223	19359.62
543.587	19567.3
543.952	19573.62
544.316	19603.23
544.681	19558.03
545.045	19729.33
545.41	19899.26
545.774	19926.83
546.138	19899.04
546.503	20138.58
546.867	20003.22
547.231	20163.89
547.595	20207.51
547.959	20248.63
548.324	20253.38
548.688	20333.38
549.052	20472.13
549.416	20545.58
549.779	20621.05
550.143	20646.82
550.507	20767.49
550.871	20881.61
551.235	20778.34
551.599	20967.94
551.962	21023.76
552.326	21056.75
552.689	21170.42
553.053	21042.51
553.417	21084.77
553.78	21548.94
554.143	21454.7
554.507	21546
554.87	21631.2
555.234	21820.57
555.597	21563.63
555.96	21763.62
556.323	21931.3
556.686	21933.79
557.05	22103.73
557.413	22224.4
557.776	22252.88
558.139	22342.36
558.502	22409.03
558.865	22433.21
559.228	22564.05
559.59	22652.86
559.953	22654.22
560.316	22969.47
560.679	22930.15
561.041	23079.97
561.404	23202.23
561.767	23300.08
562.129	23368.55
562.492	23559.51
562.854	23555.67
563.217	23377.37
563.579	23635.21
563.941	23804.7
564.304	23843.12
564.666	23937.58
565.028	24026.84
565.39	24272.71
565.753	24247.63
566.115	24285.59
566.477	24502.31
566.839	24566.71
567.201	24756.31
567.563	24660.95
567.925	24860.94
568.287	24794.05
568.648	25047.38
569.01	25138.9
569.372	25227.94
569.734	25253.93
570.095	25413.92
570.457	25405.79
570.819	25599.23
571.18	25603.3
571.542	25781.82
571.903	25788.83
572.265	25933.23
572.626	25971.87
572.987	26118.99
573.349	26157.41
573.71	26264.3
574.071	26409.6
574.432	26482.14
574.794	26649.82
575.155	26604.85
575.516	26531.86
575.877	26788.12
576.238	26912.19
576.599	27043.94
576.96	27066.99
577.32	27181.33
577.681	27245.51
578.042	27297.71
578.403	27452.29
578.763	27457.94
579.124	27551.95
579.485	27716.01
579.845	27761.43
580.206	27799.62
580.566	27905.61
580.927	27982.44
581.287	28247.52
581.648	28114.64
582.008	28229.89
582.368	28313.28
582.728	28514.18
583.089	28513.73
583.449	28600.51
583.809	28745.59
584.169	28920.5
584.529	28892.47
584.889	29167.27
585.249	29005.69
585.609	29131.56
585.969	29268.28
586.329	29363.65
586.688	29389.18
587.048	29612.23
587.408	29602.29
587.768	29763.64
588.127	29748.05
588.487	29728.84
588.846	30105.55
589.206	30040.92
589.565	30060.13
589.925	30373.34
590.284	30314.13
590.643	30550.74
591.003	30575.14
591.362	30700.11
591.721	30705.76
592.08	30830.5
592.44	30999.09
592.799	31069.14
593.158	31112.3
593.517	31117.95
593.876	31266.42
594.235	31368.79
594.593	31511.61
594.952	31549.58
595.311	31552.74
595.67	31818.73
596.029	31965.61
596.387	32063.92
596.746	32161.77
597.104	32119.96
597.463	32202.67
597.822	32390.91
598.18	32310.01
598.538	32328.09
598.897	32609.21
599.255	32462.55
599.613	32942.54
599.972	32800.62
600.33	32880.39
600.688	32906.38
601.046	33074.29
601.404	33030.67
601.762	33122.19
602.12	33337.78
602.478	33360.61
602.836	33458
603.194	33341.62
603.552	33480.6
603.91	33410.55
604.268	33750.2
604.625	33766.92
604.983	33844.43
605.341	33696.87
605.698	34017.31
606.056	34074.94
606.413	34134.14
606.771	34312.45
607.128	34379.56
607.485	34113.35
607.843	34253.92
608.2	34606
608.557	34719.21
608.914	34628.6
609.272	34816.61
609.629	34821.13
609.986	34978.64
610.343	34857.52
610.7	35124.63
611.057	35245.53
611.414	35082.37
611.771	35136.38
612.127	35290.05
612.484	35437.16
612.841	35465.41
613.198	35388.58
613.554	35464.05
613.911	35742.92
614.267	35774.78
614.624	35788.11
614.98	35819.3
615.337	35972.51
615.693	35958.73
616.05	35962.57
616.406	36190.14
616.762	36113.08
617.118	36295.22
617.475	36206.86
617.831	36360.08
618.187	36346.97
618.543	36437.36
618.899	36605.94
619.255	36641.65
619.611	36614.76
619.967	36855.43
620.323	36883.68
620.678	36796
621.034	36709.67
621.39	36794.41
621.746	36716.9
622.101	37189.88
622.457	36948.31
622.812	36965.48
623.168	37142.43
623.523	37194.86
623.879	37230.79
624.234	37037.12
624.589	37228.75
624.945	37324.8
625.3	37262.88
625.655	37203.89
626.01	37379.26
626.365	37413.83
626.72	37426.94
627.075	37373.61
627.43	37372.03
627.785	37302.65
628.14	37430.78
628.495	37492.02
628.85	37416.77
629.205	37258.13
629.559	37682.75
629.914	37339.03
630.269	37476.43
630.623	37347.39
630.978	37308.52
631.332	37610.21
631.687	37506.03
632.041	37398.01
632.396	37467.62
632.75	37359.6
633.104	37376.55
633.459	37233.95
633.813	37294.29
634.167	37203.67
634.521	37170.9
634.875	37306.94
635.229	37164.12
635.583	36979.49
635.937	37166.83
636.291	37197.12
636.645	37123.44
636.999	37059.94
637.352	37205.02
637.706	37023.79
638.06	37196.44
638.413	36983.56
638.767	37066.05
639.121	37124.12
639.474	36890.46
639.828	36835.32
640.181	36901.53
640.534	37022.43
640.888	36693.17
641.241	36765.71
641.594	36786.73
641.947	36948.08
642.301	36784.92
642.654	36819.05
643.007	36779.05
643.36	36831.02
643.713	36745.38
644.066	36785.15
644.419	36600.07
644.771	36294.54
645.124	36109.69
645.477	36073.08
645.83	35780.43
646.182	35685.06
646.535	35608.91
646.888	35492.53
647.24	35394
647.593	35671.28
647.945	35502.7
648.298	35421.12
648.65	35362.59
649.002	35355.81
649.355	35542.47
649.707	35372.3
650.059	35493.66
650.411	35946.53
650.763	35977.94
651.115	36320.08
651.467	36222.9
651.819	36171.15
652.171	36044.83
652.523	36175.67
652.875	36011.16
653.227	35878.05
653.578	36146.75
653.93	36115.11
654.282	35901.56
654.633	35818.39
654.985	35924.61
655.337	35923.7
655.688	36040.99
656.039	36114.43
656.391	35804.38
656.742	35788.56
657.094	35853.42
657.445	35841.67
657.796	35913.31
658.147	35874.44
658.498	35877.15
658.849	35890.03
659.2	35874.21
659.551	35698.85
659.902	35727.55
660.253	35752.18
660.604	35719.41
660.955	35738.4
661.306	35782.24
661.656	35712.18
662.007	35687.78
662.358	35636.48
662.708	35752.63
663.059	35607.78
663.409	35476.93
663.76	35791.28
664.11	35674.22
664.461	35786.98
664.811	35727.78
665.161	35788.34
665.511	35588.8
665.862	35679.41
666.212	35652.3
666.562	35669.92
666.912	35527.55
667.262	35698.85
667.612	35660.43
667.962	35779.98
668.312	35528.46
668.662	35754.22
669.011	35552.86
669.361	35416.6
669.711	35487.56
670.06	35504.05
670.41	35479.65
670.76	35346.99
671.109	35508.35
671.459	35489.14
671.808	35347.9
672.157	35547.22
672.507	35310.61
672.856	35290.27
673.205	35226.09
673.554	35379.54
673.904	35299.09
674.253	35464.73
674.602	35331.18
674.951	34792.43
675.3	34692.1
675.649	35254.12
675.998	35216.83
676.346	35263.61
676.695	35307.9
677.044	35003.73
677.393	35140.9
677.741	35172.08
678.09	35078.3
678.438	35003.95
678.787	35157.85
679.135	35098.41
679.484	34898.64
679.832	35049.6
680.181	34735.48
680.529	34874.01
680.877	34769.61
681.225	34729.84
681.573	35026.78
681.922	34797.86
682.27	34652.32
682.618	34676.73
682.966	34587.92
683.314	34679.22
683.661	34542.5
684.009	34353.8
684.357	34134.82
684.705	34263.41
685.053	34266.12
685.4	34260.7
685.748	34051.66
686.095	34073.36
686.443	34063.64
686.79	33808.28
687.138	33944.55
687.485	33836.3
687.832	33781.39
688.18	33758.56
688.527	33550.66
688.874	33724.21
689.221	33501.62
689.568	33483.77
689.915	33354.5
690.262	33387.5
690.609	33367.16
690.956	33239.71
691.303	33150.89
691.65	32964.23
691.997	33073.38
692.344	32771.02
692.69	32820.96
693.037	32796.78
693.383	32557.69
693.73	32714.97
694.077	32586.39
694.423	32474.53
694.769	32409.22
695.116	32365.38
695.462	32302.78
695.808	32196.57
696.155	32191.82
696.501	31994.09
696.847	32075.44
697.193	31766.52
697.539	31856.92
697.885	31696.24
698.231	31621.89
698.577	31596.13
698.923	31583.25
699.269	31225.29
699.614	31232.3
699.96	31209.48
700.306	31103.94
700.651	30995.92
700.997	30984.62
701.342	30974.91
701.688	30964.96
702.033	30778.53
702.379	30738.98
702.724	30668.7
703.069	30727.45
703.415	30318.65
703.76	30335.15
704.105	30354.13
704.45	30284.08
704.795	30149.84
705.14	30085.44
705.485	30016.96
705.83	29956.85
706.175	29977.19
706.52	29924.76
706.865	29795.73
707.209	29729.51
707.554	29606.13
707.899	29536.75
708.243	29571.78
708.588	29521.84
708.932	29355.51
709.277	29372.24
709.621	29309.19
709.966	29128.85
710.31	29134.05
710.654	28928.63
710.998	29005.92
711.342	28923.21
711.687	28837.79
712.031	28836.21
712.375	28672.82
712.719	28669.43
713.063	28615.87
713.407	28725.7
713.75	28569.09
714.094	28415.65
714.438	28323.22
714.782	28399.83
715.125	28232.15
715.469	28302.21
715.812	28212.27
716.156	28069.67
716.499	28019.28
716.843	28032.61
717.186	27901.09
717.53	28025.83
717.873	28008.43
718.216	27890.47
718.559	27827.19
718.902	27645.73
719.246	27668.1
719.589	27474.43
719.932	27579.51
720.275	27511.49
720.617	27469.91
720.96	27472.4
721.303	27374.77
721.646	27373.87
721.989	27160.77
722.331	27295.91
722.674	27229.69
723.016	27251.61
723.359	27140.2
723.701	27283.7
724.044	26943.6
724.386	26906.76
724.729	27069.7
725.071	26970.04
725.413	27038.74
725.755	26859.31
726.097	26802.81
726.439	26756.26
726.782	26632.2
727.124	26866.54
727.465	26594
727.807	26635.13
728.149	26480.33
728.491	26504.74
728.833	26439.43
729.175	26354.91
729.516	26342.26
729.858	26292.09
730.199	26343.39
730.541	26212.77
730.882	26222.04
731.224	26222.49
731.565	26012.78
731.906	26039.44
732.248	25995.6
732.589	25975.26
732.93	25905.89
733.271	25937.75
733.612	25877.41
733.953	25825.89
734.294	25728.04
734.635	25824.53
734.976	25819.56
735.317	25723.52
735.658	25676.06
735.999	25755.61
736.339	25618.44
736.68	25599.68
737.021	25656.63
737.361	25497.76
737.702	25619.57
738.042	25469.51
738.383	25282.63
738.723	25480.81
739.063	25366.92
739.404	25443.98
739.744	25225.23
740.084	25277.2
740.424	25224.1
740.764	25197.66
741.104	25275.62
741.444	25027.72
741.784	24922.86
742.124	25129.86
742.464	25042.18
742.804	24976.65
743.143	25016.64
743.483	24945.69
743.823	24923.54
744.162	24776.42
744.502	24799.02
744.841	24785.46
745.181	24875.41
745.52	24650.33
745.86	24678.8
746.199	24635.41
746.538	24699.59
746.877	24682.87
747.216	24651.46
747.556	24429.09
747.895	24442.65
748.234	24389.99
748.573	24336.44
748.911	24378.02
749.25	24234.07
749.589	24162.43
749.928	24186.61
750.267	24148.64
750.605	24181.41
750.944	24086.05
751.283	24082.43
751.621	23986.16
751.96	23887.18
752.298	23885.83
752.636	23872.95
752.975	23756.79
753.313	23642.44
753.651	23723.35
753.989	23642.44
754.327	23620.3
754.666	23526.06
755.004	23527.42
755.342	23589.34
755.679	23475.44
756.017	23440.87
756.355	23502.79
756.693	23244.71
757.031	23323.36
