Data from hue_310_FLMS001491_79.txt Node
Date: Mon Feb 06 15:50:09 GMT 2017
User: dcchb
Spectrometer: FLMS00149
Trigger mode: 0
Integration Time (sec): 2.000000E-2
Scans to average: 10
Electric dark correction enabled: true
Nonlinearity correction enabled: false
Boxcar width: 0
XAxis mode: Wavelengths
Number of Pixels in Spectrum: 2048
>>>>>Begin Spectral Data<<<<<
341.393	-3.38
341.776	-3.38
342.16	-3.38
342.543	-45.41
342.927	-61.23
343.31	-59.65
343.693	-49.7
344.077	-55.13
344.46	-57.16
344.843	-73.88
345.226	-41.79
345.61	-33.43
345.993	-22.36
346.376	-12.41
346.759	8.83
347.142	5.44
347.525	44.53
347.908	56.74
348.291	86.57
348.674	94.47
349.057	108.94
349.44	137.19
349.823	131.99
350.206	177.18
350.588	198.43
350.971	202.27
351.354	222.16
351.737	226.22
352.119	247.69
352.502	277.52
352.884	272.1
353.267	257.63
353.65	305.09
354.032	307.35
354.414	299.89
354.797	311.19
355.179	324.07
355.562	308.71
355.944	299.89
356.326	343.28
356.709	335.82
357.091	324.98
357.473	366.56
357.855	335.6
358.238	337.41
358.62	350.06
359.002	317.75
359.384	338.08
359.766	324.98
360.148	325.43
360.53	347.12
360.912	335.82
361.294	347.58
361.676	334.69
362.057	319.33
362.439	364.52
362.821	344.41
363.203	321.81
363.584	320.23
363.966	333.56
364.348	321.14
364.729	320.46
365.111	313
365.493	302.83
365.874	325.88
366.256	332.21
366.637	314.58
367.019	309.61
367.4	321.81
367.781	323.62
368.163	340.8
368.544	323.85
368.925	320.23
369.306	327.46
369.688	314.81
370.069	307.35
370.45	301.48
370.831	326.33
371.212	334.92
371.593	311.87
371.974	325.66
372.355	328.82
372.736	326.79
373.117	328.59
373.498	307.8
373.879	314.58
374.26	294.92
374.641	316.39
375.021	358.2
375.402	350.97
375.783	318.42
376.163	335.6
376.544	336.95
376.925	327.69
377.305	323.17
377.686	336.73
378.066	348.25
378.447	332.21
378.827	322.27
379.208	334.47
379.588	346.9
379.968	338.76
380.349	323.62
380.729	333.11
381.109	363.62
381.489	344.86
381.87	339.44
382.25	339.67
382.63	330.85
383.01	347.8
383.39	350.74
383.77	337.41
384.15	352.1
384.53	340.57
384.91	341.47
385.29	360.68
385.67	335.82
386.049	368.37
386.429	355.26
386.809	351.87
387.189	369.95
387.568	356.16
387.948	352.55
388.328	379.67
388.707	344.64
389.087	371.98
389.466	373.56
389.846	375.37
390.225	389.38
390.605	377.18
390.984	361.36
391.363	365.65
391.743	388.7
392.122	375.6
392.501	378.31
392.881	390.51
393.26	388.03
393.639	379.89
394.018	367.46
394.397	390.96
394.776	374.02
395.155	400.91
395.534	391.42
395.913	390.29
396.292	391.42
396.671	410.4
397.05	398.2
397.429	393.9
397.808	411.75
398.186	395.26
398.565	383.73
398.944	428.25
399.323	421.92
399.701	416.73
400.08	428.03
400.458	412.21
400.837	412.88
401.215	404.3
401.594	430.74
401.972	406.78
402.351	425.99
402.729	430.74
403.107	441.81
403.486	428.25
403.864	473.45
404.242	445.88
404.62	442.26
404.999	446.78
405.377	445.65
405.755	470.51
406.133	463.96
406.511	464.18
406.889	468.7
407.267	484.07
407.645	463.05
408.023	482.94
408.401	498.08
408.779	492.66
409.156	499.44
409.534	498.98
409.912	510.96
410.29	490.85
410.667	523.16
411.045	522.26
411.422	540.56
411.8	535.37
412.178	534.24
412.555	536.27
412.933	567.91
413.31	573.33
413.687	578.08
414.065	560
414.442	582.82
414.819	589.6
415.197	587.8
415.574	617.4
415.951	632.77
416.328	632.31
416.705	618.08
417.082	624.18
417.46	660.79
417.837	661.01
418.214	666.66
418.591	652.43
418.967	680.67
419.344	684.97
419.721	689.04
420.098	676.38
420.475	721.35
420.852	720
421.228	686.78
421.605	716.38
421.982	710.96
422.358	734.01
422.735	771.75
423.111	748.92
423.488	767.45
423.864	767
424.241	812.2
424.617	797.73
424.994	790.5
425.37	821.91
425.746	825.98
426.123	812.42
426.499	816.04
426.875	833.89
427.251	843.38
427.627	860.56
428.003	886.09
428.379	865.53
428.756	888.13
429.132	880.44
429.507	910.95
429.883	948.92
430.259	942.59
430.635	904.4
431.011	949.14
431.387	972.42
431.763	981.91
432.138	974.45
432.514	992.3
432.89	1001.34
433.265	1021.68
433.641	1038.63
434.016	1041.79
434.392	1047.67
434.767	1076.82
435.143	1082.47
435.518	1089.7
435.894	1091.51
436.269	1113.21
436.644	1121.11
437.02	1100.32
437.395	1128.57
437.77	1144.39
438.145	1166.09
438.52	1187.78
438.895	1191.4
439.271	1199.08
439.646	1215.58
440.021	1211.73
440.395	1216.48
440.77	1220.1
441.145	1226.87
441.52	1242.47
441.895	1250.15
442.27	1274.56
442.645	1245.63
443.019	1261.45
443.394	1271.62
443.769	1280.66
444.143	1270.49
444.518	1278.4
444.892	1276.82
445.267	1291.28
445.641	1315.01
446.016	1276.36
446.39	1307.55
446.764	1324.5
447.139	1312.75
447.513	1333.54
447.887	1334.67
448.262	1322.69
448.636	1336.93
449.01	1342.13
449.384	1345.97
449.758	1372.63
450.132	1385.74
450.506	1393.42
450.88	1384.61
451.254	1388.68
451.628	1397.94
452.002	1406.08
452.376	1404.05
452.75	1441.56
453.123	1422.8
453.497	1449.69
453.871	1473.65
454.244	1460.09
454.618	1424.38
454.992	1450.15
455.365	1467.09
455.739	1533.08
456.112	1525.85
456.486	1537.83
456.859	1513.19
457.232	1565.62
457.606	1547.54
457.979	1536.02
458.352	1603.14
458.725	1624.15
459.099	1616.69
459.472	1659.18
459.845	1655.79
460.218	1654.66
460.591	1664.83
460.964	1667.77
461.337	1680.65
461.71	1719.52
462.083	1738.5
462.456	1737.37
462.829	1761.55
463.201	1725.84
463.574	1749.12
463.947	1769.91
464.32	1775.33
464.692	1790.7
465.065	1812.17
465.438	1828.44
465.81	1828.21
466.183	1865.28
466.555	1884.48
466.928	1893.75
467.3	1901.43
467.672	1905.73
468.045	1942.34
468.417	1921.55
468.789	1946.63
469.161	1976.46
469.534	1983.24
469.906	2023.69
470.278	2032.96
470.65	2035.67
471.022	2069.79
471.394	2128.55
471.766	2094.65
472.138	2114.76
472.51	2130.58
472.882	2164.7
473.253	2177.58
473.625	2210.13
473.997	2232.95
474.369	2232.72
474.74	2270.01
475.112	2296.22
475.484	2337.81
475.855	2354.98
476.227	2359.27
476.598	2427.07
476.97	2432.49
477.341	2456.9
477.713	2503.45
478.084	2465.49
478.455	2586.39
478.827	2572.83
479.198	2594.52
479.569	2593.84
479.94	2673.84
480.311	2710
480.682	2728.08
481.053	2773.05
481.424	2788.42
481.795	2848.07
482.166	2850.79
482.537	2895.08
482.908	2950.45
483.279	2962.42
483.65	2949.09
484.021	3050.1
484.391	3021.4
484.762	3062.53
485.133	3063.89
485.503	3111.12
485.874	3140.95
486.244	3201.96
486.615	3226.6
486.985	3257.33
487.356	3291.68
487.726	3309.31
488.097	3367.16
488.467	3328.74
488.837	3427.95
489.207	3470.66
489.578	3475.63
489.948	3515.4
490.318	3546.81
490.688	3564.89
491.058	3580.48
491.428	3658.9
491.798	3652.35
492.168	3722.85
492.538	3733.25
492.908	3784.55
493.278	3759.92
493.648	3751.78
494.017	3828.16
494.387	3875.62
494.757	3908.16
495.126	3895.5
495.496	3887.37
495.866	3921.49
496.235	3957.65
496.605	4025.9
496.974	4003.52
497.344	4057.53
497.713	3995.16
498.082	4080.36
498.452	4081.71
498.821	4104.31
499.19	4099.12
499.559	4155.61
499.928	4137.31
500.298	4212.11
500.667	4215.95
501.036	4202.84
501.405	4266.34
501.774	4219.34
502.143	4273.8
502.512	4315.61
502.88	4373.46
503.249	4336.4
503.618	4319.67
503.987	4350.18
504.356	4395.38
504.724	4386.34
505.093	4424.76
505.462	4431.76
505.83	4408.71
506.199	4480.12
506.567	4492.55
506.936	4489.84
507.304	4511.53
507.672	4509.27
508.041	4561.48
508.409	4634.24
508.777	4609.16
509.145	4625.2
509.514	4655.94
509.882	4649.84
510.25	4667.69
510.618	4693.45
510.986	4735.93
511.354	4736.16
511.722	4750.85
512.09	4766.89
512.458	4771.87
512.826	4747.91
513.193	4842.6
513.561	4799.89
513.929	4776.84
514.297	4814.8
514.664	4853.67
515.032	4888.93
515.4	4857.74
515.767	4906.33
516.135	4930.05
516.502	4899.32
516.869	4953.78
517.237	4985.42
517.604	4954.23
517.972	5030.62
518.339	4994.46
518.706	5051.41
519.073	5079.65
519.44	5075.59
519.808	5107
520.175	5056.15
520.542	5097.96
520.909	5167.79
521.276	5132.53
521.643	5136.83
522.009	5182.93
522.376	5205.3
522.743	5259.76
523.11	5285.98
523.477	5318.07
523.843	5334.56
524.21	5386.77
524.577	5371.85
524.943	5401.23
525.31	5398.29
525.676	5465.63
526.043	5517.84
526.409	5539.08
526.776	5525.07
527.142	5522.13
527.508	5561.9
527.874	5623.14
528.241	5665.63
528.607	5650.04
528.973	5706.53
529.339	5710.82
529.705	5793.08
530.071	5752.18
530.437	5774.1
530.803	5851.39
531.169	5860.43
531.535	5859.75
531.901	5855.23
532.267	5902.91
532.632	5978.39
532.998	5989.01
533.364	5999.4
533.73	6006.64
534.095	6043.92
534.461	6071.27
534.826	6093.41
535.192	6107.42
535.557	6238.95
535.923	6163.69
536.288	6182.9
536.653	6250.47
537.019	6244.37
537.384	6221.09
537.749	6224.03
538.114	6282.11
538.479	6297.93
538.845	6390.13
539.21	6346.51
539.575	6414.76
539.94	6399.85
540.305	6470.13
540.67	6517.36
541.034	6527.07
541.399	6449.56
541.764	6536.34
542.129	6571.14
542.494	6624.7
542.858	6618.82
543.223	6695.88
543.587	6645.04
543.952	6678.26
544.316	6718.26
544.681	6745.6
545.045	6800.29
545.41	6841.42
545.774	6859.95
546.138	6790.34
546.503	6893.62
546.867	6857.23
547.231	7042.99
547.595	6975.2
547.959	6962.99
548.324	7025.37
548.688	7002.09
549.052	7085.48
549.416	7117.57
549.779	7009.77
550.143	7108.98
550.507	7099.49
550.871	7200.28
551.235	7201.41
551.599	7261.52
551.962	7193.95
552.326	7228.75
552.689	7357.56
553.053	7280.95
553.417	7341.74
553.78	7400.72
554.143	7354.62
554.507	7423.1
554.87	7443.21
555.234	7469.42
555.597	7458.8
555.96	7501.51
556.323	7476.2
556.686	7451.12
557.05	7593.71
557.413	7602.3
557.776	7609.08
558.139	7624.9
558.502	7696.31
558.865	7715.97
559.228	7748.51
559.59	7696.08
559.953	7766.82
560.316	7839.36
560.679	7878.23
561.041	7773.82
561.404	7839.58
561.767	7874.16
562.129	7945.79
562.492	8006.81
562.854	7967.04
563.217	8039.35
563.579	8004.55
563.941	8082.29
564.304	8147.37
564.666	8108.5
565.028	8120.25
565.39	8145.11
565.753	8185.56
566.115	8242.74
566.477	8267.14
566.839	8254.71
567.201	8252
567.563	8389.4
567.925	8370.42
568.287	8461.03
568.648	8364.31
569.01	8436.4
569.372	8500.13
569.734	8482.73
570.095	8555.27
570.457	8637.3
570.819	8633.01
571.18	8695.6
571.542	8692.44
571.903	8813.57
572.265	8798.2
572.626	8804.53
572.987	8866.45
573.349	8932.43
573.71	8994.13
574.071	9027.35
574.432	9048.59
574.794	9185.99
575.155	9197.96
575.516	9179.89
575.877	9341.46
576.238	9327.68
576.599	9502.59
576.96	9524.51
577.32	9588.46
577.681	9679.99
578.042	9756.82
578.403	9818.06
578.763	9920.66
579.124	10027.32
579.485	10168.56
579.845	10311.16
580.206	10334.88
580.566	10378.72
580.927	10621.88
581.287	10704.14
581.648	10810.13
582.008	10966.73
582.368	11085.15
582.728	11216.89
583.089	11354.29
583.449	11476.77
583.809	11741.4
584.169	11863.43
584.529	12033.82
584.889	12271.56
585.249	12453.25
585.609	12617.08
585.969	12893.91
586.329	13014.14
586.688	13262.49
587.048	13494.35
587.408	13718.52
587.768	13961
588.127	14165.52
588.487	14352.86
588.846	14701.55
589.206	14935.44
589.565	15147.64
589.925	15437.12
590.284	15713.73
590.643	15980.84
591.003	16273.94
591.362	16641.38
591.721	16895.84
592.08	17202.27
592.44	17436.84
592.799	17670.74
593.158	17992.99
593.517	18298.74
593.876	18583.25
594.235	18838.61
594.593	19251.26
594.952	19426.4
595.311	19698.93
595.67	20079.03
596.029	20411.91
596.387	20735.74
596.746	20959.91
597.104	21311.54
597.463	21594.93
597.822	22049.6
598.18	22197.17
598.538	22534.56
598.897	22843.71
599.255	23035.79
599.613	23611.6
599.972	23729.33
600.33	24171.36
600.688	24349.66
601.046	24642.08
601.404	25103.31
601.762	25256.07
602.12	25528.61
602.478	25955.94
602.836	26096.05
603.194	26360
603.552	26735.58
603.91	26918.18
604.268	27149.81
604.625	27310.26
604.983	27692.85
605.341	27817.81
605.698	28162.21
606.056	28446.27
606.413	28700.95
606.771	29016.88
607.128	29278.34
607.485	29445.34
607.843	29694.15
608.2	30033.12
608.557	30304.98
608.914	30411.87
609.272	30742.93
609.629	30818.19
609.986	31220.44
610.343	31310.83
610.7	31751.95
611.057	31862.68
611.414	32113.29
611.771	32239.39
612.127	32547.86
612.484	32716.89
612.841	32942.65
613.198	32928.19
613.554	33140.61
613.911	33594.84
614.267	33608.85
614.624	33878.67
614.98	34110.98
615.337	34290.86
615.693	34465.1
616.05	34463.97
616.406	34891.98
616.762	34818.31
617.118	35084.29
617.475	34979.43
617.831	35319.54
618.187	35466.2
618.543	35750.71
618.899	35944.15
619.255	36029.8
619.611	36092.62
619.967	36378.04
620.323	36408.1
620.678	36326.52
621.034	36476.34
621.39	36549.11
621.746	36746.84
622.101	37041.98
622.457	36937.12
622.812	37116.55
623.168	37315.87
623.523	37382.53
623.879	37471.35
624.234	37286.04
624.589	37531.68
624.945	37589.08
625.3	37847.15
625.655	37775.52
626.01	37912.01
626.365	38052.8
626.72	38062.52
627.075	38136.64
627.43	38221.83
627.785	38039.92
628.14	38366.24
628.495	38366.91
628.85	38315.84
629.205	38436.74
629.559	38661.37
629.914	38452.79
630.269	38515.61
630.623	38588.6
630.978	38533.46
631.332	38661.6
631.687	38793.8
632.041	38570.53
632.396	38851.2
632.75	38650.75
633.104	38820.24
633.459	38659.34
633.813	38662.95
634.167	38763.97
634.521	38706.57
634.875	38824.53
635.229	38822.27
635.583	38703.86
635.937	38801.48
636.291	38773.46
636.645	38806.23
636.999	38761.25
637.352	38875.38
637.706	38734.14
638.06	38842.38
638.413	38782.95
638.767	38822.5
639.121	38698.88
639.474	38656.85
639.828	38595.38
640.181	38795.83
640.534	38774.59
640.888	38587.47
641.241	38642.61
641.594	38718.77
641.947	38821.59
642.301	38807.58
642.654	38822.04
643.007	38735.94
643.36	38752.22
643.713	38684.87
644.066	38890.07
644.419	38513.35
644.771	38301.61
645.124	37959.24
645.477	37981.39
645.83	37834.5
646.182	37588.18
646.535	37661.4
646.888	37714.28
647.24	37524.68
647.593	37566.94
647.945	37562.42
648.298	37352.25
648.65	37410.56
649.002	37325.81
649.355	37477.9
649.707	37339.37
650.059	37583.43
650.411	38008.96
650.763	37980.48
651.115	38368.72
651.467	38242.62
651.819	38219.8
652.171	38216.86
652.523	38307.03
652.875	38138.22
653.227	38082.4
653.578	38233.59
653.93	38241.04
654.282	38137.99
654.633	38054.83
654.985	38025.68
655.337	38106.81
655.688	38035.4
656.039	38060.48
656.391	37872.24
656.742	37970.99
657.094	37992.01
657.445	37979.58
657.796	37991.11
658.147	37886.25
658.498	37853.48
658.849	38150.88
659.2	37966.7
659.551	37854.39
659.902	37898
660.253	37918.57
660.604	38009.41
660.955	37728.74
661.306	37934.38
661.656	37782.52
662.007	37827.04
662.358	37748.17
662.708	37828.17
663.059	37819.81
663.409	37538.24
663.76	37831.11
664.11	37799.92
664.461	37865.23
664.811	37786.59
665.161	37797.44
665.511	37692.58
665.862	37746.59
666.212	37962.18
666.562	37914.5
666.912	37770.09
667.262	37681.06
667.612	37783.43
667.962	37833.14
668.312	37761.51
668.662	37854.39
669.011	37665.69
669.361	37689.19
669.711	37622.53
670.06	37651.23
670.41	37633.15
670.76	37609.19
671.109	37611.68
671.459	37608.06
671.808	37620.49
672.157	37629.31
672.507	37436.32
672.856	37348.18
673.205	37563.55
673.554	37781.62
673.904	37547.95
674.253	37766.48
674.602	37602.42
674.951	36880.63
675.3	36865.26
675.649	37411.91
675.998	37339.82
676.346	37314.06
676.695	37602.19
677.044	37260.73
677.393	37317.68
677.741	37463.21
678.09	37315.87
678.438	37155.2
678.787	37317.9
679.135	37295.76
679.484	37068.64
679.832	37047.4
680.181	37076.78
680.529	37028.65
680.877	36956.78
681.225	36864.36
681.573	37027.52
681.922	36928.53
682.27	36790.01
682.618	36854.19
682.966	36578.26
683.314	36775.09
683.661	36693.51
684.009	36467.08
684.357	36390.7
684.705	36435.44
685.053	36347.31
685.4	36392.28
685.748	36265.95
686.095	36334.88
686.443	36098.05
686.79	35990.03
687.138	36101.21
687.485	36124.71
687.832	35882.46
688.18	35858.51
688.527	35756.36
688.874	35789.58
689.221	35766.31
689.568	35559.76
689.915	35566.08
690.262	35556.14
690.609	35427.56
690.956	35404.96
691.303	35327.9
691.65	35197.96
691.997	35247.9
692.344	34922.71
692.69	34880.23
693.037	34910.73
693.383	34589.16
693.73	34812.21
694.077	34723.85
694.423	34693.34
694.769	34425.1
695.116	34352.33
695.462	34449.96
695.808	34291.32
696.155	34285.44
696.501	33998.67
696.847	34113.69
697.193	33856.53
697.539	33950.76
697.885	33716.42
698.231	33665.12
698.577	33674.61
698.923	33635.97
699.269	33396.88
699.614	33150.33
699.96	33235.75
700.306	33234.17
700.651	33141.06
700.997	32961.63
701.342	32898.13
701.688	32864.23
702.033	32818.13
702.379	32740.4
702.724	32605.48
703.069	32671.7
703.415	32307.64
703.76	32398.48
704.105	32554.64
704.45	32357.81
704.795	32187.87
705.14	32032.84
705.485	32014.31
705.83	31909.68
706.175	31907.65
706.52	31830.36
706.865	31808.9
707.209	31760.31
707.554	31553.08
707.899	31637.37
708.243	31542.24
708.588	31389.92
708.932	31172.08
709.277	31292.75
709.621	31320.32
709.966	30963.04
710.31	31218.63
710.654	30901.12
710.998	30980.44
711.342	30986.54
711.687	30832.88
712.031	30689.15
712.375	30575.26
712.719	30667.23
713.063	30573
713.407	30588.14
713.75	30390.85
714.094	30473.56
714.438	30297.3
714.782	30387.69
715.125	30129.39
715.469	30272.21
715.812	30022.73
716.156	29940.7
716.499	29957.19
716.843	30033.8
717.186	29745.45
717.53	29830.64
717.873	29909.51
718.216	29737.09
718.559	29629.07
718.902	29538.67
719.246	29604.43
719.589	29526.92
719.932	29373.48
720.275	29399.92
720.617	29326.02
720.96	29229.53
721.303	29268.85
721.646	29220.26
721.989	29083.09
722.331	29231.11
722.674	29072.7
723.016	29067.72
723.359	28957.9
723.701	28991.79
724.044	28921.06
724.386	28749.09
724.729	28869.54
725.071	28734.85
725.413	28710.9
725.755	28593.61
726.097	28603.33
726.439	28435.88
726.782	28523.11
727.124	28563.56
727.465	28342.77
727.807	28441.3
728.149	28324.69
728.491	28244.7
728.833	28305.48
729.175	28220.97
729.516	28243.57
729.858	28096.45
730.199	28023.23
730.541	27997.7
730.882	28031.37
731.224	28008.54
731.565	27831.15
731.906	27989.11
732.248	27900.75
732.589	27727.42
732.93	27779.62
733.271	27741.21
733.612	27665.95
733.953	27741.21
734.294	27484.72
734.635	27424.15
734.976	27553.41
735.317	27320.65
735.658	27357.49
735.999	27403.81
736.339	27264.38
736.68	27417.15
737.021	27238.17
737.361	27160.88
737.702	27305.06
738.042	27115.46
738.383	27159.3
738.723	27140.54
739.063	26990.04
739.404	27017.61
739.744	26915.46
740.084	26899.19
740.424	26851.29
740.764	26729.48
741.104	26962.7
741.444	26751.63
741.784	26734.23
742.124	26672.53
742.464	26676.37
742.804	26569.94
743.143	26730.16
743.483	26523.84
743.823	26412.88
744.162	26484.52
744.502	26598.64
744.841	26359.77
745.181	26482.26
745.52	26379.43
745.86	26435.03
746.199	26255.37
746.538	26121.36
746.877	26267.8
747.216	26148.25
747.556	26164.98
747.895	26178.53
748.234	26108.71
748.573	26037.3
748.911	26047.24
749.25	25940.12
749.589	25838.2
749.928	25816.28
750.267	25815.38
750.605	25861.03
750.944	25715.95
751.283	25681.6
751.621	25652.67
751.96	25451.55
752.298	25477.76
752.636	25474.82
752.975	25218.11
753.313	25167.26
753.651	25362.74
753.989	25185.57
754.327	25128.62
754.666	24979.92
755.004	25033.93
755.342	25127.94
755.679	24929.08
756.017	24832.81
756.355	24898.34
756.693	24842.52
757.031	24716.2
757.368	24586.71
757.706	24626.03
758.044	24546.71
758.381	24603.44
758.719	24428.52
759.056	24544.68
759.394	24242.31
759.731	24261.3
