Data from hue_36_FLMS001491_00043.txt Node
Date: Tue Feb 07 17:29:51 GMT 2017
User: dcchb
Spectrometer: FLMS00149
Trigger mode: 0
Integration Time (sec): 2.000000E-2
Scans to average: 10
Electric dark correction enabled: true
Nonlinearity correction enabled: false
Boxcar width: 0
XAxis mode: Wavelengths
Number of Pixels in Spectrum: 2048
>>>>>Begin Spectral Data<<<<<
341.393	-29.21
341.776	-29.21
342.16	-29.21
342.543	-55.2
342.927	-67.63
343.31	-68.3
343.693	-69.21
344.077	-57
344.46	-59.49
344.843	-55.2
345.226	-58.81
345.61	-22.2
345.993	-38.47
346.376	-10.45
346.759	20.73
347.142	26.84
347.525	54.41
347.908	58.02
348.291	81.3
348.674	96.89
349.057	100.96
349.44	139.15
349.823	145.02
350.206	146.61
350.588	198.13
350.971	239.71
351.354	244.68
351.737	256.21
352.119	257.56
352.502	257.79
352.884	265.47
353.267	277
353.65	301.86
354.032	300.73
354.414	299.6
354.797	319.48
355.179	313.16
355.562	333.72
355.944	319.26
356.326	348.18
356.709	319.71
357.091	327.62
357.473	345.25
357.855	353.83
358.238	349.54
358.62	338.92
359.002	352.25
359.384	340.95
359.766	337.56
360.148	351.8
360.53	335.53
360.912	331.23
361.294	365.81
361.676	340.73
362.057	337.79
362.439	333.04
362.821	335.3
363.203	312.7
363.584	333.27
363.966	318.81
364.348	331.91
364.729	318.35
365.111	312.7
365.493	307.51
365.874	313.38
366.256	314.29
366.637	319.26
367.019	315.42
367.4	316.09
367.781	316.32
368.163	305.92
368.544	316.77
368.925	326.71
369.306	312.7
369.688	320.84
370.069	308.86
370.45	331.01
370.831	318.35
371.212	306.83
371.593	323.32
371.974	327.84
372.355	321.52
372.736	315.19
373.117	313.61
373.498	313.38
373.879	291.91
374.26	333.49
374.641	308.41
375.021	330.33
375.402	305.25
375.783	304.12
376.163	311.12
376.544	323.55
376.925	346.83
377.305	328.52
377.686	323.55
378.066	324.91
378.447	351.8
378.827	339.6
379.208	333.72
379.588	321.52
379.968	307.73
380.349	332.59
380.729	340.95
381.109	324.91
381.489	310.67
381.87	340.73
382.25	337.79
382.63	347.96
383.01	344.34
383.39	358.8
383.77	348.18
384.15	336.43
384.53	346.83
384.91	364.45
385.29	347.73
385.67	347.28
386.049	365.58
386.429	362.19
386.809	342.76
387.189	349.99
387.568	352.7
387.948	371.01
388.328	341.86
388.707	353.15
389.087	347.5
389.466	363.32
389.846	364
390.225	384.34
390.605	361.74
390.984	365.36
391.363	367.84
391.743	364.91
392.122	373.49
392.501	379.37
392.881	380.72
393.26	356.54
393.639	371.91
394.018	364.23
394.397	378.92
394.776	386.37
395.155	380.5
395.534	366.71
395.913	383.66
396.292	386.6
396.671	390.44
397.05	375.98
397.429	374.17
397.808	379.37
398.186	378.24
398.565	395.19
398.944	370.33
399.323	408.07
399.701	390.67
400.08	384.57
400.458	391.35
400.837	396.54
401.215	386.83
401.594	411.46
401.972	412.81
402.351	401.51
402.729	400.16
403.107	425.24
403.486	394.06
403.864	396.77
404.242	431.12
404.62	406.49
404.999	418.24
405.377	416.66
405.755	408.29
406.133	419.59
406.511	420.72
406.889	434.96
407.267	414.85
407.645	436.99
408.023	437.45
408.401	415.53
408.779	426.6
409.156	436.54
409.534	440.61
409.912	460.72
410.29	474.51
410.667	446.71
411.045	469.54
411.422	464.34
411.8	469.31
412.178	446.26
412.555	454.17
412.933	477.9
413.31	481.96
413.687	460.5
414.065	458.69
414.442	479.03
414.819	496.2
415.197	480.83
415.574	479.25
415.951	496.2
416.328	498.24
416.705	479.25
417.082	494.39
417.46	484
417.837	520.38
418.214	481.96
418.591	513.83
418.967	498.69
419.344	500.04
419.721	511.79
420.098	526.48
420.475	505.01
420.852	526.71
421.228	521.51
421.605	523.77
421.982	558.57
422.358	532.13
422.735	529.42
423.111	508.86
423.488	522.42
423.864	538.01
424.241	555.41
424.617	535.3
424.994	556.77
425.37	565.35
425.746	553.83
426.123	572.13
426.499	557.44
426.875	575.3
427.251	575.75
427.627	573.04
428.003	592.24
428.379	589.08
428.756	599.25
429.132	592.47
429.507	565.35
429.883	615.29
430.259	601.74
430.635	589.08
431.011	599.93
431.387	636.76
431.763	614.84
432.138	633.6
432.514	636.76
432.89	642.41
433.265	652.36
433.641	648.51
434.016	638.12
434.392	648.51
434.767	678.12
435.143	642.86
435.518	655.75
435.894	681.73
436.269	690.32
436.644	707.04
437.02	700.49
437.395	692.13
437.77	692.13
438.145	717.44
438.52	712.02
438.895	709.3
439.271	726.7
439.646	743.2
440.021	738.46
440.395	742.3
440.77	737.55
441.145	728.96
441.52	737.78
441.895	774.16
442.27	745.91
442.645	765.35
443.019	770.32
443.394	775.74
443.769	771.9
444.143	773.71
444.518	777.78
444.892	784.78
445.267	772.58
445.641	792.24
446.016	780.49
446.39	818.23
446.764	770.09
447.139	810.77
447.513	819.58
447.887	805.35
448.262	794.72
448.636	814.16
449.01	835.4
449.384	817.55
449.758	859.58
450.132	836.08
450.506	851.67
450.88	847.38
451.254	880.15
451.628	874.04
452.002	876.53
452.376	898.68
452.75	879.24
453.123	895.97
453.497	883.76
453.871	899.81
454.244	919.02
454.618	919.69
454.992	932.8
455.365	938.22
455.739	955.4
456.112	964.44
456.486	964.21
456.859	994.27
457.232	974.61
457.606	1018.45
457.979	985.45
458.352	1012.12
458.725	1027.04
459.099	1020.93
459.472	1064.1
459.845	1008.5
460.218	1071.33
460.591	1079.24
460.964	1091.21
461.337	1098.22
461.71	1115.39
462.083	1125.11
462.456	1114.49
462.829	1139.57
463.201	1150.2
463.574	1150.87
463.947	1202.17
464.32	1212.12
464.692	1229.06
465.065	1232
465.438	1226.8
465.81	1222.96
466.183	1234.49
466.555	1279.91
466.928	1293.92
467.3	1308.16
467.672	1331.43
468.045	1331.43
468.417	1363.3
468.789	1360.13
469.161	1371.66
469.534	1399.45
469.906	1436.29
470.278	1444.88
470.65	1501.37
471.022	1523.75
471.394	1519.23
471.766	1540.02
472.138	1577.08
472.51	1598.09
472.882	1632.44
473.253	1677.64
473.625	1686.9
473.997	1751.08
474.369	1742.5
474.74	1787.24
475.112	1855.71
475.484	1874.24
475.855	1906.79
476.227	1938.88
476.598	1970.97
476.97	2005.99
477.341	2063.17
477.713	2100.68
478.084	2144.75
478.455	2210.96
478.827	2256.83
479.198	2300.67
479.569	2339.99
479.94	2437.17
480.311	2492.08
480.682	2561.01
481.053	2617.5
481.424	2693.88
481.795	2755.8
482.166	2806.88
482.537	2836.25
482.908	2972.97
483.279	2995.8
483.65	3121.9
484.021	3189.69
484.391	3249.12
484.762	3304.72
485.133	3385.84
485.503	3428.55
485.874	3564.6
486.244	3658.6
486.615	3743.12
486.985	3789
487.356	3904.93
487.726	3981.99
488.097	4155.77
488.467	4170.46
488.837	4305.37
489.207	4408.87
489.578	4524.34
489.948	4588.3
490.318	4678.69
490.688	4732.47
491.058	4846.6
491.428	4958.91
491.798	5043.43
492.168	5192.35
492.538	5283.65
492.908	5370.42
493.278	5457.43
493.648	5504.88
494.017	5661.26
494.387	5766.35
494.757	5840.69
495.126	5925.89
495.496	5980.8
495.866	6081.82
496.235	6170.85
496.605	6305.09
496.974	6351.64
497.344	6450.4
497.713	6549.38
498.082	6620.79
498.452	6711.63
498.821	6816.71
499.19	6843.38
499.559	6983.26
499.928	7044.73
500.298	7137.38
500.667	7229.36
501.036	7253.31
501.405	7364.5
501.774	7433.65
502.143	7540.76
502.512	7563.36
502.88	7671.15
503.249	7713.86
503.618	7804.26
503.987	7869.79
504.356	7907.98
504.724	8063.23
505.093	8118.15
505.462	8076.34
505.83	8210.58
506.199	8302.78
506.567	8444.02
506.936	8395.88
507.304	8610.56
507.672	8631.13
508.041	8690.11
508.409	8716.32
508.777	8862.31
509.145	8922.42
509.514	8964
509.882	9028.86
510.25	9108.86
510.618	9107.05
510.986	9158.35
511.354	9299.59
511.722	9345.69
512.09	9425.46
512.458	9410.09
512.826	9562.63
513.193	9599.92
513.561	9690.76
513.929	9708.61
514.297	9816.41
514.664	9865.22
515.032	9914.71
515.4	10012.34
515.767	9979.79
516.135	10122.62
516.502	10140.24
516.869	10295.04
517.237	10312.44
517.604	10214.36
517.972	10342.04
518.339	10462.72
518.706	10460.91
519.073	10469.05
519.44	10641.92
519.808	10729.6
520.175	10747.23
520.542	10795.37
520.909	10842.14
521.276	10796.5
521.643	10954.68
522.009	11071.29
522.376	11155.36
522.743	11169.37
523.11	11267.44
523.477	11377.95
523.843	11466.99
524.21	11544.5
524.577	11605.51
524.943	11646.42
525.31	11734.78
525.676	11809.35
526.043	11881.66
526.409	11932.06
526.776	12015.22
527.142	12094.54
527.508	12156.69
527.874	12309
528.241	12317.59
528.607	12366.85
528.973	12528.88
529.339	12541.99
529.705	12653.85
530.071	12715.99
530.437	12850.68
530.803	12809.1
531.169	12877.8
531.535	12900.62
531.901	12975.2
532.267	13044.12
532.632	13044.35
532.998	13081.63
533.364	13233.95
533.73	13275.98
534.095	13364.79
534.461	13403.66
534.826	13444.79
535.192	13505.58
535.557	13658.79
535.923	13603.2
536.288	13673.03
536.653	13718.45
537.019	13671.22
537.384	13805
537.749	13799.35
538.114	13859.47
538.479	13930.42
538.845	14043.19
539.21	14050.65
539.575	14145.33
539.94	14183.3
540.305	14423.52
540.67	14257.2
541.034	14370.87
541.399	14398.66
541.764	14390.75
542.129	14446.34
542.494	14595.04
542.858	14657.86
543.223	14591.42
543.587	14731.99
543.952	14814.24
544.316	14858.08
544.681	14920.23
545.045	14948.93
545.41	15031.41
545.774	15018.76
546.138	15047.01
546.503	15200.67
546.867	15148.25
547.231	15298.52
547.595	15287
547.959	15343.72
548.324	15411.06
548.688	15466.43
549.052	15482.02
549.416	15497.84
549.779	15627.78
550.143	15665.97
550.507	15762.92
550.871	15792.07
551.235	15791.62
551.599	15943.03
551.962	15896.93
552.326	16048.34
552.689	16068.9
553.053	16009.01
553.417	16145.28
553.78	16218.27
554.143	16216.01
554.507	16313.86
554.87	16392.51
555.234	16438.16
555.597	16366.07
555.96	16505.5
556.323	16506.18
556.686	16498.49
557.05	16705.49
557.413	16712.72
557.776	16706.4
558.139	16934.19
558.502	16969.67
558.865	16988.2
559.228	17113.62
559.59	17112.49
559.953	17114.52
560.316	17330.56
560.679	17316.32
561.041	17468.86
561.404	17488.07
561.767	17694.17
562.129	17622.53
562.492	17663.66
562.854	17683.77
563.217	17700.5
563.579	17855.52
563.941	17905.91
564.304	17962.18
564.666	18000.37
565.028	18065.23
565.39	18086.25
565.753	18350.65
566.115	18295.06
566.477	18406.01
566.839	18354.49
567.201	18533.69
567.563	18618.21
567.925	18688.94
568.287	18754.25
568.648	18660.24
569.01	18907.92
569.372	18940.24
569.734	18955.38
570.095	19086.9
570.457	19169.83
570.819	19256.84
571.18	19198.31
571.542	19322.6
571.903	19438.75
572.265	19499.54
572.626	19523.72
572.987	19692.76
573.349	19624.51
573.71	19913.54
574.071	19901.57
574.432	20009.13
574.794	20173.65
575.155	20139.53
575.516	20197.6
575.877	20343.82
576.238	20501.55
576.599	20560.76
576.96	20747.19
577.32	20847.08
577.681	20953.52
578.042	21076.9
578.403	21250.46
578.763	21293.85
579.124	21501.98
579.485	21654.97
579.845	21685.93
580.206	21861.74
580.566	21958.24
580.927	22129.98
581.287	22261.28
581.648	22443.87
582.008	22561.61
582.368	22721.61
582.728	22969.96
583.089	23013.8
583.449	23102.61
583.809	23412.44
584.169	23584.41
584.529	23783.05
584.889	24123.38
585.249	24111.17
585.609	24301.68
585.969	24578.96
586.329	24719.52
586.688	24973.75
587.048	25184.59
587.408	25347.07
587.768	25602.21
588.127	25806.72
588.487	25896.21
588.846	26225.92
589.206	26306.14
589.565	26642.18
589.925	26921.72
590.284	27149.74
590.643	27460.01
591.003	27582.27
591.362	27854.58
591.721	27989.72
592.08	28223.16
592.44	28473.09
592.799	28750.83
593.158	28948.11
593.517	29065.17
593.876	29428.32
594.235	29451.82
594.593	29785.38
594.952	30058.81
595.311	30178.81
595.67	30467.17
596.029	30808.4
596.387	31163.42
596.746	31265.11
597.104	31346.46
597.463	31481.83
597.822	31822.16
598.18	32084.75
598.538	32222.6
598.897	32505.98
599.255	32421.46
599.613	33107.77
599.972	33032.3
600.33	33310.48
600.688	33391.16
601.046	33804.7
601.404	33990.46
601.762	34129.67
602.12	34433.61
602.478	34452.14
602.836	34741.63
603.194	34720.16
603.552	34905.01
603.91	34991.79
604.268	35308.62
604.625	35420.71
604.983	35682.85
605.341	35641.27
605.698	36039.9
606.056	36174.13
606.413	36101.59
606.771	36505.65
607.128	36629.94
607.485	36617.96
607.843	36730.5
608.2	37005.98
608.557	37283.03
608.914	37316.48
609.272	37638.95
609.629	37620.65
609.986	37975.67
610.343	37823.81
610.7	38252.5
611.057	38354.64
611.414	38488.42
611.771	38654.97
612.127	38921.41
612.484	38869.43
612.841	39075.98
613.198	39058.35
613.554	39243.66
613.911	39587.6
614.267	39496.08
614.624	39563.87
614.98	39597.77
615.337	39897.88
615.693	39947.14
616.05	39912.57
616.406	40094.48
616.762	40179
617.118	40365.21
617.475	40275.95
617.831	40516.62
618.187	40623.51
618.543	40653.79
618.899	41024.63
619.255	40992.99
619.611	40912.99
619.967	41258.97
620.323	41317.73
620.678	41299.87
621.034	41297.84
621.39	41448.8
621.746	41414
622.101	41733.31
622.457	41458.51
622.812	41702.58
623.168	41839.3
623.523	41954.55
623.879	42037.03
624.234	41798.62
624.589	42057.14
624.945	42033.87
625.3	42079.52
625.655	42113.19
626.01	42207.87
626.365	42301.66
626.72	42210.81
627.075	42237.25
627.43	42305.5
627.785	42270.24
628.14	42484.93
628.495	42344.14
628.85	42417.36
629.205	42295.78
629.559	42485.38
629.914	42323.58
630.269	42485.38
630.623	42308.21
630.978	42271.6
631.332	42584.81
631.687	42533.51
632.041	42476.57
632.396	42573.74
632.75	42459.84
633.104	42649.44
633.459	42327.87
633.813	42402.9
634.167	42279.74
634.521	42473.85
634.875	42380.75
635.229	42473.18
635.583	42288.32
635.937	42328.77
636.291	42473.18
636.645	42389.11
636.999	42234.99
637.352	42344.82
637.706	42132.85
638.06	42367.42
638.413	42091.49
638.767	42182.79
639.121	42179.63
639.474	41957.03
639.828	42018.95
640.181	42150.93
640.534	42112.28
640.888	42072.74
641.241	42041.32
641.594	42053.98
641.947	42117.71
642.301	42133.52
642.654	42036.35
643.007	42164.26
643.36	42117.93
643.713	42081.55
644.066	42180.08
644.419	42027.31
644.771	41740.09
645.124	41310.5
645.477	41287.45
645.83	41062.37
646.182	40840.68
646.535	40749.38
646.888	40769.72
647.24	40604.3
647.593	40848.81
647.945	40815.82
648.298	40593.45
648.65	40480.69
649.002	40419.45
649.355	40575.6
649.707	40625.99
650.059	40674.13
650.411	41159.54
650.763	41168.13
651.115	41513.2
651.467	41479.98
651.819	41503.03
652.171	41386.65
652.523	41398.85
652.875	41211.97
653.227	41238.18
653.578	41382.13
653.93	41365.41
654.282	41242.93
654.633	41042.25
654.985	41289.25
655.337	41230.95
655.688	41324.51
656.039	41483.6
656.391	41013.33
656.742	41128.81
657.094	41087.9
657.445	41358.18
657.796	41215.36
658.147	41149.6
658.498	41083.38
658.849	41239.31
659.2	41004.97
659.551	40969.71
659.902	41188.92
660.253	41136.26
660.604	41098.07
660.955	40955.93
661.306	41180.78
661.656	41070.28
662.007	41162.48
662.358	41075.47
662.708	41052.2
663.059	40901.69
663.409	40791.87
663.76	41142.36
664.11	41135.36
664.461	41020.33
664.811	41032.76
665.161	41043.38
665.511	40885.42
665.862	41003.84
666.212	41078.19
666.562	41021.69
666.912	40915.48
667.262	40856.5
667.612	40788.7
667.962	41003.39
668.312	40853.56
668.662	41024.63
669.011	40990.73
669.361	40751.64
669.711	40880.22
670.06	40730.17
670.41	40722.49
670.76	40582.38
671.109	40842.94
671.459	40732.21
671.808	40595.49
672.157	40778.31
672.507	40578.09
672.856	40630.06
673.205	40600.23
673.554	40658.31
673.904	40541.7
674.253	40761.58
674.602	40735.82
674.951	40070.98
675.3	39935.39
675.649	40608.82
675.998	40539.67
676.346	40592.32
676.695	40697.18
677.044	40353.91
677.393	40440.69
677.741	40555.94
678.09	40376.06
678.438	40333.8
678.787	40312.78
679.135	40347.58
679.484	40043.64
679.832	40279.11
680.181	39954.6
680.529	40111.21
680.877	40043.64
681.225	40122.5
681.573	40149.17
681.922	40030.98
682.27	39864.88
682.618	39808.39
682.966	39815.39
683.314	39876.41
683.661	39621.95
684.009	39605.46
684.357	39439.58
684.705	39441.17
685.053	39403.43
685.4	39367.27
685.748	39158.24
686.095	39291.79
686.443	39202.08
686.79	39050.22
687.138	39150.55
687.485	39075.75
687.832	38943.78
688.18	39068.07
688.527	38737.91
688.874	38952.82
689.221	38769.55
689.568	38636.67
689.915	38660.17
690.262	38557.12
690.609	38363.23
690.956	38420.4
691.303	38271.71
691.65	38099.51
691.997	38102.22
692.344	37977.25
692.69	37829.91
693.037	37711.95
693.383	37565.96
693.73	37636.92
694.077	37497.04
694.423	37450.26
694.769	37326.65
695.116	37265.63
695.462	37244.84
695.808	37008.01
696.155	37155.8
696.501	36961.68
696.847	36984.96
697.193	36668.81
697.539	36862.48
697.885	36683.27
698.231	36448.7
698.577	36552.43
698.923	36468.36
699.269	36261.81
699.614	35984.53
699.96	36076.06
700.306	36158.77
700.651	35874.03
700.997	35797.42
701.342	35742.73
701.688	35696.41
702.033	35730.98
702.379	35639.01
702.724	35662.73
703.069	35507.94
703.415	35004.67
703.76	35234.72
704.105	35165.8
704.45	35025.46
704.795	34926.71
705.14	34966.48
705.485	34744.11
705.83	34665.7
706.175	34638.58
706.52	34540.73
706.865	34467.96
707.209	34411.47
707.554	34228.2
707.899	34288.31
708.243	34160.63
708.588	34091.93
708.932	33908.88
709.277	33794.76
709.621	33986.39
709.966	33785.04
710.31	33719.51
710.654	33457.37
710.998	33563.13
711.342	33673.18
711.687	33474.77
712.031	33289.46
712.375	33121.56
712.719	33294.89
713.063	33090.37
713.407	33245.85
713.75	32953.43
714.094	32994.78
714.438	32842.24
714.782	32943.03
715.125	32763.15
715.469	32869.36
715.812	32625.98
716.156	32498.3
716.499	32506.43
716.843	32654.23
717.186	32352.77
717.53	32355.25
717.873	32422.82
718.216	32346.89
718.559	32265.76
718.902	32080.23
719.246	32131.3
719.589	32014.69
719.932	31875.94
720.275	31798.43
720.617	31846.56
720.96	31747.81
721.303	31894.02
721.646	31792.33
721.989	31577.87
722.331	31717.98
722.674	31492.22
723.016	31557.98
723.359	31381.49
723.701	31534.93
724.044	31233.47
724.386	31189.86
724.729	31328.84
725.071	31256.3
725.413	31291.32
725.755	31196.86
726.097	31028.73
726.439	30967.26
726.782	30928.85
727.124	31019.92
727.465	30965.46
727.807	30860.83
728.149	30730.89
728.491	30736.54
728.833	30698.12
729.175	30564.11
729.516	30552.81
729.858	30496.54
730.199	30553.26
730.541	30489.99
730.882	30412.48
731.224	30421.97
731.565	30195.31
731.906	30323.67
732.248	30286.15
732.589	30106.5
732.93	30005.71
733.271	30115.76
733.612	30067.63
733.953	30157.34
734.294	29974.3
734.635	29847.97
734.976	29935.43
735.317	29714.19
735.658	29751.25
735.999	29707.86
736.339	29829.67
736.68	29849.55
737.021	29650.46
737.361	29394.88
737.702	29661.99
738.042	29596.91
738.383	29487.98
738.723	29546.51
739.063	29379.51
739.404	29457.93
739.744	29326.86
740.084	29257.25
740.424	29315.56
740.764	29280.53
741.104	29253.41
741.444	29125.73
741.784	28992.18
742.124	29087.09
742.464	28953.76
742.804	29103.59
743.143	28969.58
743.483	28989.24
743.823	28811.62
744.162	28877.6
744.502	28841.67
744.841	28628.34
745.181	28904.49
745.52	28653.43
745.86	28804.61
746.199	28623.15
746.538	28665.86
746.877	28694.1
747.216	28654.11
747.556	28544.05
747.895	28471.51
748.234	28390.38
748.573	28278.75
748.911	28322.36
749.25	28216.15
749.589	28258.64
749.928	28139.54
750.267	28223.16
750.605	28172.31
750.944	27995.82
751.283	27977.96
751.621	27971.86
751.96	27820.45
752.298	27803.28
752.636	27908.14
752.975	27708.82
753.313	27615.04
753.651	27678.09
753.989	27474.25
754.327	27500.92
754.666	27360.35
755.004	27415.49
755.342	27482.38
755.679	27333.69
756.017	27324.87
756.355	27241.26
756.693	27260.02
757.031	27275.84
757.368	27050.76
