Data from hue_30_FLMS001491_75.txt Node
Date: Mon Feb 06 15:05:56 GMT 2017
User: dcchb
Spectrometer: FLMS00149
Trigger mode: 0
Integration Time (sec): 2.000000E-2
Scans to average: 10
Electric dark correction enabled: true
Nonlinearity correction enabled: false
Boxcar width: 0
XAxis mode: Wavelengths
Number of Pixels in Spectrum: 2048
>>>>>Begin Spectral Data<<<<<
341.393	-17.53
341.776	-17.53
342.16	-17.53
342.543	-71.54
342.927	-75.15
343.31	-68.83
343.693	-102.5
344.077	-55.04
344.46	-50.75
344.843	-57.98
345.226	-42.39
345.61	-34.93
345.993	-29.05
346.376	-2.84
346.759	10.95
347.142	24.51
347.525	52.07
347.908	51.4
348.291	81
348.674	101.57
349.057	122.81
349.44	106.99
349.823	143.82
350.206	148.12
350.588	182.92
350.971	195.57
351.354	230.83
351.737	235.8
352.119	272.86
352.502	278.28
352.884	293.42
353.267	280.09
353.65	306.53
354.032	305.18
354.414	299.3
354.797	306.31
355.179	323.93
355.562	322.12
355.944	325.74
356.326	322.12
356.709	321.9
357.091	356.93
357.473	338.62
357.855	337.04
358.238	355.57
358.62	342.24
359.002	339.07
359.384	338.85
359.766	365.29
360.148	351.28
360.53	331.84
360.912	362.58
361.294	334.78
361.676	338.62
362.057	312.63
362.439	333.65
362.821	330.26
363.203	339.3
363.584	355.57
363.966	330.26
364.348	329.58
364.729	328.68
365.111	314.89
365.493	323.25
365.874	312.18
366.256	298.62
366.637	302.92
367.019	317.38
367.4	318.06
367.781	316.93
368.163	319.19
368.544	341.33
368.925	313.99
369.306	315.12
369.688	319.41
370.069	330.94
370.45	309.02
370.831	310.83
371.212	312.63
371.593	321.45
371.974	336.14
372.355	323.71
372.736	320.32
373.117	317.6
373.498	319.19
373.879	336.36
374.26	328.9
374.641	316.93
375.021	310.6
375.402	339.3
375.783	316.02
376.163	355.8
376.544	335.91
376.925	318.96
377.305	319.86
377.686	321.9
378.066	324.38
378.447	332.52
378.827	342.91
379.208	331.39
379.588	337.49
379.968	339.3
380.349	344.95
380.729	330.26
381.109	353.31
381.489	352.18
381.87	344.95
382.25	335.23
382.63	337.72
383.01	355.8
383.39	361.22
383.77	363.48
384.15	333.65
384.53	326.42
384.91	356.02
385.29	360.54
385.67	350.15
386.049	352.63
386.429	355.34
386.809	362.12
387.189	369.58
387.568	363.71
387.948	344.95
388.328	355.8
388.707	371.61
389.087	376.13
389.466	363.48
389.846	372.07
390.225	351.05
390.605	367.55
390.984	365.74
391.363	370.26
391.743	378.17
392.122	363.03
392.501	358.51
392.881	388.34
393.26	370.94
393.639	386.3
394.018	370.03
394.397	372.74
394.776	375.91
395.155	390.37
395.534	397.15
395.913	375.91
396.292	391.95
396.671	390.37
397.05	399.41
397.429	393.31
397.808	371.16
398.186	391.95
398.565	393.08
398.944	394.66
399.323	391.05
399.701	392.18
400.08	405.74
400.458	396.02
400.837	397.38
401.215	390.82
401.594	401.22
401.972	406.19
402.351	414.78
402.729	427.21
403.107	439.41
403.486	429.92
403.864	394.21
404.242	417.72
404.62	406.64
404.999	410.03
405.377	425.85
405.755	453.42
406.133	435.57
406.511	429.24
406.889	422.01
407.267	421.78
407.645	435.34
408.023	431.27
408.401	435.12
408.779	428.56
409.156	426.98
409.534	445.74
409.912	449.58
410.29	441.9
410.667	466.98
411.045	465.4
411.422	463.59
411.8	459.97
412.178	469.69
412.555	480.09
412.933	491.16
413.31	472.4
413.687	475.11
414.065	485.74
414.442	491.61
414.819	489.35
415.197	506.07
415.574	507.88
415.951	499.29
416.328	496.58
416.705	509.69
417.082	500.88
417.46	498.39
417.837	506.98
418.214	513.31
418.591	528.9
418.967	532.06
419.344	531.16
419.721	518.05
420.098	506.98
420.475	556.24
420.852	551.27
421.228	535.68
421.605	560.54
421.982	546.53
422.358	553.3
422.735	541.33
423.111	534.1
423.488	557.37
423.864	561.89
424.241	547.43
424.617	568.22
424.994	568.67
425.37	556.69
425.746	559.63
426.123	588.11
426.499	562.57
426.875	599.18
427.251	599.63
427.627	604.15
428.003	575
428.379	614.55
428.756	595.56
429.132	636.24
429.507	621.33
429.883	625.39
430.259	630.36
430.635	625.17
431.011	647.99
431.387	632.62
431.763	645.05
432.138	655.22
432.514	647.09
432.89	655
433.265	644.15
433.641	656.58
434.016	674.88
434.392	702
434.767	697.03
435.143	695.9
435.518	704.49
435.894	708.78
436.269	718.5
436.644	723.7
437.02	717.82
437.395	729.35
437.77	724.15
438.145	732.28
438.52	754.43
438.895	768.21
439.271	776.12
439.646	790.13
440.021	765.28
440.395	773.86
440.77	774.32
441.145	789.23
441.52	793.98
441.895	779.29
442.27	776.12
442.645	785.16
443.019	785.39
443.394	793.52
443.769	793.07
444.143	797.37
444.518	824.94
444.892	815.67
445.267	819.51
445.641	823.13
446.016	824.03
446.39	847.99
446.764	839.17
447.139	838.72
447.513	838.04
447.887	857.93
448.262	861.77
448.636	871.04
449.01	857.03
449.384	866.52
449.758	890.24
450.132	890.02
450.506	899.51
450.88	890.24
451.254	899.28
451.628	921.88
452.002	937.7
452.376	920.98
452.75	946.74
453.123	936.57
453.497	942.45
453.871	960.53
454.244	962.11
454.618	951.94
454.992	996.46
455.365	972.5
455.739	1009.79
456.112	1017.25
456.486	1007.08
456.859	1041.43
457.232	1027.87
457.606	1032.16
457.979	1052.05
458.352	1084.36
458.725	1063.57
459.099	1090.24
459.472	1106.28
459.845	1079.17
460.218	1117.36
460.591	1124.59
460.964	1143.12
461.337	1163.68
461.71	1179.05
462.083	1193.97
462.456	1175.89
462.829	1181.99
463.201	1210.24
463.574	1228.09
463.947	1241.2
464.32	1264.25
464.692	1282.1
465.065	1285.04
465.438	1307.86
465.81	1310.12
466.183	1337.69
466.555	1349.22
466.928	1356.67
467.3	1374.3
467.672	1374.3
468.045	1403.68
468.417	1440.96
468.789	1447.07
469.161	1470.12
469.534	1480.96
469.906	1540.17
470.278	1555.09
470.65	1528.19
471.022	1562.32
471.394	1595.54
471.766	1635.99
472.138	1636.21
472.51	1640.96
472.882	1686.61
473.253	1689.55
473.625	1746.72
473.997	1791.69
474.369	1786.94
474.74	1819.94
475.112	1858.13
475.484	1879.37
475.855	1909.43
476.227	1936.32
476.598	2026.94
476.97	2009.09
477.341	2042.53
477.713	2118.69
478.084	2148.29
478.455	2215.63
478.827	2218.12
479.198	2304.67
479.569	2286.82
479.94	2385.35
480.311	2388.06
480.682	2447.27
481.053	2536.53
481.424	2604.32
481.795	2626.47
482.166	2673.7
482.537	2744.21
482.908	2783.3
483.279	2847.48
483.65	2876.18
484.021	2979.46
484.391	3015.61
484.762	3060.58
485.133	3147.36
485.503	3133.12
485.874	3232.56
486.244	3277.75
486.615	3350.52
486.985	3429.16
487.356	3515.49
487.726	3564.52
488.097	3643.39
488.467	3649.49
488.837	3741.02
489.207	3780.11
489.578	3856.04
489.948	3893.1
490.318	4029.15
490.688	4065.75
491.058	4114.34
491.428	4199.08
491.798	4221
492.168	4345.75
492.538	4402.24
492.908	4462.81
493.278	4498.29
493.648	4553.2
494.017	4649.24
494.387	4686.76
494.757	4771.5
495.126	4856.02
495.496	4889.91
495.866	4874.32
496.235	4959.52
496.605	5018.95
496.974	5054.2
497.344	5114.31
497.713	5177.36
498.082	5264.82
498.452	5256.46
498.821	5348.21
499.19	5388.21
499.559	5477.92
499.928	5469.11
500.298	5482.89
500.667	5541.87
501.036	5584.58
501.405	5601.08
501.774	5712.04
502.143	5738.93
502.512	5750.46
502.88	5861.64
503.249	5809.89
503.618	5862.32
503.987	5947.29
504.356	5977.79
504.724	6058.02
505.093	6047.85
505.462	6036.32
505.83	6134.85
506.199	6184.8
506.567	6284
506.936	6236.32
507.304	6302.31
507.672	6355.64
508.041	6328.29
508.409	6416.43
508.777	6456.2
509.145	6547.95
509.514	6502.3
509.882	6563.32
510.25	6606.25
510.618	6735.06
510.986	6643.09
511.354	6692.35
511.722	6755.85
512.09	6872.91
512.458	6844.89
512.826	6864.1
513.193	6908.62
513.561	6953.81
513.929	7019.12
514.297	7034.94
514.664	7068.84
515.032	7132.79
515.4	7156.97
515.767	7118.33
516.135	7187.03
516.502	7210.53
516.869	7257.08
517.237	7259.12
517.604	7288.04
517.972	7377.98
518.339	7389.74
518.706	7377.98
519.073	7365.55
519.44	7387.7
519.808	7523.52
520.175	7521.48
520.542	7615.49
520.909	7649.39
521.276	7618.88
521.643	7697.52
522.009	7758.99
522.376	7784.98
522.743	7807.13
523.11	7830.63
523.477	7942.04
523.843	8019.55
524.21	8060.9
524.577	8116.27
524.943	8123.28
525.31	8152.43
525.676	8273.1
526.043	8271.29
526.409	8334.34
526.776	8381.35
527.142	8412.31
527.508	8435.36
527.874	8480.78
528.241	8546.77
528.607	8559.87
528.973	8644.17
529.339	8631.96
529.705	8758.06
530.071	8778.85
530.437	8777.5
530.803	8833.54
531.169	8932.97
531.535	8921.67
531.901	8965.29
532.267	8983.59
532.632	9056.81
532.998	9097.94
533.364	9135.45
533.73	9133.42
534.095	9200.08
534.461	9215.45
534.826	9332.96
535.192	9284.37
535.557	9401.66
535.923	9349.91
536.288	9422
536.653	9454.54
537.019	9452.28
537.384	9548.55
537.749	9563.01
538.114	9673.06
538.479	9666.74
538.845	9694.31
539.21	9659.51
539.575	9666.29
539.94	9769.11
540.305	9829.44
540.67	9818.6
541.034	9879.39
541.399	9951.48
541.764	9980.18
542.129	10012.49
542.494	10033.73
542.858	10070.12
543.223	10094.07
543.587	10234.41
543.952	10225.14
544.316	10256.78
544.681	10257.46
545.045	10331.35
545.41	10380.84
545.774	10390.33
546.138	10438.92
546.503	10414.97
546.867	10538.8
547.231	10600.05
547.595	10630.78
547.959	10590.78
548.324	10730.21
548.688	10680.5
549.052	10713.49
549.416	10766.37
549.779	10749.42
550.143	10867.84
550.507	10927.27
550.871	10834.62
551.235	10950.09
551.599	11017.66
551.962	11025.35
552.326	11052.01
552.689	11188.05
553.053	11054.72
553.417	11084.78
553.78	11240.93
554.143	11195.74
554.507	11248.39
554.87	11261.95
555.234	11474.37
555.597	11309.86
555.96	11428.95
556.323	11422.62
556.686	11460.59
557.05	11487.48
557.413	11567.25
557.776	11633.47
558.139	11692.67
558.502	11727.7
558.865	11702.16
559.228	11751.65
559.59	11889.05
559.953	11881.37
560.316	11942.61
560.679	12004.75
561.041	12088.82
561.404	12073.68
561.767	12132.21
562.129	12068.93
562.492	12218.08
562.854	12205.65
563.217	12230.96
563.579	12218.53
563.941	12288.36
564.304	12407.23
564.666	12424.86
565.028	12402.26
565.39	12444.07
565.753	12549.15
566.115	12567.9
566.477	12608.58
566.839	12665.53
567.201	12792.3
567.563	12803.38
567.925	12839.31
568.287	12820.33
568.648	12919.53
569.01	12882.47
569.372	13024.39
569.734	12974.22
570.095	13079.53
570.457	13213.54
570.819	13292.18
571.18	13258.73
571.542	13394.1
571.903	13413.98
572.265	13423.47
572.626	13477.48
572.987	13550.93
573.349	13616.69
573.71	13705.95
574.071	13776.23
574.432	13817.14
574.794	14050.12
575.155	14010.35
575.516	14038.15
575.877	14170.8
576.238	14235.66
576.599	14344.58
576.96	14422.54
577.32	14505.25
577.681	14592.71
578.042	14756.77
578.403	14778.24
578.763	14930.55
579.124	15016.43
579.485	15125.35
579.845	15341.84
580.206	15462.97
580.566	15602.63
580.927	15662.96
581.287	15993.12
581.648	16112.44
582.008	16217.75
582.368	16320.35
582.728	16512.89
583.089	16741.35
583.449	16876.04
583.809	17179.31
584.169	17307.89
584.529	17413.88
584.889	17760.54
585.249	17932.96
585.609	18076.91
585.969	18334.31
586.329	18539.72
586.688	18745.59
587.048	18998.24
587.408	19226.71
587.768	19408.4
588.127	19793.02
588.487	19998.67
588.846	20385.33
589.206	20345.78
589.565	20735.37
589.925	21022.6
590.284	21293.55
590.643	21543.49
591.003	21787.77
591.362	22129.46
591.721	22372.62
592.08	22634.31
592.44	23016.44
592.799	23268.19
593.158	23512.25
593.517	23880.15
593.876	24213.93
594.235	24354.94
594.593	24612.56
594.952	24994.7
595.311	25262.26
595.67	25535.02
596.029	25995.12
596.387	26263.82
596.746	26638.72
597.104	26748.32
597.463	26971.59
597.822	27469.66
598.18	27588.53
598.538	27863.77
598.897	28246.14
599.255	28367.94
599.613	28926.12
599.972	28978.77
600.33	29449.04
600.688	29394.81
601.046	29915.47
601.404	30275.01
601.762	30379.19
602.12	30700.99
602.478	31041.32
602.836	31264.59
603.194	31394.3
603.552	31752.03
603.91	31841.3
604.268	32175.07
604.625	32290.32
604.983	32772.8
605.341	32703.87
605.698	33135.27
606.056	33396.73
606.413	33526
606.771	33824.75
607.128	34044.18
607.485	34175.7
607.843	34263.6
608.2	34711.05
608.557	35006.64
608.914	35017.71
609.272	35412.28
609.629	35647.07
609.986	35825.6
610.343	35948.76
610.7	36344.91
611.057	36407.28
611.414	36519.14
611.771	36600.72
612.127	36901.05
612.484	37052.68
612.841	37306.24
613.198	37278.21
613.554	37449.74
613.911	37786.45
614.267	37841.36
614.624	38046.78
614.98	38221.69
615.337	38537.62
615.693	38420.33
616.05	38578.29
616.406	38911.39
616.762	38934.44
617.118	38994.55
617.475	39063.93
617.831	39267.99
618.187	39466.18
618.543	39648.77
618.899	39920.86
619.255	39992.72
619.611	39951.14
619.967	40116.33
620.323	40316.1
620.678	40411.24
621.034	40377.57
621.39	40395.19
621.746	40603.1
622.101	40957.21
622.457	40732.59
622.812	40946.82
623.168	41128.73
623.523	41099.36
623.879	41230.65
624.234	41128.06
624.589	41256.19
624.945	41344.55
625.3	41430.65
625.655	41519.01
626.01	41612.79
626.365	41583.19
626.72	41760.13
627.075	41669.51
627.43	41704.31
627.785	41644.43
628.14	41728.95
628.495	41767.59
628.85	41892.33
629.205	41904.99
629.559	42118.54
629.914	41947.24
630.269	42058.43
630.623	41914.25
630.978	41814.82
631.332	42022.27
631.687	42160.35
632.041	42048.03
632.396	42232.21
632.75	42110.18
633.104	42116.73
633.459	41977.53
633.813	42034.02
634.167	42052.55
634.521	41957.19
634.875	42156.05
635.229	42073.57
635.583	41954.25
635.937	41952.67
636.291	41980.01
636.645	42011.42
636.999	42009.62
637.352	42057.07
637.706	41900.24
638.06	42000.58
638.413	41873.8
638.767	41919
639.121	41977.75
639.474	41614.15
639.828	41799.23
640.181	41781.37
640.534	41919
640.888	41739.11
641.241	41653.47
641.594	41760.13
641.947	42009.84
642.301	41812.78
642.654	41703.86
643.007	41751.09
643.36	41751.54
643.713	41581.38
644.066	41750.41
644.419	41503.41
644.771	41249.18
645.124	40872.02
645.477	40978.91
645.83	40670.22
646.182	40458.92
646.535	40462.54
646.888	40593.61
647.24	40247.4
647.593	40472.26
647.945	40537.56
648.298	40201.75
648.65	40181.19
649.002	40267.97
649.355	40360.39
649.707	40242.2
650.059	40496.89
650.411	40939.81
650.763	40815.07
651.115	41356.07
651.467	41167.38
651.819	41091.22
652.171	41166.47
652.523	41060.71
652.875	41083.99
653.227	40848.52
653.578	41185.91
653.93	41034.05
654.282	40958.8
654.633	40812.81
654.985	40742.08
655.337	40947.04
655.688	40762.42
656.039	41039.47
656.391	40647.62
656.742	40767.16
657.094	40769.2
657.445	40780.95
657.796	40782.53
658.147	40769.2
658.498	40730.1
658.849	40820.27
659.2	40688.52
659.551	40698.24
659.902	40812.81
660.253	40729.88
660.604	40697.33
660.955	40728.29
661.306	40775.98
661.656	40720.61
662.007	40651.69
662.358	40711.57
662.708	40714.51
663.059	40725.36
663.409	40492.82
663.76	40757.45
664.11	40532.14
664.461	40748.63
664.811	40558.58
665.161	40544.57
665.511	40557.22
665.862	40608.3
666.212	40705.7
666.562	40765.81
666.912	40552.93
667.262	40493.27
667.612	40452.59
667.962	40477.45
668.312	40604.23
668.662	40733.04
669.011	40420.73
669.361	40450.33
669.711	40377.57
670.06	40428.64
670.41	40311.13
670.76	40312.26
671.109	40429.77
671.459	40354.29
671.808	40274.52
672.157	40317.68
672.507	40092.6
672.856	40147.52
673.205	40183.22
673.554	40413.95
673.904	40180.96
674.253	40337.8
674.602	40257.35
674.951	39734.2
675.3	39550.25
675.649	40206.5
675.998	40084.24
676.346	40120.85
676.695	40255.09
677.044	39967.64
677.393	40070.68
677.741	40213.05
678.09	40023.91
678.438	39866.85
678.787	40006.96
679.135	39876.34
679.484	39803.12
679.832	39801.54
680.181	39641.54
680.529	39769.45
680.877	39715.89
681.225	39613.97
681.573	39738.72
681.922	39607.19
682.27	39389.57
682.618	39328.56
682.966	39192.97
683.314	39332.62
683.661	39281.55
684.009	39019.41
684.357	39066.42
684.705	38937.83
685.053	39159.3
685.4	38950.04
685.748	38759.53
686.095	38722.7
686.443	38585.75
686.79	38594.11
687.138	38799.98
687.485	38731.96
687.832	38596.37
688.18	38528.58
688.527	38237.96
688.874	38372.88
689.221	38302.37
689.568	38140.34
689.915	38044.52
690.262	37988.03
690.609	37828.48
690.956	37840.91
691.303	37727.92
691.65	37737.86
691.997	37626.23
692.344	37452
692.69	37372
693.037	37416.29
693.383	37030.31
693.73	37266.46
694.077	37088.39
694.423	36918.9
694.769	36782.86
695.116	36769.98
695.462	36664.9
695.808	36675.97
696.155	36693.37
696.501	36461.74
696.847	36416.54
697.193	36174.97
697.539	36364.57
697.885	36000.28
698.231	35870.34
698.577	35951.02
698.923	35947.85
699.269	35650.91
699.614	35458.15
699.96	35508.54
700.306	35520.29
700.651	35388.77
700.997	35176.12
701.342	35163.24
701.688	35182.68
702.033	34968.44
702.379	34920.76
702.724	34784.04
703.069	34937.94
703.415	34601.9
703.76	34676.48
704.105	34618.17
704.45	34536.59
704.795	34437.61
705.14	34320.1
705.485	34230.16
705.83	34115.81
706.175	34122.59
706.52	34090.95
706.865	34021.58
707.209	33930.73
707.554	33850.06
707.899	33779.55
708.243	33701.13
708.588	33556.5
708.932	33346.57
709.277	33380.01
709.621	33346.34
709.966	33178.66
710.31	33257.53
710.654	32942.28
710.998	33041.72
711.342	33087.14
711.687	32894.38
712.031	32714.04
712.375	32693.25
712.719	32603.76
713.063	32667.71
713.407	32650.54
713.75	32677.21
714.094	32502.75
714.438	32233.6
714.782	32310.89
715.125	32247.39
715.469	32301.85
715.812	32032.25
716.156	31846.27
716.499	32030.9
716.843	31999.48
717.186	31735.76
717.53	31932.59
717.873	31886.27
718.216	31822.54
718.559	31700.51
718.902	31566.27
719.246	31548.65
719.589	31490.8
719.932	31372.16
720.275	31284.7
720.617	31303
720.96	31321.54
721.303	31133.52
721.646	31098.94
721.989	31047.64
722.331	31068.43
722.674	31005.39
723.016	31036.12
723.359	30956.35
723.701	30919.29
724.044	30741.21
724.386	30544.61
724.729	30772.85
725.071	30602.46
725.413	30625.06
725.755	30617.6
726.097	30452.41
726.439	30308.91
726.782	30334.22
727.124	30555.68
727.465	30280.66
727.807	30211.28
728.149	30192.98
728.491	30256.48
728.833	30211.51
729.175	29953.44
729.516	30020.1
729.858	30039.99
730.199	29993.43
730.541	29854.91
730.882	29824.85
731.224	29892.87
731.565	29669.15
731.906	29733.55
732.248	29677.51
732.589	29633.67
732.93	29481.81
733.271	29466.67
733.612	29541.92
733.953	29534.92
734.294	29414.47
734.635	29296.28
734.976	29398.42
735.317	29162.72
735.658	29243.4
735.999	29219.44
736.339	29100.12
736.68	29335.37
737.021	29132.89
737.361	28903.52
737.702	29089.28
738.042	29068.94
738.383	28893.35
738.723	29030.52
739.063	28769.06
739.404	28813.8
739.744	28856.52
740.084	28663.07
740.424	28721.15
740.764	28677.08
741.104	28648.84
741.444	28511.67
741.784	28396.87
742.124	28455.62
742.464	28432.35
742.804	28376.75
743.143	28404.32
743.483	28362.74
743.823	28172.69
744.162	28165.46
744.502	28207.04
744.841	28122.3
745.181	28082.3
745.52	28103.54
745.86	28110.32
746.199	28139.02
746.538	27948.52
746.877	28021.51
747.216	27920.72
747.556	27882.98
747.895	27960.04
748.234	27720.5
748.573	27750.1
748.911	27680.05
749.25	27690.67
749.589	27482.09
749.928	27617.23
750.267	27606.38
750.605	27520.05
750.944	27457
751.283	27331.58
751.621	27387.18
751.96	27328.87
752.298	27251.59
752.636	27160.97
752.975	27109.89
753.313	27058.6
753.651	27178.37
753.989	27091.36
754.327	27096.11
754.666	26885.27
755.004	26904.7
755.342	26794.87
755.679	26882.1
756.017	26655.22
756.355	26784.25
756.693	26644.82
757.031	26692.28
757.368	26464.94
757.706	26430.82
758.044	26475.33
758.381	26387.88
758.719	26222.69
