Data from hue_00_FLMS001491_94.txt Node
Date: Mon Feb 06 15:30:41 GMT 2017
User: dcchb
Spectrometer: FLMS00149
Trigger mode: 0
Integration Time (sec): 2.000000E-2
Scans to average: 10
Electric dark correction enabled: true
Nonlinearity correction enabled: false
Boxcar width: 0
XAxis mode: Wavelengths
Number of Pixels in Spectrum: 2048
>>>>>Begin Spectral Data<<<<<
341.393	-18.59
341.776	-18.59
342.16	-18.59
342.543	-67.63
342.927	-61.75
343.31	-64.46
343.693	-60.62
344.077	-47.29
344.46	-64.69
344.843	-56.33
345.226	-37.12
345.61	-18.59
345.993	-2.77
346.376	-18.14
346.759	-6.84
347.142	17.8
347.525	46.04
347.908	28.42
348.291	94.18
348.674	74.29
349.057	116.1
349.44	133.5
349.823	149.09
350.206	161.75
350.588	189.32
350.971	210.56
351.354	232.03
351.737	229.32
352.119	244.91
352.502	243.78
352.884	259.82
353.267	277
353.65	281.97
354.032	333.72
354.414	335.3
354.797	298.47
355.179	290.78
355.562	332.59
355.944	343.66
356.326	300.73
356.709	308.86
357.091	342.99
357.473	327.84
357.855	330.56
358.238	332.14
358.62	342.76
359.002	349.31
359.384	340.5
359.766	334.4
360.148	352.93
360.53	337.34
360.912	341.4
361.294	331.69
361.676	317.45
362.057	332.14
362.439	320.84
362.821	331.46
363.203	324.45
363.584	340.95
363.966	339.6
364.348	327.84
364.729	325.58
365.111	329.88
365.493	313.16
365.874	320.61
366.256	303.89
366.637	307.05
367.019	307.51
367.4	318.58
367.781	300.95
368.163	311.8
368.544	305.7
368.925	328.75
369.306	309.99
369.688	296.21
370.069	308.86
370.45	302.76
370.831	308.86
371.212	326.04
371.593	303.89
371.974	323.1
372.355	312.48
372.736	310.44
373.117	298.47
373.498	305.02
373.879	302.31
374.26	310.22
374.641	309.09
375.021	317.68
375.402	309.31
375.783	323.55
376.163	323.55
376.544	330.33
376.925	317.22
377.305	309.54
377.686	311.57
378.066	308.86
378.447	318.35
378.827	339.6
379.208	326.94
379.588	331.01
379.968	326.26
380.349	331.23
380.729	313.83
381.109	297.79
381.489	311.8
381.87	354.28
382.25	327.84
382.63	346.38
383.01	343.21
383.39	328.75
383.77	334.17
384.15	355.87
384.53	329.2
384.91	327.62
385.29	331.01
385.67	342.76
386.049	334.4
386.429	333.49
386.809	344.34
387.189	341.86
387.568	359.48
387.948	342.31
388.328	339.82
388.707	351.57
389.087	342.31
389.466	315.64
389.846	358.13
390.225	369.2
390.605	366.49
390.984	351.57
391.363	358.8
391.743	368.07
392.122	354.96
392.501	371.23
392.881	362.19
393.26	363.32
393.639	361.74
394.018	361.29
394.397	359.48
394.776	370.56
395.155	344.34
395.534	371.91
395.913	361.06
396.292	379.14
396.671	388.18
397.05	360.16
397.429	381.63
397.808	360.61
398.186	388.18
398.565	363.32
398.944	350.22
399.323	385.92
399.701	363.1
400.08	376.43
400.458	376.43
400.837	392.25
401.215	406.94
401.594	396.77
401.972	381.63
402.351	403.32
402.729	384.11
403.107	407.16
403.486	389.99
403.864	387.73
404.242	394.28
404.62	396.54
404.999	408.75
405.377	403.77
405.755	406.26
406.133	414.62
406.511	411.91
406.889	388.18
407.267	417.33
407.645	398.8
408.023	409.42
408.401	418.69
408.779	418.69
409.156	422.53
409.534	432.02
409.912	419.59
410.29	414.4
410.667	422.31
411.045	429.99
411.422	433.83
411.8	416.2
412.178	446.71
412.555	455.52
412.933	441.06
413.31	459.59
413.687	465.24
414.065	434.73
414.442	476.54
414.819	472.93
415.197	472.47
415.574	451.23
415.951	479.7
416.328	454.85
416.705	479.7
417.082	485.13
417.46	480.16
417.837	486.71
418.214	490.1
418.591	476.99
418.967	474.51
419.344	512.7
419.721	492.81
420.098	505.69
420.475	493.26
420.852	518.57
421.228	522.64
421.605	515.64
421.982	521.06
422.358	545.24
422.735	521.06
423.111	527.61
423.488	517.9
423.864	535.75
424.241	530.78
424.617	561.96
424.994	530.78
425.37	579.14
425.746	553.83
426.123	554.96
426.499	576.88
426.875	552.47
427.251	572.81
427.627	547.05
428.003	590.89
428.379	586.82
428.756	606.26
429.132	578.69
429.507	579.36
429.883	567.61
430.259	596.99
430.635	609.87
431.011	605.35
431.387	601.06
431.763	606.03
432.138	631.79
432.514	634.28
432.89	641.28
433.265	636.99
433.641	634.73
434.016	642.86
434.392	642.64
434.767	665.91
435.143	646.03
435.518	653.03
435.894	673.15
436.269	683.99
436.644	696.2
437.02	679.47
437.395	704.33
437.77	705.01
438.145	690.09
438.52	677.44
438.895	718.12
439.271	698.23
439.646	699.36
440.021	731.22
440.395	726.25
440.77	706.82
441.145	714.28
441.52	745.23
441.895	743.65
442.27	720.83
442.645	734.39
443.019	751.34
443.394	758.12
443.769	745.01
444.143	751.34
444.518	764.9
444.892	775.52
445.267	773.93
445.641	776.19
446.016	775.06
446.39	790.43
446.764	773.71
447.139	763.09
447.513	785.23
447.887	788.17
448.262	779.36
448.636	818.68
449.01	808.96
449.384	804.89
449.758	832.24
450.132	802.63
450.506	824.33
450.88	839.02
451.254	834.5
451.628	838.34
452.002	823.88
452.376	863.42
452.75	867.04
453.123	869.53
453.497	875.17
453.871	877.89
454.244	873.37
454.618	894.38
454.992	884.44
455.365	912.91
455.739	911.56
456.112	933.48
456.486	924.44
456.859	928.51
457.232	933.93
457.606	940.48
457.979	960.6
458.352	979.58
458.725	993.14
459.099	972.8
459.472	1009.63
459.845	978.22
460.218	1018.22
460.591	1016.64
460.964	1013.25
461.337	1045.11
461.71	1039.24
462.083	1038.79
462.456	1061.61
462.829	1086.02
463.201	1094.6
463.574	1100.48
463.947	1132.34
464.32	1122.63
464.692	1173.25
465.065	1122.63
465.438	1145.45
465.81	1167.82
466.183	1171.66
466.555	1211.44
466.928	1177.31
467.3	1234.94
467.672	1214.83
468.045	1233.58
468.417	1266.35
468.789	1258.22
469.161	1295.73
469.534	1298.44
469.906	1309.06
470.278	1349.51
470.65	1357.65
471.022	1390.64
471.394	1398.78
471.766	1384.54
472.138	1414.6
472.51	1427.48
472.882	1457.31
473.253	1465.22
473.625	1509.06
473.997	1531.88
474.369	1524.42
474.74	1527.36
475.112	1589.73
475.484	1583.86
475.855	1647.81
476.227	1640.58
476.598	1684.42
476.97	1705.89
477.341	1744.08
477.713	1764.19
478.084	1785.66
478.455	1806.22
478.827	1850.97
479.198	1875.6
479.569	1914.24
479.94	1945.2
480.311	1957.18
480.682	2013.45
481.053	2023.62
481.424	2079.66
481.795	2096.16
482.166	2142.49
482.537	2168.7
482.908	2236.72
483.279	2239.66
483.65	2266.55
484.021	2299.09
484.391	2352.42
484.762	2364.63
485.133	2385.42
485.503	2422.7
485.874	2497.96
486.244	2543.15
486.615	2569.82
486.985	2624.73
487.356	2644.17
487.726	2644.62
488.097	2707.22
488.467	2737.95
488.837	2796.71
489.207	2838.29
489.578	2875.57
489.948	2946.98
490.318	2936.14
490.688	2974.55
491.058	2998.51
491.428	3044.61
491.798	3079.64
492.168	3149.92
492.538	3147.88
492.908	3182.01
493.278	3236.69
493.648	3204.83
494.017	3311.27
494.387	3330.7
494.757	3336.8
495.126	3420.42
495.496	3396.01
495.866	3434.88
496.235	3476.46
496.605	3515.78
496.974	3523.92
497.344	3555.78
497.713	3580.87
498.082	3614.31
498.452	3682.56
498.821	3694.08
499.19	3653.41
499.559	3743.35
499.928	3751.26
500.298	3751.94
500.667	3790.13
501.036	3822.67
501.405	3845.49
501.774	3817.47
502.143	3889.78
502.512	3915.55
502.88	3892.04
503.249	3893.63
503.618	3995.32
503.987	3984.7
504.356	4010.91
504.724	3989.22
505.093	4033.06
505.462	4044.58
505.83	4076.45
506.199	4127.52
506.567	4190.12
506.936	4143.56
507.304	4180.17
507.672	4251.13
508.041	4225.37
508.409	4199.38
508.777	4248.42
509.145	4245.93
509.514	4305.14
509.882	4282.32
510.25	4301.3
510.618	4353.5
510.986	4338.59
511.354	4405.25
511.722	4439.6
512.09	4443.44
512.458	4454.97
512.826	4473.5
513.193	4522.54
513.561	4495.19
513.929	4509.88
514.297	4569.99
514.664	4573.61
515.032	4556.21
515.4	4654.74
515.767	4622.87
516.135	4683.44
516.502	4639.82
516.869	4654.51
517.237	4731.57
517.604	4715.98
517.972	4735.41
518.339	4746.94
518.706	4785.13
519.073	4753.26
519.44	4793.26
519.808	4846.37
520.175	4844.79
520.542	4886.37
520.909	4872.36
521.276	4849.76
521.643	4931.57
522.009	4958.46
522.376	4963.65
522.743	5038
523.11	5006.37
523.477	5042.52
523.843	5115.97
524.21	5114.84
524.577	5135.85
524.943	5158.45
525.31	5183.54
525.676	5182.18
526.043	5246.59
526.409	5298.11
526.776	5334.27
527.142	5340.37
527.508	5351.67
527.874	5364.32
528.241	5411.33
528.607	5433.7
528.973	5534.26
529.339	5506.01
529.705	5536.75
530.071	5625.56
530.437	5636.18
530.803	5599.8
531.169	5647.93
531.535	5646.35
531.901	5684.77
532.267	5714.82
532.632	5762.96
532.998	5787.59
533.364	5777.64
533.73	5834.37
534.095	5826.46
534.461	5864.2
534.826	5860.58
535.192	5942.84
535.557	5921.6
535.923	5918.88
536.288	6003.18
536.653	5999.79
537.019	6010.86
537.384	6049.05
537.749	6026.68
538.114	6080.01
538.479	6098.54
538.845	6143.96
539.21	6145.32
539.575	6148.93
539.94	6218.31
540.305	6262.15
540.67	6207.92
541.034	6284.07
541.399	6271.64
541.764	6276.61
542.129	6324.52
542.494	6374.01
542.858	6406.78
543.223	6338.76
543.587	6468.7
543.952	6465.99
544.316	6460.34
544.681	6468.25
545.045	6505.08
545.41	6545.31
545.774	6533.11
546.138	6548.25
546.503	6615.36
546.867	6623.05
547.231	6665.98
547.595	6651.52
547.959	6731.07
548.324	6715.7
548.688	6722.48
549.052	6766.77
549.416	6776.49
549.779	6838.41
550.143	6849.93
550.507	6860.78
550.871	6935.58
551.235	6953.43
551.599	6969.7
551.962	6988.46
552.326	6950.5
552.689	6969.93
553.053	6975.58
553.417	7009.7
553.78	7093.09
554.143	7046.09
554.507	7147.1
554.87	7096.48
555.234	7216.48
555.597	7150.26
555.96	7220.77
556.323	7211.73
556.686	7229.36
557.05	7249.7
557.413	7292.86
557.776	7323.59
558.139	7351.84
558.502	7322.69
558.865	7377.6
559.228	7443.14
559.59	7461.67
559.953	7435.91
560.316	7504.83
560.679	7516.13
561.041	7578.05
561.404	7558.84
561.767	7599.74
562.129	7654.21
562.492	7673.19
562.854	7729.46
563.217	7714.32
563.579	7767.2
563.941	7776.69
564.304	7795.9
564.666	7844.48
565.028	7889.68
565.39	7866.4
565.753	7893.97
566.115	7883.8
566.477	7953.41
566.839	7916.57
567.201	7998.15
567.563	7996.57
567.925	8086.28
568.287	8097.81
568.648	8178.71
569.01	8176.45
569.372	8176
569.734	8172.16
570.095	8293.06
570.457	8277.92
570.819	8334.87
571.18	8384.13
571.542	8449.21
571.903	8427.74
572.265	8470.68
572.626	8574.41
572.987	8570.34
573.349	8615.08
573.71	8664.12
574.071	8644.91
574.432	8733.27
574.794	8857.34
575.155	8826.6
575.516	8845.36
575.877	8966.94
576.238	8990.89
576.599	9107.27
576.96	9023.89
577.32	9147.95
577.681	9266.59
578.042	9298
578.403	9424.78
578.763	9449.86
579.124	9565.79
579.485	9625.23
579.845	9657.99
580.206	9827.93
580.566	9876.52
580.927	9938.21
581.287	10063.86
581.648	10124.88
582.008	10342.04
582.368	10467.92
582.728	10559.67
583.089	10660.68
583.449	10824.29
583.809	10883.73
584.169	11118.75
584.529	11213.21
584.889	11397.38
585.249	11568
585.609	11695
585.969	11928.22
586.329	12017.25
586.688	12241.88
587.048	12395.55
587.408	12600.74
587.768	12719.61
588.127	12951.24
588.487	13176.32
588.846	13542.41
589.206	13573.15
589.565	13804.78
589.925	14118.89
590.284	14336.06
590.643	14565.66
591.003	14829.61
591.362	15079.32
591.721	15291.97
592.08	15463.94
592.44	15874.78
592.799	16093.08
593.158	16266.86
593.517	16500.07
593.876	16805.38
594.235	16930.35
594.593	17230
594.952	17474.51
595.311	17765.58
595.67	18038.11
596.029	18450.08
596.387	18640.81
596.746	18917.41
597.104	19197.86
597.463	19416.83
597.822	19762.14
598.18	19840.1
598.538	20122.35
598.897	20557.14
599.255	20742.9
599.613	21233.51
599.972	21273.06
600.33	21600.05
600.688	21850.22
601.046	22100.61
601.404	22506.92
601.762	22596.19
602.12	22962.73
602.478	23224.42
602.836	23558.65
603.194	23539.89
603.552	23902.37
603.91	24079.76
604.268	24371.73
604.625	24436.82
604.983	24911.83
605.341	24980.3
605.698	25304.81
606.056	25691.7
606.413	25820.51
606.771	26119.26
607.128	26220.72
607.485	26406.93
607.843	26700.48
608.2	27086.24
608.557	27278.77
608.914	27329.17
609.272	27685.54
609.629	27783.62
609.986	28163.72
610.343	28178.19
610.7	28451.17
611.057	28576.14
611.414	28858.17
611.771	29053.42
612.127	29232.17
612.484	29331.15
612.841	29644.14
613.198	29712.61
613.554	29749.67
613.911	30221.97
614.267	30367.73
614.624	30351.01
614.98	30582.64
615.337	30920.71
615.693	30971.11
616.05	30950.32
616.406	31364.77
616.762	31299.23
617.118	31417.65
617.475	31500.36
617.831	31843.63
618.187	31928.37
618.543	31979.89
618.899	32384.63
619.255	32352.99
619.611	32520.67
619.967	32566.32
620.323	32797.27
620.678	32835.46
621.034	32909.59
621.39	33007.66
621.746	33086.98
622.101	33399.74
622.457	33417.82
622.812	33411.72
623.168	33663.24
623.523	33635.9
623.879	33768.1
624.234	33629.79
624.589	33882.67
624.945	33991.14
625.3	33974.87
625.655	34087.63
626.01	34049.44
626.365	34225.26
626.72	34352.71
627.075	34332.15
627.43	34442.88
627.785	34414.18
628.14	34530.79
628.495	34511.58
628.85	34660.73
629.205	34662.08
629.559	34786.37
629.914	34670.67
630.269	34707.73
630.623	34693.72
630.978	34712.93
631.332	34915.18
631.687	34903.88
632.041	34940.27
632.396	35079.47
632.75	34944.11
633.104	34980.27
633.459	34902.08
633.813	34993.15
634.167	34854.85
634.521	34795.86
634.875	35217.1
635.229	34902.08
635.583	34837.67
635.937	34863.21
636.291	34887.39
636.645	35029.98
636.999	34862.3
637.352	35068.17
637.706	34985.46
638.06	35036.08
638.413	34800.61
638.767	34931
639.121	34991.34
639.474	34748.18
639.828	34890.1
640.181	34919.7
640.534	34902.75
640.888	34789.99
641.241	34620.5
641.594	34748.86
641.947	34867.73
642.301	34623.44
642.654	34843.32
643.007	34799.93
643.36	34832.47
643.713	34774.85
644.066	34942.3
644.419	34855.07
644.771	34458.02
645.124	34250.57
645.477	34214.19
645.83	34074.08
646.182	33962.21
646.535	33877.92
646.888	34030.46
647.24	33668.44
647.593	33896.91
647.945	33804.25
648.298	33625.95
648.65	33573.75
649.002	33577.14
649.355	33644.71
649.707	33497.59
650.059	33680.87
650.411	34074.3
650.763	34150.68
651.115	34527.85
651.467	34381.86
651.819	34398.81
652.171	34370.79
652.523	34243.34
652.875	34297.8
653.227	34263.22
653.578	34360.17
653.93	34276.33
654.282	34276.78
654.633	34164.02
654.985	34295.76
655.337	34255.99
655.688	34231.81
656.039	34441.75
656.391	33910.69
656.742	34169.89
657.094	34018.48
657.445	34269.78
657.796	34197.46
658.147	34046.96
658.498	34186.39
658.849	34118.14
659.2	34046.51
659.551	34052.61
659.902	34072.27
660.253	34033.4
660.604	34194.3
660.955	33990.24
661.306	34079.5
661.656	34085.83
662.007	34091.48
662.358	34087.86
662.708	34050.8
663.059	33970.35
663.409	33703.69
663.76	34027.3
664.11	34183.68
664.461	34217.57
664.811	34168.99
665.161	34092.15
665.511	34007.41
665.862	34048.09
666.212	34083.12
666.562	34100.29
666.912	33954.08
667.262	34035.43
667.612	33910.92
667.962	33862.33
668.312	33961.08
668.662	34028.88
669.011	33979.39
669.361	33872.27
669.711	33862.33
670.06	33834.53
670.41	33700.3
670.76	33760.19
671.109	33907.98
671.459	33809.9
671.808	33889.45
672.157	33886.74
672.507	33695.33
672.856	33725.61
673.205	33847.42
673.554	33814.65
673.904	33755.67
674.253	33908.2
674.602	33762.45
674.951	33200.88
675.3	33269.35
675.649	33594.31
675.998	33691.26
676.346	33696.01
676.695	33822.11
677.044	33534.88
677.393	33601.77
677.741	33597.25
678.09	33552.06
678.438	33479.06
678.787	33492.85
679.135	33349.12
679.484	33333.53
679.832	33424.83
680.181	33245.17
680.529	33258.73
680.877	33195.68
681.225	33159.52
681.573	33345.96
681.922	33067.55
682.27	33045.85
682.618	33042.69
682.966	32905.74
683.314	33079.53
683.661	33006.76
684.009	32828.68
684.357	32719.76
684.705	32715.24
685.053	32706.43
685.4	32700.55
685.748	32514.57
686.095	32516.6
686.443	32422.82
686.79	32382.59
687.138	32440.45
687.485	32354.35
687.832	32250.62
688.18	32329.04
688.527	32181.47
688.874	32146.89
689.221	32104.64
689.568	32068.25
689.915	31852.21
690.262	31899.44
690.609	31823.06
690.956	31742.39
691.303	31717.08
691.65	31525.44
691.997	31504.43
692.344	31326.35
692.69	31423.3
693.037	31393.02
693.383	31118.9
693.73	31220.59
694.077	31021.5
694.423	31015.4
694.769	30930.2
695.116	30832.58
695.462	30736.08
695.808	30655.86
696.155	30845.69
696.501	30572.7
696.847	30474.62
697.193	30310.11
697.539	30486.15
697.885	30288.64
698.231	30152.37
698.577	30110.11
698.923	30099.94
699.269	29968.87
699.614	29818.37
699.96	29769.56
700.306	29745.38
700.651	29627.19
700.997	29526.62
701.342	29589.67
701.688	29492.73
702.033	29271.26
702.379	29407.08
702.724	29292.51
703.069	29278.04
703.415	28951.72
703.76	29068.33
704.105	29041.44
704.45	29012.74
704.795	28803.93
705.14	28800.54
705.485	28714.22
705.83	28668.34
706.175	28740.2
706.52	28561.9
706.865	28579.76
707.209	28453.43
707.554	28304.51
707.899	28384.28
708.243	28306.32
708.588	28280.78
708.932	27871.3
709.277	27907.46
709.621	28029.71
709.966	27840.34
710.31	27918.53
710.654	27682.15
710.998	27667.46
711.342	27636.5
711.687	27608.71
712.031	27427.24
712.375	27372.56
712.719	27405.55
713.063	27322.16
713.407	27364.42
713.75	27304.54
714.094	27297.53
714.438	27121.72
714.782	27101.6
715.125	26985.9
715.469	26969.18
715.812	26867.94
716.156	26761.73
716.499	26794.49
716.843	26783.87
717.186	26604.44
717.53	26817.77
717.873	26845.79
718.216	26631.33
718.559	26533.94
718.902	26461.85
719.246	26402.87
719.589	26443.09
719.932	26328.97
720.275	26237.9
720.617	26253.26
720.96	26265.69
721.303	26228.86
721.646	26217.11
721.989	25843.11
722.331	26237.67
722.674	25945.48
723.016	26052.59
723.359	25952.93
723.701	25967.85
724.044	25737.57
724.386	25764.92
724.729	25750.45
725.071	25623.22
725.413	25741.41
725.755	25747.06
726.097	25647.4
726.439	25527.41
726.782	25453.74
727.124	25543.45
727.465	25433.17
727.807	25439.95
728.149	25232.95
728.491	25376.23
728.833	25223.46
729.175	25174.2
729.516	25190.02
729.858	25134.65
730.199	25227.98
730.541	25105.27
730.882	24983.92
731.224	25079.51
731.565	24903.92
731.906	24948.21
732.248	25020.08
732.589	24801.78
732.93	24733.53
733.271	24714.77
733.612	24733.3
733.953	24761.33
734.294	24683.81
734.635	24551.39
734.976	24541.22
735.317	24520.43
735.658	24481.79
735.999	24523.82
736.339	24476.81
736.68	24514.78
737.021	24376.93
737.361	24310.72
737.702	24467.77
738.042	24388
738.383	24263.26
738.723	24366.76
739.063	24135.81
739.404	24266.65
739.744	24284.95
740.084	24086.32
740.424	24046.09
740.764	24039.54
741.104	24101
741.444	24015.58
741.784	23936.49
742.124	23957.28
742.464	23893.78
742.804	23864.63
743.143	23724.29
743.483	23782.37
743.823	23668.02
744.162	23735.59
744.502	23732.88
744.841	23548.7
745.181	23783.95
745.52	23521.58
745.86	23584.18
746.199	23656.72
746.538	23555.26
746.877	23606.55
747.216	23623.05
747.556	23375.15
747.895	23453.11
748.234	23337.86
748.573	23260.8
748.911	23316.39
749.25	23359.1
749.589	23106
749.928	23278.43
750.267	23199.11
750.605	23020.81
750.944	23053.35
751.283	22947.36
751.621	22993.01
751.96	22941.26
752.298	22865.56
752.636	22834.82
752.975	22771.32
753.313	22651.55
753.651	22710.76
753.989	22622.63
754.327	22544.89
754.666	22468.96
755.004	22532.23
755.342	22556.64
755.679	22548.73
756.017	22377.43
756.355	22369.98
756.693	22335.85
757.031	22269.19
757.368	22189.87
757.706	22189.42
758.044	22107.84
758.381	22245.91
758.719	21897.9
759.056	22225.35
759.394	21936.32
759.731	21814.74
760.068	21816.09
760.405	21691.8
760.743	21659.49
