Data from hue_80_FLMS001491_65.txt Node
Date: Mon Feb 06 15:23:23 GMT 2017
User: dcchb
Spectrometer: FLMS00149
Trigger mode: 0
Integration Time (sec): 2.000000E-2
Scans to average: 10
Electric dark correction enabled: true
Nonlinearity correction enabled: false
Boxcar width: 0
XAxis mode: Wavelengths
Number of Pixels in Spectrum: 2048
>>>>>Begin Spectral Data<<<<<
341.393	-3.33
341.776	-3.33
342.16	-3.33
342.543	-76.1
342.927	-64.12
343.31	-85.82
343.693	-71.35
344.077	-52.6
344.46	-65.25
344.843	-65.48
345.226	-32.49
345.61	-41.07
345.993	-17.34
346.376	-8.53
346.759	14.52
347.142	31.69
347.525	45.71
347.908	65.59
348.291	65.82
348.674	90.45
349.057	126.15
349.44	117.57
349.823	139.49
350.206	179.49
350.588	196.89
350.971	222.88
351.354	224.91
351.737	231.46
352.119	223.55
352.502	252.03
352.884	273.72
353.267	284.79
353.65	299.94
354.032	287.73
354.414	317.56
354.797	315.53
355.179	298.35
355.562	332.48
355.944	318.24
356.326	331.8
356.709	337.45
357.091	339.48
357.473	334.96
357.855	336.54
358.238	343.78
358.62	336.32
359.002	340.16
359.384	342.87
359.766	330.67
360.148	350.1
360.53	326.15
360.912	318.24
361.294	342.42
361.676	319.37
362.057	327.28
362.439	326.38
362.821	326.6
363.203	339.71
363.584	309.88
363.966	317.34
364.348	312.36
364.729	340.84
365.111	306.49
365.493	297.45
365.874	319.14
366.256	335.41
366.637	308.07
367.019	311.91
367.4	314.17
367.781	319.14
368.163	321.63
368.544	311.91
368.925	311.01
369.306	312.59
369.688	325.02
370.069	305.59
370.45	303.78
370.831	302.2
371.212	305.13
371.593	305.81
371.974	317.11
372.355	311.69
372.736	316.21
373.117	325.25
373.498	327.28
373.879	297.9
374.26	339.93
374.641	304.23
375.021	313.04
375.402	329.09
375.783	309.2
376.163	318.92
376.544	308.97
376.925	315.08
377.305	322.31
377.686	318.69
378.066	334.51
378.447	330.9
378.827	326.6
379.208	329.77
379.588	334.51
379.968	340.16
380.349	315.53
380.729	333.38
381.109	315.08
381.489	327.73
381.87	325.7
382.25	331.12
382.63	340.61
383.01	333.16
383.39	351.46
383.77	321.86
384.15	337.22
384.53	341.29
384.91	335.64
385.29	325.02
385.67	348.3
386.049	355.08
386.429	346.26
386.809	360.27
387.189	343.78
387.568	344.23
387.948	352.14
388.328	351.23
388.707	349.2
389.087	353.27
389.466	355.08
389.846	362.98
390.225	367.5
390.605	348.3
390.984	342.87
391.363	350.56
391.743	358.92
392.122	377.67
392.501	369.31
392.881	367.73
393.26	369.99
393.639	367.96
394.018	361.85
394.397	355.3
394.776	364.79
395.155	366.83
395.534	372.93
395.913	357.34
396.292	378.35
396.671	374.06
397.05	379.26
397.429	383.1
397.808	383.55
398.186	388.97
398.565	374.96
398.944	376.09
399.323	377.22
399.701	381.29
400.08	392.59
400.458	374.74
400.837	385.36
401.215	374.96
401.594	394.17
401.972	386.04
402.351	402.31
402.729	387.16
403.107	411.35
403.486	375.19
403.864	391.46
404.242	413.83
404.62	390.78
404.999	412.48
405.377	395.3
405.755	402.98
406.133	403.66
406.511	414.73
406.889	410.89
407.267	438.24
407.645	401.4
408.023	428.07
408.401	402.98
408.779	425.58
409.156	418.12
409.534	430.78
409.912	435.3
410.29	442.3
410.667	419.25
411.045	440.5
411.422	440.27
411.8	430.33
412.178	437.33
412.555	434.17
412.933	436.43
413.31	457.22
413.687	447.95
414.065	461.97
414.442	450.89
414.819	453.83
415.197	473.04
415.574	482.08
415.951	465.35
416.328	465.13
416.705	473.26
417.082	491.12
417.46	478.24
417.837	454.96
418.214	471.68
418.591	510.55
418.967	501.06
419.344	497.44
419.721	493.83
420.098	477.56
420.475	529.31
420.852	490.67
421.228	505.58
421.605	496.77
421.982	529.99
422.358	522.75
422.735	532.47
423.111	507.16
423.488	538.57
423.864	522.53
424.241	529.53
424.617	528.63
424.994	521.85
425.37	519.82
425.746	523.88
426.123	547.16
426.499	582.64
426.875	543.09
427.251	549.19
427.627	575.41
428.003	570.89
428.379	580.38
428.756	553.04
429.132	562.75
429.507	588.52
429.883	598.46
430.259	578.57
430.635	584.9
431.011	599.36
431.387	586.93
431.763	608.4
432.138	605.69
432.514	609.98
432.89	608.4
433.265	623.09
433.641	631.23
434.016	631.23
434.392	639.14
434.767	634.16
435.143	647.05
435.518	659.7
435.894	652.69
436.269	671.9
436.644	640.49
437.02	660.15
437.395	662.19
437.77	697.89
438.145	679.59
438.52	708.29
438.895	713.71
439.271	692.02
439.646	717.1
440.021	723.2
440.395	703.31
440.77	713.71
441.145	700.15
441.52	727.49
441.895	729.53
442.27	733.82
442.645	722.07
443.019	733.37
443.394	738.57
443.769	775.4
444.143	744.9
444.518	749.42
444.892	764.56
445.267	779.92
445.641	764.56
446.016	758.91
446.39	766.14
446.764	771.11
447.139	785.57
447.513	793.93
447.887	793.48
448.262	789.64
448.636	817.66
449.01	830.09
449.384	809.53
449.758	811.56
450.132	847.04
450.506	842.75
450.88	832.13
451.254	839.13
451.628	837.32
452.002	848.85
452.376	851.33
452.75	870.99
453.123	841.62
453.497	876.19
453.871	876.64
454.244	891.56
454.618	919.13
454.992	909.19
455.365	908.96
455.739	929.98
456.112	942.63
456.486	942.4
456.859	962.97
457.232	966.36
457.606	979.47
457.979	973.36
458.352	992.8
458.725	986.02
459.099	1014.49
459.472	1029.41
459.845	1034.15
460.218	1057.2
460.591	1067.6
460.964	1069.18
461.337	1092.46
461.71	1110.99
462.083	1122.96
462.456	1132
462.829	1143.98
463.201	1163.87
463.574	1168.61
463.947	1176.52
464.32	1210.87
464.692	1208.16
465.065	1202.28
465.438	1221.04
465.81	1265.11
466.183	1263.75
466.555	1286.58
466.928	1287.48
467.3	1318.89
467.672	1340.59
468.045	1370.64
468.417	1380.59
468.789	1374.71
469.161	1403.64
469.534	1442.28
469.906	1468.94
470.278	1489.73
470.65	1533.35
471.022	1538.55
471.394	1602.5
471.766	1599.11
472.138	1619.45
472.51	1699.45
472.882	1695.15
473.253	1717.07
473.625	1775.15
473.997	1821.48
474.369	1864.41
474.74	1880.69
475.112	1961.81
475.484	1953
475.855	2040.45
476.227	2074.13
476.598	2133.11
476.97	2172.88
477.341	2262.14
477.713	2275.93
478.084	2336.49
478.455	2402.48
478.827	2458.52
479.198	2513.89
479.569	2581.91
479.94	2685.41
480.311	2734.45
480.682	2845.41
481.053	2956.59
481.424	2983.03
481.795	3071.39
482.166	3144.15
482.537	3255.56
482.908	3322.68
483.279	3400.87
483.65	3530.36
484.021	3641.77
484.391	3724.48
484.762	3776.45
485.133	3872.05
485.503	4015.32
485.874	4131.47
486.244	4268.42
486.615	4424.57
486.985	4493.05
487.356	4639.26
487.726	4738.46
488.097	4864.56
488.467	4906.59
488.837	5141.62
489.207	5239.69
489.578	5400.59
489.948	5517.2
490.318	5645.56
490.688	5719.68
491.058	5926.68
491.428	6044.19
491.798	6151.31
492.168	6337.97
492.538	6443.73
492.908	6622.93
493.278	6776.15
493.648	6817.28
494.017	7030.15
494.387	7148.8
494.757	7244.84
495.126	7440.76
495.496	7533.19
495.866	7667.88
496.235	7802.34
496.605	7994.2
496.974	8074.87
497.344	8236.22
497.713	8328.88
498.082	8429.67
498.452	8589.66
498.821	8760.05
499.19	8839.15
499.559	8984.68
499.928	9114.85
500.298	9198.01
500.667	9314.61
501.036	9407.04
501.405	9511.9
501.774	9628.05
502.143	9794.15
502.512	9855.39
502.88	10035.5
503.249	10112.11
503.618	10200.69
503.987	10283.18
504.356	10458.09
504.724	10528.59
505.093	10570.4
505.462	10668.7
505.83	10854.23
506.199	10921.35
506.567	11060.1
506.936	11147.33
507.304	11345.75
507.672	11427.1
508.041	11456.03
508.409	11582.12
508.777	11679.75
509.145	11782.57
509.514	11851.72
509.882	11928.1
510.25	11974.2
510.618	12120.87
510.986	12121.55
511.354	12308.66
511.722	12401.54
512.09	12522.67
512.458	12523.34
512.826	12600.18
513.193	12711.81
513.561	12721.53
513.929	12885.82
514.297	12991.58
514.664	13044.69
515.032	13127.17
515.4	13200.61
515.767	13317.22
516.135	13306.37
516.502	13289.65
516.869	13593.82
517.237	13494.16
517.604	13462.98
517.972	13749.53
518.339	13761.5
518.706	13734.61
519.073	13835.62
519.44	13926.92
519.808	13988.84
520.175	14069.07
520.542	14187.71
520.909	14225.45
521.276	14196.97
521.643	14352.45
522.009	14388.38
522.376	14500.01
522.743	14649.16
523.11	14754.02
523.477	14715.83
523.843	14892.32
524.21	14928.7
524.577	15070.85
524.943	15060.45
525.31	15108.59
525.676	15254.12
526.043	15258.64
526.409	15312.87
526.776	15478.97
527.142	15350.84
527.508	15432.42
527.874	15553.77
528.241	15618.4
528.607	15639.87
528.973	15706.54
529.339	15708.12
529.705	15734.11
530.071	15877.83
530.437	15932.07
530.803	15993.53
531.169	16038.96
531.535	15977.72
531.901	15989.24
532.267	16049.58
532.632	16139.52
532.998	16169.57
533.364	16156.02
533.73	16157.6
534.095	16248.44
534.461	16198.95
534.826	16278.27
535.192	16333.64
535.557	16406.18
535.923	16319.85
536.288	16364.82
536.653	16288.89
537.019	16337.71
537.384	16273.75
537.749	16429.23
538.114	16421.77
538.479	16394.88
538.845	16354.88
539.21	16387.65
539.575	16345.39
539.94	16463.13
540.305	16480.75
540.67	16306.52
541.034	16356.69
541.399	16391.72
541.764	16290.25
542.129	16418.38
542.494	16451.6
542.858	16411.38
543.223	16432.84
543.587	16440.08
543.952	16390.59
544.316	16384.26
544.681	16305.39
545.045	16243.02
545.41	16375.9
545.774	16376.35
546.138	16362.56
546.503	16418.61
546.867	16372.28
547.231	16459.06
547.595	16381.32
547.959	16306.29
548.324	16353.98
548.688	16307.42
549.052	16401.21
549.416	16430.36
549.779	16370.25
550.143	16331.15
550.507	16407.53
550.871	16353.98
551.235	16281.66
551.599	16419.74
551.962	16443.47
552.326	16357.82
552.689	16469.68
553.053	16283.7
553.417	16290.48
553.78	16455.67
554.143	16330.25
554.507	16457.25
554.87	16422.68
555.234	16440.08
555.597	16390.81
555.96	16396.46
556.323	16355.11
556.686	16426.52
557.05	16466.52
557.413	16456.57
557.776	16382.9
558.139	16546.06
558.502	16523.69
558.865	16508.1
559.228	16624.48
559.59	16528.44
559.953	16539.73
560.316	16758.71
560.679	16624.03
561.041	16706.74
561.404	16809.11
561.767	16797.35
562.129	16800.97
562.492	16976.79
562.854	16770.69
563.217	16796.9
563.579	16878.71
563.941	17012.04
564.304	17019.27
564.666	17073.96
565.028	16984.92
565.39	17019.95
565.753	17102.66
566.115	17092.49
566.477	17060.62
566.839	17189.66
567.201	17214.75
567.563	17259.49
567.925	17264.24
568.287	17266.5
568.648	17335.87
569.01	17294.74
569.372	17414.51
569.734	17371.58
570.095	17488.18
570.457	17530.44
570.819	17560.72
571.18	17495.19
571.542	17575.64
571.903	17600.95
572.265	17621.29
572.626	17741.06
572.987	17718.01
573.349	17790.1
573.71	17800.49
574.071	17831.9
574.432	17776.31
574.794	17928.85
575.155	17842.98
575.516	17821.51
575.877	17843.2
576.238	17862.41
576.599	18000.04
576.96	17916.65
577.32	17958.68
577.681	17930.88
578.042	17929.08
578.403	18002.97
578.763	17955.97
579.124	18020.6
579.485	18030.77
579.845	18145.57
580.206	17962.97
580.566	18043.42
580.927	18009.07
581.287	18059.92
581.648	17999.81
582.008	18202.97
582.368	18012.46
582.728	18059.69
583.089	18024.22
583.449	18127.49
583.809	18075.74
584.169	17936.31
584.529	17890.21
584.889	18130.43
585.249	17951.22
585.609	18004.55
585.969	17955.97
586.329	18049.75
586.688	18069.41
587.048	17992.13
587.408	18021.5
587.768	18021.05
588.127	18003.42
588.487	17978.79
588.846	18042.07
589.206	17858.8
589.565	18007.49
589.925	17969.3
590.284	17946.7
590.643	17943.77
591.003	17903.54
591.362	18004.33
591.721	17975.86
592.08	17983.54
592.44	18039.81
592.799	17994.16
593.158	18028.96
593.517	17953.93
593.876	17990.54
594.235	17922.75
594.593	17939.7
594.952	17923.2
595.311	17908.96
595.67	17873.48
596.029	17990.54
596.387	17872.81
596.746	17955.97
597.104	17867.61
597.463	17933.82
597.822	17924.1
598.18	17909.42
598.538	17782.19
598.897	17890.89
599.255	17762.08
599.613	18127.94
599.972	17920.49
600.33	17932.01
600.688	17946.93
601.046	17962.75
601.404	18001.84
601.762	18042.52
602.12	18061.05
602.478	18014.72
602.836	17971.11
603.194	17895.86
603.552	18112.8
603.91	17982.86
604.268	18034.38
604.625	17933.37
604.983	17981.5
605.341	17920.94
605.698	17998
606.056	18012.92
606.413	18021.96
606.771	18139.47
607.128	18087.26
607.485	18049.75
607.843	18015.63
608.2	18213.36
608.557	18201.84
608.914	18114.61
609.272	18191.89
609.629	18214.94
609.986	18307.15
610.343	18148.96
610.7	18252.23
611.057	18261.05
611.414	18287.49
611.771	18267.15
612.127	18252.46
612.484	18305.11
612.841	18331.78
613.198	18299.69
613.554	18330.42
613.911	18472.57
614.267	18406.58
614.624	18443.87
614.98	18369.52
615.337	18572.45
615.693	18507.14
616.05	18522.51
616.406	18554.82
616.762	18567.25
617.118	18512.79
617.475	18444.32
617.831	18471.44
618.187	18680.24
618.543	18634.37
618.899	18732.22
619.255	18498.33
619.611	18512.56
619.967	18726.8
620.323	18702.84
620.678	18687.93
621.034	18666.46
621.39	18686.57
621.746	18685.89
622.101	18774.03
622.457	18693.35
622.812	18738.55
623.168	18689.73
623.523	18734.03
623.879	18752.78
624.234	18668.49
624.589	18737.64
624.945	18816.51
625.3	18879.33
625.655	18809.05
626.01	18794.36
626.365	18801.6
626.72	18758.89
627.075	18779.45
627.43	18675.05
627.785	18739.45
628.14	18713.01
628.495	18796.85
628.85	18763.63
629.205	18663.52
629.559	18839.11
629.914	18647.7
630.269	18789.17
630.623	18724.31
630.978	18685.44
631.332	18604.31
631.687	18742.84
632.041	18649.06
632.396	18676.63
632.75	18634.14
633.104	18637.08
633.459	18492.68
633.813	18446.58
634.167	18447.48
634.521	18588.95
634.875	18543.75
635.229	18475.95
635.583	18423.98
635.937	18376.97
636.291	18336.07
636.645	18352.79
636.999	18380.82
637.352	18378.1
637.706	18347.82
638.06	18364.77
638.413	18249.97
638.767	18272.8
639.121	18269.41
639.474	18209.3
639.828	18247.94
640.181	18167.71
640.534	18212.23
640.888	18191.44
641.241	18066.93
641.594	18231.44
641.947	18162.97
642.301	18097.66
642.654	18098.56
643.007	18071.45
643.36	18085.91
643.713	18061.5
644.066	17988.51
644.419	18023.76
644.771	17823.09
645.124	17677.78
645.477	17742.41
645.83	17577.22
646.182	17500.84
646.535	17507.84
646.888	17505.58
647.24	17434.63
647.593	17579.71
647.945	17437.34
648.298	17395.08
648.65	17451.8
649.002	17317.57
649.355	17459.71
649.707	17409.77
650.059	17535.87
650.411	17703.09
650.763	17657.22
651.115	17893.37
651.467	17873.48
651.819	17818.57
652.171	17851.56
652.523	17738.12
652.875	17783.77
653.227	17712.81
653.578	17863.99
653.93	17841.17
654.282	17638.46
654.633	17720.49
654.985	17830.77
655.337	17747.84
655.688	17788.52
656.039	17881.85
656.391	17681.85
656.742	17683.66
657.094	17833.71
657.445	17899.7
657.796	17780.83
658.147	17823.54
658.498	17810.44
658.849	17897.89
659.2	17780.38
659.551	17892.02
659.902	17832.13
660.253	17869.19
660.604	17826.03
660.955	17724.34
661.306	17856.08
661.656	17767.27
662.007	17838.91
662.358	17778.35
662.708	17881.17
663.059	17883.88
663.409	17676.65
663.76	17851.79
664.11	17763.66
664.461	17800.72
664.811	17876.42
665.161	17861.28
665.511	17732.02
665.862	17822.19
666.212	17969.08
666.562	17844.11
666.912	17813.15
667.262	17781.06
667.612	17831.23
667.962	17825.8
668.312	17842.75
668.662	17883.65
669.011	17818.35
669.361	17856.76
669.711	17751.23
670.06	17814.28
670.41	17770.44
670.76	17685.69
671.109	17755.97
671.459	17744.67
671.808	17718.46
672.157	17836.2
672.507	17723.66
672.856	17698.12
673.205	17786.71
673.554	17748.29
673.904	17681.63
674.253	17801.17
674.602	17773.15
674.951	17482.08
675.3	17401.86
675.649	17636.65
675.998	17663.09
676.346	17666.48
676.695	17671.23
677.044	17555.75
677.393	17646.6
677.741	17571.12
678.09	17504.23
678.438	17479.82
678.787	17440.95
679.135	17471.24
679.484	17439.82
679.832	17439.37
680.181	17381.97
680.529	17460.39
680.877	17311.01
681.225	17333.61
681.573	17356.21
681.922	17261.07
682.27	17102.43
682.618	17250.45
682.966	17102.21
683.314	17219.04
683.661	17094.07
684.009	17003.68
684.357	17048.87
684.705	17017.69
685.053	16952.38
685.4	16948.09
685.748	16902.66
686.095	16939.27
686.443	16781.99
686.79	16814.98
687.138	16774.08
687.485	16825.6
687.832	16723.46
688.18	16685.04
688.527	16634.65
688.874	16675.32
689.221	16550.81
689.568	16512.39
689.915	16466.29
690.262	16519.85
690.609	16403.92
690.956	16366.18
691.303	16287.09
691.65	16241.89
691.997	16253.41
692.344	16053.87
692.69	16082.12
693.037	16094.55
693.383	15894.55
693.73	16030.37
694.077	15828.57
694.423	15903.82
694.769	15858.4
695.116	15824.5
695.462	15667.67
695.808	15734.78
696.155	15646.88
696.501	15534.34
696.847	15643.94
697.193	15389.26
697.539	15529.82
697.885	15299.32
698.231	15334.79
698.577	15337.73
698.923	15218.64
699.269	15139.32
699.614	15086.89
699.96	15050.96
700.306	14979.78
700.651	14949.04
700.997	14879.89
701.342	14824.3
701.688	14714.92
702.033	14827.01
702.379	14751.53
702.724	14642.38
703.069	14619.11
703.415	14516.51
703.76	14455.72
704.105	14510.86
704.45	14517.64
704.795	14296.63
705.14	14299.34
705.485	14246.69
705.83	14256.18
706.175	14203.07
706.52	14175.28
706.865	14193.36
707.209	14111.78
707.554	14053.92
707.899	14039.46
708.243	13936.87
708.588	13906.81
708.932	13900.71
709.277	13835.62
709.621	13839.69
709.966	13698.68
710.31	13768.06
710.654	13663.88
710.998	13636.76
711.342	13673.37
711.687	13613.94
712.031	13579.13
712.375	13540.94
712.719	13476.76
713.063	13426.82
713.407	13523.09
713.75	13380.5
714.094	13392.25
714.438	13366.48
714.782	13366.03
715.125	13307.96
715.469	13194.51
715.812	13238.13
716.156	13211.69
716.499	13217.34
716.843	13143.21
717.186	13124.01
717.53	13228.64
717.873	13165.13
718.216	13126.49
718.559	13022.09
718.902	12917
719.246	13038.58
719.589	12861.87
719.932	12947.51
720.275	12906.16
720.617	12938.47
720.96	12973.5
721.303	12945.7
721.646	12888.98
721.989	12795.43
722.331	12865.25
722.674	12770.57
723.016	12841.98
723.359	12791.13
723.701	12797.46
724.044	12705.03
724.386	12712.49
724.729	12739.61
725.071	12708.87
725.413	12776.9
725.755	12724.47
726.097	12634.75
726.439	12601.31
726.782	12629.55
727.124	12646.73
727.465	12618.71
727.807	12661.87
728.149	12569.44
728.491	12560.86
728.833	12558.6
729.175	12514.76
729.516	12529.9
729.858	12543.46
730.199	12597.24
730.541	12490.58
730.882	12579.16
731.224	12573.96
731.565	12564.25
731.906	12514.53
732.248	12508.2
732.589	12528.31
732.93	12499.84
733.271	12521.99
733.612	12437.7
733.953	12518.37
734.294	12357.25
734.635	12469.56
734.976	12502.1
735.317	12513.4
735.658	12446.73
735.999	12437.24
736.339	12461.42
736.68	12537.58
737.021	12467.75
737.361	12426.17
737.702	12469.56
738.042	12493.74
738.383	12460.29
738.723	12437.92
739.063	12486.96
739.404	12548.43
739.744	12490.35
740.084	12434.76
740.424	12515.66
740.764	12505.72
741.104	12525.6
741.444	12517.69
741.784	12448.77
742.124	12498.94
742.464	12554.3
742.804	12545.49
743.143	12599.27
743.483	12498.94
743.823	12514.08
744.162	12594.08
744.502	12635.43
744.841	12667.29
745.181	12743
745.52	12649.89
745.86	12714.98
746.199	12794.75
746.538	12776.67
746.877	12892.37
747.216	12921.3
747.556	12879.04
747.895	12974.86
748.234	12999.49
748.573	13024.8
748.911	13112.71
749.25	13119.26
749.589	13130.11
749.928	13312.7
750.267	13375.07
750.605	13329.42
750.944	13382.98
751.283	13519.02
751.621	13655.97
751.96	13564.45
752.298	13775.06
752.636	13870.2
752.975	13888.96
753.313	13947.03
753.651	14037.88
753.989	14095.28
754.327	14241.26
754.666	14335.95
755.004	14364.2
755.342	14556.28
755.679	14672.67
756.017	14726.67
756.355	14925.77
