Data from hue_80_FLMS001491_76.txt Node
Date: Mon Feb 06 15:23:32 GMT 2017
User: dcchb
Spectrometer: FLMS00149
Trigger mode: 0
Integration Time (sec): 2.000000E-2
Scans to average: 10
Electric dark correction enabled: true
Nonlinearity correction enabled: false
Boxcar width: 0
XAxis mode: Wavelengths
Number of Pixels in Spectrum: 2048
>>>>>Begin Spectral Data<<<<<
341.393	-21.75
341.776	-21.75
342.16	-21.75
342.543	-58.13
342.927	-85.93
343.31	-59.94
343.693	-59.26
344.077	-66.95
344.46	-64.46
344.843	-66.5
345.226	-32.37
345.61	-22.2
345.993	-18.81
346.376	-0.96
346.759	-11.13
347.142	31.81
347.525	34.74
347.908	70.9
348.291	62.77
348.674	95.53
349.057	106.83
349.44	133.73
349.823	158.36
350.206	173.95
350.588	213.95
350.971	219.15
351.354	242.87
351.737	226.83
352.119	239.94
352.502	272.25
352.884	265.47
353.267	291.24
353.65	276.55
354.032	279.71
354.414	308.64
354.797	307.73
355.179	319.03
355.562	318.35
355.944	323.78
356.326	326.26
356.709	352.02
357.091	338.47
357.473	325.36
357.855	327.39
358.238	341.86
358.62	336.21
359.002	336.21
359.384	329.88
359.766	350.67
360.148	343.89
360.53	351.8
360.912	341.86
361.294	328.07
361.676	313.61
362.057	328.52
362.439	319.94
362.821	322.19
363.203	311.57
363.584	343.66
363.966	301.4
364.348	335.75
364.729	326.49
365.111	308.64
365.493	332.59
365.874	307.05
366.256	318.58
366.637	328.97
367.019	322.42
367.4	303.66
367.781	334.4
368.163	321.07
368.544	306.6
368.925	305.02
369.306	327.62
369.688	327.84
370.069	315.42
370.45	325.81
370.831	310.67
371.212	322.42
371.593	296.88
371.974	341.63
372.355	314.74
372.736	297.34
373.117	321.07
373.498	319.26
373.879	330.56
374.26	316.09
374.641	325.58
375.021	310.67
375.402	335.53
375.783	334.17
376.163	306.15
376.544	312.48
376.925	335.3
377.305	339.14
377.686	329.88
378.066	324.23
378.447	326.49
378.827	321.07
379.208	346.38
379.588	338.92
379.968	332.82
380.349	342.08
380.729	332.82
381.109	321.52
381.489	334.85
381.87	327.84
382.25	341.18
382.63	341.86
383.01	356.77
383.39	350.44
383.77	330.1
384.15	341.4
384.53	330.1
384.91	340.95
385.29	349.76
385.67	359.48
386.049	345.25
386.429	351.12
386.809	351.8
387.189	373.27
387.568	349.54
387.948	352.93
388.328	348.63
388.707	349.31
389.087	361.97
389.466	362.19
389.846	366.26
390.225	348.18
390.605	362.42
390.984	362.87
391.363	367.62
391.743	380.5
392.122	367.17
392.501	363.1
392.881	380.27
393.26	345.02
393.639	359.71
394.018	365.81
394.397	390.44
394.776	385.7
395.155	372.14
395.534	376.2
395.913	377.33
396.292	381.85
396.671	375.07
397.05	371.46
397.429	406.03
397.808	401.51
398.186	376.43
398.565	387.73
398.944	382.76
399.323	396.77
399.701	370.78
400.08	401.97
400.458	389.09
400.837	370.78
401.215	392.7
401.594	394.28
401.972	424.79
402.351	401.97
402.729	423.44
403.107	389.54
403.486	396.09
403.864	402.19
404.242	420.27
404.62	418.01
404.999	393.15
405.377	399.26
405.755	438.35
406.133	429.76
406.511	429.08
406.889	434.28
407.267	412.14
407.645	431.8
408.023	433.83
408.401	438.8
408.779	439.48
409.156	441.29
409.534	440.16
409.912	422.98
410.29	451.46
410.667	452.36
411.045	445.13
411.422	454.85
411.8	458.91
412.178	440.84
412.555	463.89
412.933	453.26
413.31	475.64
413.687	453.72
414.065	455.75
414.442	473.38
414.819	480.16
415.197	475.64
415.574	493.26
415.951	479.7
416.328	496.88
416.705	488.29
417.082	492.36
417.46	492.59
417.837	493.72
418.214	477.67
418.591	487.61
418.967	500.04
419.344	499.59
419.721	502.98
420.098	514.28
420.475	508.4
420.852	498.69
421.228	514.73
421.605	509.99
421.982	524.68
422.358	531.45
422.735	516.31
423.111	509.31
423.488	547.05
423.864	548.4
424.241	552.02
424.617	529.42
424.994	531.68
425.37	530.33
425.746	525.13
426.123	553.38
426.499	582.08
426.875	555.18
427.251	561.96
427.627	569.87
428.003	584.11
428.379	588.4
428.756	589.76
429.132	575.75
429.507	612.13
429.883	596.54
430.259	603.77
430.635	589.98
431.011	608.97
431.387	635.18
431.763	623.66
432.138	616.65
432.514	648.06
432.89	627.05
433.265	603.09
433.641	658.68
434.016	633.15
434.392	661.85
434.767	674.28
435.143	657.55
435.518	667.72
435.894	673.6
436.269	675.41
436.644	674.73
437.02	698.91
437.395	714.5
437.77	726.25
438.145	711.56
438.52	701.17
438.895	719.7
439.271	711.79
439.646	730.32
440.021	719.92
440.395	754.5
440.77	744.33
441.145	776.87
441.52	770.77
441.895	744.78
442.27	752.01
442.645	778.91
443.019	764.22
443.394	767.15
443.769	786.59
444.143	790.43
444.518	796.31
444.892	780.49
445.267	790.66
445.641	780.94
446.016	818.23
446.39	795.63
446.764	805.35
447.139	805.8
447.513	800.83
447.887	807.15
448.262	818.45
448.636	811.22
449.01	838.57
449.384	844.44
449.758	855.74
450.132	854.84
450.506	883.76
450.88	864.78
451.254	877.43
451.628	893.93
452.002	888.73
452.376	880.6
452.75	893.48
453.123	895.29
453.497	924.66
453.871	900.94
454.244	935.06
454.618	962.86
454.992	932.12
455.365	964.89
455.739	974.38
456.112	986.36
456.486	975.96
456.859	999.47
457.232	1022.74
457.606	998.34
457.979	1035.4
458.352	1062.74
458.725	1032.91
459.099	1051.89
459.472	1068.16
459.845	1083.3
460.218	1109.29
460.591	1120.59
460.964	1108.39
461.337	1116.3
461.71	1148.84
462.083	1148.84
462.456	1182.51
462.829	1166.01
463.201	1188.84
463.574	1205.56
463.947	1210.31
464.32	1271.55
464.692	1245.56
465.065	1255.05
465.438	1300.7
465.81	1287.14
466.183	1354.03
466.555	1336.86
466.928	1357.65
467.3	1366.69
467.672	1392.68
468.045	1467.02
468.417	1435.61
468.789	1469.96
469.161	1477.42
469.534	1502.73
469.906	1565.55
470.278	1551.54
470.65	1607.58
471.022	1616.4
471.394	1636.51
471.766	1671.09
472.138	1710.41
472.51	1742.95
472.882	1800.12
473.253	1775.04
473.625	1857.52
473.997	1877.18
474.369	1896.62
474.74	1977.52
475.112	2004.64
475.484	2085.99
475.855	2097.52
476.227	2144.29
476.598	2188.36
476.97	2253.22
477.341	2315.14
477.713	2356.49
478.084	2417.51
478.455	2479.65
478.827	2544.74
479.198	2592.87
479.569	2663.6
479.94	2784.5
480.311	2831.73
480.682	2948.11
481.053	3047.55
481.424	3081.22
481.795	3144.72
482.166	3238.28
482.537	3325.28
482.908	3438.05
483.279	3523.69
483.65	3619.51
484.021	3739.05
484.391	3854.98
484.762	3918.94
485.133	4017.01
485.503	4081.87
485.874	4225.6
486.244	4365.48
486.615	4428.08
486.985	4603.21
487.356	4706.94
487.726	4797.78
488.097	4967.5
488.467	5086.82
488.837	5280.71
489.207	5341.95
489.578	5490.19
489.948	5612.23
490.318	5766.35
490.688	5860.81
491.058	6031.2
491.428	6176.96
491.798	6277.52
492.168	6514.35
492.538	6588.02
492.908	6685.42
493.278	6898.97
493.648	6942.81
494.017	7123.37
494.387	7307.55
494.757	7416.92
495.126	7563.13
495.496	7670.25
495.866	7857.14
496.235	7995.89
496.605	8138.49
496.974	8231.14
497.344	8351.36
497.713	8447.18
498.082	8573.28
498.452	8789.09
498.821	8867.28
499.19	8961.29
499.559	9093.49
499.928	9253.71
500.298	9359.02
500.667	9493.93
501.036	9540.48
501.405	9736.41
501.774	9782.96
502.143	9942.51
502.512	10052.33
502.88	10236.28
503.249	10297.75
503.618	10391.99
503.987	10442.38
504.356	10587.24
504.724	10662.94
505.093	10782.94
505.462	10928.92
505.83	10995.13
506.199	11118.07
506.567	11225.86
506.936	11332.98
507.304	11417.5
507.672	11522.35
508.041	11585.4
508.409	11742.69
508.777	11766.19
509.145	11950.82
509.514	12028.78
509.882	12188.55
510.25	12203.92
510.618	12216.8
510.986	12418.83
511.354	12443.23
511.722	12580.4
512.09	12667.86
512.458	12741.3
512.826	12785.6
513.193	12912.6
513.561	12950.34
513.929	13120.73
514.297	13152.59
514.664	13154.63
515.032	13277.79
515.4	13398.91
515.767	13468.29
516.135	13504.22
516.502	13447.27
516.869	13669.64
517.237	13783.54
517.604	13707.83
517.972	13916.87
518.339	13868.28
518.706	13903.98
519.073	14047.03
519.44	14141.94
519.808	14221.49
520.175	14206.8
520.542	14423.07
520.909	14441.37
521.276	14456.96
521.643	14594.81
522.009	14525.66
522.376	14612.67
522.743	14713
523.11	14833.9
523.477	14956.61
523.843	14953.45
524.21	15141.47
524.577	15175.82
524.943	15204.52
525.31	15173.1
525.676	15391.18
526.043	15467.33
526.409	15470.72
526.776	15606.54
527.142	15618.29
527.508	15657.38
527.874	15741
528.241	15789.81
528.607	15835.23
528.973	15878.85
529.339	15819.19
529.705	16014.66
530.071	16038.39
530.437	16060.99
530.803	16216.92
531.169	16115.9
531.535	16168.33
531.901	16162.91
532.267	16206.52
532.632	16228.9
532.998	16253.53
533.364	16286.75
533.73	16264.83
534.095	16483.13
534.461	16433.41
534.826	16452.84
535.192	16457.14
535.557	16574.2
535.923	16399.51
536.288	16505.72
536.653	16498.94
537.019	16432.28
537.384	16558.38
537.749	16515.89
538.114	16556.57
538.479	16509.57
538.845	16575.33
539.21	16454.65
539.575	16523.35
539.94	16549.11
540.305	16522.45
540.67	16483.35
541.034	16546.85
541.399	16551.82
541.764	16530.13
542.129	16552.95
542.494	16537.81
542.858	16524.03
543.223	16482.22
543.587	16562.22
543.952	16478.38
544.316	16588.89
544.681	16506.18
545.045	16526.97
545.41	16596.57
545.774	16561.77
546.138	16477.48
546.503	16550.69
546.867	16517.93
547.231	16562.22
547.595	16501.66
547.959	16433.18
548.324	16483.8
548.688	16494.43
549.052	16434.99
549.416	16539.4
549.779	16440.19
550.143	16444.71
550.507	16515.44
550.871	16550.47
551.235	16504.82
551.599	16552.95
551.962	16540.75
552.326	16434.99
552.689	16505.05
553.053	16436.12
553.417	16507.76
553.78	16668.21
554.143	16467.76
554.507	16535.55
554.87	16532.16
555.234	16640.41
555.597	16437.03
555.96	16560.86
556.323	16520.64
556.686	16546.63
557.05	16520.41
557.413	16611.71
557.776	16528.1
558.139	16650.81
558.502	16613.07
558.865	16547.08
559.228	16720.63
559.59	16739.16
559.953	16672.95
560.316	16842.89
560.679	16825.04
561.041	16792.27
561.404	16905.49
561.767	16873.85
562.129	16852.61
562.492	17081.98
562.854	16933.51
563.217	16947.52
563.579	16978.71
563.941	17052.15
564.304	17089.89
564.666	17109.1
565.028	17043.56
565.39	17174.63
565.753	17144.58
566.115	17148.42
566.477	17222.77
566.839	17248.53
567.201	17303.44
567.563	17346.15
567.925	17474.74
568.287	17443.1
568.648	17391.35
569.01	17507.51
569.372	17560.16
569.734	17512.03
570.095	17597.67
570.457	17684.9
570.819	17608.75
571.18	17598.35
571.542	17632.93
571.903	17707.05
572.265	17755.18
572.626	17712.47
572.987	17789.53
573.349	17774.84
573.71	17835.86
574.071	17832.47
574.432	17869.3
574.794	17832.92
575.155	17949.08
575.516	17934.16
575.877	17936.2
576.238	17968.06
576.599	17977.1
576.96	18020.26
577.32	18067.94
577.681	18073.37
578.042	18041.5
578.403	18201.72
578.763	18086.93
579.124	18122.4
579.485	18126.7
579.845	18148.62
580.206	18146.13
580.566	18079.69
580.927	18169.86
581.287	18266.13
581.648	18054.84
582.008	18139.81
582.368	18115.4
582.728	18133.25
583.089	18188.62
583.449	18080.37
583.809	18139.13
584.169	18166.47
584.529	18072.46
584.889	18273.14
585.249	18141.16
585.609	17954.95
585.969	18179.58
586.329	18033.59
586.688	18053.93
587.048	18173.25
587.408	18044.89
587.768	18018.45
588.127	18016.64
588.487	18046.7
588.846	18075.63
589.206	17917.21
589.565	18006.93
589.925	18072.24
590.284	17976.42
590.643	17989.08
591.003	18058.9
591.362	18106.59
591.721	17997.44
592.08	18024.55
592.44	18087.15
592.799	18071.33
593.158	17906.59
593.517	18086.02
593.876	17999.24
594.235	17926.48
594.593	18024.1
594.952	17937.32
595.311	17958.57
595.67	17957.89
596.029	18071.33
596.387	18057.1
596.746	17994.95
597.104	17944.1
597.463	17955.86
597.822	17992.24
598.18	17954.05
598.538	17917.66
598.897	17968.28
599.255	17851
599.613	18094.83
599.972	17938.23
600.33	17982.52
600.688	18093.03
601.046	17952.69
601.404	18003.09
601.762	17999.02
602.12	18065.68
602.478	18017.32
602.836	18044.44
603.194	17898
603.552	18058.23
603.91	18000.83
604.268	18026.36
604.625	17977.55
604.983	18079.02
605.341	17963.09
605.698	18074.27
606.056	17999.7
606.413	18017.55
606.771	18140.71
607.128	18138.45
607.485	18112.69
607.843	18154.04
608.2	18146.13
608.557	18076.08
608.914	18134.38
609.272	18243.98
609.629	18198.11
609.986	18202.63
610.343	18236.75
610.7	18250.31
611.057	18243.76
611.414	18298.22
611.771	18215.96
612.127	18282.63
612.484	18313.59
612.841	18385.22
613.198	18281.27
613.554	18290.76
613.911	18408.05
614.267	18425.67
614.624	18398.33
614.98	18478.33
615.337	18606.01
615.693	18435.62
616.05	18547.93
616.406	18554.71
616.762	18468.61
617.118	18550.42
617.475	18545.67
617.831	18533.92
618.187	18628.83
618.543	18613.24
618.899	18707.47
619.255	18705.67
619.611	18678.55
619.967	18711.99
620.323	18830.86
620.678	18687.36
621.034	18663.63
621.39	18606.91
621.746	18719
622.101	18844.65
622.457	18691.2
622.812	18695.95
623.168	18774.37
623.523	18700.92
623.879	18750.41
624.234	18624.54
624.589	18805.1
624.945	18730.75
625.3	18815.49
625.655	18716.29
626.01	18678.32
626.365	18770.07
626.72	18794.7
627.075	18810.52
627.43	18794.03
627.785	18762.16
628.14	18730.52
628.495	18672.45
628.85	18767.13
629.205	18707.25
629.559	18773.46
629.914	18647.59
630.269	18725.33
630.623	18617.99
630.978	18688.27
631.332	18640.81
631.687	18687.36
632.041	18608.72
632.396	18652.56
632.75	18643.07
633.104	18606.01
633.459	18516.97
633.813	18463.86
634.167	18449.63
634.521	18446.01
634.875	18509.29
635.229	18470.19
635.583	18280.82
635.937	18479.23
636.291	18398.78
636.645	18439.46
636.999	18292.34
637.352	18374.15
637.706	18287.82
638.06	18343.64
638.413	18266.81
638.767	18296.19
639.121	18348.61
639.474	18295.51
639.828	18169.18
640.181	18358.56
640.534	18229.29
640.888	18254.15
641.241	18080.6
641.594	18079.92
641.947	18246.92
642.301	18148.39
642.654	18117.89
643.007	18201.05
643.36	18098.45
643.713	18114.27
644.066	18183.65
644.419	18001.96
644.771	17857.55
645.124	17715.64
645.477	17657.78
645.83	17637.9
646.182	17560.16
646.535	17490.11
646.888	17456.43
647.24	17500.5
647.593	17502.08
647.945	17476.77
648.298	17458.02
648.65	17374.18
649.002	17433.84
649.355	17486.49
649.707	17326.27
650.059	17505.7
650.411	17590.67
650.763	17660.04
651.115	17922.64
651.467	17853.26
651.819	17772.58
652.171	17784.79
652.523	17781.4
652.875	17947.49
653.227	17679.48
653.578	17861.85
653.93	17849.19
654.282	17736.2
654.633	17808.29
654.985	17804.9
655.337	17771.23
655.688	17741.62
656.039	17860.04
656.391	17764.67
656.742	17636.77
657.094	17746.6
657.445	17789.08
657.796	17734.39
658.147	17772.58
658.498	17797.89
658.849	17814.16
659.2	17756.09
659.551	17729.42
659.902	17784.56
660.253	17879.47
660.604	17870.43
660.955	17744.34
661.306	17897.1
661.656	17789.31
662.007	17824.56
662.358	17879.7
662.708	17874.5
663.059	17875.63
663.409	17714.73
663.76	17851
664.11	17868.4
664.461	17915.18
664.811	17932.35
665.161	17848.29
665.511	17842.41
665.862	17874.28
666.212	17871.11
666.562	17933.03
666.912	17876.08
667.262	17892.35
667.612	17773.94
667.962	17872.24
668.312	17795.41
668.662	17950.43
669.011	17839.7
669.361	17825.92
669.711	17888.74
670.06	17733.26
670.41	17695.3
670.76	17813.49
671.109	17885.8
671.459	17839.25
671.808	17781.4
672.157	17787.95
672.507	17731.23
672.856	17740.49
673.205	17721.74
673.554	17819.59
673.904	17726.03
674.253	17839.47
674.602	17635.86
674.951	17394.97
675.3	17345.7
675.649	17727.84
675.998	17567.39
676.346	17552.48
676.695	17684.68
677.044	17543.89
677.393	17611.23
677.741	17636.99
678.09	17621.4
678.438	17520.39
678.787	17610.78
679.135	17553.38
679.484	17457.79
679.832	17450.33
680.181	17361.07
680.529	17447.17
680.877	17417.79
681.225	17372.14
681.573	17484.46
681.922	17211.24
682.27	17233.39
682.618	17208.53
682.966	17142.54
683.314	17194.07
683.661	17112.71
684.009	17036.33
684.357	17029.1
684.705	16965.6
685.053	17005.82
685.4	16998.82
685.748	16867.75
686.095	16839.05
686.443	16792.5
686.79	16794.98
687.138	16743.46
687.485	16755.44
687.832	16713.18
688.18	16649.45
688.527	16653.74
688.874	16578.49
689.221	16590.69
689.568	16448.55
689.915	16434.99
690.262	16505.27
690.609	16439.96
690.956	16398.38
691.303	16358.61
691.65	16279.97
691.997	16172.85
692.344	16168.11
692.69	16102.12
693.037	16068.9
693.383	15952.97
693.73	15931.95
694.077	15853.54
694.423	15846.08
694.769	15815.12
695.116	15797.72
695.462	15766.53
695.808	15659.42
696.155	15731.73
696.501	15529.7
696.847	15525.19
697.193	15406.77
697.539	15523.15
697.885	15340.33
698.231	15299.65
698.577	15322.7
698.923	15227.57
699.269	15181.24
699.614	15089.49
699.96	15013.33
700.306	15016.05
700.651	14917.74
700.997	14834.58
701.342	14869.16
701.688	14870.51
702.033	14708.26
702.379	14743.06
702.724	14630.07
703.069	14705.77
703.415	14475.04
703.76	14479.79
704.105	14549.39
704.45	14426.91
704.795	14278.66
705.14	14343.52
705.485	14237.99
705.83	14196.86
706.175	14278.89
706.52	14187.59
706.865	14120.02
707.209	14175.16
707.554	14021.5
707.899	14074.15
708.243	14029.63
708.588	13976.07
708.932	13869.64
709.277	13802.97
709.621	13857.66
709.966	13726.36
710.31	13786.93
710.654	13614.5
710.998	13687.95
711.342	13735.18
711.687	13630.55
712.031	13529.98
712.375	13539.7
712.719	13507.84
713.063	13473.26
713.407	13526.14
713.75	13466.03
714.094	13412.92
714.438	13356.65
714.782	13342.87
715.125	13291.8
715.469	13341.51
715.812	13242.76
716.156	13227.17
716.499	13144.46
716.843	13204.57
717.186	13088.64
717.53	13185.81
717.873	13228.07
718.216	13108.98
718.559	13103.55
718.902	12992.6
719.246	13012.03
719.589	12963.22
719.932	12875.54
720.275	12911.69
720.617	12884.58
720.96	12889.77
721.303	12885.48
721.646	12852.03
721.989	12814.75
722.331	12869.21
722.674	12741.08
723.016	12874.18
723.359	12754.86
723.701	12730.23
724.044	12685.49
724.386	12680.29
724.729	12813.62
725.071	12707.41
725.413	12681.42
725.755	12756.44
726.097	12672.38
726.439	12603.68
726.782	12606.62
727.124	12634.19
727.465	12599.61
727.807	12586.96
728.149	12573.4
728.491	12607.07
728.833	12638.93
729.175	12488.43
729.516	12569.78
729.858	12581.53
730.199	12465.15
730.541	12431.71
730.882	12521.42
731.224	12565.71
731.565	12543.79
731.906	12487.52
732.248	12505.38
732.589	12444.36
732.93	12475.55
733.271	12445.72
733.612	12489.11
733.953	12500.18
734.294	12481.42
734.635	12523.91
734.976	12486.62
735.317	12372.95
735.658	12458.37
735.999	12425.38
736.339	12451.37
736.68	12491.14
737.021	12524.36
737.361	12463.12
737.702	12526.62
738.042	12481.88
738.383	12482.1
738.723	12485.94
739.063	12418.37
739.404	12412.05
739.744	12494.53
740.084	12464.93
740.424	12492.27
740.764	12494.3
741.104	12492.5
741.444	12535.21
741.784	12384.48
742.124	12589.67
742.464	12523.68
742.804	12592.83
743.143	12530.91
743.483	12601.19
743.823	12569.1
744.162	12693.85
744.502	12754.18
744.841	12643
745.181	12760.74
745.52	12704.02
745.86	12838.7
746.199	12815.65
746.538	12830.79
746.877	12920.51
747.216	12976.55
747.556	12940.39
747.895	13012.03
748.234	13033.27
748.573	13146.49
748.911	13146.94
749.25	13105.36
749.589	13257.67
749.928	13279.59
750.267	13384.68
750.605	13418.57
750.944	13492.92
751.283	13501.51
751.621	13619.92
751.96	13704.89
752.298	13783.54
752.636	13851.1
752.975	13979.46
753.313	13941.95
753.651	14098.1
753.989	14223.3
754.327	14332.45
754.666	14417.42
755.004	14408.15
755.342	14593.46
755.679	14607.92
756.017	14695.83
756.355	14883.17
756.693	14943.73
