Data from hue_10_FLMS001491_75.txt Node
Date: Mon Feb 06 15:32:31 GMT 2017
User: dcchb
Spectrometer: FLMS00149
Trigger mode: 0
Integration Time (sec): 2.000000E-2
Scans to average: 10
Electric dark correction enabled: true
Nonlinearity correction enabled: false
Boxcar width: 0
XAxis mode: Wavelengths
Number of Pixels in Spectrum: 2048
>>>>>Begin Spectral Data<<<<<
341.393	-6
341.776	-6
342.16	-6
342.543	-60.92
342.927	-79
343.31	-70.41
343.693	-74.25
344.077	-66.57
344.46	-71.76
344.843	-53.23
345.226	-23.18
345.61	-27.47
345.993	-13.69
346.376	-0.81
346.759	3.94
347.142	19.53
347.525	30.61
347.908	66.99
348.291	72.87
348.674	105.63
349.057	101.79
349.44	131.62
349.823	142.47
350.206	164.84
350.588	196.03
350.971	205.74
351.354	216.59
351.737	247.78
352.119	251.39
352.502	263.14
352.884	265.63
353.267	272.18
353.65	290.94
354.032	303.59
354.414	318.73
354.797	335.91
355.179	340.88
355.562	341.33
355.944	347.66
356.326	334.55
356.709	330.71
357.091	319.41
357.473	333.42
357.855	356.93
358.238	348.11
358.62	335.01
359.002	338.62
359.384	359.19
359.766	335.01
360.148	364.84
360.53	359.64
360.912	351.5
361.294	350.82
361.676	340.65
362.057	348.11
362.439	342.91
362.821	346.98
363.203	327.77
363.584	339.07
363.966	308.11
364.348	316.7
364.729	336.14
365.111	327.32
365.493	329.13
365.874	319.64
366.256	331.62
366.637	320.54
367.019	305.63
367.4	322.8
367.781	297.94
368.163	296.81
368.544	316.7
368.925	333.88
369.306	333.2
369.688	313.08
370.069	311.28
370.45	305.63
370.831	312.86
371.212	307.66
371.593	305.4
371.974	321.9
372.355	311.73
372.736	316.47
373.117	304.72
373.498	303.37
373.879	314.21
374.26	322.8
374.641	311.05
375.021	323.48
375.402	347.89
375.783	317.38
376.163	313.08
376.544	346.3
376.925	332.75
377.305	326.87
377.686	347.21
378.066	311.73
378.447	311.28
378.827	315.34
379.208	319.64
379.588	313.08
379.968	317.83
380.349	329.81
380.729	319.86
381.109	330.49
381.489	334.33
381.87	346.76
382.25	341.56
382.63	329.81
383.01	330.26
383.39	330.03
383.77	353.08
384.15	339.3
384.53	340.2
384.91	321.9
385.29	342.01
385.67	343.14
386.049	351.95
386.429	325.51
386.809	325.97
387.189	351.73
387.568	345.85
387.948	348.79
388.328	349.02
388.707	342.69
389.087	351.05
389.466	338.4
389.846	360.54
390.225	356.25
390.605	351.73
390.984	367.77
391.363	352.63
391.743	366.64
392.122	361.67
392.501	365.06
392.881	360.32
393.26	356.02
393.639	362.8
394.018	349.92
394.397	352.18
394.776	360.32
395.155	378.62
395.534	350.37
395.913	351.95
396.292	349.92
396.671	360.09
397.05	365.51
397.429	356.02
397.808	357.15
398.186	375.68
398.565	376.13
398.944	386.53
399.323	347.89
399.701	377.72
400.08	372.29
400.458	358.96
400.837	383.37
401.215	395.34
401.594	394.66
401.972	378.17
402.351	366.42
402.729	378.85
403.107	397.38
403.486	376.59
403.864	384.95
404.242	381.56
404.62	376.13
404.999	377.49
405.377	398.96
405.755	395.12
406.133	390.6
406.511	390.15
406.889	396.47
407.267	406.19
407.645	386.08
408.023	410.03
408.401	396.02
408.779	410.94
409.156	414.55
409.534	420.2
409.912	416.59
410.29	421.78
410.667	426.08
411.045	426.53
411.422	431.73
411.8	420.43
412.178	454.32
412.555	424.27
412.933	429.69
413.31	422.69
413.687	449.8
414.065	423.82
414.442	429.69
414.819	441.67
415.197	428.79
415.574	419.97
415.951	450.93
416.328	433.31
416.705	430.82
417.082	453.19
417.46	471.27
417.837	450.71
418.214	445.74
418.591	457.26
418.967	468.56
419.344	445.51
419.721	464.04
420.098	460.65
420.475	450.26
420.852	457.94
421.228	458.84
421.605	463.14
421.982	483.7
422.358	462.23
422.735	473.76
423.111	452.74
423.488	486.19
423.864	478.28
424.241	482.8
424.617	488.9
424.994	485.74
425.37	466.3
425.746	499.75
426.123	490.71
426.499	502.68
426.875	492.97
427.251	499.97
427.627	528.45
428.003	508.33
428.379	511.27
428.756	535.68
429.132	524.83
429.507	532.74
429.883	514.44
430.259	532.29
430.635	537.03
431.011	513.53
431.387	543.36
431.763	542.68
432.138	541.78
432.514	534.32
432.89	555.34
433.265	544.72
433.641	569.58
434.016	560.76
434.392	580.2
434.767	553.3
435.143	556.24
435.518	583.59
435.894	572.06
436.269	567.09
436.644	582
437.02	604.6
437.395	597.6
437.77	600.76
438.145	579.74
438.52	609.35
438.895	616.58
439.271	601.89
439.646	615.68
440.021	613.42
440.395	616.58
440.77	603.7
441.145	627.65
441.52	639.63
441.895	646.64
442.27	633.53
442.645	621.1
443.019	605.96
443.394	642.57
443.769	647.31
444.143	647.31
444.518	653.42
444.892	667.65
445.267	659.29
445.641	651.38
446.016	670.36
446.39	661.55
446.764	671.04
447.139	668.78
447.513	673.3
447.887	682.79
448.262	659.29
448.636	688.89
449.01	674.43
449.384	667.2
449.758	660.19
450.132	698.61
450.506	708.1
450.88	704.94
451.254	706.29
451.628	717.59
452.002	716.69
452.376	712.85
452.75	725.73
453.123	711.27
453.497	729.57
453.871	738.61
454.244	749.68
454.618	745.16
454.992	757.14
455.365	742.68
455.739	750.59
456.112	765.95
456.486	765.95
456.859	780.19
457.232	796.46
457.606	797.82
457.979	788.33
458.352	798.72
458.725	808.67
459.099	820.19
459.472	819.29
459.845	837.82
460.218	852.28
460.591	843.92
460.964	846.86
461.337	857.7
461.71	871.26
462.083	862.45
462.456	885.73
462.829	882.34
463.201	869.91
463.574	885.05
463.947	903.35
464.32	913.52
464.692	926.18
465.065	919.85
465.438	926.18
465.81	932.96
466.183	963.92
466.555	978.38
466.928	975.67
467.3	973.63
467.672	999.39
468.045	1004.82
468.417	1014.08
468.789	1024.7
469.161	1028.09
469.534	1064.7
469.906	1075.78
470.278	1083.91
470.65	1099.96
471.022	1104.25
471.394	1130.46
471.766	1135.44
472.138	1153.06
472.51	1191.93
472.882	1204.36
473.253	1193.29
473.625	1188.99
473.997	1273.06
474.369	1271.48
474.74	1285.94
475.112	1284.58
475.484	1324.36
475.855	1346.5
476.227	1372.72
476.598	1383.57
476.97	1412.72
477.341	1434.64
477.713	1456.56
478.084	1482.77
478.455	1485.71
478.827	1566.39
479.198	1579.49
479.569	1590.34
479.94	1634.41
480.311	1631.92
480.682	1687.51
481.053	1697.23
481.424	1768.87
481.795	1775.87
482.166	1835.3
482.537	1841.63
482.908	1882.08
483.279	1919.14
483.65	1958.24
484.021	1985.81
484.391	2048.63
484.762	2059.03
485.133	2066.94
485.503	2125.01
485.874	2140.16
486.244	2195.07
486.615	2228.06
486.985	2270.55
487.356	2308.96
487.726	2304.67
488.097	2374.27
488.467	2413.37
488.837	2503.31
489.207	2498.34
489.578	2531.33
489.948	2529.3
490.318	2622.85
490.688	2595.06
491.058	2647.49
491.428	2726.35
491.798	2749.63
492.168	2801.83
492.538	2809.52
492.908	2855.84
493.278	2917.99
493.648	2927.25
494.017	2966.8
494.387	3014.26
494.757	3063.3
495.126	3088.83
495.496	3083.18
495.866	3112.33
496.235	3187.36
496.605	3175.83
496.974	3220.81
497.344	3230.75
497.713	3273.46
498.082	3307.58
498.452	3306.68
498.821	3354.81
499.19	3393
499.559	3394.13
499.928	3417.64
500.298	3413.34
500.667	3477.3
501.036	3476.84
501.405	3541.47
501.774	3524.53
502.143	3548.48
502.512	3561.36
502.88	3621.47
503.249	3622.38
503.618	3632.09
503.987	3678.65
504.356	3682.04
504.724	3672.54
505.093	3736.72
505.462	3721.81
505.83	3750.73
506.199	3782.82
506.567	3809.04
506.936	3797.74
507.304	3805.87
507.672	3834.12
508.041	3904.85
508.409	3911.18
508.777	3925.19
509.145	3915.25
509.514	3947.57
509.882	3953.89
510.25	3967.45
510.618	3979.43
510.986	3950.28
511.354	3990.05
511.722	4039.31
512.09	4053.33
512.458	4045.87
512.826	4051.97
513.193	4078.64
513.561	4069.82
513.929	4096.94
514.297	4092.87
514.664	4106.43
515.032	4161.57
515.4	4198.63
515.767	4195.24
516.135	4198.18
516.502	4164.28
516.869	4243.6
517.237	4249.25
517.604	4238.63
517.972	4255.35
518.339	4263.49
518.706	4266.65
519.073	4264.17
519.44	4307.56
519.808	4322.25
520.175	4278.63
520.542	4315.92
520.909	4383.03
521.276	4330.61
521.643	4392.53
522.009	4352.07
522.376	4428.01
522.743	4400.21
523.11	4391.62
523.477	4446.31
523.843	4472.3
524.21	4501.45
524.577	4538.51
524.943	4514.56
525.31	4552.97
525.676	4585.29
526.043	4598.17
526.409	4583.03
526.776	4605.4
527.142	4668.45
527.508	4697.83
527.874	4684.95
528.241	4745.06
528.607	4705.96
528.973	4778.28
529.339	4755.45
529.705	4834.32
530.071	4816.7
530.437	4852.4
530.803	4851.27
531.169	4869.12
531.535	4888.11
531.901	4903.92
532.267	4966.07
532.632	4947.09
532.998	5006.52
533.364	5031.15
533.73	4959.06
534.095	5039.29
534.461	5048.1
534.826	5086.52
535.192	5107.31
535.557	5148.66
535.923	5128.78
536.288	5100.98
536.653	5160.87
537.019	5159.74
537.384	5207.87
537.749	5205.16
538.114	5231.37
538.479	5278.6
538.845	5251.94
539.21	5273.86
539.575	5271.6
539.94	5331.03
540.305	5331.48
540.67	5385.72
541.034	5373.29
541.399	5389.11
541.764	5412.84
542.129	5451.71
542.494	5453.97
542.858	5489.9
543.223	5532.16
543.587	5621.19
543.952	5574.19
544.316	5572.61
544.681	5546.85
545.045	5707.07
545.41	5651.02
545.774	5653.06
546.138	5646.05
546.503	5733.28
546.867	5730.12
547.231	5814.86
547.595	5769.89
547.959	5831.13
548.324	5847.63
548.688	5855.31
549.052	5919.04
549.416	5841.75
549.779	5891.24
550.143	5947.97
550.507	5973.28
550.871	6002.65
551.235	5957.23
551.599	6034.52
551.962	5952.03
552.326	6088.07
552.689	6107.51
553.053	6044.01
553.417	6093.05
553.78	6129.88
554.143	6118.13
554.507	6100.96
554.87	6155.87
555.234	6201.97
555.597	6206.72
555.96	6259.82
556.323	6235.87
556.686	6200.39
557.05	6266.15
557.413	6302.98
557.776	6314.96
558.139	6349.54
558.502	6325.13
558.865	6351.57
559.228	6390.89
559.59	6433.38
559.953	6438.12
560.316	6435.64
560.679	6404
561.041	6528.74
561.404	6504.56
561.767	6529.19
562.129	6523.09
562.492	6592.02
562.854	6547.27
563.217	6538.68
563.579	6596.31
563.941	6583.2
564.304	6670.88
564.666	6693.93
565.028	6702.52
565.39	6710.43
565.753	6785.91
566.115	6729.41
566.477	6843.99
566.839	6798.34
567.201	6846.47
567.563	6835.17
567.925	6949.52
568.287	6920.37
568.648	6930.31
569.01	6981.16
569.372	6979.8
569.734	7007.15
570.095	7050.76
570.457	7101.38
570.819	7152.68
571.18	7082.4
571.542	7216.18
571.903	7179.57
572.265	7244.2
572.626	7308.61
572.987	7353.35
573.349	7353.13
573.71	7439.45
574.071	7512.67
574.432	7563.29
574.794	7621.59
575.155	7659.33
575.516	7643.74
575.877	7688.94
576.238	7805.09
576.599	7985.43
576.96	7989.27
577.32	8029.27
577.681	8129.38
578.042	8207.57
578.403	8291.63
578.763	8354.46
579.124	8511.74
579.485	8626.54
579.845	8701.34
580.206	8813.65
580.566	8977.94
580.927	9043.93
581.287	9252.51
581.648	9349.01
582.008	9518.49
582.368	9612.28
582.728	9848.2
583.089	10005.71
583.449	10200.28
583.809	10372.03
584.169	10523.66
584.529	10685.24
584.889	11070.99
585.249	11156.19
585.609	11427.14
585.969	11744.2
586.329	11919.79
586.688	12234.58
587.048	12377.4
587.408	12698.75
587.768	12898.74
588.127	13194.55
588.487	13445.17
588.846	13878.83
589.206	14015.78
589.565	14351.59
589.925	14669.77
590.284	14922.42
590.643	15327.61
591.003	15570.54
591.362	16033.35
591.721	16376.39
592.08	16678.3
592.44	17131.17
592.799	17363.26
593.158	17680.09
593.517	18083.24
593.876	18522.1
594.235	18858.36
594.593	19172.02
594.952	19509.87
595.311	19958.44
595.67	20183.07
596.029	20762.26
596.387	21058.98
596.746	21489.25
597.104	21744.39
597.463	22007.2
597.822	22590.01
598.18	22945.26
598.538	23263.67
598.897	23797.67
599.255	23965.34
599.613	24612.33
599.972	24810.52
600.33	25195.14
600.688	25542.48
601.046	25956.48
601.404	26451.83
601.762	26719.62
602.12	27046.85
602.478	27414.75
602.836	27752.59
603.194	27953.49
603.552	28500.82
603.91	28656.75
604.268	29115.49
604.625	29383.96
604.983	29766.77
605.341	29908.24
605.698	30492.4
606.056	30749.35
606.413	31081.99
606.771	31389.78
607.128	31815.53
607.485	31962.87
607.843	32286.03
608.2	32780.93
608.557	33202.16
608.914	33209.62
609.272	33675.6
609.629	33941.81
609.986	34294.34
610.343	34458.4
610.7	34996.24
611.057	35052.96
611.414	35439.39
611.771	35524.14
612.127	35979.49
612.484	36213.16
612.841	36445.92
613.198	36534.96
613.554	36688.4
613.911	37158.67
614.267	37355.73
614.624	37490.64
614.98	37760.69
615.337	38104.63
615.693	38274.57
616.05	38461.23
616.406	38806.54
616.762	38781.9
617.118	39052.18
617.475	39226.64
617.831	39443.36
618.187	39685.16
618.543	39867.75
618.899	40206.5
619.255	40280.62
619.611	40360.85
619.967	40620.73
620.323	40837.67
620.678	40858.69
621.034	40862.08
621.39	41185
621.746	41182.52
622.101	41697.31
622.457	41568.95
622.812	41633.58
623.168	41874.03
623.523	41981.37
623.879	42145.21
624.234	41967.58
624.589	42275.15
624.945	42378.19
625.3	42386.33
625.655	42553.56
626.01	42737.05
626.365	42752.42
626.72	42843.72
627.075	42894.34
627.43	43000.78
627.785	42945.41
628.14	43235.12
628.495	43276.25
628.85	43280.54
629.205	43240.54
629.559	43588.11
629.914	43419.75
630.269	43588.56
630.623	43370.03
630.978	43490.71
631.332	43833.07
631.687	43792.62
632.041	43648.89
632.396	43907.87
632.75	43639.63
633.104	43883.69
633.459	43698.61
633.813	43803.92
634.167	43813.86
634.521	43811.15
634.875	43963.01
635.229	43962.33
635.583	43769.12
635.937	43868.55
636.291	43731.38
636.645	43777.48
636.999	43878.95
637.352	43985.16
637.706	43747.88
638.06	43971.15
638.413	43849.34
638.767	43742.9
639.121	43943.58
639.474	43815.67
639.828	43762.34
640.181	43839.4
640.534	43993.07
640.888	43918.49
641.241	43670.14
641.594	43915.33
641.947	43885.95
642.301	43895.22
642.654	43878.04
643.007	43862.45
643.36	43803.01
643.713	43812.96
644.066	43846.86
644.419	43704.26
644.771	43514.66
645.124	43078.29
645.477	43057.95
645.83	42916.71
646.182	42817.96
646.535	42555.14
646.888	42824.51
647.24	42592.43
647.593	42737.73
647.945	42716.72
648.298	42422.49
648.65	42478.08
649.002	42472.65
649.355	42616.61
649.707	42506.78
650.059	42719.65
650.411	43121.68
650.763	43164.39
651.115	43547.65
651.467	43553.08
651.819	43579.97
652.171	43311.95
652.523	43277.83
652.875	43297.94
653.227	43227.66
653.578	43592.4
653.93	43370.48
654.282	43248.68
654.633	43026.09
654.985	43370.03
655.337	43251.17
655.688	43281.67
656.039	43316.7
656.391	42962.59
656.742	43061.79
657.094	43113.09
657.445	43188.12
657.796	43113.54
658.147	42967.1
658.498	43092.98
658.849	43221.34
659.2	43272.18
659.551	42918.74
659.902	43121.22
660.253	43017.95
660.604	43148.57
660.955	42824.74
661.306	43135.46
661.656	42950.83
662.007	43021.34
662.358	43056.82
662.708	42905.86
663.059	42859.54
663.409	42749.26
663.76	42976.82
664.11	42948.12
664.461	43181.79
664.811	43040.78
665.161	42949.7
665.511	42836.03
665.862	42968.23
666.212	43110.38
666.562	42971.17
666.912	42932.53
667.262	42984.73
667.612	42918.74
667.962	42911.06
668.312	42776.83
668.662	42925.75
669.011	42759.43
669.361	42819.31
669.711	42777.51
670.06	42699.32
670.41	42671.07
670.76	42743.61
671.109	42807.56
671.459	42782.93
671.808	42779.76
672.157	42914.45
672.507	42670.62
672.856	42483.95
673.205	42703.38
673.554	42671.52
673.904	42500.68
674.253	42750.39
674.602	42598.98
674.951	42138.88
675.3	41923.74
675.649	42529.6
675.998	42595.36
676.346	42519.66
676.695	42612.76
677.044	42290.74
677.393	42419.1
677.741	42453.9
678.09	42388.36
678.438	42343.62
678.787	42426.55
679.135	42344.3
679.484	42104.53
679.832	42247.12
680.181	41909.51
680.529	42026.56
680.877	42042.16
681.225	42029.95
681.573	42181.36
681.922	41827.47
682.27	41834.93
682.618	41652.34
682.966	41746.12
683.314	41667.25
683.661	41604.65
684.009	41439.46
684.357	41490.76
684.705	41419.8
685.053	41382.97
685.4	41286.24
685.748	41113.37
686.095	41246.7
686.443	41094.61
686.79	40962.64
687.138	41102.07
687.485	41065.01
687.832	40819.14
688.18	40794.05
688.527	40733.94
688.874	40692.36
689.221	40611.46
689.568	40535.76
689.915	40418.02
690.262	40506.15
690.609	40332.82
690.956	40200.4
691.303	40118.82
691.65	39839.5
691.997	39866.17
692.344	39765.61
692.69	39771.48
693.037	39742.78
693.383	39382.34
693.73	39719.73
694.077	39333.98
694.423	39317.48
694.769	39309.57
695.116	39197.71
695.462	39087.88
695.808	38945.97
696.155	39004.27
696.501	38800.89
696.847	38746.88
697.193	38548.69
697.539	38695.8
697.885	38351.86
698.231	38425.98
698.577	38191.19
698.923	38055.82
699.269	37945.77
699.614	37866.67
699.96	37779.44
700.306	37807.47
700.651	37725.43
700.997	37371.55
701.342	37442.28
701.688	37442.28
702.033	37238.89
702.379	37382.17
702.724	37123.64
703.069	37179.46
703.415	36718.68
703.76	36809.75
704.105	36854.95
704.45	36815.85
704.795	36414.28
705.14	36436.2
705.485	36298.58
705.83	36318.69
706.175	36395.98
706.52	36346.94
706.865	36023.56
707.209	36127.28
707.554	36021.75
707.899	35947.4
708.243	35839.61
708.588	35838.25
708.932	35548.32
709.277	35615.43
709.621	35597.35
709.966	35428.09
710.31	35540.63
710.654	35214.09
710.998	35194.43
711.342	35194.65
711.687	35115.33
712.031	35009.57
712.375	34826.98
712.719	34927.09
713.063	34792.86
713.407	34935.68
713.75	34737.49
714.094	34675.57
714.438	34443.26
714.782	34496.37
715.125	34358.07
715.469	34526.65
715.812	34301.12
716.156	33997.17
716.499	34130.05
716.843	34074.46
717.186	33870.62
717.53	34093.44
717.873	34191.29
718.216	33955.59
718.559	33726.44
718.902	33560.8
719.246	33737.52
719.589	33619.78
719.932	33386.79
720.275	33454.59
720.617	33396.73
720.96	33319
721.303	33183.41
721.646	33304.99
721.989	33122.39
722.331	33203.75
722.674	33103.86
723.016	33069.06
723.359	33055.73
723.701	33018.89
724.044	32806.02
724.386	32735.96
724.729	32816.19
725.071	32659.35
725.413	32653.25
725.755	32730.31
726.097	32505.68
726.439	32279.25
726.782	32442.18
727.124	32488.51
727.465	32326.25
727.807	32257.1
728.149	32287.16
728.491	32264.79
728.833	32208.74
729.175	32212.36
729.516	32050.56
729.858	32033.38
730.199	32000.84
730.541	31911.35
730.882	31929.2
731.224	31953.83
731.565	31746.38
731.906	31814.86
732.248	31844.69
732.589	31528.31
732.93	31612.15
733.271	31535.31
733.612	31568.31
733.953	31480.85
734.294	31341.2
734.635	31365.38
734.976	31335.55
735.317	31166.29
735.658	31258.49
735.999	31228.88
736.339	31000.64
736.68	31241.31
737.021	31051.71
737.361	30872.73
737.702	31077.02
738.042	31050.81
738.383	30920.87
738.723	30807.65
739.063	30753.41
739.404	30825.28
739.744	30717.48
740.084	30639.75
740.424	30703.92
740.764	30598.16
741.104	30656.02
741.444	30575.57
741.784	30337.83
742.124	30443.37
742.464	30337.38
742.804	30291.96
743.143	30309.81
743.483	30217.84
743.823	30197.27
744.162	30200.21
744.502	30185.29
744.841	29965.19
745.181	30211.28
745.52	29981.46
745.86	29968.12
746.199	29903.72
746.538	29809.71
746.877	29998.41
747.216	29875.47
747.556	29735.81
747.895	29807.22
748.234	29635.7
748.573	29671.86
748.911	29572.88
749.25	29543.05
749.589	29381.47
749.928	29404.3
750.267	29554.58
750.605	29276.17
750.944	29353
751.283	29182.61
751.621	29269.84
751.96	29057.64
752.298	29150.52
752.636	29078.2
752.975	28937.87
753.313	28855.39
753.651	29009.96
753.989	28785.1
754.327	28719.12
754.666	28642.06
755.004	28651.55
755.342	28667.59
755.679	28617.65
756.017	28444.55
756.355	28364.55
756.693	28317.77
757.031	28415.62
757.368	28181.28
757.706	28160.71
758.044	28090.43
758.381	28182.41
758.719	27984.22
759.056	28165.46
759.394	27860.16
759.731	27761.4
760.068	27780.39
760.405	27586.04
760.743	27491.13
761.08	27466.72
