Data from hue_170_FLMS001491_00027.txt Node
Date: Tue Feb 07 16:48:28 GMT 2017
User: dcchb
Spectrometer: FLMS00149
Trigger mode: 0
Integration Time (sec): 2.000000E-2
Scans to average: 10
Electric dark correction enabled: true
Nonlinearity correction enabled: false
Boxcar width: 0
XAxis mode: Wavelengths
Number of Pixels in Spectrum: 2048
>>>>>Begin Spectral Data<<<<<
341.393	-9.38
341.776	-9.38
342.16	-9.38
342.543	-50.06
342.927	-56.83
343.31	-65.87
343.693	-75.59
344.077	-76.72
344.46	-67.68
344.843	-65.42
345.226	-39.89
345.61	-47.57
345.993	-9.83
346.376	-5.76
346.759	19.32
347.142	27.68
347.525	61.13
347.908	55.48
348.291	87.34
348.674	100.9
349.057	102.48
349.44	130.73
349.823	160.11
350.206	167.79
350.588	176.38
350.971	189.71
351.354	228.81
351.737	246.21
352.119	254.12
352.502	241.24
352.884	262.93
353.267	256.38
353.65	297.05
354.032	303.38
354.414	316.71
354.797	314.23
355.179	323.95
355.562	329.82
355.944	317.62
356.326	342.48
356.709	323.95
357.091	335.7
357.473	353.78
357.855	337.05
358.238	335.7
358.62	343.15
359.002	367.33
359.384	355.81
359.766	323.49
360.148	339.54
360.53	340.89
360.912	336.83
361.294	357.84
361.676	355.58
362.057	328.69
362.439	315.58
362.821	311.97
363.203	314.91
363.584	345.87
363.966	312.2
364.348	328.24
364.729	322.59
365.111	312.2
365.493	322.59
365.874	315.36
366.256	327.11
366.637	316.26
367.019	299.77
367.4	309.94
367.781	323.72
368.163	301.12
368.544	298.86
368.925	304.51
369.306	318.75
369.688	306.55
370.069	305.64
370.45	311.74
370.831	315.58
371.212	317.84
371.593	309.26
371.974	311.74
372.355	306.09
372.736	298.41
373.117	324.17
373.498	308.58
373.879	301.57
374.26	324.85
374.641	330.27
375.021	320.33
375.402	322.36
375.783	337.51
376.163	314.23
376.544	318.07
376.925	311.97
377.305	317.39
377.686	312.2
378.066	334.79
378.447	325.53
378.827	336.83
379.208	326.21
379.588	332.99
379.968	344.96
380.349	321.46
380.729	334.79
381.109	340.67
381.489	330.95
381.87	361.69
382.25	352.42
382.63	351.29
383.01	326.21
383.39	327.34
383.77	329.14
384.15	352.87
384.53	362.14
384.91	344.96
385.29	369.37
385.67	339.77
386.049	360.56
386.429	382.02
386.809	326.66
387.189	353.1
387.568	360.1
387.948	345.87
388.328	347.45
388.707	366.66
389.087	349.26
389.466	347.67
389.846	365.98
390.225	358.52
390.605	379.09
390.984	364.17
391.363	364.4
391.743	371.18
392.122	357.84
392.501	347.9
392.881	358.3
393.26	370.05
393.639	383.38
394.018	374.34
394.397	370.72
394.776	357.84
395.155	406.2
395.534	398.29
395.913	399.2
396.292	397.39
396.671	395.13
397.05	381.57
397.429	397.84
397.808	419.09
398.186	397.84
398.565	384.74
398.944	402.36
399.323	417.96
399.701	414.79
400.08	408.69
400.458	414.79
400.837	405.98
401.215	403.72
401.594	393.55
401.972	399.65
402.351	417.28
402.729	416.37
403.107	416.83
403.486	423.6
403.864	433.32
404.242	434
404.62	419.54
404.999	434.68
405.377	431.06
405.755	452.76
406.133	424.28
406.511	440.55
406.889	431.06
407.267	463.6
407.645	462.02
408.023	454.34
408.401	459.08
408.779	470.38
409.156	461.57
409.534	478.52
409.912	459.99
410.29	500.66
410.667	494.34
411.045	490.95
411.422	495.24
411.8	509.25
412.178	497.73
412.555	521.91
412.933	510.16
413.31	516.03
413.687	528.46
414.065	526.2
414.442	530.95
414.819	549.48
415.197	559.42
415.574	539.53
415.951	556.93
416.328	546.99
416.705	549.93
417.082	557.39
417.46	585.63
417.837	596.03
418.214	580.66
418.591	582.7
418.967	602.81
419.344	555.13
419.721	592.41
420.098	608.68
420.475	601
420.852	615.46
421.228	631.73
421.605	631.06
421.982	633.32
422.358	658.17
422.735	643.03
423.111	632.41
423.488	650.49
423.864	674.67
424.241	676.25
424.617	699.3
424.994	703.15
425.37	704.5
425.746	685.29
426.123	707.21
426.499	702.47
426.875	708.79
427.251	723.48
427.627	728.23
428.003	759.42
428.379	748.79
428.756	778.4
429.132	772.75
429.507	745.63
429.883	790.15
430.259	786.98
430.635	798.74
431.011	811.39
431.387	792.63
431.763	819.75
432.138	868.11
432.514	860.88
432.89	839.64
433.265	870.37
433.641	869.24
434.016	868.11
434.392	878.06
434.767	893.65
435.143	909.24
435.518	924.16
435.894	913.76
436.269	957.6
436.644	945.85
437.02	959.86
437.395	961.9
437.77	972.97
438.145	994.21
438.52	1021.1
438.895	1024.72
439.271	1019.07
439.646	1034.21
440.021	1024.72
440.395	1039.18
440.77	1033.53
441.145	1080.54
441.52	1096.36
441.895	1087.09
442.27	1097.26
442.645	1095
443.019	1098.16
443.394	1114.43
443.769	1123.47
444.143	1129.12
444.518	1150.14
444.892	1136.13
445.267	1159.63
445.641	1176.13
446.016	1160.08
446.39	1187.2
446.764	1183.58
447.139	1210.48
447.513	1232.85
447.887	1204.83
448.262	1264.49
448.636	1217.26
449.01	1261.1
449.384	1266.97
449.758	1292.28
450.132	1271.49
450.506	1302
450.88	1293.41
451.254	1292.28
451.628	1334.09
452.002	1370.7
452.376	1363.24
452.75	1385.16
453.123	1356.24
453.497	1405.27
453.871	1409.79
454.244	1425.39
454.618	1438.49
454.992	1454.99
455.365	1446.4
455.739	1503.12
456.112	1503.58
456.486	1524.59
456.859	1541.77
457.232	1556.68
457.606	1579.73
457.979	1616.57
458.352	1623.35
458.725	1632.16
459.099	1661.54
459.472	1703.8
459.845	1701.09
460.218	1703.35
460.591	1740.86
460.964	1762.1
461.337	1783.34
461.71	1809.1
462.083	1838.71
462.456	1860.63
462.829	1868.09
463.201	1891.81
463.574	1933.62
463.947	1927.52
464.32	1989.67
464.692	1998.93
465.065	2009.55
465.438	2052.04
465.81	2101.98
466.183	2096.33
466.555	2202.99
466.928	2181.52
467.3	2196.21
467.672	2237.57
468.045	2277.57
468.417	2292.03
468.789	2359.6
469.161	2392.14
469.534	2422.42
469.906	2471.69
470.278	2518.01
470.65	2564.34
471.022	2603.43
471.394	2640.5
471.766	2671.68
472.138	2722.3
472.51	2791.9
472.882	2829.87
473.253	2871.45
473.625	2953.03
473.997	3006.81
474.369	3064.67
474.74	3099.47
475.112	3180.82
475.484	3240.03
475.855	3295.85
476.227	3384.43
476.598	3460.59
476.97	3492.22
477.341	3614.03
477.713	3670.98
478.084	3747.13
478.455	3839.11
478.827	3883.63
479.198	4006.34
479.569	4046.79
479.94	4206.1
480.311	4260.57
480.682	4360.45
481.053	4468.47
481.424	4599.54
481.795	4663.04
482.166	4781
482.537	4867.78
482.908	4999.53
483.279	5080.88
483.65	5226.42
484.021	5363.14
484.391	5439.52
484.762	5553.19
485.133	5614.43
485.503	5734.43
485.874	5908.66
486.244	5967.19
486.615	6143.45
486.985	6273.39
487.356	6435.2
487.726	6441.98
488.097	6625.93
488.467	6740.73
488.837	6834.06
489.207	6936.88
489.578	7129.64
489.948	7234.73
490.318	7385.68
490.688	7424.55
491.058	7593.59
491.428	7798.33
491.798	7840.81
492.168	8043.29
492.538	8058.21
492.908	8205.32
493.278	8387.92
493.648	8398.54
494.017	8529.61
494.387	8629.94
494.757	8794.23
495.126	8906.77
495.496	8943.15
495.866	9069.25
496.235	9186.54
496.605	9336.14
496.974	9356.25
497.344	9468.11
497.713	9528.45
498.082	9608.9
498.452	9757.82
498.821	9865.16
499.19	9800.31
499.559	9981.09
499.928	10081.43
500.298	10063.8
500.667	10170.02
501.036	10236.23
501.405	10337.02
501.774	10341.31
502.143	10492.49
502.512	10526.39
502.88	10578.37
503.249	10644.35
503.618	10673.05
503.987	10722.54
504.356	10835.76
504.724	10886.15
505.093	10907.62
505.462	10938.81
505.83	11059.71
506.199	11159.82
506.567	11258.8
506.936	11290.89
507.304	11314.62
507.672	11355.52
508.041	11428.06
508.409	11474.84
508.777	11541.73
509.145	11588.96
509.514	11630.09
509.882	11656.53
510.25	11701.27
510.618	11660.6
510.986	11803.19
511.354	11881.61
511.722	11974.04
512.09	12070.98
512.458	11979.01
512.826	12077.54
513.193	12077.99
513.561	12226.46
513.929	12252.67
514.297	12263.52
514.664	12279.79
515.032	12328.83
515.4	12406.57
515.767	12355.27
516.135	12407.92
516.502	12268.26
516.869	12404.98
517.237	12525.21
517.604	12471.65
517.972	12538.31
518.339	12624.87
518.706	12550.74
519.073	12630.74
519.44	12611.08
519.808	12737.41
520.175	12618.99
520.542	12759.55
520.909	12784.64
521.276	12748.25
521.643	12856.27
522.009	12914.12
522.376	12918.19
522.743	12957.29
523.11	13018.08
523.477	13133.78
523.843	13044.97
524.21	13243.83
524.577	13120.45
524.943	13206.32
525.31	13203.83
525.676	13300.78
526.043	13312.08
526.409	13270.27
526.776	13311.18
527.142	13338.07
527.508	13336.71
527.874	13401.57
528.241	13356.37
528.607	13371.06
528.973	13435.69
529.339	13465.75
529.705	13470.27
530.071	13382.81
530.437	13451.28
530.803	13492.64
531.169	13546.2
531.535	13395.69
531.901	13412.42
532.267	13364.28
532.632	13445.18
532.998	13337.84
533.364	13402.25
533.73	13448.12
534.095	13411.06
534.461	13361.34
534.826	13419.2
535.192	13422.13
535.557	13435.92
535.923	13334.68
536.288	13339.42
536.653	13319.76
537.019	13280.67
537.384	13205.87
537.749	13287.9
538.114	13203.16
538.479	13200.44
538.845	13166.77
539.21	13054.23
539.575	13019.21
539.94	13068.24
540.305	13065.53
540.67	13032.09
541.034	13015.14
541.399	12965.42
541.764	12972.43
542.129	12871.86
542.494	12816.5
542.858	12837.52
543.223	12877.06
543.587	12811.3
543.952	12733.11
544.316	12654.92
544.681	12672.55
545.045	12700.8
545.41	12647.92
545.774	12605.43
546.138	12604.53
546.503	12532.44
546.867	12540.57
547.231	12500.12
547.595	12414.48
547.959	12412.67
548.324	12361.6
548.688	12289.51
549.052	12289.06
549.416	12301.26
549.779	12234.14
550.143	12233.24
550.507	12200.92
550.871	12102.39
551.235	12121.38
551.599	12207.25
551.962	12088.16
552.326	12062.17
552.689	12011.77
553.053	12073.47
553.417	12021.04
553.78	12014.71
554.143	11931.78
554.507	11960.48
554.87	11928.84
555.234	11987.37
555.597	11906.01
555.96	11864.89
556.323	11870.54
556.686	11822.18
557.05	11879.57
557.413	11837.09
557.776	11819.01
558.139	11840.71
558.502	11735.17
558.865	11747.6
559.228	11784.66
559.59	11781.27
559.953	11690.65
560.316	11907.82
560.679	11772.91
561.041	11826.24
561.404	11793.02
561.767	11867.37
562.129	11711.9
562.492	11878.44
562.854	11777.2
563.217	11760.03
563.579	11780.59
563.941	11823.53
564.304	11823.08
564.666	11864.66
565.028	11786.47
565.39	11835.51
565.753	11837.32
566.115	11797.99
566.477	11866.47
566.839	11871.21
567.201	11901.49
567.563	11863.53
567.925	11953.02
568.287	11894.04
568.648	12018.33
569.01	11916.41
569.372	12014.94
569.734	11966.58
570.095	11934.94
570.457	11975.17
570.819	11970.87
571.18	11983.07
571.542	12009.74
571.903	11959.12
572.265	12014.26
572.626	11995.96
572.987	12074.15
573.349	11995.28
573.71	12088.83
574.071	12141.71
574.432	12119.57
574.794	12145.56
575.155	12115.27
575.516	12050.87
575.877	12053.36
576.238	12216.29
576.599	12088.83
576.96	12121.15
577.32	12135.39
577.681	12102.85
578.042	12144.65
578.403	12121.6
578.763	12066.24
579.124	12227.59
579.485	12220.36
579.845	12123.86
580.206	12151.88
580.566	12096.07
580.927	12141.71
581.287	12210.19
581.648	12128.16
582.008	12238.89
582.368	12162.73
582.728	12219
583.089	12106.46
583.449	12127.93
583.809	12155.95
584.169	12181.04
584.529	12075.05
584.889	12086.35
585.249	12067.37
585.609	12028.05
585.969	12117.08
586.329	12080.7
586.688	12073.69
587.048	11959.12
587.408	12012
587.768	11971.78
588.127	11965
588.487	11919.57
588.846	12021.94
589.206	11986.01
589.565	11890.65
589.925	11990.53
590.284	11943.53
590.643	11955.73
591.003	11908.27
591.362	12009.97
591.721	12015.62
592.08	11921.83
592.44	11943.98
592.799	11861.72
593.158	11919.35
593.517	11879.8
593.876	11954.37
594.235	11858.78
594.593	11872.12
594.952	11851.1
595.311	11818.33
595.67	11801.84
596.029	11932.68
596.387	11891.78
596.746	11882.51
597.104	11759.8
597.463	11801.61
597.822	11844.32
598.18	11781.72
598.538	11774.49
598.897	11846.81
599.255	11785.34
599.613	11908.95
599.972	11791.22
600.33	11871.21
600.688	11759.8
601.046	11883.19
601.404	11906.47
601.762	11764.1
602.12	11847.26
602.478	11829.63
602.836	11864.21
603.194	11762.06
603.552	11790.99
603.91	11797.32
604.268	11827.15
604.625	11767.04
604.983	11787.37
605.341	11715.51
605.698	11848.84
606.056	11843.87
606.413	11797.99
606.771	11819.92
607.128	11843.64
607.485	11766.13
607.843	11846.81
608.2	11867.15
608.557	11878.44
608.914	11883.64
609.272	11856.75
609.629	11960.48
609.986	11930.65
610.343	11787.6
610.7	12019.68
611.057	11972.23
611.414	11989.4
611.771	11925
612.127	11920.93
612.484	12036.63
612.841	12021.27
613.198	11915.05
613.554	11953.02
613.911	12028.5
614.267	12035.5
614.624	11947.14
614.98	12052.68
615.337	12015.62
615.693	12068.5
616.05	12001.83
616.406	12125.9
616.762	12033.24
617.118	12052
617.475	12040.47
617.831	12024.43
618.187	12141.94
618.543	12075.05
618.899	12132.45
619.255	12128.16
619.611	12129.51
619.967	12128.61
620.323	12180.58
620.678	12188.49
621.034	12130.64
621.39	12155.05
621.746	12130.19
622.101	12221.26
622.457	12075.05
622.812	12141.26
623.168	12119.79
623.523	12208.61
623.879	12172.45
624.234	12035.73
624.589	12141.04
624.945	12088.16
625.3	12145.1
625.655	12092.45
626.01	12160.02
626.365	12195.5
626.72	12066.91
627.075	12110.08
627.43	12100.13
627.785	12086.57
628.14	12090.42
628.495	12096.97
628.85	12063.98
629.205	12050.87
629.559	12119.79
629.914	12086.57
630.269	12028.05
630.623	12022.85
630.978	11992.57
631.332	12030.53
631.687	12077.31
632.041	12038.44
632.396	12065.78
632.75	11980.81
633.104	12000.48
633.459	11919.8
633.813	11910.99
634.167	11871.44
634.521	11935.62
634.875	11897.65
635.229	11882.51
635.583	11800.93
635.937	11830.76
636.291	11825.11
636.645	11832.8
636.999	11808.16
637.352	11784.21
637.706	11707.15
638.06	11816.75
638.413	11734.95
638.767	11727.94
639.121	11821.27
639.474	11654.04
639.828	11734.95
640.181	11657.89
640.534	11680.71
640.888	11646.13
641.241	11646.13
641.594	11576.76
641.947	11660.37
642.301	11562.07
642.654	11630.54
643.007	11715.06
643.36	11622.63
643.713	11554.84
644.066	11559.81
644.419	11556.42
644.771	11458.57
645.124	11353.49
645.477	11416.99
645.83	11233.94
646.182	11208.63
646.535	11217.67
646.888	11180.16
647.24	11168.41
647.593	11221.06
647.945	11174.06
648.298	11143.55
648.65	11187.16
649.002	11114.17
649.355	11198.69
649.707	11142.42
650.059	11233.04
650.411	11359.14
650.763	11370.44
651.115	11486.14
651.467	11386.48
651.819	11418.57
652.171	11452.47
652.523	11374.5
652.875	11421.28
653.227	11346.26
653.578	11471.22
653.93	11436.65
654.282	11346.03
654.633	11326.14
654.985	11369.53
655.337	11435.29
655.688	11411.79
656.039	11489.75
656.391	11345.13
656.742	11395.07
657.094	11389.42
657.445	11398.91
657.796	11459.02
658.147	11406.59
658.498	11441.17
658.849	11416.08
659.2	11424.9
659.551	11372.92
659.902	11540.15
660.253	11415.86
660.604	11495.63
660.955	11460.83
661.306	11540.83
661.656	11462.64
662.007	11447.5
662.358	11484.33
662.708	11466.03
663.059	11467.83
663.409	11447.04
663.76	11541.28
664.11	11501.73
664.461	11480.72
664.811	11432.35
665.161	11503.77
665.511	11455.18
665.862	11420.15
666.212	11512.58
666.562	11532.24
666.912	11492.69
667.262	11493.37
667.612	11455.18
667.962	11411.11
668.312	11482.3
668.662	11547.38
669.011	11477.33
669.361	11484.78
669.711	11507.16
670.06	11441.39
670.41	11403.65
670.76	11451.34
671.109	11499.02
671.459	11428.51
671.808	11360.49
672.157	11431.22
672.507	11316.2
672.856	11390.55
673.205	11392.36
673.554	11368.63
673.904	11365.69
674.253	11401.4
674.602	11386.93
674.951	11216.09
675.3	11143.32
675.649	11309.65
675.998	11362.53
676.346	11346.03
676.695	11420.83
677.044	11233.26
677.393	11280.49
677.741	11292.47
678.09	11289.76
678.438	11222.42
678.787	11230.55
679.135	11233.49
679.484	11216.32
679.832	11237.11
680.181	11190.78
680.529	11146.49
680.877	11124.57
681.225	11131.8
681.573	11167.05
681.922	11023.78
682.27	11019.94
682.618	11076.21
682.966	11019.26
683.314	11087.51
683.661	10964.12
684.009	10973.38
684.357	10894.97
684.705	10888.19
685.053	10880.96
685.4	10988.07
685.748	10789.66
686.095	10863.56
686.443	10833.05
686.79	10758.25
687.138	10766.84
687.485	10799.38
687.832	10710.34
688.18	10760.96
688.527	10651.81
688.874	10713.5
689.221	10560.29
689.568	10572.72
689.915	10569.78
690.262	10529.78
690.609	10487.75
690.956	10440.97
691.303	10451.59
691.65	10400.29
691.997	10358.48
692.344	10325.94
692.69	10242.1
693.037	10264.02
693.383	10158.26
693.73	10149.45
694.077	10099.96
694.423	10191.03
694.769	10089.11
695.116	10021.09
695.462	10020.41
695.808	9971.15
696.155	10009.34
696.501	9936.8
696.847	9878.95
697.193	9797.14
697.539	9840.53
697.885	9755.79
698.231	9784.94
698.577	9704.04
698.923	9705.85
699.269	9618.39
699.614	9570.03
699.96	9544.04
700.306	9556.7
700.651	9536.81
700.997	9517.38
701.342	9483.48
701.688	9427.89
702.033	9345.86
702.379	9414.1
702.724	9347.21
703.069	9369.36
703.415	9251.62
703.76	9230.38
704.105	9242.13
704.45	9266.54
704.795	9137.05
705.14	9157.16
705.485	9111.74
705.83	9049.14
706.175	9012.08
706.52	9024.96
706.865	9013.21
707.209	8948.58
707.554	8905.42
707.899	8900.67
708.243	8877.62
708.588	8849.37
708.932	8819.09
709.277	8790.16
709.621	8816.15
709.966	8735.7
710.31	8751.52
710.654	8692.09
710.998	8664.74
711.342	8688.7
711.687	8589.27
712.031	8596.72
712.375	8607.34
712.719	8557.85
713.063	8533.67
713.407	8584.75
713.75	8479.21
714.094	8519.44
714.438	8516.95
714.782	8477.18
715.125	8399.89
715.469	8431.76
715.812	8386.56
716.156	8360.8
716.499	8425.65
716.843	8416.61
717.186	8370.51
717.53	8419.33
717.873	8419.33
718.216	8284.19
718.559	8282.61
718.902	8191.76
719.246	8212.78
719.589	8252.55
719.932	8257.3
720.275	8273.34
720.617	8245.77
720.96	8200.8
721.303	8214.36
721.646	8217.75
721.989	8200.35
722.331	8173.01
722.674	8159.9
723.016	8224.98
723.359	8162.16
723.701	8115.15
724.044	8103.4
724.386	8048.26
724.729	8162.16
725.071	8078.77
725.413	8085.1
725.755	8114.02
726.097	8100.24
726.439	8121.93
726.782	8053.91
727.124	8067.25
727.465	8092.78
727.807	8041.26
728.149	7989.73
728.491	8024.99
728.833	8039.68
729.175	8042.61
729.516	8005.1
729.858	8013.91
730.199	7968.04
730.541	8018.43
730.882	7959.9
731.224	8022.73
731.565	7975.72
731.906	7968.49
732.248	8019.11
732.589	7970.98
732.93	7943.86
733.271	7955.61
733.612	8005.78
733.953	7933.46
734.294	7953.58
734.635	7942.28
734.976	7925.78
735.317	7948.6
735.658	7947.93
735.999	7987.02
736.339	7995.38
736.68	7984.76
737.021	8005.1
737.361	8018.21
737.702	7993.8
738.042	8012.11
738.383	7958.32
738.723	7988.83
739.063	8036.51
739.404	7981.15
739.744	8033.12
740.084	8033.8
740.424	7994.03
740.764	8045.1
741.104	8108.6
741.444	8075.61
741.784	8083.97
742.124	8117.87
742.464	8105.89
742.804	8117.64
743.143	8157.64
743.483	8196.51
743.823	8238.09
744.162	8184.3
744.502	8228.82
744.841	8279.22
745.181	8352.66
745.52	8370.51
745.86	8398.99
746.199	8450.29
746.538	8472.88
746.877	8515.14
747.216	8547.01
747.556	8567.35
747.895	8671.52
748.234	8691.41
748.573	8683.27
748.911	8780.45
749.25	8833.1
749.589	8900.67
749.928	8936.6
750.267	9059.76
750.605	9000.78
750.944	9100.44
751.283	9185.86
751.621	9314.44
751.96	9339.08
752.298	9405.29
752.636	9543.36
752.975	9594.44
753.313	9654.77
753.651	9852.74
753.989	9879.18
754.327	9982.45
754.666	10134.76
755.004	10217.92
755.342	10359.84
755.679	10458.6
756.017	10562.1
756.355	10718.7
756.693	10798.93
757.031	10885.02
757.368	10995.53
757.706	11180.84
758.044	11387.84
758.381	11434.84
758.719	11632.12
