Data from hue_170_FLMS001491_00030.txt Node
Date: Tue Feb 07 16:48:29 GMT 2017
User: dcchb
Spectrometer: FLMS00149
Trigger mode: 0
Integration Time (sec): 2.000000E-2
Scans to average: 10
Electric dark correction enabled: true
Nonlinearity correction enabled: false
Boxcar width: 0
XAxis mode: Wavelengths
Number of Pixels in Spectrum: 2048
>>>>>Begin Spectral Data<<<<<
341.393	-14.27
341.776	-14.27
342.16	-14.27
342.543	-52.23
342.927	-77.99
343.31	-68.28
343.693	-59.01
344.077	-68.73
344.46	-54.26
344.843	-63.76
345.226	-45.9
345.61	-37.99
345.993	-20.14
346.376	-3.19
346.759	24.38
347.142	16.02
347.525	40.42
347.908	56.47
348.291	84.72
348.674	80.65
349.057	118.61
349.44	110.48
349.823	147.31
350.206	169.68
350.588	188.22
350.971	187.31
351.354	236.12
351.737	246.52
352.119	256.01
352.502	264.37
352.884	274.99
353.267	286.52
353.65	273.41
354.032	275.44
354.414	301.88
354.797	319.96
355.179	339.17
355.562	317.48
355.944	317.7
356.326	313.41
356.709	337.36
357.091	326.06
357.473	348.44
357.855	332.84
358.238	343.01
358.62	344.14
359.002	332.39
359.384	338.49
359.766	335.56
360.148	327.87
360.53	335.1
360.912	319.06
361.294	318.83
361.676	321.77
362.057	327.42
362.439	348.21
362.821	326.06
363.203	330.13
363.584	312.96
363.966	323.13
364.348	343.24
364.729	312.96
365.111	313.86
365.493	314.54
365.874	323.58
366.256	307.53
366.637	327.19
367.019	320.87
367.4	306.18
367.781	322.45
368.163	300.3
368.544	310.25
368.925	300.98
369.306	302.34
369.688	305.73
370.069	339.4
370.45	306.4
370.831	294.43
371.212	307.31
371.593	301.21
371.974	323.81
372.355	305.5
372.736	308.89
373.117	307.99
373.498	313.64
373.879	316.8
374.26	327.65
374.641	289.91
375.021	325.16
375.402	310.7
375.783	319.74
376.163	324.48
376.544	326.29
376.925	339.17
377.305	312.73
377.686	328.1
378.066	303.01
378.447	329.68
378.827	349.12
379.208	328.32
379.588	323.35
379.968	335.33
380.349	333.75
380.729	316.57
381.109	322.45
381.489	324.71
381.87	335.1
382.25	329
382.63	329.91
383.01	338.95
383.39	353.86
383.77	335.78
384.15	330.58
384.53	363.8
384.91	355.22
385.29	359.96
385.67	348.21
386.049	355.44
386.429	341.88
386.809	338.49
387.189	333.97
387.568	339.17
387.948	329.68
388.328	339.85
388.707	348.66
389.087	330.13
389.466	374.2
389.846	372.17
390.225	367.19
390.605	363.35
390.984	353.41
391.363	365.61
391.743	372.17
392.122	363.58
392.501	352.05
392.881	373.07
393.26	380.75
393.639	378.49
394.018	386.85
394.397	352.96
394.776	380.75
395.155	380.98
395.534	392.28
395.913	365.39
396.292	408.55
396.671	371.26
397.05	416.91
397.429	383.01
397.808	400.19
398.186	359.06
398.565	355.44
398.944	376.69
399.323	392.28
399.701	390.92
400.08	403.12
400.458	405.84
400.837	399.28
401.215	404.25
401.594	389.34
401.972	418.04
402.351	409.9
402.729	415.33
403.107	414.2
403.486	417.36
403.864	397.48
404.242	404.71
404.62	412.39
404.999	421.66
405.377	429.56
405.755	420.3
406.133	436.34
406.511	441.32
406.889	425.95
407.267	451.71
407.645	471.82
408.023	463.24
408.401	452.39
408.779	451.71
409.156	453.75
409.534	465.95
409.912	466.4
410.29	477.25
410.667	469.11
411.045	464.59
411.422	484.48
411.8	496.23
412.178	491.26
412.555	500.98
412.933	492.84
413.31	511.14
413.687	489.68
414.065	525.61
414.442	529.22
414.819	537.58
415.197	532.39
415.574	537.58
415.951	538.26
416.328	561.76
416.705	543.23
417.082	551.82
417.46	580.07
417.837	579.62
418.214	589.79
418.591	572.84
418.967	584.14
419.344	571.93
419.721	592.72
420.098	589.11
420.475	612.61
420.852	596.11
421.228	604.7
421.605	610.8
421.982	627.53
422.358	634.53
422.735	668.2
423.111	624.81
423.488	647.41
423.864	661.2
424.241	648.09
424.617	675.43
424.994	706.85
425.37	701.65
425.746	673.85
426.123	694.64
426.499	689.9
426.875	710.24
427.251	712.04
427.627	722.21
428.003	736.9
428.379	741.87
428.756	740.52
429.132	743
429.507	772.83
429.883	759.5
430.259	783.68
430.635	778.48
431.011	789.78
431.387	805.6
431.763	833.85
432.138	804.47
432.514	812.61
432.89	839.5
433.265	844.92
433.641	864.13
434.016	897.12
434.392	872.04
434.767	881.08
435.143	923.34
435.518	914.75
435.894	935.54
436.269	910.91
436.644	954.75
437.02	938.7
437.395	948.65
437.77	980.28
438.145	992.26
438.52	998.14
438.895	995.65
439.271	1037.46
439.646	1044.01
440.021	1038.14
440.395	1073.39
440.77	1042.2
441.145	1039.49
441.52	1064.8
441.895	1079.04
442.27	1081.98
442.645	1099.83
443.019	1105.03
443.394	1113.84
443.769	1135.76
444.143	1159.26
444.518	1146.61
444.892	1147.06
445.267	1161.75
445.641	1185.48
446.016	1178.25
446.39	1195.42
446.764	1184.12
447.139	1200.17
447.513	1187.06
447.887	1216.21
448.262	1235.42
448.636	1226.15
449.01	1262.54
449.384	1235.42
449.758	1248.98
450.132	1292.59
450.506	1323.55
450.88	1284.01
451.254	1312.93
451.628	1312.93
452.002	1341.86
452.376	1340.28
452.75	1348.18
453.123	1383.66
453.497	1412.82
453.871	1427.05
454.244	1415.75
454.618	1439.03
454.992	1444.23
455.365	1471.12
455.739	1473.38
456.112	1502.53
456.486	1526.49
456.859	1537.56
457.232	1582.75
457.606	1573.49
457.979	1588.18
458.352	1630.66
458.725	1632.7
459.099	1649.19
459.472	1684.67
459.845	1691.68
460.218	1712.7
460.591	1731
460.964	1723.09
461.337	1797.89
461.71	1792.47
462.083	1845.8
462.456	1834.27
462.829	1826.59
463.201	1841.96
463.574	1893.26
463.947	1955.4
464.32	1988.39
464.692	2029.3
465.065	2041.27
465.438	2046.47
465.81	2086.47
466.183	2089.18
466.555	2175.96
466.928	2203.53
467.3	2207.15
467.672	2234.94
468.045	2298.67
468.417	2329.4
468.789	2311.78
469.161	2369.17
469.534	2381.83
469.906	2443.98
470.278	2472.22
470.65	2548.15
471.022	2592.45
471.394	2653.46
471.766	2679.22
472.138	2730.52
472.51	2794.25
472.882	2784.76
473.253	2868.82
473.625	2936.84
473.997	3019.1
474.369	3033.34
474.74	3095.03
475.112	3170.74
475.484	3239.89
475.855	3331.86
476.227	3325.99
476.598	3470.16
476.97	3517.39
477.341	3562.59
477.713	3658.86
478.084	3697.95
478.455	3831.06
478.827	3904.73
479.198	4023.82
479.569	4112.63
479.94	4179.07
480.311	4258.39
480.682	4346.52
481.053	4519.17
481.424	4590.36
481.795	4696.35
482.166	4755.55
482.537	4882.33
482.908	4973.17
483.279	5081.87
483.65	5228.53
484.021	5316.67
484.391	5421.75
484.762	5550.11
485.133	5617.45
485.503	5734.51
485.874	5852.93
486.244	5974.5
486.615	6146.48
486.985	6198
487.356	6397.77
487.726	6454.27
488.097	6559.57
488.467	6678.44
488.837	6844.99
489.207	6981.48
489.578	7127.47
489.948	7202.72
490.318	7358.65
490.688	7411.98
491.058	7539.66
491.428	7718.86
491.798	7860.78
492.168	8067.78
492.538	8039.31
492.908	8182.36
493.278	8356.36
493.648	8412.63
494.017	8520.65
494.387	8656.24
494.757	8716.13
495.126	8912.73
495.496	8946.18
495.866	9034.54
496.235	9114.08
496.605	9242.44
496.974	9267.52
497.344	9404.47
497.713	9480.85
498.082	9539.61
498.452	9689.21
498.821	9728.98
499.19	9810.79
499.559	9924
499.928	9906.83
500.298	10086.03
500.667	10188.4
501.036	10180.5
501.405	10299.36
501.774	10343.43
502.143	10517.66
502.512	10452.58
502.88	10594.5
503.249	10587.26
503.618	10675.4
503.987	10689.41
504.356	10785.22
504.724	10854.83
505.093	10947.48
505.462	10949.29
505.83	10959.23
506.199	11126.68
506.567	11284.87
506.936	11217.53
507.304	11275.83
507.672	11323.97
508.041	11414.36
508.409	11440.35
508.777	11568.26
509.145	11559.89
509.514	11564.64
509.882	11622.04
510.25	11598.08
510.618	11745.88
510.986	11721.25
511.354	11860.68
511.722	11967.34
512.09	11919.88
512.458	12015.25
512.826	12030.16
513.193	12091.63
513.561	12072.65
513.929	12228.12
514.297	12252.3
514.664	12292.53
515.032	12343.6
515.4	12378.63
515.767	12348.57
516.135	12514.9
516.502	12280.1
516.869	12516.7
517.237	12476.25
517.604	12472.19
517.972	12500.21
518.339	12558.29
518.706	12511.06
519.073	12612.07
519.44	12619.53
519.808	12676.02
520.175	12690.71
520.542	12772.74
520.909	12746.08
521.276	12737.04
521.643	12809.35
522.009	12841.89
522.376	12846.64
522.743	12943.81
523.11	13007.54
523.477	13016.13
523.843	12998.73
524.21	13139.29
524.577	13217.93
524.943	13186.74
525.31	13168.89
525.676	13254.99
526.043	13238.49
526.409	13313.07
526.776	13366.17
527.142	13390.81
527.508	13271.94
527.874	13447.08
528.241	13388.77
528.607	13376.57
528.973	13458.83
529.339	13411.14
529.705	13414.99
530.071	13474.19
530.437	13485.27
530.803	13454.08
531.169	13433.74
531.535	13414.53
531.901	13334.76
532.267	13401.65
532.632	13475.78
532.998	13360.75
533.364	13385.83
533.73	13383.35
534.095	13434.19
534.461	13352.62
534.826	13376.57
535.192	13360.75
535.557	13344.48
535.923	13271.26
536.288	13360.52
536.653	13275.55
537.019	13236.01
537.384	13223.58
537.749	13200.3
538.114	13205.27
538.479	13138.84
538.845	13164.82
539.21	13115.11
539.575	13052.74
539.94	13106.29
540.305	13051.61
540.67	12999.4
541.034	13004.38
541.399	12973.87
541.764	12920.31
542.129	12844.38
542.494	12841.67
542.858	12749.24
543.223	12757.6
543.587	12806.19
543.952	12679.64
544.316	12712.86
544.681	12649.13
545.045	12619.53
545.41	12676.47
545.774	12649.13
546.138	12570.71
546.503	12444.39
546.867	12476.93
547.231	12558.29
547.595	12450.27
547.959	12370.27
548.324	12341.34
548.688	12267.45
549.052	12305.18
549.416	12294.11
549.779	12270.16
550.143	12160.33
550.507	12238.29
550.871	12178.63
551.235	12098.86
551.599	12160.1
551.962	12117.85
552.326	12062.25
552.689	12082.37
553.053	12046.89
553.417	11966.66
553.78	12072.2
554.143	11906.78
554.507	11951.75
554.87	11949.71
555.234	11995.59
555.597	11866.1
555.96	11841.69
556.323	11877.4
556.686	11817.97
557.05	11816.84
557.413	11859.55
557.776	11762.6
558.139	11745.65
558.502	11776.39
558.865	11769.15
559.228	11835.37
559.59	11691.19
559.953	11699.1
560.316	11870.17
560.679	11725.09
561.041	11779.78
561.404	11790.4
561.767	11849.6
562.129	11807.8
562.492	11810.51
562.854	11782.94
563.217	11832.88
563.579	11828.81
563.941	11777.06
564.304	11752.43
564.666	11858.19
565.028	11824.07
565.39	11820.68
565.753	11744.3
566.115	11827.91
566.477	11852.54
566.839	11851.86
567.201	11901.58
567.563	11749.27
567.925	11955.14
568.287	11868.81
568.648	11885.53
569.01	11942.71
569.372	11942.26
569.734	11920.11
570.095	11936.16
570.457	11947.23
570.819	12025.87
571.18	11996.94
571.542	12001.92
571.903	11976.83
572.265	11969.6
572.626	12158.52
572.987	12075.81
573.349	12073.1
573.71	12105.19
574.071	12122.14
574.432	12063.84
574.794	12142.7
575.155	12088.47
575.516	12090.5
575.877	12151.97
576.238	12053.89
576.599	12100.44
576.96	12052.08
577.32	12141.57
577.681	12137.51
578.042	12212.53
578.403	12151.74
578.763	12106.55
579.124	12123.49
579.485	12093.89
579.845	12179.54
580.206	12154.68
580.566	12083.27
580.927	12177.05
581.287	12151.29
581.648	12097.05
582.008	12212.98
582.368	12181.8
582.728	12169.37
583.089	12170.95
583.449	12069.03
583.809	12126.21
584.169	12065.19
584.529	12096.15
584.889	12136.83
585.249	11983.61
585.609	12003.05
585.969	12037.85
586.329	12029.49
586.688	12060.22
587.048	11997.62
587.408	11965.53
587.768	11959.43
588.127	11948.36
588.487	11931.86
588.846	11956.72
589.206	11895.25
589.565	11912.88
589.925	11918.3
590.284	11878.08
590.643	11961.92
591.003	11974.57
591.362	11932.31
591.721	11920.11
592.08	11822.26
592.44	11923.5
592.799	11921.92
593.158	11902.03
593.517	11833.56
593.876	11917.62
594.235	11855.93
594.593	11841.47
594.952	11854.35
595.311	11803.96
595.67	11824.97
596.029	11844.86
596.387	11872.2
596.746	11910.85
597.104	11833.78
597.463	11828.14
597.822	11812.32
598.18	11811.86
598.538	11797.63
598.897	11886.66
599.255	11654.58
599.613	11936.83
599.972	11841.24
600.33	11812.99
600.688	11781.13
601.046	11778.19
601.404	11782.49
601.762	11837.85
602.12	11850.28
602.478	11851.41
602.836	11799.66
603.194	11774.35
603.552	11764.18
603.91	11726.44
604.268	11799.66
604.625	11713.34
604.983	11744.75
605.341	11710.4
605.698	11818.64
606.056	11806.67
606.413	11716.73
606.771	11758.76
607.128	11791.98
607.485	11809.15
607.843	11782.71
608.2	11866.33
608.557	11897.51
608.914	11792.2
609.272	11856.38
609.629	11858.19
609.986	11837.85
610.343	11888.47
610.7	11891.18
611.057	11904.52
611.414	11900
611.771	11960.11
612.127	11964.63
612.484	11986.1
612.841	11975.7
613.198	11974.8
613.554	11998.98
613.911	11977.74
614.267	12045.53
614.624	11993.33
614.98	12021.35
615.337	12050.28
615.693	12050.05
616.05	11989.71
616.406	12114
616.762	12043.72
617.118	12037.4
617.475	12026.1
617.831	12056.83
618.187	12080.78
618.543	12074
618.899	12210.27
619.255	12127.11
619.611	12137.51
619.967	12143.61
620.323	12151.06
620.678	12124.85
621.034	12081.91
621.39	12080.56
621.746	12118.52
622.101	12204.85
622.457	12103.61
622.812	12092.31
623.168	12186.32
623.523	12136.15
623.879	12172.53
624.234	12106.09
624.589	12088.47
624.945	12071.07
625.3	12123.49
625.655	12146.32
626.01	12111.97
626.365	12142.7
626.72	12090.05
627.075	12114
627.43	12074.68
627.785	12067.9
628.14	12109.71
628.495	12087.56
628.85	12113.1
629.205	12077.62
629.559	12123.27
629.914	12037.85
630.269	12050.5
630.623	12002.59
630.978	12015.7
631.332	12055.02
631.687	12017.28
632.041	12002.37
632.396	11947.23
632.75	11951.3
633.104	11960.34
633.459	11890.51
633.813	11859.09
634.167	11890.28
634.521	11869.04
634.875	11920.56
635.229	11911.97
635.583	11811.41
635.937	11768.7
636.291	11752.43
636.645	11835.82
636.999	11830.4
637.352	11754.92
637.706	11802.15
638.06	11737.74
638.413	11745.43
638.767	11690.74
639.121	11740.45
639.474	11630.85
639.828	11704.52
640.181	11656.61
640.534	11669.5
640.888	11641.47
641.241	11582.94
641.594	11598.54
641.947	11602.6
642.301	11545.88
642.654	11655.03
643.007	11584.07
643.36	11577.07
643.713	11518.09
644.066	11599.44
644.419	11437.19
644.771	11434.25
645.124	11396.28
645.477	11395.38
645.83	11290.3
646.182	11242.39
646.535	11165.78
646.888	11227.02
647.24	11182.05
647.593	11229.96
647.945	11180.69
648.298	11179.79
648.65	11149.51
649.002	11132.11
649.355	11202.16
649.707	11156.51
650.059	11228.38
650.411	11264.53
650.763	11363.97
651.115	11456.62
651.467	11326
651.819	11425.89
652.171	11419.33
652.523	11373.23
652.875	11322.61
653.227	11347.92
653.578	11407.13
653.93	11377.3
654.282	11349.05
654.633	11351.76
654.985	11353.35
655.337	11392.89
655.688	11427.02
656.039	11501.36
656.391	11391.99
656.742	11442.83
657.094	11398.09
657.445	11370.07
657.796	11428.6
658.147	11363.97
658.498	11372.55
658.849	11404.64
659.2	11438.54
659.551	11380.24
659.902	11463.63
660.253	11398.09
660.604	11428.82
660.955	11450.74
661.306	11472.44
661.656	11395.6
662.007	11383.18
662.358	11461.82
662.708	11395.15
663.059	11498.65
663.409	11345.21
663.76	11456.39
664.11	11495.49
664.461	11483.29
664.811	11500.69
665.161	11502.04
665.511	11443.29
665.862	11413.91
666.212	11459.56
666.562	11523.06
666.912	11447.13
667.262	11400.12
667.612	11514.7
667.962	11458.65
668.312	11483.06
668.662	11527.35
669.011	11475.83
669.361	11474.47
669.711	11423.4
670.06	11475.83
670.41	11375.27
670.76	11418.88
671.109	11470.18
671.459	11408.49
671.808	11415.94
672.157	11448.71
672.507	11429.95
672.856	11417.98
673.205	11364.64
673.554	11323.74
673.904	11377.07
674.253	11378.66
674.602	11386.79
674.951	11235.83
675.3	11124.2
675.649	11381.82
675.998	11366
676.346	11327.81
676.695	11364.87
677.044	11199.9
677.393	11284.87
677.741	11289.39
678.09	11303.18
678.438	11217.08
678.787	11253.01
679.135	11206.91
679.484	11095.73
679.832	11132.79
680.181	11083.97
680.529	11074.48
680.877	11113.58
681.225	11102.73
681.573	11159.45
681.922	11014.6
682.27	11009.4
682.618	11056.4
682.966	10995.61
683.314	11040.81
683.661	10968.04
684.009	10882.85
684.357	10970.98
684.705	10861.16
685.053	10883.08
685.4	10907.93
685.748	10902.28
686.095	10876.75
686.443	10817.31
686.79	10756.07
687.138	10711.1
687.485	10786.81
687.832	10634.04
688.18	10733.93
688.527	10668.62
688.874	10552.46
689.221	10565.34
689.568	10537.32
689.915	10528.51
690.262	10491.22
690.609	10535.97
690.956	10431.34
691.303	10400.15
691.65	10366.25
691.997	10352.24
692.344	10221.62
692.69	10316.08
693.037	10303.43
693.383	10127.39
693.73	10254.84
694.077	10110.44
694.423	10156.09
694.769	10129.42
695.116	9963.1
695.462	10025.24
695.808	9984.34
696.155	10027.73
696.501	9859.6
696.847	9932.14
697.193	9782.31
697.539	9761.3
697.885	9731.02
698.231	9744.12
698.577	9700.28
698.923	9686.04
699.269	9700.96
699.614	9588.19
699.96	9561.53
700.306	9577.35
700.651	9511.81
700.997	9432.49
701.342	9496.67
701.688	9398.37
702.033	9399.5
702.379	9429.78
702.724	9335.55
703.069	9323.57
703.415	9292.16
703.76	9215.77
704.105	9244.93
704.45	9157.7
704.795	9064.82
705.14	9105.72
705.485	9021.43
705.83	9036.57
706.175	9053.97
706.52	8952.96
706.865	8971.49
707.209	8953.63
707.554	8918.61
707.899	8916.35
708.243	8897.14
708.588	8849.91
708.932	8804.71
709.277	8791.38
709.621	8717.26
709.966	8679.74
710.31	8712.74
710.654	8657.15
710.998	8721.1
711.342	8646.3
711.687	8618.73
712.031	8625.73
712.375	8581.22
712.719	8518.84
713.063	8513.19
713.407	8496.02
713.75	8566.07
714.094	8542.57
714.438	8448.34
714.782	8426.19
715.125	8381.45
715.469	8426.19
715.812	8400.43
716.156	8397.72
716.499	8346.64
716.843	8369.24
717.186	8310.26
717.53	8405.63
717.873	8350.26
718.216	8313.2
718.559	8306.19
718.902	8179.42
719.246	8273.88
719.589	8208.8
719.932	8219.19
720.275	8188.46
720.617	8268
720.96	8204.05
721.303	8199.53
721.646	8192.98
721.989	8081.12
722.331	8182.36
722.674	8139.42
723.016	8135.58
723.359	8127.44
723.701	8120.66
724.044	8076.37
724.386	8054.22
724.729	8120.44
725.071	8164.28
725.413	8078.18
725.755	8084.28
726.097	8073.21
726.439	8036.14
726.782	8013.55
727.124	8038.18
727.465	7989.59
727.807	7998.18
728.149	8018.52
728.491	8031.4
728.833	8020.55
729.175	7999.99
729.516	7929.48
729.858	7951.18
730.199	7997.5
730.541	8025.52
730.882	8012.42
731.224	7968.12
731.565	7959.31
731.906	8000.44
732.248	8002.47
732.589	7926.09
732.93	7978.29
733.271	7920.89
733.612	8022.36
733.953	7997.73
734.294	7879.99
734.635	7940.1
734.976	7966.09
735.317	7976.03
735.658	7949.14
735.999	7947.79
736.339	7932.42
736.68	7969.25
737.021	7967.67
737.361	7912.53
737.702	8010.16
738.042	8043.15
738.383	8019.65
738.723	8074.11
739.063	7939.65
739.404	8017.84
739.744	8086.31
740.084	8012.42
740.424	8079.53
740.764	8049.48
741.104	8067.33
741.444	7961.57
741.784	8057.16
742.124	8122.47
742.464	8062.81
742.804	8128.12
743.143	8152.75
743.483	8182.36
743.823	8109.14
744.162	8179.19
744.502	8195.24
744.841	8280.66
745.181	8354.55
745.52	8295.57
745.86	8337.15
746.199	8370.37
746.538	8370.15
746.877	8485.85
747.216	8550.48
747.556	8550.03
747.895	8665.96
748.234	8633.87
748.573	8731.04
748.911	8761.55
749.25	8836.58
749.589	8832.51
749.928	8895.78
750.267	9046.74
750.605	9045.84
750.944	9057.36
751.283	9210.35
751.621	9290.12
751.96	9318.6
752.298	9430.68
752.636	9540.74
752.975	9579.61
753.313	9622.09
753.651	9818.7
753.989	9875.19
754.327	10056.88
754.666	10064.34
755.004	10194.73
755.342	10341.39
755.679	10516.31
756.017	10526.25
756.355	10734.6
756.693	10761.72
757.031	10985.9
757.368	11040.81
757.706	11192.22
758.044	11325.55
758.381	11440.57
758.719	11603.06
759.056	11864.97
