Data from hue_38_FLMS001491_00023.txt Node
Date: Tue Feb 07 17:31:16 GMT 2017
User: dcchb
Spectrometer: FLMS00149
Trigger mode: 0
Integration Time (sec): 2.000000E-2
Scans to average: 10
Electric dark correction enabled: true
Nonlinearity correction enabled: false
Boxcar width: 0
XAxis mode: Wavelengths
Number of Pixels in Spectrum: 2048
>>>>>Begin Spectral Data<<<<<
341.393	-20.85
341.776	-20.85
342.16	-20.85
342.543	-57.68
342.927	-59.04
343.31	-75.99
343.693	-85.93
344.077	-57.23
344.46	-59.04
344.843	-50.45
345.226	-56.78
345.61	-26.72
345.993	-17.23
346.376	-1.41
346.759	-4.58
347.142	31.81
347.525	49.89
347.908	65.48
348.291	80.17
348.674	100.05
349.057	107.96
349.44	115.42
349.823	147.06
350.206	170.33
350.588	208.75
350.971	220.28
351.354	224.57
351.737	245.81
352.119	255.08
352.502	293.27
352.884	272.25
353.267	299.37
353.65	291.46
354.032	298.92
354.414	301.63
354.797	321.07
355.179	344.79
355.562	331.01
355.944	335.53
356.326	324
356.709	340.73
357.091	348.86
357.473	337.56
357.855	341.18
358.238	349.76
358.62	350.22
359.002	335.08
359.384	331.23
359.766	357.45
360.148	353.38
360.53	340.73
360.912	345.7
361.294	340.5
361.676	352.02
362.057	329.43
362.439	358.35
362.821	352.93
363.203	319.26
363.584	330.56
363.966	328.52
364.348	322.65
364.729	334.85
365.111	288.98
365.493	334.17
365.874	354.74
366.256	338.47
366.637	328.52
367.019	311.8
367.4	323.32
367.781	319.48
368.163	314.06
368.544	340.05
368.925	314.51
369.306	306.38
369.688	338.69
370.069	312.25
370.45	295.08
370.831	314.29
371.212	309.09
371.593	344.57
371.974	329.2
372.355	312.7
372.736	303.89
373.117	313.38
373.498	323.32
373.879	335.98
374.26	316.32
374.641	315.19
375.021	310.22
375.402	325.36
375.783	315.64
376.163	330.78
376.544	329.43
376.925	333.04
377.305	316.77
377.686	325.36
378.066	338.47
378.447	334.4
378.827	352.93
379.208	329.43
379.588	340.27
379.968	325.13
380.349	348.41
380.729	361.52
381.109	346.15
381.489	343.89
381.87	312.48
382.25	338.47
382.63	350.89
383.01	366.49
383.39	341.18
383.77	352.02
384.15	352.02
384.53	348.63
384.91	348.41
385.29	369.43
385.67	363.78
386.049	352.93
386.429	366.49
386.809	352.02
387.189	374.17
387.568	353.83
387.948	342.53
388.328	378.01
388.707	376.88
389.087	362.87
389.466	365.36
389.846	367.39
390.225	359.03
390.605	367.39
390.984	384.34
391.363	365.36
391.743	381.4
392.122	391.57
392.501	381.85
392.881	392.02
393.26	400.38
393.639	380.72
394.018	394.74
394.397	389.54
394.776	388.41
395.155	399.93
395.534	394.96
395.913	391.8
396.292	395.41
396.671	399.71
397.05	390.89
397.429	384.57
397.808	389.54
398.186	399.93
398.565	396.09
398.944	393.38
399.323	406.03
399.701	400.38
400.08	414.4
400.458	418.01
400.837	436.77
401.215	418.69
401.594	399.71
401.972	418.69
402.351	431.12
402.729	434.28
403.107	422.98
403.486	391.57
403.864	420.72
404.242	426.82
404.62	419.82
404.999	430.89
405.377	421.18
405.755	434.73
406.133	454.85
406.511	439.71
406.889	456.2
407.267	455.3
407.645	458.01
408.023	443.55
408.401	454.85
408.779	446.71
409.156	455.3
409.534	453.04
409.912	463.43
410.29	480.38
410.667	463.89
411.045	477.45
411.422	460.72
411.8	475.64
412.178	465.47
412.555	484.22
412.933	493.26
413.31	498.69
413.687	489.65
414.065	481.29
414.442	493.04
414.819	508.86
415.197	521.74
415.574	497.56
415.951	509.99
416.328	508.86
416.705	522.87
417.082	513.83
417.46	511.12
417.837	538.23
418.214	534.62
418.591	545.69
418.967	536.88
419.344	520.16
419.721	524.9
420.098	540.95
420.475	562.87
420.852	540.04
421.228	549.08
421.605	561.06
421.982	548.63
422.358	558.8
422.735	553.83
423.111	558.8
423.488	568.29
423.864	581.62
424.241	580.49
424.617	575.97
424.994	593.83
425.37	576.88
425.746	576.65
426.123	606.93
426.499	603.77
426.875	597.22
427.251	601.96
427.627	607.84
428.003	619.59
428.379	632.7
428.756	592.24
429.132	622.98
429.507	662.52
429.883	643.99
430.259	643.99
430.635	634.28
431.011	645.35
431.387	641.51
431.763	667.95
432.138	661.85
432.514	674.28
432.89	658.91
433.265	685.58
433.641	707.72
434.016	685.8
434.392	702.3
434.767	730.55
435.143	706.59
435.518	709.08
435.894	709.53
436.269	743.65
436.644	744.78
437.02	727.83
437.395	726.93
437.77	781.39
438.145	752.69
438.52	760.38
438.895	759.02
439.271	768.28
439.646	768.51
440.021	773.93
440.395	804.22
440.77	767.15
441.145	822.52
441.52	814.61
441.895	806.7
442.27	819.13
442.645	776.42
443.019	841.28
443.394	813.48
443.769	801.28
444.143	843.09
444.518	833.82
444.892	858.68
445.267	850.32
445.641	836.98
446.016	846.93
446.39	834.72
446.764	828.4
447.139	890.09
447.513	873.37
447.887	876.3
448.262	877.66
448.636	891.45
449.01	887.6
449.384	888.28
449.758	903.42
450.132	909.07
450.506	920.37
450.88	918.11
451.254	911.33
451.628	945.68
452.002	938.22
452.376	943.2
452.75	973.48
453.123	983.42
453.497	963.99
453.871	993.36
454.244	992.91
454.618	1007.15
454.992	979.8
455.365	1012.57
455.739	1027.94
456.112	1049.41
456.486	1037.43
456.859	1045.79
457.232	1067.03
457.606	1079.46
457.979	1116.52
458.352	1100.71
458.725	1113.13
459.099	1129.63
459.472	1139.8
459.845	1163.3
460.218	1170.76
460.591	1168.95
460.964	1166.69
461.337	1197.65
461.71	1227.03
462.083	1242.4
462.456	1231.55
462.829	1236.3
463.201	1236.97
463.574	1257.09
463.947	1264.99
464.32	1283.07
464.692	1301.15
465.065	1346.12
465.438	1331.43
465.81	1377.08
466.183	1408.49
466.555	1403.07
466.928	1417.08
467.3	1432.22
467.672	1466.35
468.045	1499.57
468.417	1495.5
468.789	1482.62
469.161	1534.59
469.534	1541.82
469.906	1573.01
470.278	1606.91
470.65	1621.14
471.022	1678.77
471.394	1683.52
471.766	1671.54
472.138	1731.65
472.51	1787.02
472.882	1810.29
473.253	1847.8
473.625	1871.08
473.997	1905.88
474.369	1932.55
474.74	1962.15
475.112	1992.89
475.484	2045.31
475.855	2091.64
476.227	2097.74
476.598	2243.5
476.97	2217.29
477.341	2308.81
477.713	2318.3
478.084	2355.14
478.455	2442.37
478.827	2526.2
479.198	2572.98
479.569	2659.99
479.94	2680.33
480.311	2766.88
480.682	2814.33
481.053	2891.62
481.424	2959.87
481.795	3020.88
482.166	3089.81
482.537	3160.31
482.908	3268.33
483.279	3334.32
483.65	3388.1
484.021	3521.43
484.391	3558.72
484.762	3648.89
485.133	3703.8
485.503	3786.96
485.874	3904.25
486.244	3993.06
486.615	4071.93
486.985	4196.9
487.356	4274.18
487.726	4339.49
488.097	4521.86
488.467	4521.86
488.837	4688.41
489.207	4778.8
489.578	4896.99
489.948	4951.68
490.318	5051.34
490.688	5175.63
491.058	5224.89
491.428	5424.89
491.798	5485
492.168	5607.03
492.538	5686.35
492.908	5837.53
493.278	5970.63
493.648	6072.55
494.017	6096.96
494.387	6215.37
494.757	6338.53
495.126	6394.58
495.496	6475.25
495.866	6587.79
496.235	6638.41
496.605	6781.69
496.974	6914.56
497.344	6912.08
497.713	7079.98
498.082	7138.51
498.452	7271.16
498.821	7343.71
499.19	7367.66
499.559	7471.61
499.928	7616.69
500.298	7743.69
500.667	7792.51
501.036	7884.93
501.405	7986.4
501.774	8056.91
502.143	8125.83
502.512	8147.3
502.88	8204.7
503.249	8354.75
503.618	8396.56
503.987	8526.5
504.356	8594.75
504.724	8688.53
505.093	8751.8
505.462	8860.95
505.83	8897.34
506.199	8977.11
506.567	9009.2
506.936	9066.6
507.304	9231.79
507.672	9279.93
508.041	9419.81
508.409	9465.46
508.777	9535.96
509.145	9586.36
509.514	9614.61
509.882	9679.24
510.25	9723.08
510.618	9780.48
510.986	9873.13
511.354	9956.07
511.722	10115.61
512.09	10249.62
512.458	10245.1
512.826	10304.76
513.193	10331.2
513.561	10417.75
513.929	10513.11
514.297	10605.09
514.664	10676.27
515.032	10746.1
515.4	10823.39
515.767	10801.47
516.135	10915.14
516.502	10897.28
516.869	11092.31
517.237	11147
517.604	11077.62
517.972	11231.29
518.339	11330.49
518.706	11485.74
519.073	11375.46
519.44	11542.01
519.808	11579.53
520.175	11579.75
520.542	11709.24
520.909	11807.32
521.276	11854.77
521.643	11824.72
522.009	11961.21
522.376	12038.5
522.743	12200.75
523.11	12186.06
523.477	12365.27
523.843	12368.88
524.21	12594.87
524.577	12638.93
524.943	12642.55
525.31	12720.96
525.676	12833.05
526.043	12914.63
526.409	13009.77
526.776	13135.42
527.142	13110.56
527.508	13203.21
527.874	13274.85
528.241	13435.52
528.607	13460.38
528.973	13579.7
529.339	13586.7
529.705	13785.12
530.071	13788.28
530.437	13822.18
530.803	13945.34
531.169	13981.27
531.535	14025.34
531.901	14153.24
532.267	14092.91
532.632	14262.39
532.998	14303.52
533.364	14380.13
533.73	14364.99
534.095	14526.57
534.461	14575.83
534.826	14627.81
535.192	14653.8
535.557	14775.6
535.923	14837.75
536.288	14830.74
536.653	14949.61
537.019	14926.78
537.384	15037.97
537.749	15038.42
538.114	15118.42
538.479	15135.82
538.845	15209.26
539.21	15297.62
539.575	15341.69
539.94	15407
540.305	15500.1
540.67	15449.71
541.034	15587.1
541.399	15708.68
541.764	15614.9
542.129	15812.64
542.494	15853.54
542.858	15861
543.223	15895.34
543.587	16048.79
543.952	16061.22
544.316	16056.7
544.681	16145.06
545.045	16136.02
545.41	16295.33
545.774	16330.59
546.138	16370.13
546.503	16473.41
546.867	16483.58
547.231	16588.21
547.595	16717.47
547.959	16623.01
548.324	16824.81
548.688	16812.16
549.052	16916.79
549.416	16942.1
549.779	16920.4
550.143	17013.28
550.507	17134.18
550.871	17222.32
551.235	17199.49
551.599	17288.98
551.962	17377.57
552.326	17465.7
552.689	17465.7
553.053	17390.45
553.417	17445.81
553.78	17663.89
554.143	17595.87
554.507	17689.87
554.87	17799.93
555.234	17956.76
555.597	17786.14
555.96	17934.16
556.323	17999.7
556.686	18111.33
557.05	18147.71
557.413	18272.68
557.776	18234.72
558.139	18369.86
558.502	18445.11
558.865	18438.33
559.228	18575.27
559.59	18688.49
559.953	18686.23
560.316	18937.75
560.679	18830.18
561.041	19000.8
561.404	19048.48
561.767	19107.46
562.129	19093
562.492	19260
562.854	19203.05
563.217	19316.72
563.579	19351.75
563.941	19491.86
564.304	19566.43
564.666	19741.57
565.028	19789.93
565.39	19731.4
565.753	19866.99
566.115	19832.42
566.477	19956.25
566.839	20056.59
567.201	20145.63
567.563	20209.36
567.925	20374.78
568.287	20313.53
568.648	20378.39
569.01	20539.52
569.372	20699.06
569.734	20636.01
570.095	20767.76
570.457	20955.32
570.819	20970.47
571.18	21012.27
571.542	21102.21
571.903	21155.55
572.265	21248.88
572.626	21360.51
572.987	21424.69
573.349	21520.73
573.71	21526.38
574.071	21703.33
574.432	21779.94
574.794	21897.45
575.155	21874.62
575.516	22024.68
575.877	22134.5
576.238	22251.34
576.599	22421.5
576.96	22493.14
577.32	22486.58
577.681	22695.39
578.042	22803.86
578.403	22892.9
578.763	23013.58
579.124	23196.62
579.485	23278.43
579.845	23506.9
580.206	23535.82
580.566	23748.25
580.927	23764.06
581.287	23987.34
581.648	24153.43
582.008	24415.35
582.368	24487.21
582.728	24703.02
583.089	24814.66
583.449	24961.77
583.809	25140.75
584.169	25368.09
584.529	25493.96
584.889	25837.23
585.249	25910
585.609	26016.89
585.969	26387.27
586.329	26428.63
586.688	26606.7
587.048	26733.7
587.408	26965.11
587.768	27228.83
588.127	27411.43
588.487	27651.42
588.846	27978.42
589.206	27938.19
589.565	28121.46
589.925	28457.5
590.284	28585.41
590.643	28842.12
591.003	29109.46
591.362	29349.23
591.721	29472.84
592.08	29659.5
592.44	30009.78
592.799	30140.62
593.158	30296.1
593.517	30537.9
593.876	30763.88
594.235	30843.2
594.593	31208.61
594.952	31526.57
595.311	31511.43
595.67	31720.01
596.029	32083.39
596.387	32305.76
596.746	32492.87
597.104	32565.64
597.463	32669.82
597.822	33044.05
598.18	33066.19
598.538	33253.98
598.897	33634.54
599.255	33585.5
599.613	34214.41
599.972	34113.4
600.33	34409.66
600.688	34467.51
601.046	34734.17
601.404	35037.44
601.762	35025.92
602.12	35354.72
602.478	35349.97
602.836	35585.67
603.194	35592.91
603.552	35888.04
603.91	35868.38
604.268	36279.89
604.625	36111.99
604.983	36582.48
605.341	36477.4
605.698	36724.63
606.056	37007.11
606.413	37024.73
606.771	37250.72
607.128	37476.92
607.485	37349.92
607.843	37572.97
608.2	37969.34
608.557	38033.75
608.914	38045.72
609.272	38143.57
609.629	38476.45
609.986	38619.49
610.343	38496.78
610.7	38857.45
611.057	38972.48
611.414	38973.61
611.771	39186.03
612.127	39436.19
612.484	39397.1
612.841	39612.01
613.198	39503.99
613.554	39727.49
613.911	40064.2
614.267	39938.78
614.624	40086.12
614.98	40300.58
615.337	40479.11
615.693	40400.24
616.05	40532.44
616.406	40831.41
616.762	40627.12
617.118	40644.52
617.475	40792.32
617.831	41072.08
618.187	41044.97
618.543	41202.48
618.899	41461
619.255	41445.63
619.611	41496.25
619.967	41565.4
620.323	41748.45
620.678	41621.22
621.034	41699.64
621.39	41622.35
621.746	41662.35
622.101	42294.42
622.457	42070.93
622.812	42050.36
623.168	42278.83
623.523	42216.23
623.879	42387.98
624.234	42084.03
624.589	42357.7
624.945	42432.27
625.3	42514.31
625.655	42551.82
626.01	42654.64
626.365	42587.98
626.72	42551.37
627.075	42643.12
627.43	42669.1
627.785	42542.55
628.14	42689.44
628.495	42727.18
628.85	42784.81
629.205	42579.16
629.559	42909.1
629.914	42739.16
630.269	42807.18
630.623	42758.37
630.978	42690.57
631.332	42834.75
631.687	42887.86
632.041	42789.33
632.396	43052.37
632.75	42737.35
633.104	42877.46
633.459	42820.74
633.813	42849.44
634.167	42855.31
634.521	42794.75
634.875	42835.2
635.229	42802.21
635.583	42824.81
635.937	42760.18
636.291	42743.45
636.645	42787.97
636.999	42693.51
637.352	42749.33
637.706	42528.09
638.06	42722.66
638.413	42626.39
638.767	42536.9
639.121	42587.3
639.474	42591.59
639.828	42542.33
640.181	42418.49
640.534	42513.18
640.888	42401.99
641.241	42347.53
641.594	42486.51
641.947	42417.36
642.301	42475.44
642.654	42388.21
643.007	42455.1
643.36	42367.42
643.713	42324.25
644.066	42323.35
644.419	42265.27
644.771	42027.54
645.124	41583.93
645.477	41542.35
645.83	41363.15
646.182	41190.27
646.535	41084.74
646.888	41234.79
647.24	40896.04
647.593	41253.55
647.945	40971.3
648.298	40880.9
648.65	40895.82
649.002	40877.51
649.355	41126.09
649.707	41048.81
650.059	41133.33
650.411	41480.21
650.763	41608.57
651.115	41881.78
651.467	41903.7
651.819	41740.54
652.171	41643.14
652.523	41632.52
652.875	41735.8
653.227	41591.84
653.578	41889.46
653.93	41808.56
654.282	41516.37
654.633	41598.4
654.985	41554.56
655.337	41679.07
655.688	41695.12
656.039	41769.47
656.391	41382.13
656.742	41490.15
657.094	41422.36
657.445	41635.68
657.796	41506.65
658.147	41473.88
658.498	41517.27
658.849	41495.35
659.2	41389.59
659.551	41296.03
659.902	41543.26
660.253	41271.63
660.604	41443.6
660.955	41190.05
661.306	41529.02
661.656	41317.73
662.007	41331.74
662.358	41243.6
662.708	41254.45
663.059	41304.62
663.409	40991.86
663.76	41395.69
664.11	41312.3
664.461	41447.67
664.811	41377.39
665.161	41160.9
665.511	41267.33
665.862	41329.48
666.212	41395.47
666.562	41432.98
666.912	41209.03
667.262	41202.7
667.612	41393.21
667.962	41274.34
668.312	41209.48
668.662	41415.13
669.011	41353.66
669.361	41194.11
669.711	41136.71
670.06	41188.24
670.41	41098.52
670.76	41035.25
671.109	41170.39
671.459	41033.67
671.808	40956.15
672.157	41068.47
672.507	40809.04
672.856	40826.89
673.205	40957.96
673.554	41088.58
673.904	40925.87
674.253	41232.08
674.602	41025.98
674.951	40512.1
675.3	40119.11
675.649	40938.3
675.998	40812.88
676.346	40926.55
676.695	40943.27
677.044	40679.55
677.393	40775.82
677.741	40777.18
678.09	40669.83
678.438	40683.39
678.787	40662.15
679.135	40668.93
679.484	40483.85
679.832	40549.61
680.181	40410.18
680.529	40578.76
680.877	40393.68
681.225	40224.65
681.573	40720.23
681.922	40199.79
682.27	40139.23
682.618	40198.89
682.966	40054.26
683.314	40122.28
683.661	39962.51
684.009	39893.36
684.357	39838.44
684.705	39677.09
685.053	39682.74
685.4	39823.3
685.748	39454.95
686.095	39441.84
686.443	39377.21
686.79	39278.46
687.138	39403.88
687.485	39582.63
687.832	39256.99
688.18	39431.68
688.527	38995.08
688.874	39075.3
689.221	39059.71
689.568	38862.2
689.915	38851.35
690.262	38880.5
690.609	38826.95
690.956	38708.3
691.303	38647.06
691.65	38420.63
691.997	38475.32
692.344	38284.36
692.69	38235.77
693.037	38316.45
693.383	37882.11
693.73	38053.18
694.077	37787.42
694.423	37794.43
694.769	37612.97
695.116	37685.96
695.462	37467.21
695.808	37455
696.155	37342.24
696.501	37258.62
696.847	37244.16
697.193	36998.29
697.539	37078.06
697.885	36886.88
698.231	36865.87
698.577	36793.78
698.923	36599.89
699.269	36615.48
699.614	36340.46
699.96	36294.81
700.306	36256.62
700.651	36135.26
700.997	36087.13
701.342	35935.72
701.688	35962.61
702.033	35873.8
702.379	35760.81
702.724	35672.9
703.069	35786.12
703.415	35410.76
703.76	35570.76
704.105	35458.22
704.45	35306.36
704.795	35188.17
705.14	35138.68
705.485	35046.48
705.83	34945.01
706.175	34994.73
706.52	34943.21
706.865	34733.95
707.209	34803.55
707.554	34659.37
707.899	34748.86
708.243	34486.27
708.588	34378.02
708.932	34263
709.277	34131.02
709.621	34187.97
709.966	33987.3
710.31	34043.79
710.654	33708.44
710.998	33852.84
711.342	33872.95
711.687	33680.19
712.031	33543.92
712.375	33451.49
712.719	33599.06
713.063	33497.82
713.407	33515.9
713.75	33380.08
714.094	33343.02
714.438	33153.42
714.782	33275
715.125	33032.3
715.469	33098.73
715.812	32884.05
716.156	32733.77
716.499	32829.36
716.843	32743.49
717.186	32571.06
717.53	32724.51
717.873	32636.37
718.216	32645.86
718.559	32406.1
718.902	32339.43
719.246	32418.3
719.589	32179.66
719.932	32173.33
720.275	32200.9
720.617	32089.5
720.96	31978.54
721.303	32006.56
721.646	32030.51
721.989	31700.8
722.331	31969.05
722.674	31859.67
723.016	31836.85
723.359	31723.4
723.701	31643.63
724.044	31531.77
724.386	31412.45
724.729	31482.51
725.071	31447.25
725.413	31384.88
725.755	31332.23
726.097	31320.02
726.439	31147.6
726.782	31064.21
727.124	31210.87
727.465	31116.64
727.807	30998
728.149	31074.61
728.491	31000.71
728.833	30931.56
729.175	30768.63
729.516	30843.65
729.858	30701.06
730.199	30832.58
730.541	30720.04
730.882	30654.28
731.224	30737.21
731.565	30622.42
731.906	30522.08
732.248	30504.23
732.589	30357.56
732.93	30274.85
733.271	30333.38
733.612	30294.97
733.953	30329.09
734.294	30202.09
734.635	30129.55
734.976	30188.75
735.317	30001.64
735.658	30023.79
735.999	29956.44
736.339	29859.95
736.68	30092.71
737.021	29805.49
737.361	29743.34
737.702	29964.13
738.042	29871.02
738.383	29726.85
738.723	29709.9
739.063	29645.72
739.404	29603.01
739.744	29711.93
740.084	29562.1
740.424	29556.68
740.764	29421.09
741.104	29559.62
741.444	29258.38
741.784	29258.16
742.124	29338.38
742.464	29310.59
742.804	29365.27
743.143	29116.01
743.483	29198.72
743.823	28967.09
744.162	29029.46
744.502	28994.44
744.841	28896.36
745.181	29080.08
745.52	28956.92
745.86	28849.13
746.199	28920.09
746.538	28906.08
746.877	28831.73
747.216	28902.01
747.556	28649.59
747.895	28718.96
748.234	28703.14
748.573	28492.53
748.911	28429.48
749.25	28478.97
749.589	28429.25
749.928	28419.31
750.267	28384.28
750.605	28208.47
750.944	28243.49
751.283	28151.52
751.621	28192.42
751.96	27887.57
752.298	28063.61
752.636	28050.73
752.975	27807.12
753.313	27871.53
753.651	27938.64
753.989	27771.19
754.327	27655.04
754.666	27494.36
755.004	27616.17
755.342	27533.46
755.679	27546.79
756.017	27388.83
756.355	27513.12
756.693	27315.38
757.031	27374.14
757.368	27176.4
