Data from hue_330_FLMS001491_20.txt Node
Date: Mon Feb 06 15:45:00 GMT 2017
User: dcchb
Spectrometer: FLMS00149
Trigger mode: 0
Integration Time (sec): 2.000000E-2
Scans to average: 10
Electric dark correction enabled: true
Nonlinearity correction enabled: false
Boxcar width: 0
XAxis mode: Wavelengths
Number of Pixels in Spectrum: 2048
>>>>>Begin Spectral Data<<<<<
341.393	-3.66
341.776	-3.66
342.16	-3.66
342.543	-54.96
342.927	-52.02
343.31	-68.29
343.693	-73.49
344.077	-76.2
344.46	-74.39
344.843	-50.21
345.226	-28.29
345.61	-17.44
345.993	-33.26
346.376	-3.21
346.759	11.71
347.142	48.32
347.525	38.15
347.908	56
348.291	76.34
348.674	84.7
349.057	109.56
349.44	121.31
349.823	131.48
350.206	171.48
350.588	190.91
350.971	225.26
351.354	219.61
351.737	225.71
352.119	245.37
352.502	261.87
352.884	283.57
353.267	302.1
353.65	314.07
354.032	323.56
354.414	310.23
354.797	319.27
355.179	318.37
355.562	323.79
355.944	322.44
356.326	324.47
356.709	348.88
357.091	341.64
357.473	356.33
357.855	357.24
358.238	358.14
358.62	347.52
359.002	346.62
359.384	326.05
359.766	321.98
360.148	333.51
360.53	347.29
360.912	342.32
361.294	314.98
361.676	320.18
362.057	347.75
362.439	327.86
362.821	338.93
363.203	327.41
363.584	326.5
363.966	333.96
364.348	343
364.729	307.52
365.111	297.12
365.493	309.33
365.874	331.47
366.256	309.33
366.637	297.12
367.019	325.15
367.4	298.03
367.781	310.46
368.163	303.9
368.544	333.51
368.925	317.69
369.306	319.5
369.688	314.53
370.069	330.34
370.45	292.38
370.831	311.14
371.212	317.01
371.593	325.82
371.974	310.46
372.355	324.47
372.736	302.55
373.117	316.33
373.498	320.63
373.879	328.31
374.26	328.08
374.641	322.21
375.021	306.39
375.402	319.95
375.783	336.22
376.163	321.98
376.544	302.77
376.925	327.41
377.305	345.26
377.686	331.47
378.066	343
378.447	316.33
378.827	337.12
379.208	322.44
379.588	323.34
379.968	337.58
380.349	327.41
380.729	335.54
381.109	337.8
381.489	338.48
381.87	337.8
382.25	342.55
382.63	351.59
383.01	338.25
383.39	346.84
383.77	357.91
384.15	338.48
384.53	374.41
384.91	347.07
385.29	352.72
385.67	340.51
386.049	345.49
386.429	356.78
386.809	359.72
387.189	350
387.568	350
387.948	370.8
388.328	371.93
388.707	368.76
389.087	354.75
389.466	350.46
389.846	364.92
390.225	346.62
390.605	350
390.984	342.1
391.363	351.13
391.743	372.15
392.122	355.2
392.501	382.55
392.881	361.98
393.26	356.11
393.639	368.08
394.018	392.72
394.397	361.76
394.776	369.21
395.155	393.85
395.534	377.8
395.913	385.94
396.292	386.16
396.671	401.98
397.05	387.52
397.429	390.68
397.808	380.29
398.186	376.67
398.565	394.07
398.944	391.36
399.323	375.77
399.701	390.91
400.08	401.3
400.458	385.94
400.837	412.83
401.215	391.59
401.594	387.74
401.972	390.46
402.351	415.31
402.729	398.37
403.107	406.95
403.486	426.84
403.864	408.31
404.242	419.83
404.62	429.32
404.999	415.09
405.377	430
405.755	417.12
406.133	428.42
406.511	434.3
406.889	436.78
407.267	448.99
407.645	445.14
408.023	459.15
408.401	460.06
408.779	453.51
409.156	471.58
409.534	469.78
409.912	481.75
410.29	489.21
410.667	470.23
411.045	468.87
411.422	494.63
411.8	481.07
412.178	497.57
412.555	490.57
412.933	480.17
413.31	511.58
413.687	537.12
414.065	513.84
414.442	551.13
414.819	532.15
415.197	528.08
415.574	543.9
415.951	530.57
416.328	566.95
416.705	543.9
417.082	568.3
417.46	562.88
417.837	566.5
418.214	561.98
418.591	596.1
418.967	587.51
419.344	593.16
419.721	627.74
420.098	592.48
420.475	602.65
420.852	609.66
421.228	634.97
421.605	625.93
421.982	652.6
422.358	651.47
422.735	657.79
423.111	657.12
423.488	657.79
423.864	676.55
424.241	666.83
424.617	678.36
424.994	689.21
425.37	680.39
425.746	701.41
426.123	706.38
426.499	708.19
426.875	698.92
427.251	731.46
427.627	728.98
428.003	738.02
428.379	752.48
428.756	748.86
429.132	742.09
429.507	788.64
429.883	785.7
430.259	782.31
430.635	788.86
431.011	790.67
431.387	790.9
431.763	827.96
432.138	825.02
432.514	835.87
432.89	821.86
433.265	853.72
433.641	860.5
434.016	879.48
434.392	873.61
434.767	874.74
435.143	899.14
435.518	905.47
435.894	924.68
436.269	899.59
436.644	937.56
437.02	915.19
437.395	922.42
437.77	923.78
438.145	946.6
438.52	953.15
438.895	952.93
439.271	965.36
439.646	969.42
440.021	1004.45
440.395	1002.87
440.77	971.91
441.145	1002.19
441.52	1046.48
441.895	1010.78
442.27	1022.98
442.645	1017.78
443.019	1026.15
443.394	1018.46
443.769	1039.25
444.143	1021.63
444.518	1038.57
444.892	1050.78
445.267	1065.24
445.641	1045.13
446.016	1087.61
446.39	1052.36
446.764	1070.21
447.139	1079.48
447.513	1073.15
447.887	1084.22
448.262	1101.85
448.636	1083.32
449.01	1094.84
449.384	1113.15
449.758	1140.49
450.132	1130.78
450.506	1123.54
450.88	1109.31
451.254	1125.35
451.628	1165.58
452.002	1140.04
452.376	1144.33
452.75	1162.19
453.123	1171.23
453.497	1186.59
453.871	1187.5
454.244	1187.5
454.618	1208.29
454.992	1191.11
455.365	1228.85
455.739	1244.22
456.112	1242.86
456.486	1248.06
456.859	1247.16
457.232	1271.11
457.606	1222.98
457.979	1272.47
458.352	1276.53
458.725	1297.55
459.099	1274.5
459.472	1323.76
459.845	1328.74
460.218	1318.34
460.591	1344.1
460.964	1341.62
461.337	1384.33
461.71	1361.5
462.083	1405.12
462.456	1382.52
462.829	1391.56
463.201	1412.35
463.574	1399.02
463.947	1459.58
464.32	1468.17
464.692	1460.94
465.065	1432.46
465.438	1472.69
465.81	1488.05
466.183	1531.22
466.555	1518.11
466.928	1546.13
467.3	1527.38
467.672	1564.44
468.045	1581.84
468.417	1581.84
468.789	1611.67
469.161	1610.99
469.534	1647.37
469.906	1664.77
470.278	1635.39
470.65	1650.08
471.022	1684.66
471.394	1739.12
471.766	1745.22
472.138	1757.43
472.51	1796.29
472.882	1791.55
473.253	1826.35
473.625	1827.25
473.997	1843.07
474.369	1876.29
474.74	1882.17
475.112	1898.89
475.484	1934.6
475.855	1955.84
476.227	1959.68
476.598	1985.22
476.97	2013.24
477.341	2062.95
477.713	2072.22
478.084	2103.18
478.455	2148.15
478.827	2154.93
479.198	2175.27
479.569	2201.71
479.94	2250.07
480.311	2237.64
480.682	2270.41
481.053	2333.23
481.424	2375.26
481.795	2368.03
482.166	2404.87
482.537	2428.59
482.908	2497.75
483.279	2456.16
483.65	2535.94
484.021	2590.17
484.391	2547.91
484.762	2587.46
485.133	2624.07
485.503	2646.44
485.874	2688.47
486.244	2706.33
486.615	2762.14
486.985	2772.77
487.356	2803.73
487.726	2805.08
488.097	2944.74
488.467	2924.17
488.837	2929.6
489.207	2943.16
489.578	3013.44
489.948	3038.97
490.318	3092.53
490.688	3113.55
491.058	3077.84
491.428	3122.36
491.798	3161.23
492.168	3175.24
492.538	3256.37
492.908	3248.23
493.278	3272.19
493.648	3274.9
494.017	3343.82
494.387	3336.37
494.757	3355.35
495.126	3409.36
495.496	3425.63
495.866	3426.31
496.235	3488
496.605	3486.65
496.974	3477.15
497.344	3523.25
497.713	3493.43
498.082	3513.09
498.452	3572.52
498.821	3591.05
499.19	3606.64
499.559	3623.37
499.928	3638.96
500.298	3650.26
500.667	3692.29
501.036	3674.21
501.405	3745.17
501.774	3761.21
502.143	3787.65
502.512	3759.86
502.88	3770.25
503.249	3786.52
503.618	3814.32
503.987	3764.83
504.356	3824.49
504.724	3838.5
505.093	3834.21
505.462	3896.35
505.83	3887.77
506.199	3909.23
506.567	3965.05
506.936	3953.3
507.304	3956.46
507.672	3998.72
508.041	4001.21
508.409	4029.46
508.777	4028.1
509.145	4043.24
509.514	4063.58
509.882	4087.31
510.25	4117.36
510.618	4097.25
510.986	4091.6
511.354	4121.21
511.722	4202.11
512.09	4170.7
512.458	4209.56
512.826	4198.94
513.193	4229.68
513.561	4184.25
513.929	4251.15
514.297	4226.74
514.664	4262.44
515.032	4278.26
515.4	4293.4
515.767	4265.38
516.135	4306.74
516.502	4324.59
516.869	4347.87
517.237	4366.4
517.604	4329.56
517.972	4404.36
518.339	4402.55
518.706	4433.51
519.073	4414.08
519.44	4392.38
519.808	4474.87
520.175	4445.94
520.542	4518.48
520.909	4491.59
521.276	4476.45
521.643	4571.59
522.009	4519.39
522.376	4562.78
522.743	4566.17
523.11	4608.2
523.477	4663.11
523.843	4647.75
524.21	4674.64
524.577	4727.52
524.943	4747.18
525.31	4737.01
525.676	4755.09
526.043	4798.93
526.409	4783.11
526.776	4857.23
527.142	4821.3
527.508	4821.75
527.874	4905.82
528.241	4884.12
528.607	4887.96
528.973	4926.83
529.339	4941.07
529.705	4960.96
530.071	5031.46
530.437	5128.86
530.803	5019.49
531.169	5076.66
531.535	5094.96
531.901	5054.51
532.267	5129.31
532.632	5187.84
532.998	5206.15
533.364	5185.36
533.73	5221.97
534.095	5280.04
534.461	5207.96
534.826	5341.29
535.192	5318.01
535.557	5264.68
535.923	5362.75
536.288	5407.73
536.653	5345.58
537.019	5433.26
537.384	5466.03
537.749	5415.63
538.114	5457.22
538.479	5440.04
538.845	5492.02
539.21	5424.45
539.575	5530.66
539.94	5555.29
540.305	5563.88
540.67	5560.72
541.034	5662.41
541.399	5667.15
541.764	5686.81
542.129	5699.92
542.494	5694.72
542.858	5691.11
543.223	5784.21
543.587	5816.08
543.952	5769.07
544.316	5839.58
544.681	5870.54
545.045	5909.41
545.41	5893.14
545.774	5941.04
546.138	5947.37
546.503	5915.06
546.867	5954.6
547.231	6055.62
547.595	6027.6
547.959	6087.03
548.324	6103.53
548.688	6076.86
549.052	6092
549.416	6184.88
549.779	6115.5
550.143	6148.95
550.507	6156.18
550.871	6211.09
551.235	6219.23
551.599	6253.58
551.962	6246.35
552.326	6312.79
552.689	6352.56
553.053	6334.48
553.417	6298.78
553.78	6398.43
554.143	6359.11
554.507	6388.26
554.87	6383.52
555.234	6503.97
555.597	6445.44
555.96	6425.55
556.323	6525.44
556.686	6537.64
557.05	6562.5
557.413	6537.19
557.776	6597.98
558.139	6581.03
558.502	6617.41
558.865	6633.23
559.228	6663.51
559.59	6690.18
559.953	6671.87
560.316	6717.07
560.679	6743.74
561.041	6813.79
561.404	6794.81
561.767	6827.57
562.129	6825.31
562.492	6893.79
562.854	6908.25
563.217	6936.5
563.579	6941.47
563.941	6889.27
564.304	6926.56
564.666	6984.18
565.028	6957.06
565.39	7073.67
565.753	7068.47
566.115	7110.73
566.477	7098.75
566.839	7174.01
567.201	7170.62
567.563	7211.97
567.925	7199.99
568.287	7186.44
568.648	7280.9
569.01	7334.91
569.372	7322.7
569.734	7325.19
570.095	7411.51
570.457	7417.16
570.819	7463.94
571.18	7471.85
571.542	7534
571.903	7552.75
572.265	7576.71
572.626	7655.12
572.987	7660.32
573.349	7703.48
573.71	7763.14
574.071	7855.12
574.432	7778.06
574.794	7948
575.155	7962.46
575.516	7944.38
575.877	8053.31
576.238	8084.26
576.599	8188.89
576.96	8290.59
577.32	8278.38
577.681	8437.7
578.042	8512.05
578.403	8572.84
578.763	8594.53
579.124	8782.78
579.485	8828.88
579.845	8946.84
580.206	9051.92
580.566	9088.98
580.927	9238.13
581.287	9335.08
581.648	9490.33
582.008	9651.23
582.368	9802.19
582.728	9943.2
583.089	10061.84
583.449	10181.38
583.809	10381.61
584.169	10489.4
584.529	10624.76
584.889	10947.01
585.249	10993.79
585.609	11217.97
585.969	11456.83
586.329	11676.71
586.688	11827.9
587.048	12086.87
587.408	12277.37
587.768	12522.34
588.127	12731.6
588.487	12972.5
588.846	13279.38
589.206	13406.84
589.565	13679.15
589.925	14022.19
590.284	14138.57
590.643	14468.28
591.003	14744.2
591.362	15026.91
591.721	15289.05
592.08	15547.12
592.44	15866.66
592.799	16118.86
593.158	16388.23
593.517	16624.83
593.876	17019.62
594.235	17365.83
594.593	17564.92
594.952	17900.5
595.311	18191.57
595.67	18516.31
596.029	18921.72
596.387	19211.2
596.746	19467.02
597.104	19731.42
597.463	19966.66
597.822	20426.31
598.18	20551.73
598.538	20828.79
598.897	21298.61
599.255	21377.7
599.613	21938.82
599.972	22156.89
600.33	22608.18
600.688	22731.11
601.046	22970.2
601.404	23393.47
601.762	23600.69
602.12	24040.46
602.478	24226.67
602.836	24499.65
603.194	24619.88
603.552	24867.55
603.91	25132.18
604.268	25531.94
604.625	25694.88
604.983	26051.93
605.341	26168.54
605.698	26539.6
606.056	26792.02
606.413	27027.72
606.771	27352.01
607.128	27727.82
607.485	27735.73
607.843	27911.54
608.2	28368.7
608.557	28705.19
608.914	28634.91
609.272	29049.36
609.629	29272.86
609.986	29591.04
610.343	29611.61
610.7	30056.57
611.057	30238.71
611.414	30372.94
611.771	30585.14
612.127	30943.78
612.484	31042.53
612.841	31373.6
613.198	31392.8
613.554	31430.54
613.911	31826.69
614.267	32078.66
614.624	32124.54
614.98	32295.83
615.337	32555.71
615.693	32782.82
616.05	32895.82
616.406	33035.93
616.762	33046.09
617.118	33211.29
617.475	33399.76
617.831	33719.52
618.187	33741.44
618.543	33933.08
618.899	34267.98
619.255	34269.11
619.611	34359.51
619.967	34693.73
620.323	34801.08
620.678	34688.54
621.034	34860.28
621.39	34832.71
621.746	35049.21
622.101	35501.62
622.457	35200.61
622.812	35518.57
623.168	35547.72
623.523	35575.75
623.879	35898.9
624.234	35647.16
624.589	35871.33
624.945	35993.59
625.3	36129.63
625.655	36035.17
626.01	36193.81
626.365	36343.86
626.72	36344.54
627.075	36447.59
627.43	36504.08
627.785	36476.29
628.14	36683.74
628.495	36660.24
628.85	36829.95
629.205	36705.89
629.559	36989.27
629.914	36910.17
630.269	37027.23
630.623	36889.16
630.978	36956.27
631.332	37190.39
631.687	37175.7
632.041	37097.74
632.396	37186.32
632.75	37133.22
633.104	37334.8
633.459	37166.21
633.813	37109.04
634.167	37240.56
634.521	37146.78
634.875	37199.21
635.229	37166.66
635.583	37186.55
635.937	37081.24
636.291	37121.47
636.645	37168.02
636.999	37208.47
637.352	37292.99
637.706	37235.81
638.06	37358.98
638.413	37136.83
638.767	37192.65
639.121	37252.76
639.474	37060.68
639.828	37088.7
640.181	37351.29
640.534	37226.1
640.888	37165.76
641.241	37039.21
641.594	37236.72
641.947	37270.16
642.301	37146.1
642.654	37292.31
643.007	37125.08
643.36	37222.93
643.713	37128.92
644.066	37288.47
644.419	37058.87
644.771	36804.19
645.124	36536.62
645.477	36514.7
645.83	36217.76
646.182	36132.11
646.535	36086.47
646.888	36104.77
647.24	35956.3
647.593	36256.63
647.945	36184.32
648.298	36059.12
648.65	36006.02
649.002	35930.09
649.355	36055.73
649.707	35889.18
650.059	36155.17
650.411	36581.59
650.763	36666.56
651.115	37008.25
651.467	36925.31
651.819	36820.01
652.171	36639.9
652.523	36681.25
652.875	36676.73
653.227	36624.53
653.578	36899.1
653.93	36794.92
654.282	36653.23
654.633	36581.14
654.985	36508.38
655.337	36672.21
655.688	36604.64
656.039	36729.16
656.391	36351.32
656.742	36512.22
657.094	36594.02
657.445	36699.78
657.796	36627.7
658.147	36491.43
658.498	36516.06
658.849	36414.14
659.2	36484.2
659.551	36397.42
659.902	36571.2
660.253	36588.83
660.604	36550.86
660.955	36358.32
661.306	36417.53
661.656	36464.31
662.007	36475.61
662.358	36467.93
662.708	36384.09
663.059	36416.18
663.409	36268.38
663.76	36425.89
664.11	36439.68
664.461	36488.72
664.811	36526
665.161	36344.31
665.511	36361.26
665.862	36344.76
666.212	36443.97
666.562	36438.55
666.912	36441.94
667.262	36417.31
667.612	36339.12
667.962	36482.39
668.312	36199.01
668.662	36405.33
669.011	36291.43
669.361	36231.1
669.711	36422.28
670.06	36147.93
670.41	36274.03
670.76	36276.29
671.109	36193.13
671.459	36383.41
671.808	36302.73
672.157	36187.71
672.507	36072.46
672.856	36020.71
673.205	36151.78
673.554	36362.39
673.904	36121.72
674.253	36205.11
674.602	36146.8
674.951	35683.99
675.3	35445.81
675.649	36156.97
675.998	36097.54
676.346	35941.39
676.695	36189.06
677.044	35720.6
677.393	35883.08
677.741	36084.66
678.09	35838.11
678.438	35791.11
678.787	35837.66
679.135	35986.81
679.484	35736.19
679.832	35855.74
680.181	35620.72
680.529	35754.5
680.877	35558.12
681.225	35610.09
681.573	35723.99
681.922	35541.62
682.27	35489.65
682.618	35508.4
682.966	35359.93
683.314	35643.54
683.661	35326.03
684.009	35236.32
684.357	35103.67
684.705	35135.76
685.053	35198.13
685.4	35046.72
685.748	34897.57
686.095	34804.69
686.443	34758.59
686.79	34858.25
687.138	34820.96
687.485	34746.61
687.832	34601.08
688.18	34644.24
688.527	34434.08
688.874	34439.5
689.221	34450.8
689.568	34329.22
689.915	34253.75
690.262	34232.73
690.609	34062.34
690.956	34218.94
691.303	33975.34
691.65	33828.9
691.997	33851.5
692.344	33588.68
692.69	33614.67
693.037	33572.86
693.383	33408.8
693.73	33697.38
694.077	33438.85
694.423	33309.36
694.769	33203.15
695.116	33035.7
695.462	33119.54
695.808	32932.43
696.155	33093.1
696.501	32852.2
696.847	32672.54
697.193	32564.98
697.539	32670.74
697.885	32416.05
698.231	32363.63
698.577	32354.36
698.923	32378.09
699.269	32242.95
699.614	32014.94
699.96	31894.94
700.306	32047.02
700.651	31928.38
700.997	31880.7
701.342	31775.39
701.688	31684.32
702.033	31709.86
702.379	31635.96
702.724	31295.41
703.069	31534.5
703.415	31152.13
703.76	31125.92
704.105	31248.18
704.45	31220.38
704.795	30972.48
705.14	30962.99
705.485	30850.9
705.83	30716.66
706.175	30645.93
706.52	30689.77
706.865	30670.34
707.209	30576.78
707.554	30531.58
707.899	30458.14
708.243	30364.13
708.588	30341.08
708.932	30037.59
709.277	30123.91
709.621	30059.28
709.966	29965.05
710.31	30068.09
710.654	29726.63
710.998	29851.6
711.342	29747.88
711.687	29679.86
712.031	29631.27
712.375	29407.32
712.719	29569.35
713.063	29325.06
713.407	29506.07
713.75	29322.35
714.094	29387.89
714.438	29263.14
714.782	29272.41
715.125	29163.03
715.469	29148.8
715.812	29035.8
716.156	28781.35
716.499	28939.99
716.843	28934.56
717.186	28776.83
717.53	28908.8
717.873	28841.46
718.216	28697.96
718.559	28646.89
718.902	28445.99
719.246	28491.19
719.589	28450.96
719.932	28306.78
720.275	28442.83
720.617	28283.28
720.96	28191.98
721.303	28181.59
721.646	28163.74
721.989	28035.6
722.331	28059.11
722.674	28059.56
723.016	28008.26
723.359	27943.4
723.701	28044.64
724.044	27686.01
724.386	27577.99
724.729	27794.48
725.071	27739.34
725.413	27629.06
725.755	27639.23
726.097	27621.15
726.439	27363.76
726.782	27437.65
727.124	27542.96
727.465	27428.39
727.807	27254.38
728.149	27200.6
728.491	27209.64
728.833	27286.92
729.175	27143.42
729.516	27003.54
729.858	27030.66
730.199	27132.13
730.541	27031.34
730.882	27050.09
731.224	27015.29
731.565	26869.31
731.906	26761.51
732.248	26765.58
732.589	26659.14
732.93	26687.62
733.271	26619.6
733.612	26614.63
733.953	26731.46
734.294	26570.11
734.635	26470.67
734.976	26569.65
735.317	26474.97
735.658	26416.21
735.999	26420.05
736.339	26316.55
736.68	26343.45
737.021	26228.87
737.361	26198.59
737.702	26333.73
738.042	26272.04
738.383	26152.04
738.723	26224.13
739.063	26131.47
739.404	26082.66
739.744	26054.19
740.084	25945.04
740.424	25974.19
740.764	25921.54
741.104	25996.79
741.444	25729
741.784	25778.49
742.124	25853.97
742.464	25700.98
742.804	25650.13
743.143	25679.96
743.483	25545.5
743.823	25552.51
744.162	25479.51
744.502	25476.8
744.841	25400.42
745.181	25566.97
745.52	25421.44
745.86	25460.98
746.199	25260.08
746.538	25302.34
746.877	25259.63
747.216	25214.21
747.556	25216.7
747.895	25123.82
748.234	25081.11
748.573	25091.95
748.911	24907.1
749.25	24926.08
749.589	24917.27
749.928	24856.71
750.267	24845.41
750.605	24763.6
750.944	24751.85
751.283	24745.52
751.621	24804.96
751.96	24529.03
752.298	24581.68
752.636	24622.81
752.975	24335.81
753.313	24341.92
753.651	24483.38
753.989	24286.1
754.327	24448.35
754.666	24231.86
755.004	24143.73
755.342	24099.89
755.679	24134.24
756.017	23983.96
756.355	24040.23
756.693	23983.06
757.031	23937.63
757.368	23892.89
757.706	23773.57
758.044	23724.53
758.381	23687.02
758.719	23573.58
759.056	23564.31
759.394	23455.16
759.731	23414.26
760.068	23336.29
