Data from hue_22_FLMS001491_00007.txt Node
Date: Tue Feb 07 17:09:25 GMT 2017
User: dcchb
Spectrometer: FLMS00149
Trigger mode: 0
Integration Time (sec): 2.000000E-2
Scans to average: 10
Electric dark correction enabled: true
Nonlinearity correction enabled: false
Boxcar width: 0
XAxis mode: Wavelengths
Number of Pixels in Spectrum: 2048
>>>>>Begin Spectral Data<<<<<
341.393	-32.17
341.776	-32.17
342.16	-32.17
342.543	-56.58
342.927	-69.46
343.31	-74.89
343.693	-68.78
344.077	-70.59
344.46	-61.1
344.843	-58.39
345.226	-51.16
345.61	-37.6
345.993	-28.33
346.376	2.63
346.759	14.6
347.142	27.94
347.525	30.42
347.908	81.5
348.291	78.78
348.674	82.62
349.057	132.34
349.44	108.61
349.823	158.1
350.206	177.76
350.588	193.36
350.971	208.72
351.354	246.01
351.737	234.49
352.119	251.21
352.502	271.32
352.884	293.47
353.267	275.16
353.65	286.01
354.032	312.22
354.414	303.41
354.797	312.68
355.179	310.19
355.562	318.32
355.944	320.58
356.326	324.43
356.709	326.91
357.091	316.97
357.473	341.83
357.855	346.12
358.238	325.78
358.62	343.64
359.002	346.35
359.384	351.54
359.766	345.22
360.148	335.73
360.53	317.2
360.912	336.18
361.294	335.95
361.676	356.52
362.057	331.43
362.439	321.04
362.821	318.78
363.203	313.58
363.584	329.17
363.966	337.99
364.348	312
364.729	326.46
365.111	310.87
365.493	322.17
365.874	317.87
366.256	336.86
366.637	317.87
367.019	320.36
367.4	342.28
367.781	346.57
368.163	312.45
368.544	309.74
368.925	313.58
369.306	322.62
369.688	310.64
370.069	335.27
370.45	301.6
370.831	310.42
371.212	321.49
371.593	306.57
371.974	330.3
372.355	326.01
372.736	310.64
373.117	314.03
373.498	312.68
373.879	310.19
374.26	328.95
374.641	328.27
375.021	323.75
375.402	326.91
375.783	309.51
376.163	347.25
376.544	338.21
376.925	307.7
377.305	323.07
377.686	337.31
378.066	331.66
378.447	338.89
378.827	312
379.208	327.82
379.588	329.17
379.968	313.58
380.349	323.07
380.729	329.85
381.109	323.07
381.489	324.88
381.87	345.44
382.25	337.53
382.63	357.42
383.01	321.49
383.39	324.88
383.77	319.68
384.15	330.08
384.53	339.79
384.91	350.64
385.29	365.1
385.67	334.6
386.049	363.75
386.429	353.35
386.809	339.79
387.189	344.76
387.568	337.76
387.948	354.93
388.328	340.47
388.707	351.77
389.087	359
389.466	356.06
389.846	355.16
390.225	369.4
390.605	357.87
390.984	347.02
391.363	344.76
391.743	343.41
392.122	361.26
392.501	366.01
392.881	359.23
393.26	382.05
393.639	375.27
394.018	362.62
394.397	365.1
394.776	393.13
395.155	396.51
395.534	354.71
395.913	388.83
396.292	393.8
396.671	365.78
397.05	399.45
397.429	375.5
397.808	372.11
398.186	379.79
398.565	378.66
398.944	381.83
399.323	372.33
399.701	406.01
400.08	382.28
400.458	383.41
400.837	403.07
401.215	418.44
401.594	395.39
401.972	392
402.351	415.95
402.729	394.26
403.107	411.43
403.486	417.53
403.864	405.33
404.242	406.46
404.62	433.8
404.999	406.91
405.377	406.46
405.755	396.97
406.133	426.12
406.511	412.79
406.889	405.33
407.267	425.89
407.645	431.77
408.023	440.81
408.401	440.13
408.779	443.52
409.156	426.34
409.534	430.64
409.912	427.7
410.29	464.31
410.667	437.19
411.045	440.36
411.422	440.13
411.8	438.1
412.178	453.46
412.555	459.11
412.933	459.56
413.31	451.65
413.687	449.17
414.065	476.06
414.442	470.64
414.819	447.81
415.197	501.37
415.574	462.95
415.951	501.6
416.328	485.1
416.705	486
417.082	487.59
417.46	493.01
417.837	482.61
418.214	515.16
418.591	497.08
418.967	508.15
419.344	511.09
419.721	477.87
420.098	492.56
420.475	515.16
420.852	540.92
421.228	503.18
421.605	518.77
421.982	516.96
422.358	549.28
422.735	541.37
423.111	510.64
423.488	536.4
423.864	522.84
424.241	540.01
424.617	518.77
424.994	549.51
425.37	539.11
425.746	541.6
426.123	551.54
426.499	528.26
426.875	541.82
427.251	562.39
427.627	581.14
428.003	574.59
428.379	560.58
428.756	601.93
429.132	561.03
429.507	559.22
429.883	592.44
430.259	591.99
430.635	587.47
431.011	609.62
431.387	602.84
431.763	600.35
432.138	642.61
432.514	629.5
432.89	628.6
433.265	661.59
433.641	625.44
434.016	648.71
434.392	657.75
434.767	652.55
435.143	651.88
435.518	655.72
435.894	659.78
436.269	666.34
436.644	665.66
437.02	670.18
437.395	667.02
437.77	686.45
438.145	704.98
438.52	702.95
438.895	690.74
439.271	692.78
439.646	700.46
440.021	720.57
440.395	715.83
440.77	710.41
441.145	730.52
441.52	739.33
441.895	711.76
442.27	733.68
442.645	741.82
443.019	739.33
443.394	770.52
443.769	750.4
444.143	748.82
444.518	759.22
444.892	747.92
445.267	766.45
445.641	746.34
446.016	758.77
446.39	749.27
446.764	810.97
447.139	775.71
447.513	777.3
447.887	770.74
448.262	780.46
448.636	817.07
449.01	811.19
449.384	822.04
449.758	800.35
450.132	797.18
450.506	801.25
450.88	813.68
451.254	833.79
451.628	838.99
452.002	811.65
452.376	842.83
452.75	853.68
453.123	843.06
453.497	876.73
453.871	880.12
454.244	886.22
454.618	890.29
454.992	893.9
455.365	872.89
455.739	915.6
456.112	907.01
456.486	916.73
456.859	936.39
457.232	942.04
457.606	947.69
457.979	972.55
458.352	954.92
458.725	977.06
459.099	978.19
459.472	980.23
459.845	1000.34
460.218	1027.01
460.591	1020.91
460.964	1011.64
461.337	1034.24
461.71	1055.71
462.083	1064.07
462.456	1069.94
462.829	1059.77
463.201	1118.76
463.574	1078.98
463.947	1113.56
464.32	1132.09
464.692	1137.51
465.065	1145.65
465.438	1153.56
465.81	1176.61
466.183	1187.23
466.555	1215.48
466.928	1208.02
467.3	1211.41
467.672	1240.56
468.045	1238.98
468.417	1252.76
468.789	1264.51
469.161	1274.01
469.534	1297.06
469.906	1315.13
470.278	1326.89
470.65	1338.64
471.022	1360.33
471.394	1401.01
471.766	1375.25
472.138	1416.83
472.51	1446.43
472.882	1462.7
473.253	1460.67
473.625	1489.37
473.997	1535.92
474.369	1520.33
474.74	1533.89
475.112	1593.77
475.484	1629.93
475.855	1599.65
476.227	1679.19
476.598	1686.42
476.97	1712.41
477.341	1725.75
477.713	1793.77
478.084	1773.88
478.455	1876.48
478.827	1850.71
479.198	1904.95
479.569	1945.63
479.94	1988.56
480.311	1995.79
480.682	2061.1
481.053	2073.76
481.424	2098.84
481.795	2137.26
482.166	2190.14
482.537	2242.12
482.908	2245.96
483.279	2258.84
483.65	2309.23
484.021	2336.8
484.391	2411.6
484.762	2445.95
485.133	2500.87
485.503	2490.7
485.874	2526.63
486.244	2609.56
486.615	2627.42
486.985	2692.27
487.356	2730.24
487.726	2777.24
488.097	2819.28
488.467	2841.42
488.837	2862.89
489.207	2912.16
489.578	2996.45
489.948	2990.8
490.318	3056.78
490.688	3071.47
491.058	3102.43
491.428	3198.02
491.798	3203.22
492.168	3273.05
492.538	3311.92
492.908	3345.14
493.278	3368.41
493.648	3352.14
494.017	3425.14
494.387	3491.57
494.757	3516.88
495.126	3584.23
495.496	3566.38
495.866	3638.46
496.235	3668.52
496.605	3692.47
496.974	3741.96
497.344	3734.28
497.713	3758.46
498.082	3803.66
498.452	3867.84
498.821	3908.06
499.19	3859.25
499.559	3902.86
499.928	3947.61
500.298	4005.01
500.667	4029.64
501.036	4074.38
501.405	4087.94
501.774	4077.1
502.143	4121.84
502.512	4106.7
502.88	4178.56
503.249	4166.13
503.618	4207.49
503.987	4206.81
504.356	4236.87
504.724	4280.03
505.093	4294.49
505.462	4350.31
505.83	4361.83
506.199	4411.78
506.567	4428.95
506.936	4451.32
507.304	4480.7
507.672	4496.75
508.041	4540.13
508.409	4543.75
508.777	4575.39
509.145	4596.18
509.514	4660.81
509.882	4664.65
510.25	4666.91
510.618	4706.91
510.986	4695.16
511.354	4689.96
511.722	4783.97
512.09	4797.76
512.458	4830.75
512.826	4823.97
513.193	4835.49
513.561	4925.44
513.929	4850.41
514.297	4895.83
514.664	4937.64
515.032	4972.44
515.4	4978.54
515.767	5006.79
516.135	5043.62
516.502	5024.19
516.869	5098.09
517.237	5117.52
517.604	5066.45
517.972	5120.91
518.339	5153
518.706	5141.93
519.073	5179.21
519.44	5222.38
519.808	5261.47
520.175	5261.25
520.542	5312.54
520.909	5338.76
521.276	5327.91
521.643	5335.59
522.009	5394.35
522.376	5454.91
522.743	5454.24
523.11	5470.05
523.477	5501.24
523.843	5587.11
524.21	5628.92
524.577	5630.05
524.943	5661.24
525.31	5634.8
525.676	5714.79
526.043	5727.45
526.409	5759.54
526.776	5832.08
527.142	5792.31
527.508	5830.5
527.874	5908.69
528.241	5962.02
528.607	5988.23
528.973	6019.64
529.339	6036.14
529.705	6052.64
530.071	6101.9
530.437	6107.33
530.803	6143.71
531.169	6209.7
531.535	6196.59
531.901	6171.05
532.267	6210.6
532.632	6291.73
532.998	6289.47
533.364	6334.66
533.73	6292.41
534.095	6365.62
534.461	6435.9
534.826	6410.82
535.192	6464.15
535.557	6527.65
535.923	6523.81
536.288	6569.46
536.653	6582.79
537.019	6627.76
537.384	6613.98
537.749	6578.95
538.114	6640.64
538.479	6677.48
538.845	6703.69
539.21	6693.3
539.575	6745.73
539.94	6813.52
540.305	6792.05
540.67	6818.04
541.034	6866.63
541.399	6915.67
541.764	6914.31
542.129	6900.3
542.494	6969.68
542.858	7024.82
543.223	7013.97
543.587	7103.91
543.952	6999.96
544.316	7056.9
544.681	7093.51
545.045	7118.82
545.41	7147.07
545.774	7207.64
546.138	7235.21
546.503	7186.39
546.867	7248.54
547.231	7316.56
547.595	7333.51
547.959	7357.01
548.324	7404.69
548.688	7366.05
549.052	7418.7
549.416	7489.21
549.779	7439.27
550.143	7484.69
550.507	7522.2
550.871	7520.85
551.235	7590.45
551.599	7597.91
551.962	7659.37
552.326	7633.16
552.689	7710.9
553.053	7667.51
553.417	7733.72
553.78	7799.71
554.143	7857.56
554.507	7805.36
554.87	7865.25
555.234	7890.33
555.597	7859.37
555.96	7886.71
556.323	7978.91
556.686	7989.31
557.05	8007.16
557.413	8030.89
557.776	8012.36
558.139	8139.36
558.502	8144.79
558.865	8170.77
559.228	8165.58
559.59	8220.94
559.953	8236.31
560.316	8295.06
560.679	8269.08
561.041	8276.31
561.404	8377.32
561.767	8387.72
562.129	8391.78
562.492	8461.39
562.854	8450.77
563.217	8473.59
563.579	8547.26
563.941	8519.24
564.304	8561.5
564.666	8661.61
565.028	8629.52
565.39	8629.74
565.753	8682.17
566.115	8711.32
566.477	8766.24
566.839	8863.19
567.201	8862.06
567.563	8900.25
567.925	8903.64
568.287	8993.8
568.648	8903.86
569.01	9000.58
569.372	9027.02
569.734	9114.03
570.095	9123.97
570.457	9205.1
570.819	9157.41
571.18	9247.13
571.542	9323.06
571.903	9330.52
572.265	9382.95
572.626	9436.96
572.987	9429.72
573.349	9541.81
573.71	9555.14
574.071	9560.34
574.432	9599.21
574.794	9759.43
575.155	9681.69
575.516	9795.59
575.877	9850.73
576.238	9954.23
576.599	9970.73
576.96	10019.31
577.32	10055.92
577.681	10209.82
578.042	10269.02
578.403	10371.62
578.763	10429.02
579.124	10451.84
579.485	10613.87
579.845	10713.31
580.206	10787.65
580.566	10925.73
580.927	11011.83
581.287	11135.67
581.648	11248.66
582.008	11373.63
582.368	11489.33
582.728	11546.28
583.089	11793.28
583.449	11882.31
583.809	12054.29
584.169	12273.94
584.529	12360.95
584.889	12607.49
585.249	12750.77
585.609	12799.58
585.969	13134.26
586.329	13279.79
586.688	13511.42
587.048	13706.9
587.408	13929.04
587.768	14140.11
588.127	14279.77
588.487	14508.01
588.846	14848.56
589.206	14977.15
589.565	15239.97
589.925	15591.6
590.284	15776
590.643	16097.35
591.003	16349.99
591.362	16717.44
591.721	16912.46
592.08	17125.57
592.44	17535.27
592.799	17781.14
593.158	18081.7
593.517	18300.23
593.876	18678.97
594.235	18881.9
594.593	19284.83
594.952	19660.87
595.311	19698.61
595.67	20112.83
596.029	20584.46
596.387	20905.13
596.746	21212.69
597.104	21377.88
597.463	21712.11
597.822	22142.16
598.18	22305.54
598.538	22702.6
598.897	23116.14
599.255	23257.16
599.613	23858.04
599.972	23961.32
600.33	24436.56
600.688	24594.07
601.046	25021.4
601.404	25426.82
601.762	25562.86
602.12	26135.05
602.478	26294.14
602.836	26622.27
603.194	26806.89
603.552	27167.56
603.91	27229.26
604.268	27749.92
604.625	28022.91
604.983	28369.11
605.341	28521.43
605.698	28963.9
606.056	29288.86
606.413	29414.06
606.771	29887.04
607.128	30163.87
607.485	30270.98
607.843	30515.27
608.2	30896.5
608.557	31152.32
608.914	31288.36
609.272	31737.39
609.629	31979.87
609.986	32222.34
610.343	32348.44
610.7	32806.28
611.057	32828.2
611.414	33065.49
611.771	33392.94
612.127	33662.98
612.484	33814.39
612.841	34257.09
613.198	34253.93
613.554	34528.27
613.911	34815.72
614.267	34958.54
614.624	35173.91
614.98	35344.07
615.337	35598.98
615.693	35763.49
616.05	35844.85
616.406	36369.58
616.762	36295.68
617.118	36446.64
617.475	36487.54
617.831	36779.74
618.187	36970.24
618.543	37174.31
618.899	37518.7
619.255	37635.76
619.611	37639.6
619.967	37877.34
620.323	38097.44
620.678	38056.77
621.034	38046.15
621.39	38235.07
621.746	38323.88
622.101	38847.71
622.457	38566.81
622.812	38819.23
623.168	38980.59
623.523	39176.51
623.879	39277.98
624.234	39190.75
624.589	39408.37
624.945	39504.64
625.3	39668.93
625.655	39618.31
626.01	39727.46
626.365	39868.02
626.72	39833.9
627.075	39878.41
627.43	40010.39
627.785	40017.62
628.14	40264.85
628.495	40256.03
628.85	40369.25
629.205	40212.42
629.559	40593.2
629.914	40358.4
630.269	40525.4
630.623	40352.3
630.978	40437.27
631.332	40702.57
631.687	40719.3
632.041	40708.9
632.396	40863.02
632.75	40559.07
633.104	40724.27
633.459	40712.29
633.813	40759.97
634.167	40730.82
634.521	40684.95
634.875	40917.26
635.229	40863.93
635.583	40741.22
635.937	40788
636.291	40673.42
636.645	40746.41
636.999	40742.35
637.352	40877.48
637.706	40737.38
638.06	40900.76
638.413	40839.07
638.767	40738.51
639.121	40651.05
639.474	40640.2
639.828	40743.7
640.181	40698.05
640.534	40691.05
640.888	40588.68
641.241	40564.95
641.594	40663.93
641.947	40762.46
642.301	40797.26
642.654	40702.12
643.007	40765.17
643.36	40643.14
643.713	40561.11
644.066	40781.89
644.419	40666.19
644.771	40310.72
645.124	40015.36
645.477	39923.39
645.83	39752.77
646.182	39611.53
646.535	39541.25
646.888	39528.59
647.24	39408.14
647.593	39676.39
647.945	39632.32
648.298	39389.39
648.65	39388.71
649.002	39216.29
649.355	39435.26
649.707	39358.65
650.059	39686.56
650.411	39945.76
650.763	40062.14
651.115	40400.21
651.467	40260.1
651.819	40363.15
652.171	40150.27
652.523	40237.5
652.875	40169.71
653.227	40113.44
653.578	40479.53
653.93	40295.58
654.282	40242.7
654.633	40047.22
654.985	40203.15
655.337	40118.18
655.688	40174
656.039	40201.57
656.391	39981.46
656.742	40154.57
657.094	39943.5
657.445	40212.87
657.796	40244.96
658.147	40081.35
658.498	40110.72
658.849	40174.23
659.2	40025.76
659.551	39880.45
659.902	40030.95
660.253	39971.75
660.604	40003.84
660.955	39959.32
661.306	40028.02
661.656	39920
662.007	39928.36
662.358	40009.03
662.708	39832.77
663.059	39927.68
663.409	39706.67
663.76	40021.69
664.11	40075.92
664.461	39914.35
664.811	39974.46
665.161	40011.52
665.511	39950.96
665.862	39796.83
666.212	39905.76
666.562	40052.87
666.912	39928.36
667.262	39929.49
667.612	39790.06
667.962	39862.14
668.312	39776.04
668.662	39898.75
669.011	39762.71
669.361	39698.98
669.711	39763.62
670.06	39765.2
670.41	39699.21
670.76	39592.32
671.109	39890.84
671.459	39716.84
671.808	39633.22
672.157	39846.33
672.507	39475.26
672.856	39550.74
673.205	39586.67
673.554	39616.05
673.904	39583.51
674.253	39679.55
674.602	39626.9
674.951	39074.37
675.3	38876.41
675.649	39432.32
675.998	39369.95
676.346	39385.32
676.695	39524.3
677.044	39275.49
677.393	39473.23
677.741	39478.88
678.09	39316.17
678.438	39240.01
678.787	39200.24
679.135	39379.67
679.484	39062.62
679.832	39269.17
680.181	38974.03
680.529	39209.96
680.877	38911.66
681.225	39042.28
681.573	39135.84
681.922	38964.99
682.27	38837.76
682.618	38900.36
682.966	38710.76
683.314	38850.19
683.661	38719.8
684.009	38547.6
684.357	38354.39
684.705	38342.86
685.053	38475.51
685.4	38373.37
685.748	38228.51
686.095	38207.72
686.443	38055.64
686.79	37985.58
687.138	38083.66
687.485	38104
687.832	37986.94
688.18	38039.14
688.527	37781.07
688.874	37808.19
689.221	37667.17
689.568	37587.63
689.915	37630.34
690.262	37459.72
690.609	37500.62
690.956	37312.61
691.303	37283.68
691.65	37137.92
691.997	37200.29
692.344	36947.19
692.69	36791.94
693.037	36850.47
693.383	36698.16
693.73	36768.89
694.077	36444.61
694.423	36438.96
694.769	36445.74
695.116	36398.51
695.462	36267.89
695.808	36085.52
696.155	36204.39
696.501	36057.5
696.847	36058.63
697.193	35694.8
697.539	35798.52
697.885	35685.3
698.231	35492.99
698.577	35550.62
698.923	35473.11
699.269	35317.63
699.614	35146.79
699.96	35065.89
700.306	35082.16
700.651	34893.01
700.997	34741.15
701.342	34792.22
701.688	34640.36
702.033	34604.88
702.379	34512.45
702.724	34526.92
703.069	34516.75
703.415	34096.19
703.76	34180.03
704.105	34259.58
704.45	34036.31
704.795	33924.67
705.14	33958.34
705.485	33908.63
705.83	33677
706.175	33711.35
706.52	33705.47
706.865	33521.29
707.209	33422.99
707.554	33454.85
707.899	33491.46
708.243	33250.34
708.588	33097.58
708.932	32924.47
709.277	32990.69
709.621	32978.71
709.966	32673.41
710.31	32816.68
710.654	32603.8
710.998	32703.24
711.342	32638.83
711.687	32562.22
712.031	32462.56
712.375	32291.04
712.719	32391.61
713.063	32309.8
713.407	32350.7
713.75	32082.91
714.094	32207.2
714.438	32101.9
714.782	32068.22
715.125	31867.33
715.469	31985.97
715.812	31740.1
716.156	31771.06
716.499	31620.55
716.843	31643.6
717.186	31468.01
717.53	31638.18
717.873	31535.81
718.216	31488.13
718.559	31336.94
718.902	31155.93
719.246	31318.87
719.589	31079.1
719.932	31020.34
720.275	31066.89
720.617	30986.67
720.96	31006.11
721.303	30793.68
721.646	30921.14
721.989	30776.73
722.331	30826.9
722.674	30707.81
723.016	30715.27
723.359	30569.51
723.701	30691.09
724.044	30396.63
724.386	30364.99
724.729	30525.44
725.071	30367.03
725.413	30327.48
725.755	30252.45
726.097	30236.18
726.439	30040.03
726.782	30059.01
727.124	30143.08
727.465	30085.9
727.807	30014.27
728.149	30008.39
728.491	29800.49
728.833	29936.53
729.175	29882.07
729.516	29679.81
729.858	29720.04
730.199	29779.92
730.541	29621.28
730.882	29606.14
731.224	29744.22
731.565	29475.3
731.906	29402.76
732.248	29475.98
732.589	29301.97
732.93	29260.61
733.271	29284.57
733.612	29322.31
733.953	29253.38
734.294	29068.08
734.635	29065.37
734.976	29142.88
735.317	29004.8
735.658	28987.18
735.999	28977.01
736.339	28926.61
736.68	29063.33
737.021	28904.01
737.361	28814.07
737.702	28943.79
738.042	28812.94
738.383	28783.34
738.723	28822.21
739.063	28589.45
739.404	28713.74
739.744	28657.01
740.084	28577.02
740.424	28525.04
740.764	28459.96
741.104	28601.65
741.444	28343.12
741.784	28367.08
742.124	28307.65
742.464	28345.61
742.804	28287.99
743.143	28146.07
743.483	28196.69
743.823	27942.23
744.162	28070.82
744.502	28108.78
744.841	27868.56
745.181	27988.11
745.52	27832.18
745.86	28062.91
746.199	27827.43
746.538	27923.93
746.877	27927.77
747.216	27873.31
747.556	27738.17
747.895	27766.19
748.234	27616.36
748.573	27641
748.911	27725.51
749.25	27628.34
749.589	27472.41
749.928	27591.73
750.267	27590.15
750.605	27588.57
750.944	27263.15
751.283	27322.59
751.621	27363.94
751.96	27280.33
752.298	27248.46
752.636	27144.96
752.975	27070.84
753.313	27059.99
753.651	27056.6
753.989	26985.42
754.327	26881.47
754.666	26719.89
755.004	26828.59
755.342	26808.93
755.679	26652.55
756.017	26578.2
756.355	26602.15
756.693	26517.86
757.031	26676.73
757.368	26376.62
757.706	26376.4
758.044	26222.5
758.381	26292.11
758.719	26203.97
759.056	26171.43
759.394	26154.26
759.731	25921.95
760.068	25882.85
760.405	25820.48
760.743	25840.59
