Data from hue_36_FLMS001491_00085.txt Node
Date: Tue Feb 07 17:30:25 GMT 2017
User: dcchb
Spectrometer: FLMS00149
Trigger mode: 0
Integration Time (sec): 2.000000E-2
Scans to average: 10
Electric dark correction enabled: true
Nonlinearity correction enabled: false
Boxcar width: 0
XAxis mode: Wavelengths
Number of Pixels in Spectrum: 2048
>>>>>Begin Spectral Data<<<<<
341.393	-36.82
341.776	-36.82
342.16	-36.82
342.543	-63.04
342.927	-66.88
343.31	-69.81
343.693	-77.27
344.077	-53.32
344.46	-69.36
344.843	-59.65
345.226	-57.16
345.61	-40.89
345.993	-8.57
346.376	-2.02
346.759	35.04
347.142	33.46
347.525	39.56
347.908	43.18
348.291	81.82
348.674	96.96
349.057	108.03
349.44	127.92
349.823	137.86
350.206	142.16
350.588	190.97
350.971	210.63
351.354	230.29
351.737	246.56
352.119	251.98
352.502	247.24
352.884	260.35
353.267	292.89
353.65	292.21
354.032	284.75
354.414	269.84
354.797	310.51
355.179	309.61
355.562	310.06
355.944	338.99
356.326	317.29
356.709	322.27
357.091	317.29
357.473	333.34
357.855	311.87
358.238	341.47
358.62	326.56
359.002	327.46
359.384	339.44
359.766	343.51
360.148	351.64
360.53	344.64
360.912	328.82
361.294	331.98
361.676	314.81
362.057	334.69
362.439	325.43
362.821	330.85
363.203	307.58
363.584	324.07
363.966	334.02
364.348	305.99
364.729	308.25
365.111	293.34
365.493	318.2
365.874	302.15
366.256	309.61
366.637	316.62
367.019	312.32
367.4	305.32
367.781	294.02
368.163	311.64
368.544	317.52
368.925	324.3
369.306	296.28
369.688	303.51
370.069	310.06
370.45	321.36
370.831	336.05
371.212	308.03
371.593	302.38
371.974	310.06
372.355	304.19
372.736	309.84
373.117	311.42
373.498	324.07
373.879	321.81
374.26	307.58
374.641	320.46
375.021	307.58
375.402	316.62
375.783	318.42
376.163	324.98
376.544	312.55
376.925	312.32
377.305	332.66
377.686	327.24
378.066	308.71
378.447	318.88
378.827	322.94
379.208	315.49
379.588	330.17
379.968	316.84
380.349	322.04
380.729	316.62
381.109	333.34
381.489	325.43
381.87	313.23
382.25	334.69
382.63	336.05
383.01	336.73
383.39	323.85
383.77	323.62
384.15	326.11
384.53	348.71
384.91	350.29
385.29	356.39
385.67	340.8
386.049	336.5
386.429	325.88
386.809	340.57
387.189	343.73
387.568	354.36
387.948	322.72
388.328	366.78
388.707	357.29
389.087	356.61
389.466	342.83
389.846	351.87
390.225	364.07
390.605	352.55
390.984	368.14
391.363	346.67
391.743	352.1
392.122	346.9
392.501	385.31
392.881	343.06
393.26	366.56
393.639	341.25
394.018	369.5
394.397	349.16
394.776	389.38
395.155	366.33
395.534	346.67
395.913	369.72
396.292	388.48
396.671	370.63
397.05	392.09
397.429	373.79
397.808	372.43
398.186	365.2
398.565	372.21
398.944	384.41
399.323	369.27
399.701	368.59
400.08	376.5
400.458	376.95
400.837	380.34
401.215	390.06
401.594	370.4
401.972	369.04
402.351	402.04
402.729	391.19
403.107	401.59
403.486	391.87
403.864	386.67
404.242	391.64
404.62	393.22
404.999	408.14
405.377	402.94
405.755	401.13
406.133	399.55
406.511	409.27
406.889	415.14
407.267	424.64
407.645	434.35
408.023	404.98
408.401	436.84
408.779	421.25
409.156	425.77
409.534	427.12
409.912	438.19
410.29	419.89
410.667	429.16
411.045	428.03
411.422	440.68
411.8	447.69
412.178	451.08
412.555	444.75
412.933	448.82
413.31	459.89
413.687	455.6
414.065	428.7
414.442	451.53
414.819	477.74
415.197	470.51
415.574	463.96
415.951	460.34
416.328	456.73
416.705	459.66
417.082	480
417.46	492.66
417.837	503.73
418.214	469.38
418.591	493.11
418.967	488.81
419.344	491.53
419.721	484.97
420.098	489.94
420.475	498.53
420.852	457.4
421.228	481.13
421.605	506.89
421.982	496.27
422.358	502.37
422.735	512.32
423.111	514.8
423.488	515.03
423.864	511.41
424.241	538.08
424.617	554.35
424.994	514.58
425.37	527.68
425.746	526.33
426.123	523.16
426.499	520
426.875	522.03
427.251	545.08
427.627	541.02
428.003	533.33
428.379	568.36
428.756	544.86
429.132	564.07
429.507	552.09
429.883	564.29
430.259	577.63
430.635	581.69
431.011	584.86
431.387	577.17
431.763	587.57
432.138	602.94
432.514	609.49
432.89	595.25
433.265	625.53
433.641	634.12
434.016	624.18
434.392	621.01
434.767	637.29
435.143	632.54
435.518	647
435.894	639.77
436.269	640.9
436.644	639.32
437.02	647.91
437.395	640
437.77	677.06
438.145	649.49
438.52	672.09
438.895	699.88
439.271	672.76
439.646	670.28
440.021	671.63
440.395	697.4
440.77	699.88
441.145	705.98
441.52	676.15
441.895	687.23
442.27	698.75
442.645	716.83
443.019	700.56
443.394	728.81
443.769	735.14
444.143	713.89
444.518	713.44
444.892	746.21
445.267	745.31
445.641	710.5
446.016	747.79
446.39	746.89
446.764	720
447.139	759.99
447.513	763.61
447.887	751.63
448.262	747.34
448.636	769.94
449.01	778.98
449.384	762.93
449.758	770.62
450.132	761.12
450.506	804.06
450.88	786.89
451.254	796.15
451.628	806.55
452.002	808.35
452.376	821.46
452.75	812.65
453.123	828.69
453.497	827.34
453.871	830.05
454.244	851.74
454.618	849.48
454.992	847.45
455.365	872.31
455.739	878.64
456.112	883.15
456.486	904.4
456.859	905.75
457.232	919.99
457.606	937.62
457.979	924.96
458.352	951.18
458.725	964.06
459.099	964.96
459.472	972.87
459.845	976.94
460.218	948.92
460.591	985.75
460.964	985.98
461.337	1021.46
461.71	1024.17
462.083	1048.8
462.456	1039.99
462.829	1026.88
463.201	1075.01
463.574	1071.85
463.947	1066.43
464.32	1109.14
464.692	1078.4
465.065	1091.96
465.438	1126.09
465.81	1148.68
466.183	1176.25
466.555	1185.07
466.928	1189.36
467.3	1174.9
467.672	1201.79
468.045	1228.23
468.417	1243.6
468.789	1287.44
469.161	1265.97
469.534	1301.9
469.906	1320.21
470.278	1332.86
470.65	1365.4
471.022	1396.59
471.394	1416.02
471.766	1415.34
472.138	1423.93
472.51	1495.79
472.882	1531.5
473.253	1491.73
473.625	1549.58
473.997	1583.02
474.369	1611.5
474.74	1630.03
475.112	1675
475.484	1716.13
475.855	1713.87
476.227	1802
476.598	1849.91
476.97	1853.3
477.341	1901.21
477.713	1952.96
478.084	1975.78
478.455	2088.09
478.827	2054.88
479.198	2101.2
479.569	2164.03
479.94	2244.25
480.311	2299.39
480.682	2312.95
481.053	2403.57
481.424	2486.73
481.795	2521.53
482.166	2568.53
482.537	2662.54
482.908	2733.05
483.279	2814.63
483.65	2838.58
484.021	2928.98
484.391	3035.41
484.762	3057.56
485.133	3157.67
485.503	3202.42
485.874	3291.23
486.244	3374.84
486.615	3494.84
486.985	3557.66
487.356	3620.03
487.726	3737.32
488.097	3792.46
488.467	3887.6
488.837	3986.12
489.207	4053.47
489.578	4179.57
489.948	4225.67
490.318	4349.28
490.688	4401.25
491.058	4558.09
491.428	4623.85
491.798	4693
492.168	4793.33
492.538	4928.47
492.908	5007.11
493.278	5093.67
493.648	5144.96
494.017	5252.31
494.387	5380.89
494.757	5416.37
495.126	5558.06
495.496	5577.49
495.866	5666.98
496.235	5774.1
496.605	5875.11
496.974	5965.73
497.344	6086.41
497.713	6121.89
498.082	6225.84
498.452	6259.51
498.821	6333.63
499.19	6419.05
499.559	6560.07
499.928	6570.46
500.298	6622.89
500.667	6761.87
501.036	6770.46
501.405	6844.35
501.774	6931.36
502.143	7008.87
502.512	7093.39
502.88	7148.07
503.249	7212.71
503.618	7294.29
503.987	7304.91
504.356	7432.14
504.724	7441.4
505.093	7513.04
505.462	7604.79
505.83	7673.94
506.199	7780.83
506.567	7827.15
506.936	7872.58
507.304	7957.09
507.672	8062.18
508.041	8102.4
508.409	8193.25
508.777	8236.86
509.145	8294.26
509.514	8311.21
509.882	8430.07
510.25	8394.14
510.618	8517.76
510.986	8581.71
511.354	8661.93
511.722	8685.21
512.09	8815.15
512.458	8820.35
512.826	8856.96
513.193	8870.52
513.561	8985.99
513.929	9062.6
514.297	9185.54
514.664	9210.17
515.032	9263.73
515.4	9318.19
515.767	9282.03
516.135	9378.98
516.502	9371.29
516.869	9551.63
517.237	9577.84
517.604	9634.56
517.972	9769.47
518.339	9707.78
518.706	9709.14
519.073	9828.68
519.44	9858.51
519.808	10045.17
520.175	9936.7
520.542	10129.24
520.909	10115.91
521.276	10155.91
521.643	10253.08
522.009	10290.37
522.376	10441.32
522.743	10490.59
523.11	10561.09
523.477	10663.46
523.843	10736
524.21	10736.45
524.577	10837.92
524.943	10848.77
525.31	10933.06
525.676	11001.08
526.043	11125.6
526.409	11196.78
526.776	11195.65
527.142	11313.61
527.508	11297.12
527.874	11437.68
528.241	11421.63
528.607	11498.92
528.973	11685.81
529.339	11601.07
529.705	11719.48
530.071	11909.76
530.437	11909.53
530.803	11965.58
531.169	12100.03
531.535	11993.6
531.901	12093.26
532.267	12148.85
532.632	12217.55
532.998	12262.97
533.364	12347.26
533.73	12346.36
534.095	12563.53
534.461	12574.37
534.826	12587.03
535.192	12673.13
535.557	12749.51
535.923	12676.52
536.288	12775.72
536.653	12808.49
537.019	12819.56
537.384	12930.75
537.749	13020.69
538.114	13014.14
538.479	13079.67
538.845	13139.78
539.21	13140.01
539.575	13201.47
539.94	13243.73
540.305	13329.38
540.67	13325.54
541.034	13379.78
541.399	13492.54
541.764	13473.56
542.129	13604.18
542.494	13641.01
542.858	13628.36
543.223	13696.6
543.587	13771.63
543.952	13726.21
544.316	13835.13
544.681	13935.69
545.045	13981.34
545.41	14004.17
545.774	14012.53
546.138	14051.4
546.503	14164.84
546.867	14254.33
547.231	14303.59
547.595	14280.09
547.959	14372.97
548.324	14389.24
548.688	14431.95
549.052	14568.22
549.416	14530.25
549.779	14624.49
550.143	14619.97
550.507	14797.14
550.871	14787.2
551.235	14861.32
551.599	14926.18
551.962	14873.07
552.326	14898.83
552.689	15101.09
553.053	15053.86
553.417	15059.05
553.78	15205.04
554.143	15073.52
554.507	15211.14
554.87	15283.68
555.234	15342.89
555.597	15370.01
555.96	15468.76
556.323	15556.44
556.686	15478.48
557.05	15655.2
557.413	15624.46
557.776	15735.19
558.139	15843.89
558.502	15917.56
558.865	15911.91
559.228	16005.47
559.59	16008.86
559.953	16075.52
560.316	16184.45
560.679	16253.6
561.041	16276.65
561.404	16395.29
561.767	16461.05
562.129	16426.02
562.492	16587.83
562.854	16555.06
563.217	16508.96
563.579	16683.19
563.941	16690.42
564.304	16776.75
564.666	16820.36
565.028	17019.45
565.39	17004.99
565.753	17109.62
566.115	17085.89
566.477	17217.41
566.839	17239.33
567.201	17414.47
567.563	17477.97
567.925	17457.18
568.287	17611.75
568.648	17576.28
569.01	17661.92
569.372	17837.51
569.734	17683.62
570.095	17890.39
570.457	17909.15
570.819	17996.83
571.18	17959.09
571.542	18142.36
571.903	18265.52
572.265	18316.14
572.626	18422.81
572.987	18370.6
573.349	18421.68
573.71	18580.32
574.071	18682.46
574.432	18675.68
574.794	19042.68
575.155	18929.69
575.516	18999.51
575.877	19147.08
576.238	19163.13
576.599	19294.65
576.96	19380.3
577.32	19478.6
577.681	19621.87
578.042	19619.61
578.403	19815.31
578.763	19997.68
579.124	20131.46
579.485	20266.15
579.845	20443.54
580.206	20582.07
580.566	20700.71
580.927	20820.48
581.287	20919.01
581.648	21021.61
582.008	21244.2
582.368	21373.46
582.728	21613.46
583.089	21659.11
583.449	21896.16
583.809	22027.91
584.169	22169.15
584.529	22320.33
584.889	22708.12
585.249	22690.49
585.609	22929.58
585.969	23126.86
586.329	23386.97
586.688	23524.59
587.048	23629
587.408	23949.44
587.768	24044.35
588.127	24389.43
588.487	24409.99
588.846	24811.57
589.206	24936.99
589.565	25138.34
589.925	25480.25
590.284	25548.49
590.643	25780.35
591.003	26162.04
591.362	26379.66
591.721	26509.6
592.08	26670.73
592.44	27048.57
592.799	27291.05
593.158	27392.97
593.517	27516.58
593.876	27826.4
594.235	27960.41
594.593	28190.69
594.952	28461.64
595.311	28704.12
595.67	28962.87
596.029	29325.12
596.387	29439.69
596.746	29674.94
597.104	29768.95
597.463	29938.44
597.822	30241.25
598.18	30261.82
598.538	30482.15
598.897	30940.9
599.255	30759.88
599.613	31367.55
599.972	31467.44
600.33	31726.19
600.688	31705.85
601.046	31930.47
601.404	32309
601.762	32432.38
602.12	32864.01
602.478	32903.78
602.836	33087.28
603.194	32934.06
603.552	33293.38
603.91	33362.98
604.268	33496.31
604.625	33751.22
604.983	33951.66
605.341	33988.05
605.698	34209.74
606.056	34517.3
606.413	34530.18
606.771	34743.96
607.128	34931.53
607.485	34866.44
607.843	35084.29
608.2	35423.72
608.557	35624.16
608.914	35421.23
609.272	35848.34
609.629	35965.4
609.986	36176.46
610.343	36218.72
610.7	36552.73
611.057	36391.83
611.414	36516.12
611.771	36718.6
612.127	36956.33
612.484	37107.74
612.841	37269.77
613.198	37331.01
613.554	37333.5
613.911	37732.13
614.267	37641.28
614.624	37806.48
614.98	37912.46
615.337	38005.34
615.693	38158.11
616.05	38238.56
616.406	38523.52
616.762	38342.28
617.118	38537.53
617.475	38400.36
617.831	38713.12
618.187	38862.95
618.543	38803.29
618.899	39262.03
619.255	39148.82
619.611	39204.86
619.967	39284.86
620.323	39411.41
620.678	39453.21
621.034	39384.29
621.39	39344.74
621.746	39302.94
622.101	39871.28
622.457	39627.67
622.812	39798.29
623.168	39887.1
623.523	39995.8
623.879	40024.05
624.234	39891.62
624.589	40060.2
624.945	40126.64
625.3	40244.61
625.655	40421.78
626.01	40243.93
626.365	40333.64
626.72	40492.28
627.075	40358.95
627.43	40494.99
627.785	40318.28
628.14	40534.99
628.495	40523.02
628.85	40515.56
629.205	40344.94
629.559	40721.43
629.914	40426.3
630.269	40570.25
630.623	40461.78
630.978	40426.97
631.332	40682.11
631.687	40672.62
632.041	40636.23
632.396	40594.88
632.75	40525.05
633.104	40586.52
633.459	40463.13
633.813	40485.5
634.167	40411.15
634.521	40575.67
634.875	40634.2
635.229	40623.13
635.583	40507.88
635.937	40444.37
636.291	40438.72
636.645	40475.56
636.999	40446.18
637.352	40541.77
637.706	40273.98
638.06	40458.39
638.413	40417.71
638.767	40199.86
639.121	40397.37
639.474	40167.77
639.828	40290.03
640.181	40210.48
640.534	40224.27
640.888	40235.79
641.241	39996.48
641.594	40106.76
641.947	40194.21
642.301	40053.2
642.654	40188.34
643.007	40193.76
643.36	40122.8
643.713	40051.39
644.066	40228.11
644.419	39890.72
644.771	39819.08
645.124	39336.38
645.477	39361.24
645.83	39124.86
646.182	38966.9
646.535	38963.51
646.888	39060.23
647.24	38811.65
647.593	39067.69
647.945	38905.43
648.298	38871.31
648.65	38782.27
649.002	38672.67
649.355	38854.59
649.707	38670.64
650.059	39013.9
650.411	39464.06
650.763	39328.7
651.115	39842.58
651.467	39532.08
651.819	39731.4
652.171	39476.72
652.523	39421.8
652.875	39406.44
653.227	39171.19
653.578	39579.99
653.93	39450.95
654.282	39390.62
654.633	39319.66
654.985	39216.38
655.337	39405.76
655.688	39371.86
656.039	39420.45
656.391	39088.48
656.742	39215.25
657.094	39277.63
657.445	39514.91
657.796	39225.2
658.147	39246.67
658.498	39206.21
658.849	39380.9
659.2	39269.72
659.551	39164.63
659.902	39364.63
660.253	39147.91
660.604	39252.77
660.955	39010.51
661.306	39246.44
661.656	39248.02
662.007	39287.79
662.358	39047.12
662.708	39023.62
663.059	39031.53
663.409	38896.39
663.76	39205.99
664.11	39183.62
664.461	39182.49
664.811	39268.13
665.161	39249.38
665.511	39099.55
665.862	39023.39
666.212	39109.04
666.562	38997.63
666.912	39020.46
667.262	38986.56
667.612	39175.03
667.962	39001.25
668.312	39011.87
668.662	39215.93
669.011	39179.55
669.361	39005.32
669.711	39019.33
670.06	38911.99
670.41	38859.78
670.76	38936.39
671.109	38998.99
671.459	38902.72
671.808	38804.19
672.157	38898.88
672.507	38651.43
672.856	38725.1
673.205	38723.29
673.554	38870.63
673.904	38753.12
674.253	38948.82
674.602	38828.6
674.951	38222.74
675.3	38203.53
675.649	38658.66
675.998	38624.54
676.346	38684.42
676.695	38790.63
677.044	38480.13
677.393	38538.21
677.741	38564.88
678.09	38426.12
678.438	38544.76
678.787	38489.62
679.135	38526.91
679.484	38322.4
679.832	38547.93
680.181	38242.62
680.529	38348.38
680.877	38180.93
681.225	38141.38
681.573	38302.74
681.922	38162.17
682.27	38118.33
682.618	38034.49
682.966	37861.17
683.314	38010.77
683.661	37838.57
684.009	37696.2
684.357	37738.23
684.705	37491.23
685.053	37714.95
685.4	37624.56
685.748	37482.64
686.095	37414.4
686.443	37421.63
686.79	37173.73
687.138	37310.67
687.485	37305.25
687.832	37165.59
688.18	37212.37
688.527	37066.16
688.874	37070.23
689.221	36929.21
689.568	36757.24
689.915	36787.3
690.262	36797.01
690.609	36651.25
690.956	36599.73
691.303	36460.75
691.65	36268.89
691.997	36442.9
692.344	36120.42
692.69	36197.71
693.037	36180.98
693.383	35826.42
693.73	36088.1
694.077	35847.66
694.423	35766.98
694.769	35716.36
695.116	35540.55
695.462	35587.78
695.808	35417.61
696.155	35542.13
696.501	35266.43
696.847	35268.47
697.193	35185.76
697.539	35199.09
697.885	34849.04
698.231	34769.5
698.577	34838.42
698.923	34695.6
699.269	34432.1
699.614	34410.86
699.96	34345.78
700.306	34332.9
700.651	34241.15
700.997	34100.59
701.342	33996.18
701.688	34117.31
702.033	33895.39
702.379	33847.94
702.724	33672.12
703.069	33888.61
703.415	33450.89
703.76	33501.73
704.105	33525.01
704.45	33444.11
704.795	33239.14
705.14	33260.61
705.485	32982.2
705.83	33038.24
706.175	33042.76
706.52	32966.6
706.865	32853.61
707.209	32843.44
707.554	32659.95
707.899	32776.33
708.243	32543.57
708.588	32548.99
708.932	32396
709.277	32312.84
709.621	32429.9
709.966	32128.43
710.31	32212.95
710.654	31864.49
710.998	31910.81
711.342	31991.04
711.687	31868.33
712.031	31644.83
712.375	31652.06
712.719	31770.03
713.063	31582.01
713.407	31690.71
713.75	31415.69
714.094	31509.47
714.438	31349.92
714.782	31289.59
715.125	31204.84
715.469	31211.85
715.812	31042.14
716.156	31010.95
716.499	31008.69
716.843	31047.11
717.186	30880.33
717.53	30886.89
717.873	30952.42
718.216	30788.81
718.559	30599.66
718.902	30502.26
719.246	30597.4
719.589	30451.87
719.932	30378.42
720.275	30300.01
720.617	30218.88
720.96	30234.93
721.303	30144.31
721.646	30294.13
721.989	30012.78
722.331	30084.65
722.674	30127.58
723.016	30019.34
723.359	29991.77
723.701	29987.93
724.044	29790.64
724.386	29682.4
724.729	29947.25
725.071	29668.61
725.413	29796.52
725.755	29698.89
726.097	29489.18
726.439	29440.14
726.782	29422.74
727.124	29577.99
727.465	29385.46
727.807	29322.63
728.149	29312.92
728.491	29328.28
728.833	29392.01
729.175	29069.76
729.516	29143.88
729.858	29004
730.199	29089.64
730.541	29067.05
730.882	28969.42
731.224	29114.73
731.565	28839.03
731.906	28711.35
732.248	28868.41
732.589	28607.62
732.93	28655.76
733.271	28661.63
733.612	28693.95
733.953	28580.73
734.294	28572.82
734.635	28451.92
734.976	28552.48
735.317	28356.56
735.658	28293.73
735.999	28472.26
736.339	28233.62
736.68	28382.09
737.021	28125.83
737.361	28105.72
737.702	28267.75
738.042	28088.32
738.383	28043.34
738.723	28221.87
739.063	27999.05
739.404	28106.39
739.744	28096
740.084	27853.75
740.424	27886.29
740.764	27866.17
741.104	28073.85
741.444	27830.69
741.784	27659.17
742.124	27776.23
742.464	27679.96
742.804	27648.33
743.143	27677.93
743.483	27666.86
743.823	27396.81
744.162	27387.09
744.502	27462.57
744.841	27338.05
745.181	27355.68
745.52	27305.96
745.86	27330.37
746.199	27276.36
746.538	27236.13
746.877	27184.61
747.216	27276.36
747.556	27079.3
747.895	26974.22
748.234	26973.99
748.573	27029.36
748.911	26968.34
749.25	26811.51
749.589	26787.78
749.928	26850.61
750.267	26758.63
750.605	26694.23
750.944	26721.12
751.283	26456.95
751.621	26613.78
751.96	26466.66
752.298	26483.84
752.636	26463.27
752.975	26432.09
753.313	26261.92
753.651	26371.52
753.989	26160
754.327	26095.83
754.666	26129.04
755.004	26230.28
755.342	26230.06
755.679	26098.76
756.017	25838.66
756.355	26025.54
756.693	25845.89
757.031	25860.35
757.368	25636.18
757.706	25728.6
