Data from hue_34_FLMS001491_00056.txt Node
Date: Tue Feb 07 17:25:50 GMT 2017
User: dcchb
Spectrometer: FLMS00149
Trigger mode: 0
Integration Time (sec): 2.000000E-2
Scans to average: 10
Electric dark correction enabled: true
Nonlinearity correction enabled: false
Boxcar width: 0
XAxis mode: Wavelengths
Number of Pixels in Spectrum: 2048
>>>>>Begin Spectral Data<<<<<
341.393	-10.18
341.776	-10.18
342.16	-10.18
342.543	-70.52
342.927	-50.63
343.31	-60.8
343.693	-83.63
344.077	-54.7
344.46	-54.02
344.843	-36.17
345.226	-53.57
345.61	-33.01
345.993	-37.75
346.376	1.57
346.759	2.25
347.142	33.66
347.525	31.85
347.908	57.39
348.291	70.04
348.674	105.29
349.057	111.62
349.44	114.79
349.823	144.39
350.206	169.02
350.588	211.28
350.971	223.03
351.354	250.83
351.737	225.52
352.119	258.51
352.502	264.39
352.884	280.2
353.267	275.23
353.65	285.85
354.032	297.15
354.414	309.81
354.797	307.32
355.179	330.37
355.562	310.03
355.944	328.11
356.326	319.98
356.709	334.67
357.091	322.46
357.473	350.71
357.855	365.17
358.238	336.47
358.62	346.64
359.002	344.61
359.384	357.94
359.766	334.89
360.148	353.2
360.53	324.72
360.912	335.8
361.294	363.82
361.676	337.6
362.057	334.21
362.439	339.64
362.821	337.83
363.203	325.18
363.584	311.62
363.966	334.21
364.348	341.22
364.729	321.79
365.111	332.41
365.493	322.01
365.874	309.58
366.256	311.62
366.637	293.76
367.019	302.8
367.4	321.56
367.781	323.37
368.163	320.43
368.544	325.4
368.925	330.6
369.306	335.34
369.688	291.73
370.069	320.66
370.45	331.05
370.831	319.75
371.212	311.16
371.593	321.33
371.974	317.27
372.355	336.7
372.736	327.89
373.117	328.79
373.498	311.84
373.879	314.78
374.26	310.49
374.641	304.61
375.021	309.81
375.402	321.33
375.783	321.33
376.163	322.46
376.544	318.17
376.925	332.41
377.305	327.21
377.686	312.29
378.066	351.39
378.447	328.56
378.827	332.86
379.208	323.14
379.588	333.99
379.968	321.11
380.349	337.83
380.729	331.95
381.109	343.25
381.489	328.79
381.87	326.76
382.25	334.89
382.63	339.19
383.01	332.63
383.39	337.6
383.77	337.6
384.15	378.73
384.53	342.12
384.91	330.82
385.29	337.83
385.67	354.55
386.049	347.55
386.429	329.92
386.809	355.23
387.189	349.13
387.568	342.35
387.948	350.71
388.328	353.87
388.707	359.07
389.087	357.26
389.466	340.77
389.846	362.46
390.225	372.18
390.605	378.51
390.984	374.67
391.363	362.46
391.743	365.17
392.122	345.51
392.501	352.52
392.881	372.86
393.26	384.16
393.639	373.54
394.018	373.08
394.397	374.67
394.776	421.44
395.155	380.31
395.534	373.99
395.913	356.81
396.292	364.72
396.671	378.51
397.05	405.85
397.429	370.82
397.808	350.71
398.186	378.96
398.565	388.22
398.944	386.19
399.323	375.57
399.701	392.97
400.08	393.87
400.458	413.31
400.837	395.91
401.215	408.56
401.594	401.11
401.972	412.4
402.351	404.72
402.729	417.6
403.107	420.77
403.486	408.56
403.864	416.02
404.242	402.24
404.62	408.34
404.999	388.22
405.377	410.14
405.755	416.92
406.133	419.18
406.511	427.32
406.889	427.77
407.267	426.42
407.645	407.43
408.023	422.8
408.401	427.09
408.779	445.85
409.156	429.13
409.534	444.49
409.912	439.75
410.29	472.97
410.667	436.81
411.045	451.73
411.422	458.96
411.8	450.82
412.178	455.34
412.555	465.96
412.933	477.04
413.31	472.52
413.687	458.96
414.065	478.62
414.442	465.74
414.819	455.57
415.197	479.07
415.574	494.89
415.951	499.41
416.328	485.4
416.705	495.57
417.082	471.84
417.46	505.28
417.837	496.47
418.214	503.7
418.591	516.58
418.967	503.48
419.344	523.59
419.721	508.9
420.098	515.68
420.475	520.2
420.852	519.97
421.228	520.65
421.605	523.36
421.982	556.13
422.358	524.94
422.735	528.33
423.111	527.2
423.488	545.51
423.864	531.27
424.241	558.62
424.617	550.93
424.994	573.3
425.37	560.88
425.746	548.22
426.123	569.91
426.499	561.1
426.875	598.84
427.251	575.56
427.627	602.91
428.003	599.29
428.379	601.1
428.756	580.08
429.132	612.63
429.507	597.48
429.883	624.15
430.259	626.86
430.635	604.49
431.011	625.51
431.387	619.63
431.763	646.07
432.138	612.17
432.514	636.13
432.89	635
433.265	656.24
433.641	663.02
434.016	648.56
434.392	673.19
434.767	660.99
435.143	685.62
435.518	691.27
435.894	715.67
436.269	690.14
436.644	687.65
437.02	708.44
437.395	708.89
437.77	715.45
438.145	717.48
438.52	726.97
438.895	700.76
439.271	727.2
439.646	761.55
440.021	743.92
440.395	733.75
440.77	749.57
441.145	773.52
441.52	757.71
441.895	777.59
442.27	787.31
442.645	795.67
443.019	757.25
443.394	772.85
443.769	780.08
444.143	769.23
444.518	774.65
444.892	782.34
445.267	800.42
445.641	792.06
446.016	818.72
446.39	821.21
446.764	846.52
447.139	811.94
447.513	830.47
447.887	807.87
448.262	836.35
448.636	838.61
449.01	839.96
449.384	858.49
449.758	875.9
450.132	841.09
450.506	866.63
450.88	860.08
451.254	866.86
451.628	878.61
452.002	861.66
452.376	878.83
452.75	879.06
453.123	912.05
453.497	919.74
453.871	920.41
454.244	945.27
454.618	931.03
454.992	921.32
455.365	952.73
455.739	973.75
456.112	972.39
456.486	994.76
456.859	1004.71
457.232	986.63
457.606	983.01
457.979	1025.72
458.352	1049.68
458.725	1037.7
459.099	1060.3
459.472	1087.41
459.845	1084.48
460.218	1064.59
460.591	1075.89
460.964	1091.48
461.337	1138.71
461.71	1145.49
462.083	1165.38
462.456	1161.76
462.829	1151.59
463.201	1179.62
463.574	1207.41
463.947	1186.62
464.32	1228.43
464.692	1234.76
465.065	1245.38
465.438	1261.2
465.81	1301.19
466.183	1279.27
466.555	1310.46
466.928	1337.35
467.3	1327.63
467.672	1365.6
468.045	1389.1
468.417	1387.75
468.789	1402.66
469.161	1404.92
469.534	1452.15
469.906	1493.28
470.278	1519.72
470.65	1527.63
471.022	1520.17
471.394	1571.7
471.766	1590.45
472.138	1601.53
472.51	1643.33
472.882	1653.95
473.253	1700.28
473.625	1710.45
473.997	1745.93
474.369	1777.11
474.74	1809.66
475.112	1873.38
475.484	1907.28
475.855	1941.63
476.227	1966.26
476.598	2036.99
476.97	2032.02
477.341	2115.18
477.713	2132.13
478.084	2189.08
478.455	2242.19
478.827	2272.02
479.198	2363.09
479.569	2381.84
479.94	2469.07
480.311	2483.99
480.682	2583.19
481.053	2664.1
481.424	2697.54
481.795	2761.72
482.166	2847.59
482.537	2874.94
482.908	2941.15
483.279	3017.31
483.65	3101.37
484.021	3180.92
484.391	3184.76
484.762	3327.36
485.133	3341.82
485.503	3415.72
485.874	3508.37
486.244	3614.13
486.615	3703.84
486.985	3770.96
487.356	3892.76
487.726	3918.53
488.097	4056.38
488.467	4093.66
488.837	4221.12
489.207	4282.13
489.578	4354.45
489.948	4461.79
490.318	4574.78
490.688	4577.72
491.058	4737.04
491.428	4831.27
491.798	4920.53
492.168	5060.87
492.538	5096.12
492.908	5185.39
493.278	5310.58
493.648	5386.96
494.017	5463.12
494.387	5495.66
494.757	5606.84
495.126	5662.21
495.496	5762.77
495.866	5797.8
496.235	6000.96
496.605	6003.22
496.974	6012.26
497.344	6139.71
497.713	6183.78
498.082	6291.12
498.452	6367.5
498.821	6383.09
499.19	6421.51
499.559	6605.69
499.928	6604.78
500.298	6708.28
500.667	6790.32
501.036	6792.58
501.405	6917.09
501.774	7024.21
502.143	7077.09
502.512	7098.33
502.88	7159.35
503.249	7254.26
503.618	7308.27
503.987	7348.72
504.356	7406.57
504.724	7454.25
505.093	7543.97
505.462	7513.91
505.83	7612.67
506.199	7723.62
506.567	7819.89
506.936	7781.48
507.304	7925.88
507.672	7948.7
508.041	8105.31
508.409	8118.87
508.777	8149.6
509.145	8242.71
509.514	8224.85
509.882	8352.08
510.25	8357.05
510.618	8401.12
510.986	8406.09
511.354	8474.79
511.722	8570.38
512.09	8684.05
512.458	8727.44
512.826	8724.73
513.193	8827.32
513.561	8843.82
513.929	8905.74
514.297	9004.72
514.664	9042.91
515.032	9027.77
515.4	9066.19
515.767	9099.86
516.135	9257.82
516.502	9151.38
516.869	9316.13
517.237	9377.37
517.604	9329.23
517.972	9412.62
518.339	9485.39
518.706	9534.65
519.073	9549.34
519.44	9615.78
519.808	9710.24
520.175	9656.68
520.542	9825.72
520.909	9863.46
521.276	9853.74
521.643	9981.87
522.009	9992.27
522.376	10032.04
522.743	10145.03
523.11	10220.73
523.477	10306.61
523.843	10424.12
524.21	10458.92
524.577	10477.68
524.943	10574.85
525.31	10695.98
525.676	10723.55
526.043	10740.27
526.409	10786.14
526.776	10940.49
527.142	10854.62
527.508	10993.82
527.874	11067.04
528.241	11138
528.607	11173.7
528.973	11260.71
529.339	11217.32
529.705	11312
530.071	11460.02
530.437	11483.75
530.803	11617.76
531.169	11598.55
531.535	11622.05
531.901	11684.88
532.267	11751.54
532.632	11856.17
532.998	11909.5
533.364	11903.18
533.73	11981.14
534.095	12025.43
534.461	12055.04
534.826	12173.23
535.192	12196.73
535.557	12353.33
535.923	12242.38
536.288	12341.36
536.653	12438.53
537.019	12392.65
537.384	12488.47
537.749	12566.89
538.114	12575.93
538.479	12528.7
538.845	12656.6
539.21	12697.28
539.575	12669.03
539.94	12789.03
540.305	12905.64
540.67	12838.07
541.034	12943.83
541.399	12986.09
541.764	13066.08
542.129	13061.56
542.494	13139.08
542.858	13169.81
543.223	13222.69
543.587	13320.77
543.952	13290.94
544.316	13387.2
544.681	13366.64
545.045	13429.01
545.41	13504.94
545.774	13622.68
546.138	13586.3
546.503	13680.98
546.867	13636.01
547.231	13797.36
547.595	13731.38
547.959	13877.14
548.324	13988.77
548.688	13847.76
549.052	14051.82
549.416	13967.08
549.779	14096.11
550.143	14105.6
550.507	14116.9
550.871	14286.84
551.235	14297.24
551.599	14393.73
551.962	14352.6
552.326	14380.62
552.689	14494.29
553.053	14501.98
553.417	14506.05
553.78	14741.07
554.143	14678.02
554.507	14757.79
554.87	14780.39
555.234	14864.68
555.597	14799.82
555.96	14872.59
556.323	14937.67
556.686	15007.73
557.05	15070.1
557.413	15154.84
557.776	15082.3
558.139	15241.17
558.502	15248.62
558.865	15234.39
559.228	15390.77
559.59	15470.54
559.953	15531.1
560.316	15652.68
560.679	15620.14
561.041	15776.07
561.404	15724.09
561.767	15849.06
562.129	15792.79
562.492	16041.15
562.854	15950.3
563.217	16003.63
563.579	15944.43
563.941	16014.93
564.304	16151.2
564.666	16181.26
565.028	16237.3
565.39	16328.37
565.753	16381.93
566.115	16430.97
566.477	16514.58
566.839	16506.9
567.201	16601.13
567.563	16709.6
567.925	16871.63
568.287	16828.24
568.648	16914.8
569.01	17028.69
569.372	17050.39
569.734	17110.72
570.095	17152.08
570.457	17182.58
570.819	17313.43
571.18	17371.51
571.542	17456.25
571.903	17501.45
572.265	17588.9
572.626	17577.83
572.987	17726.98
573.349	17707.54
573.71	17871.61
574.071	17938.72
574.432	17986.86
574.794	18259.17
575.155	18305.72
575.516	18263.69
575.877	18422.55
576.238	18504.13
576.599	18656.22
576.96	18789.77
577.32	18845.82
577.681	18902.31
578.042	19149.76
578.403	19154.96
578.763	19300.5
579.124	19372.36
579.485	19656.19
579.845	19856.64
580.206	19973.7
580.566	20036.52
580.927	20179.79
581.287	20344.54
581.648	20370.98
582.008	20681.25
582.368	20792.21
582.728	21049.6
583.089	21204.85
583.449	21297.28
583.809	21513.77
584.169	21687.55
584.529	21832.86
584.889	22191.72
585.249	22255.67
585.609	22494.99
585.969	22770.69
586.329	22949.44
586.688	23129.32
587.048	23301.29
587.408	23443.89
587.768	23769.53
588.127	23871.67
588.487	24153.25
588.846	24510.08
589.206	24516.18
589.565	24874.81
589.925	25148.03
590.284	25367.68
590.643	25563.83
591.003	25905.07
591.362	26148.68
591.721	26465.28
592.08	26748.66
592.44	27017.13
592.799	27095.77
593.158	27409.89
593.517	27719.48
593.876	27816.2
594.235	28140.26
594.593	28333.93
594.952	28635.62
595.311	28762.17
595.67	29145.66
596.029	29511.07
596.387	29785.19
596.746	29980.44
597.104	30034.9
597.463	30233.54
597.822	30614.1
598.18	30698.84
598.538	30897.48
598.897	31365.04
599.255	31268.77
599.613	31941.07
599.972	31774.74
600.33	32199.59
600.688	32244.11
601.046	32525.68
601.404	33000.25
601.762	33036.86
602.12	33449.95
602.478	33596.16
602.836	33674.58
603.194	33718.87
603.552	33920.9
603.91	34148.24
604.268	34473.88
604.625	34478.18
604.983	34886.3
605.341	34817.6
605.698	35210.81
606.056	35426.4
606.413	35456.68
606.771	35747.97
607.128	35910.45
607.485	35896.44
607.843	36042.2
608.2	36504.56
608.557	36679.02
608.914	36616.2
609.272	36851.22
609.629	37065.68
609.986	37371.66
610.343	37296.41
610.7	37716.96
611.057	37693.46
611.414	37780.01
611.771	37961.47
612.127	38260
612.484	38298.64
612.841	38629.03
613.198	38502.25
613.554	38805.29
613.911	38867.66
614.267	38892.52
614.624	39087.09
614.98	39353.08
615.337	39343.58
615.693	39484.15
616.05	39536.35
616.406	39873.97
616.762	39786.96
617.118	40023.34
617.475	39973.4
617.831	40185.82
618.187	40243.9
618.543	40258.36
618.899	40741.97
619.255	40558.47
619.611	40530.45
619.967	40741.74
620.323	40886.82
620.678	40912.81
621.034	40931.34
621.39	40998.23
621.746	41074.16
622.101	41416.98
622.457	41291.33
622.812	41331.78
623.168	41582.17
623.523	41440.48
623.879	41635.73
624.234	41541.72
624.589	41616.97
624.945	41865.78
625.3	41940.13
625.655	41869.39
626.01	41884.08
626.365	41904.65
626.72	41918.66
627.075	41858.32
627.43	41976.74
627.785	41901.03
628.14	42191.64
628.495	42250.63
628.85	42083.63
629.205	42021.71
629.559	42341.92
629.914	42109.84
630.269	42168.14
630.623	42232.1
630.978	42041.59
631.332	42293.11
631.687	42442.49
632.041	42240.46
632.396	42397.29
632.75	42351.87
633.104	42339.44
633.459	42182.61
633.813	42176.28
634.167	42215.15
634.521	42155.26
634.875	42235.26
635.229	42218.76
635.583	42111.42
635.937	42209.27
636.291	42229.84
636.645	42303.51
636.999	42053.57
637.352	42266.45
637.706	42001.59
638.06	42193.23
638.413	42056.28
638.767	42045.89
639.121	42180.35
639.474	41899.68
639.828	41915.27
640.181	41956.17
640.534	42037.07
640.888	41946.45
641.241	41662.62
641.594	41993.23
641.947	41960.01
642.301	41923.63
642.654	41972.89
643.007	41950.52
643.36	41857.42
643.713	41782.16
644.066	41992.78
644.419	41763.86
644.771	41543.53
645.124	41127.49
645.477	41012.24
645.83	40806.14
646.182	40710.78
646.535	40621.29
646.888	40744.45
647.24	40510.33
647.593	40795.3
647.945	40666.94
648.298	40455.42
648.65	40432.37
649.002	40337.23
649.355	40463.55
649.707	40541.29
650.059	40717.79
650.411	41182.63
650.763	41134.27
651.115	41628.5
651.467	41398.22
651.819	41326.13
652.171	41382.85
652.523	41324.55
652.875	41222.63
653.227	41094.95
653.578	41376.3
653.93	41228.28
654.282	41047.49
654.633	41041.84
654.985	40972.24
655.337	41223.76
655.688	41111.45
656.039	41318.45
656.391	40903.77
656.742	41040.49
657.094	40940.38
657.445	41160.94
657.796	41047.95
658.147	40974.28
658.498	40968.85
658.849	41014.05
659.2	40958
659.551	40857.44
659.902	40936.99
660.253	40998.23
660.604	40866.71
660.955	40685.47
661.306	40813.15
661.656	40854.73
662.007	40774.51
662.358	40875.3
662.708	40784.68
663.059	40852.7
663.409	40511.01
663.76	40859.02
664.11	40881.17
664.461	40808.86
664.811	40759.37
665.161	40815.18
665.511	40694.28
665.862	40713.04
666.212	40767.28
666.562	40750.55
666.912	40765.02
667.262	40763.43
667.612	40653.61
667.962	40657.9
668.312	40738.58
668.662	40797.78
669.011	40753.04
669.361	40669.42
669.711	40555.76
670.06	40570.9
670.41	40654.28
670.76	40503.33
671.109	40770.89
671.459	40644.11
671.808	40606.83
672.157	40623.55
672.507	40404.57
672.856	40502.88
673.205	40514.4
673.554	40609.77
673.904	40615.42
674.253	40645.02
674.602	40616.77
674.951	39947.18
675.3	39652.95
675.649	40343.33
675.998	40291.36
676.346	40309.89
676.695	40438.47
677.044	40300.85
677.393	40253.16
677.741	40335.65
678.09	40131.13
678.438	40078.93
678.787	40260.85
679.135	40187.18
679.484	39867.41
679.832	40082.55
680.181	39926.62
680.529	39938.37
680.877	39807.07
681.225	39819.05
681.573	40075.77
681.922	39674.42
682.27	39660.19
682.618	39869.45
682.966	39577.25
683.314	39573.63
683.661	39544.03
684.009	39423.81
684.357	39409.35
684.705	39234.21
685.053	39373.64
685.4	39343.36
685.748	39150.37
686.095	39092.97
686.443	39093.87
686.79	38928.23
687.138	38928.68
687.485	39036.93
687.832	38700.21
688.18	38859.53
688.527	38707.44
688.874	38613.21
689.221	38680.1
689.568	38392.42
689.915	38384.29
690.262	38311.07
690.609	38265.65
690.956	38180.45
691.303	38252.99
691.65	37961.25
691.997	37992.89
692.344	37730.75
692.69	37638.32
693.037	37605.78
693.383	37366.91
693.73	37533.91
694.077	37222.51
694.423	37234.49
694.769	37277.88
695.116	37232
695.462	36994.49
695.808	36927.83
696.155	37089.18
696.501	36694.84
696.847	36821.16
697.193	36535.52
697.539	36589.53
697.885	36419.59
698.231	36313.83
698.577	36392.7
698.923	36403.32
699.269	36160.62
699.614	36013.95
699.96	35880.4
700.306	36132.14
700.651	35787.75
700.997	35679.95
701.342	35546.62
701.688	35461.2
702.033	35288.1
702.379	35371.03
702.724	35306.18
703.069	35360.41
703.415	34984.15
703.76	35069.35
704.105	34968.56
704.45	34800.88
704.795	34690.6
705.14	34577.61
705.485	34498.29
705.83	34494.22
706.175	34474.33
706.52	34404.96
706.865	34331.29
707.209	34181.23
707.554	34069.6
707.899	34081.8
708.243	33888.59
708.588	33942.82
708.932	33676.16
709.277	33695.6
709.621	33720.23
709.966	33504.42
710.31	33684.98
710.654	33255.16
710.998	33412.89
711.342	33285.44
711.687	33168.38
712.031	33199.79
712.375	33103.75
712.719	33180.13
713.063	33052.9
713.407	33023.52
713.75	32766.81
714.094	32740.14
714.438	32623.08
714.782	32680.03
715.125	32631.44
715.469	32542.86
715.812	32456.31
716.156	32153.94
716.499	32275.52
716.843	32418.57
717.186	32226.71
717.53	32375.18
717.873	32430.09
718.216	32145.13
718.559	32143.1
718.902	31862.65
719.246	31972.03
719.589	31888.19
719.932	31777.23
720.275	31711.69
720.617	31617.23
720.96	31553.28
721.303	31563.22
721.646	31621.75
721.989	31347.86
722.331	31483.45
722.674	31457.01
723.016	31471.02
723.359	31290.01
723.701	31354.42
724.044	31162.33
724.386	31067.42
724.729	31063.12
725.071	31080.52
725.413	31044.37
725.755	30955.78
726.097	30895.67
726.439	30711.27
726.782	30700.2
727.124	30859.74
727.465	30730.03
727.807	30654.1
728.149	30630.37
728.491	30486.19
728.833	30632.63
729.175	30485.51
729.516	30477.6
729.858	30409.36
730.199	30379.07
730.541	30293.65
730.882	30272.18
731.224	30356.7
731.565	30227.44
731.906	30175.24
732.248	30168.91
732.589	30147.44
732.93	29920.1
733.271	29914.91
733.612	29913.78
733.953	29906.54
734.294	29915.36
734.635	29824.51
734.976	29794.23
735.317	29551.75
735.658	29518.08
735.999	29684.4
736.339	29587.68
736.68	29531.19
737.021	29454.58
737.361	29415.26
737.702	29547.46
738.042	29369.16
738.383	29308.37
738.723	29333.68
739.063	29329.16
739.404	29345.88
739.744	29207.58
740.084	29048.26
740.424	29140.24
740.764	29024.76
741.104	29142.72
741.444	28906.8
741.784	28934.82
742.124	28992.44
742.464	28941.82
742.804	28790.42
743.143	28793.81
743.483	28862.05
743.823	28540.48
744.162	28618.89
744.502	28750.19
744.841	28518.33
745.181	28714.71
745.52	28608.5
745.86	28519.24
746.199	28481.5
746.538	28340.26
746.877	28426.36
747.216	28472.46
747.556	28333.03
747.895	28213.48
748.234	28119.7
748.573	28164.22
748.911	28117.44
749.25	28050.77
749.589	28046.03
749.928	28083.99
750.267	27984.11
750.605	27924.9
750.944	27788.41
751.283	27737.56
751.621	27719.93
751.96	27650.11
752.298	27666.6
752.636	27660.28
752.975	27513.16
753.313	27424.35
753.651	27517.45
753.989	27326.05
754.327	27330.11
754.666	27302.77
755.004	27257.57
755.342	27213.28
755.679	27172.83
756.017	26882.67
756.355	27100.97
756.693	26941.42
757.031	27088.77
757.368	26915.44
