Data from hue_280_FLMS001491_00071.txt Node
Date: Tue Feb 07 15:55:44 GMT 2017
User: dcchb
Spectrometer: FLMS00149
Trigger mode: 0
Integration Time (sec): 2.000000E-2
Scans to average: 10
Electric dark correction enabled: true
Nonlinearity correction enabled: false
Boxcar width: 0
XAxis mode: Wavelengths
Number of Pixels in Spectrum: 2048
>>>>>Begin Spectral Data<<<<<
341.393	-22.16
341.776	-22.16
342.16	-22.16
342.543	-58.32
342.927	-75.04
343.31	-59.9
343.693	-70.29
344.077	-55.38
344.46	-93.12
344.843	-44.53
345.226	-50.86
345.61	-35.27
345.993	-16.28
346.376	-2.05
346.759	38.63
347.142	27.78
347.525	34.34
347.908	51.96
348.291	71.62
348.674	84.73
349.057	118.63
349.44	124.05
349.823	130.38
350.206	145.74
350.588	173.31
350.971	219.64
351.354	217.38
351.737	244.73
352.119	238.4
352.502	241.11
352.884	279.53
353.267	282.01
353.65	300.99
354.032	287.89
354.414	302.58
354.797	299.19
355.179	301.22
355.562	322.92
355.944	319.75
356.326	328.34
356.709	332.63
357.091	313.88
357.473	336.47
357.855	342.12
358.238	340.32
358.62	339.41
359.002	346.64
359.384	329.24
359.766	347.77
360.148	324.05
360.53	335.12
360.912	351.84
361.294	334.44
361.676	345.06
362.057	327.43
362.439	321.11
362.821	308.45
363.203	312.29
363.584	325.63
363.966	350.26
364.348	336.47
364.729	309.58
365.111	322.01
365.493	297.83
365.874	313.2
366.256	327.21
366.637	303.93
367.019	298.51
367.4	312.75
367.781	291.28
368.163	308.45
368.544	302.8
368.925	315.91
369.306	324.05
369.688	313.65
370.069	309.13
370.45	305.97
370.831	312.52
371.212	327.66
371.593	312.52
371.974	312.75
372.355	328.34
372.736	319.75
373.117	328.34
373.498	326.08
373.879	312.52
374.26	315.91
374.641	309.36
375.021	320.2
375.402	301.22
375.783	324.95
376.163	300.09
376.544	320.88
376.925	343.03
377.305	336.02
377.686	322.46
378.066	319.53
378.447	317.72
378.827	329.47
379.208	349.58
379.588	339.86
379.968	317.94
380.349	327.89
380.729	341.45
381.109	335.8
381.489	343.71
381.87	336.25
382.25	315.91
382.63	342.8
383.01	333.54
383.39	345.74
383.77	349.13
384.15	336.93
384.53	359.07
384.91	324.27
385.29	370.15
385.67	351.84
386.049	349.58
386.429	367.43
386.809	363.14
387.189	351.84
387.568	315.68
387.948	349.81
388.328	349.13
388.707	363.82
389.087	352.74
389.466	387.09
389.846	378.28
390.225	385.74
390.605	379.18
390.984	374.21
391.363	375.57
391.743	361.11
392.122	371.05
392.501	381.22
392.881	390.71
393.26	374.21
393.639	379.86
394.018	402.24
394.397	352.52
394.776	394.55
395.155	396.36
395.534	395.46
395.913	397.94
396.292	398.85
396.671	396.81
397.05	411.95
397.429	395.23
397.808	378.73
398.186	393.65
398.565	395
398.944	392.52
399.323	427.55
399.701	404.72
400.08	410.82
400.458	432.06
400.837	423.25
401.215	419.18
401.594	419.86
401.972	434.32
402.351	427.32
402.729	433.87
403.107	447.66
403.486	449.69
403.864	448.34
404.242	446.75
404.62	422.8
404.999	442.01
405.377	457.83
405.755	458.73
406.133	456.92
406.511	453.53
406.889	453.99
407.267	463.93
407.645	486.3
408.023	483.36
408.401	500.09
408.779	501.67
409.156	501.22
409.534	511.38
409.912	489.46
410.29	491.95
410.667	530.59
411.045	531.05
411.422	560.2
411.8	537.6
412.178	550.93
412.555	540.99
412.933	552.06
413.31	570.37
413.687	588.22
414.065	578.28
414.442	570.37
414.819	575.11
415.197	612.17
415.574	589.57
415.951	612.63
416.328	612.4
416.705	620.08
417.082	627.77
417.46	635.68
417.837	664.83
418.214	639.97
418.591	661.89
418.967	666.86
419.344	657.14
419.721	696.92
420.098	685.84
420.475	685.62
420.852	703.47
421.228	715.45
421.605	733.53
421.982	716.58
422.358	761.1
422.735	747.08
423.111	758.84
423.488	750.25
423.864	769.91
424.241	790.93
424.617	811.04
424.994	797.03
425.37	817.37
425.746	825.5
426.123	815.78
426.499	865.05
426.875	870.92
427.251	812.85
427.627	870.02
428.003	874.31
428.379	881.32
428.756	893.07
429.132	895.1
429.507	924.93
429.883	904.82
430.259	957.25
430.635	951.83
431.011	947.31
431.387	960.64
431.763	1003.35
432.138	987.3
432.514	1034.08
432.89	1019.39
433.265	1041.77
433.641	1041.99
434.016	1073.86
434.392	1095.78
434.767	1099.39
435.143	1104.82
435.518	1116.11
435.894	1152.95
436.269	1131.93
436.644	1157.7
437.02	1168.77
437.395	1203.12
437.77	1158.6
438.145	1246.05
438.52	1232.72
438.895	1220.52
439.271	1240.18
439.646	1288.31
440.021	1288.99
440.395	1266.62
440.77	1300.97
441.145	1304.58
441.52	1332.61
441.895	1328.54
442.27	1347.97
442.645	1344.81
443.019	1370.8
443.394	1366.05
443.769	1360.85
444.143	1365.6
444.518	1406.05
444.892	1378.03
445.267	1395.2
445.641	1430.68
446.016	1400.18
446.39	1438.59
446.764	1433.85
447.139	1447.63
447.513	1438.59
447.887	1437.24
448.262	1474.52
448.636	1448.31
449.01	1489.21
449.384	1498.03
449.758	1497.35
450.132	1494.64
450.506	1527.63
450.88	1540.28
451.254	1519.72
451.628	1553.39
452.002	1552.26
452.376	1592.49
452.75	1556.33
453.123	1580.06
453.497	1622.32
453.871	1606.5
454.244	1632.94
454.618	1651.47
454.992	1653.73
455.365	1655.08
455.739	1701.64
456.112	1713.61
456.486	1716.32
456.859	1744.35
457.232	1752.71
457.606	1755.87
457.979	1735.76
458.352	1802.88
458.725	1812.59
459.099	1806.04
459.472	1857.34
459.845	1867.96
460.218	1857.34
460.591	1866.6
460.964	1873.61
461.337	1904.79
461.71	1953.38
462.083	1982.31
462.456	1940.73
462.829	1980.27
463.201	1995.64
463.574	1971.46
463.947	1997.22
464.32	2059.37
464.692	2052.14
465.065	2067.05
465.438	2112.25
465.81	2112.25
466.183	2143.66
466.555	2194.28
466.928	2180.95
467.3	2171.91
467.672	2200.38
468.045	2256.88
468.417	2231.57
468.789	2239.7
469.161	2307.5
469.534	2293.71
469.906	2366.03
470.278	2368.96
470.65	2385.69
471.022	2406.93
471.394	2465.68
471.766	2458.23
472.138	2484.21
472.51	2540.48
472.882	2540.71
473.253	2533.03
473.625	2586.13
473.997	2641.27
474.369	2626.13
474.74	2660.48
475.112	2711.78
475.484	2709.29
475.855	2788.39
476.227	2769.18
476.598	2833.81
476.97	2881.27
477.341	2899.34
477.713	2940.7
478.084	2936.63
478.455	3015.95
478.827	3016.63
479.198	3094.82
479.569	3077.42
479.94	3154.93
480.311	3175.04
480.682	3254.82
481.053	3302.27
481.424	3309.28
481.795	3297.53
482.166	3356.06
482.537	3402.38
482.908	3448.26
483.279	3496.39
483.65	3533
484.021	3610.74
484.391	3608.03
484.762	3619.55
485.133	3661.58
485.503	3676.73
485.874	3781.36
486.244	3773.67
486.615	3863.39
486.985	3834.91
487.356	3932.54
487.726	3933.44
488.097	4000.78
488.467	4037.62
488.837	4117.62
489.207	4103.83
489.578	4172.53
489.948	4198.52
490.318	4203.72
490.688	4257.95
491.058	4292.53
491.428	4351.28
491.798	4364.62
492.168	4411.85
492.538	4404.84
492.908	4476.93
493.278	4534.78
493.648	4522.8
494.017	4606.87
494.387	4618.62
494.757	4599.19
495.126	4654.55
495.496	4678.05
495.866	4716.7
496.235	4690.94
496.605	4735.91
496.974	4780.65
497.344	4796.24
497.713	4827.2
498.082	4844.15
498.452	4913.75
498.821	4909.24
499.19	4918.27
499.559	4937.03
499.928	4956.69
500.298	5014.54
500.667	5001.66
501.036	5026.07
501.405	5060.64
501.774	5056.12
502.143	5130.92
502.512	5152.17
502.88	5142.45
503.249	5111.49
503.618	5124.6
503.987	5218.38
504.356	5179.74
504.724	5210.24
505.093	5221.32
505.462	5205.72
505.83	5224.26
506.199	5273.29
506.567	5332.73
506.936	5357.81
507.304	5376.12
507.672	5356.46
508.041	5383.8
508.409	5396.45
508.777	5483.23
509.145	5495.21
509.514	5471.03
509.882	5470.8
510.25	5514.42
510.618	5504.25
510.986	5537.92
511.354	5558.71
511.722	5581.31
512.09	5615.66
512.458	5622.89
512.826	5645.26
513.193	5646.17
513.561	5671.02
513.929	5668.54
514.297	5757.12
514.664	5787.4
515.032	5745.15
515.4	5783.11
515.767	5786.73
516.135	5796.67
516.502	5722.32
516.869	5844.13
517.237	5799.38
517.604	5772.04
517.972	5863.56
518.339	5886.16
518.706	5887.51
519.073	5899.72
519.44	5890.9
519.808	5937.68
520.175	5958.25
520.542	6044.12
520.909	6027.17
521.276	5993.27
521.643	6070.11
522.009	6073.72
522.376	6112.59
522.743	6090
523.11	6180.39
523.477	6207.05
523.843	6171.8
524.21	6264.68
524.577	6273.04
524.943	6269.2
525.31	6279.14
525.676	6356.88
526.043	6338.8
526.409	6373.15
526.776	6375.64
527.142	6409.76
527.508	6450.21
527.874	6415.64
528.241	6473.71
528.607	6501.51
528.973	6570.66
529.339	6563.66
529.705	6557.78
530.071	6587.84
530.437	6651.11
530.803	6613.6
531.169	6669.64
531.535	6680.94
531.901	6725.68
532.267	6718.23
532.632	6737.44
532.998	6769.75
533.364	6804.33
533.73	6812.69
534.095	6895.17
534.461	6900.6
534.826	6896.3
535.192	6854.49
535.557	6896.3
535.923	6907.6
536.288	6949.63
536.653	6979.01
537.019	6970.2
537.384	6964.32
537.749	7045
538.114	6943.53
538.479	6971.33
538.845	7016.98
539.21	7006.81
539.575	7067.37
539.94	7090.42
540.305	7120.48
540.67	7093.13
541.034	7099.23
541.399	7065.34
541.764	7138.1
542.129	7168.38
542.494	7176.75
542.858	7160.93
543.223	7175.84
543.587	7192.34
543.952	7211.1
544.316	7288.61
544.681	7241.38
545.045	7339.68
545.41	7267.37
545.774	7336.74
546.138	7295.16
546.503	7350.98
546.867	7280.25
547.231	7377.87
547.595	7400.24
547.959	7426.46
548.324	7358.66
548.688	7454.71
549.052	7463.97
549.416	7437.08
549.779	7454.93
550.143	7415.84
550.507	7435.95
550.871	7481.6
551.235	7491.99
551.599	7536.74
551.962	7530.18
552.326	7468.04
552.689	7603.63
553.053	7509.62
553.417	7561.37
553.78	7673.91
554.143	7618.54
554.507	7624.64
554.87	7687.92
555.234	7749.84
555.597	7712.78
555.96	7705.77
556.323	7686.34
556.686	7739.22
557.05	7752.55
557.413	7827.8
557.776	7750.52
558.139	7781.25
558.502	7851.76
558.865	7842.94
559.228	7836.39
559.59	7960.45
559.953	7920.91
560.316	7999.32
560.679	7988.02
561.041	7999.55
561.404	7984.18
561.767	8050.62
562.129	8022.37
562.492	8092.43
562.854	8143.5
563.217	8141.47
563.579	8181.47
563.941	8192.54
564.304	8218.3
564.666	8189.38
565.028	8327.22
565.39	8319.32
565.753	8336.49
566.115	8322.25
566.477	8350.5
566.839	8381.01
567.201	8452.64
567.563	8460.1
567.925	8428.46
568.287	8498.97
568.648	8551.17
569.01	8577.84
569.372	8678.4
569.734	8617.39
570.095	8633.21
570.457	8708.68
570.819	8738.06
571.18	8712.3
571.542	8813.31
571.903	8782.35
572.265	8802.47
572.626	8854.67
572.987	8875.23
573.349	8956.36
573.71	8962.69
574.071	8983.7
574.432	8990.94
574.794	9095.11
575.155	9127.2
575.516	9048.11
575.877	9100.76
576.238	9171.95
576.599	9176.02
576.96	9251.04
577.32	9253.98
577.681	9265.5
578.042	9348.21
578.403	9442
578.763	9414.88
579.124	9470.92
579.485	9550.7
579.845	9615.1
580.206	9570.13
580.566	9628.89
580.927	9664.14
581.287	9720.63
581.648	9799.5
582.008	9798.6
582.368	9831.37
582.728	9921.98
583.089	9935.77
583.449	9965.6
583.809	10051.02
584.169	10162.88
584.529	10128.53
584.889	10319.04
585.249	10303.22
585.609	10301.18
585.969	10439.94
586.329	10448.52
586.688	10503.89
587.048	10644.9
587.408	10628.18
587.768	10719.7
588.127	10754.73
588.487	10740.04
588.846	10987.04
589.206	10996.31
589.565	10985.23
589.925	11135.29
590.284	11195.17
590.643	11267.49
591.003	11321.95
591.362	11417.99
591.721	11511.32
592.08	11506.35
592.44	11648.72
592.799	11648.49
593.158	11686.68
593.517	11751.54
593.876	11816.4
594.235	11947.92
594.593	11973.23
594.952	12143.17
595.311	12032.89
595.67	12188.82
596.029	12332.32
596.387	12370.96
596.746	12413.44
597.104	12436.04
597.463	12488.92
597.822	12598.52
598.18	12614.34
598.538	12682.82
598.897	12834.45
599.255	12765.75
599.613	12896.6
599.972	12944.28
600.33	13039.87
600.688	12939.08
601.046	13142.69
601.404	13237.83
601.762	13249.58
602.12	13296.81
602.478	13422.23
602.836	13360.54
603.194	13366.87
603.552	13392.63
603.91	13331.84
604.268	13516.47
604.625	13558.95
604.983	13626.52
605.341	13604.15
605.698	13688.89
606.056	13796.46
606.413	13752.39
606.771	13794.88
607.128	13914.2
607.485	13846.4
607.843	13951.71
608.2	14085.27
608.557	14091.82
608.914	14070.12
609.272	14151.48
609.629	14250.91
609.986	14350.79
610.343	14231.02
610.7	14326.16
611.057	14350.34
611.414	14390.79
611.771	14410.23
612.127	14508.08
612.484	14483.67
612.841	14647.28
613.198	14516.67
613.554	14581.52
613.911	14685.25
614.267	14710.56
614.624	14616.32
614.98	14720.73
615.337	14755.76
615.693	14655.42
616.05	14798.47
616.406	14848.41
616.762	14773.38
617.118	14856.32
617.475	14799.6
617.831	14983.09
618.187	14978.58
618.543	14928.18
618.899	15059.02
619.255	15109.87
619.611	15015.18
619.967	15112.81
620.323	15083.21
620.678	15002.76
621.034	15085.69
621.39	15122.53
621.746	15082.53
622.101	15268.74
622.457	15107.84
622.812	15111.23
623.168	15285.46
623.523	15201.62
623.879	15291.79
624.234	15116.88
624.589	15244.33
624.945	15219.47
625.3	15277.78
625.655	15261.05
626.01	15244.1
626.365	15272.58
626.72	15227.16
627.075	15205.24
627.43	15232.81
627.785	15260.6
628.14	15365.91
628.495	15288.85
628.85	15280.94
629.205	15187.84
629.559	15332.24
629.914	15232.13
630.269	15279.36
630.623	15221.96
630.978	15189.19
631.332	15246.82
631.687	15365.23
632.041	15274.16
632.396	15254.95
632.75	15188.74
633.104	15252.92
633.459	15217.21
633.813	15166.37
634.167	15163.2
634.521	15267.38
634.875	15073.49
635.229	15186.03
635.583	15031.46
635.937	15088.18
636.291	15043.21
636.645	15095.63
636.999	15053.6
637.352	15115.52
637.706	14972.25
638.06	15052.92
638.413	14915.75
638.767	15065.8
639.121	15083.43
639.474	15006.6
639.828	15022.42
640.181	15026.03
640.534	15018.12
640.888	14910.78
641.241	14873.04
641.594	14873.95
641.947	14917.79
642.301	14955.07
642.654	14905.58
643.007	14935.86
643.36	14857.45
643.713	14818.35
644.066	14919.82
644.419	14866.04
644.771	14765.93
645.124	14599.38
645.477	14571.81
645.83	14468.08
646.182	14471.92
646.535	14387.4
646.888	14385.82
647.24	14287.52
647.593	14425.82
647.945	14442.54
648.298	14403.9
648.65	14353.05
649.002	14263.79
649.355	14376.11
649.707	14412.49
650.059	14462.66
650.411	14607.51
650.763	14617.91
651.115	14853.38
651.467	14698.36
651.819	14742.88
652.171	14641.41
652.523	14726.83
652.875	14634.63
653.227	14652.26
653.578	14800.05
653.93	14698.36
654.282	14581.3
654.633	14703.33
654.985	14696.1
655.337	14646.38
655.688	14720.28
656.039	14779.03
656.391	14673.5
656.742	14669.66
657.094	14753.27
657.445	14771.8
657.796	14751.69
658.147	14714.63
658.498	14756.43
658.849	14739.71
659.2	14682.99
659.551	14630.79
659.902	14718.24
660.253	14759.37
660.604	14783.1
660.955	14697.9
661.306	14728.19
661.656	14717.34
662.007	14750.33
662.358	14793.27
662.708	14769.32
663.059	14806.83
663.409	14664.23
663.76	14769.09
664.11	14867.39
664.461	14871.01
664.811	14817.68
665.161	14813.38
665.511	14815.19
665.862	14790.78
666.212	14877.33
666.562	14855.87
666.912	14817.68
667.262	14768.41
667.612	14697.23
667.962	14831.69
668.312	14803.66
668.662	14900.84
669.011	14770.22
669.361	14814.74
669.711	14741.75
670.06	14746.72
670.41	14719.6
670.76	14698.81
671.109	14836.43
671.459	14775.87
671.808	14796.88
672.157	14736.55
672.507	14657.45
672.856	14698.13
673.205	14740.16
673.554	14694.51
673.904	14643.89
674.253	14753.5
674.602	14695.42
674.951	14459.72
675.3	14347.63
675.649	14621.07
675.998	14571.81
676.346	14599.6
676.695	14635.08
677.044	14598.25
677.393	14568.19
677.741	14575.42
678.09	14562.99
678.438	14530.68
678.787	14577
679.135	14525.93
679.484	14425.82
679.832	14476.44
680.181	14383.34
680.529	14379.04
680.877	14381.98
681.225	14370.68
681.573	14358.48
681.922	14371.36
682.27	14231.48
682.618	14224.47
682.966	14222.44
683.314	14228.54
683.661	14207.97
684.009	14099.73
684.357	14048.88
684.705	14101.54
685.053	14115.55
685.4	14102.67
685.748	14048.88
686.095	13943.12
686.443	13981.77
686.79	13939.51
687.138	13967.53
687.485	13968.21
687.832	13829.9
688.18	13748.1
688.527	13776.35
688.874	13819.74
689.221	13730.47
689.568	13583.58
689.915	13605.5
690.262	13633.75
690.609	13516.69
690.956	13450.71
691.303	13576.35
691.65	13367.54
691.997	13455.23
692.344	13315.57
692.69	13333.87
693.037	13344.27
693.383	13179.53
693.73	13315.12
694.077	13196.7
694.423	13124.61
694.769	13095.23
695.116	13080.32
695.462	13028.12
695.808	12906.54
696.155	12954
696.501	12863.6
696.847	12824.06
697.193	12741.57
697.539	12799.2
697.885	12660.9
698.231	12695.25
698.577	12598.75
698.923	12615.7
699.269	12588.58
699.614	12469.71
699.96	12470.17
700.306	12458.64
700.651	12362.82
700.997	12257.29
701.342	12356.05
701.688	12257.97
702.033	12247.57
702.379	12219.1
702.724	12075.37
703.069	12061.36
703.415	11979.11
703.76	12013.46
704.105	12076.5
704.45	11993.12
704.795	11978.88
705.14	11849.39
705.485	11926.45
705.83	11726.01
706.175	11775.72
706.52	11737.08
706.865	11687.36
707.209	11716.06
707.554	11736.63
707.899	11693.92
708.243	11539.34
708.588	11507.93
708.932	11456.86
709.277	11466.8
709.621	11413.25
709.966	11304.1
710.31	11373.25
710.654	11295.06
710.998	11258.9
711.342	11278.79
711.687	11212.12
712.031	11194.27
712.375	11196.75
712.719	11145.23
713.063	11154.27
713.407	11180.03
713.75	11163.99
714.094	11076.76
714.438	10968.96
714.782	11055.06
715.125	10984.56
715.469	11048.06
715.812	10975.52
716.156	10939.36
716.499	10853.26
716.843	10901.62
717.186	10869.08
717.53	10912.69
717.873	10886.03
718.216	10865.46
718.559	10830.89
718.902	10761.74
719.246	10794.5
719.589	10802.41
719.932	10706.82
720.275	10707.95
720.617	10694.17
720.96	10726.94
721.303	10823.88
721.646	10751.12
721.989	10630.21
722.331	10674.51
722.674	10661.4
723.016	10674.06
723.359	10623.89
723.701	10626.15
724.044	10630.21
724.386	10540.05
724.729	10577.11
725.071	10543.66
725.413	10494.4
725.755	10535.75
726.097	10544.34
726.439	10453.04
726.782	10485.59
727.124	10556.54
727.465	10514.29
727.807	10446.94
728.149	10428.41
728.491	10408.98
728.833	10433.84
729.175	10432.25
729.516	10451.69
729.858	10444.23
730.199	10420.73
730.541	10399.26
730.882	10336.89
731.224	10431.35
731.565	10386.61
731.906	10441.07
732.248	10382.31
732.589	10359.26
732.93	10292.6
733.271	10342.09
733.612	10375.53
733.953	10404.91
734.294	10298.92
734.635	10384.8
734.976	10378.24
735.317	10364.23
735.658	10293.73
735.999	10337.34
736.339	10353.61
736.68	10485.36
737.021	10397.23
737.361	10393.84
737.702	10420.73
738.042	10360.39
738.383	10435.19
738.723	10357.45
739.063	10385.7
739.404	10423.89
739.744	10423.89
740.084	10412.59
740.424	10471.35
740.764	10444.91
741.104	10491.01
741.444	10468.19
741.784	10399.94
742.124	10484.46
742.464	10521.74
742.804	10531.46
743.143	10552.7
743.483	10584.79
743.823	10520.16
744.162	10577.79
744.502	10642.64
744.841	10607.16
745.181	10749.08
745.52	10672.93
745.86	10774.17
746.199	10821.4
746.538	10774.84
746.877	10866.59
747.216	10900.04
747.556	10945.91
747.895	11034.72
748.234	11040.37
748.573	11057.55
748.911	11225
749.25	11145.23
749.589	11273.59
749.928	11316.98
750.267	11422.06
750.605	11532.34
750.944	11618.89
751.283	11575.27
751.621	11736.85
751.96	11713.58
752.298	11886.9
752.636	12017.75
752.975	12036.73
753.313	12099.78
753.651	12238.76
753.989	12306.33
754.327	12455.93
754.666	12508.13
755.004	12700.44
755.342	12853.89
755.679	12966.65
756.017	13007.1
756.355	13212.29
756.693	13289.58
757.031	13460.42
757.368	13444.83
757.706	13687.54
758.044	13765.73
758.381	13983.8
758.719	14094.53
759.056	14233.06
759.394	14373.62
