Data from hue_280_FLMS001491_00028.txt Node
Date: Tue Feb 07 15:55:03 GMT 2017
User: dcchb
Spectrometer: FLMS00149
Trigger mode: 0
Integration Time (sec): 2.000000E-2
Scans to average: 10
Electric dark correction enabled: true
Nonlinearity correction enabled: false
Boxcar width: 0
XAxis mode: Wavelengths
Number of Pixels in Spectrum: 2048
>>>>>Begin Spectral Data<<<<<
341.393	-4.32
341.776	-4.32
342.16	-4.32
342.543	-37.77
342.927	-64.66
343.31	-63.98
343.693	-68.95
344.077	-56.98
344.46	-58.78
344.843	-53.59
345.226	-52
345.61	-20.82
345.993	-26.47
346.376	-13.36
346.759	19.63
347.142	18.73
347.525	42.23
347.908	70.93
348.291	68.9
348.674	84.94
349.057	109.57
349.44	112.96
349.823	124.26
350.206	157.48
350.588	192.51
350.971	193.64
351.354	228.89
351.737	213.53
352.119	243.36
352.502	247.87
352.884	272.51
353.267	260.98
353.65	296.69
354.032	310.25
354.414	310.7
354.797	303.24
355.179	324.03
355.562	326.06
355.944	322
356.326	303.69
356.709	328.32
357.091	323.13
357.473	333.52
357.855	318.61
358.238	330.58
358.62	332.39
359.002	329.68
359.384	334.88
359.766	333.3
360.148	305.5
360.53	333.75
360.912	340.08
361.294	318.16
361.676	323.81
362.057	331.94
362.439	321.32
362.821	322.9
363.203	321.77
363.584	339.4
363.966	321.55
364.348	306.86
364.729	307.08
365.111	296.69
365.493	298.27
365.874	316.57
366.256	319.96
366.637	312.28
367.019	314.99
367.4	321.32
367.781	307.76
368.163	297.59
368.544	318.16
368.925	306.4
369.306	313.41
369.688	307.08
370.069	317.48
370.45	295.78
370.831	308.89
371.212	306.63
371.593	319.51
371.974	302.56
372.355	301.66
372.736	305.27
373.117	302.34
373.498	312.51
373.879	340.53
374.26	294.88
374.641	316.8
375.021	301.66
375.402	335.78
375.783	322.45
376.163	323.81
376.544	328.1
376.925	332.84
377.305	322
377.686	311.6
378.066	328.55
378.447	327.19
378.827	316.57
379.208	319.74
379.588	324.71
379.968	324.03
380.349	329.23
380.729	316.12
381.109	320.42
381.489	337.14
381.87	331.04
382.25	336.46
382.63	314.99
383.01	342.56
383.39	358.61
383.77	335.78
384.15	329.45
384.53	342.79
384.91	354.09
385.29	351.83
385.67	341.43
386.049	358.38
386.429	347.08
386.809	347.53
387.189	344.14
387.568	360.19
387.948	346.63
388.328	358.38
388.707	354.54
389.087	346.86
389.466	346.86
389.846	375.1
390.225	356.8
390.605	349.79
390.984	358.15
391.363	378.72
391.743	370.36
392.122	366.74
392.501	379.85
392.881	376.69
393.26	372.39
393.639	374.2
394.018	376.23
394.397	382.33
394.776	375.56
395.155	356.57
395.534	364.71
395.913	388.89
396.292	404.71
396.671	391.37
397.05	382.79
397.429	385.95
397.808	358.38
398.186	397.7
398.565	407.42
398.944	428.89
399.323	396.35
399.701	394.09
400.08	416.68
400.458	418.27
400.837	418.94
401.215	420.07
401.594	427.08
401.972	434.31
402.351	442.22
402.729	439.06
403.107	426.85
403.486	417.59
403.864	423.69
404.242	427.53
404.62	446.51
404.999	448.55
405.377	435.21
405.755	450.13
406.133	473.86
406.511	451.26
406.889	466.4
407.267	470.69
407.645	489.68
408.023	496.23
408.401	484.7
408.779	486.74
409.156	490.58
409.534	508.88
409.912	510.24
410.29	501.88
410.667	523.12
411.045	516.57
411.422	512.5
411.8	534.19
412.178	530.35
412.555	537.36
412.933	559.28
413.31	567.41
413.687	585.04
414.065	561.99
414.442	571.03
414.819	587.53
415.197	589.11
415.574	593.18
415.951	596.79
416.328	609.9
416.705	612.16
417.082	629.56
417.46	616.9
417.837	650.35
418.214	646.96
418.591	654.19
418.967	656.23
419.344	649.67
419.721	679.28
420.098	683.8
420.475	690.58
420.852	691.7
421.228	704.59
421.605	721.99
421.982	746.17
422.358	739.61
422.735	734.64
423.111	734.87
423.488	780.74
423.864	769.44
424.241	785.94
424.617	777.58
424.994	774.41
425.37	804.47
425.746	794.98
426.123	836.11
426.499	825.71
426.875	837.01
427.251	845.83
427.627	885.15
428.003	888.54
428.379	879.27
428.756	883.56
429.132	917.01
429.507	893.73
429.883	888.54
430.259	939.61
430.635	950.46
431.011	950.23
431.387	971.02
431.763	986.84
432.138	999.95
432.514	997.23
432.89	991.81
433.265	1038.81
433.641	1041.53
434.016	1030.91
434.392	1067.97
434.767	1076.33
435.143	1085.82
435.518	1086.5
435.894	1121.3
436.269	1118.81
436.644	1128.3
437.02	1164.69
437.395	1160.39
437.77	1204.23
438.145	1215.08
438.52	1212.37
438.895	1242.88
439.271	1226.61
439.646	1265.48
440.021	1278.13
440.395	1284.23
440.77	1271.58
441.145	1305.02
441.52	1329.88
441.895	1315.42
442.27	1353.61
442.645	1339.6
443.019	1348.41
443.394	1366.26
443.769	1379.14
444.143	1352.25
444.518	1410.33
444.892	1397.9
445.267	1398.58
445.641	1438.35
446.016	1407.62
446.39	1451.68
446.764	1453.27
447.139	1441.29
447.513	1458.46
447.887	1461.18
448.262	1455.07
448.636	1458.46
449.01	1476.09
449.384	1481.97
449.758	1498.46
450.132	1523.77
450.506	1513.15
450.88	1540.72
451.254	1511.57
451.628	1557.67
452.002	1562.87
452.376	1574.62
452.75	1571.46
453.123	1597.22
453.497	1639.25
453.871	1636.31
454.244	1648.74
454.618	1661.85
454.992	1648.06
455.365	1656.88
455.739	1707.72
456.112	1689.42
456.486	1714.73
456.859	1737.1
457.232	1764.22
457.606	1745.01
457.979	1782.07
458.352	1784.33
458.725	1800.38
459.099	1837.66
459.472	1836.53
459.845	1859.81
460.218	1878.11
460.591	1906.36
460.964	1894.16
461.337	1953.14
461.71	1947.27
462.083	1973.71
462.456	1995.63
462.829	1964.89
463.201	1978
463.574	1994.72
463.947	2042.4
464.32	2072.69
464.692	2070.2
465.065	2095.96
465.438	2090.31
465.81	2129.41
466.183	2130.99
466.555	2204.66
466.928	2171.21
467.3	2190.87
467.672	2227.71
468.045	2275.62
468.417	2252.12
468.789	2272
469.161	2315.62
469.534	2326.92
469.906	2392.23
470.278	2402.85
470.65	2360.36
471.022	2438.1
471.394	2479
471.766	2481.49
472.138	2500.24
472.51	2544.09
472.882	2552.9
473.253	2593.35
473.625	2620.24
473.997	2655.04
474.369	2686.45
474.74	2679.45
475.112	2744.31
475.484	2771.42
475.855	2834.93
476.227	2825.43
476.598	2920.57
476.97	2894.13
477.341	2949.05
477.713	2972.1
478.084	2984.07
478.455	3105.65
478.827	3080.34
479.198	3171.41
479.569	3114.47
479.94	3202.37
480.311	3250.51
480.682	3287.34
481.053	3342.93
481.424	3383.16
481.795	3369.83
482.166	3446.89
482.537	3488.92
482.908	3551.74
483.279	3565.08
483.65	3595.13
484.021	3640.78
484.391	3726.88
484.762	3691.85
485.133	3749.25
485.503	3799.19
485.874	3875.35
486.244	3815.69
486.615	3944.73
486.985	3952.86
487.356	3985.86
487.726	4025.18
488.097	4076.93
488.467	4127.09
488.837	4165.74
489.207	4202.12
489.578	4310.82
489.948	4283.7
490.318	4344.04
490.688	4327.77
491.058	4370.48
491.428	4422
491.798	4485.05
492.168	4563.69
492.538	4542.45
492.908	4580.87
493.278	4625.61
493.648	4634.65
494.017	4689.79
494.387	4736.34
494.757	4766.17
495.126	4793.07
495.496	4802.11
495.866	4828.09
496.235	4873.52
496.605	4883.46
496.974	4876
497.344	4960.52
497.713	4953.51
498.082	4975.43
498.452	4994.42
498.821	5046.17
499.19	5054.98
499.559	5055.21
499.928	5097.92
500.298	5160.97
500.667	5152.83
501.036	5170.23
501.405	5177.91
501.774	5152.6
502.143	5231.7
502.512	5270.12
502.88	5288.19
503.249	5305.14
503.618	5320.96
503.987	5343.79
504.356	5313.05
504.724	5385.82
505.093	5371.81
505.462	5427.63
505.83	5461.75
506.199	5473.05
506.567	5504.23
506.936	5471.24
507.304	5496.55
507.672	5567.73
508.041	5597.11
508.409	5621.52
508.777	5608.19
509.145	5676.88
509.514	5642.31
509.882	5704.68
510.25	5698.58
510.618	5663.78
510.986	5715.3
511.354	5716.43
511.722	5762.53
512.09	5784.9
512.458	5726.83
512.826	5811.34
513.193	5854.51
513.561	5820.84
513.929	5865.35
514.297	5921.85
514.664	5917.1
515.032	5925.47
515.4	5967.5
515.767	5976.76
516.135	6030.1
516.502	5942.87
516.869	5982.64
517.237	6048.63
517.604	6003.66
517.972	6046.37
518.339	6039.36
518.706	6098.34
519.073	6066.25
519.44	6085.24
519.808	6134.95
520.175	6165.91
520.542	6216.08
520.909	6180.83
521.276	6227.83
521.643	6230.09
522.009	6267.83
522.376	6254.04
522.743	6320.94
523.11	6371.1
523.477	6330.43
523.843	6416.3
524.21	6444.55
524.577	6455.4
524.943	6466.02
525.31	6498.11
525.676	6552.12
526.043	6576.75
526.409	6591.44
526.776	6602.28
527.142	6638.67
527.508	6619.91
527.874	6711.89
528.241	6712.56
528.607	6704.43
528.973	6779.45
529.339	6770.19
529.705	6795.95
530.071	6826.01
530.437	6860.13
530.803	6916.63
531.169	6864.42
531.535	6896.29
531.901	6870.07
532.267	6959.34
532.632	6949.85
532.998	6944.65
533.364	7088.15
533.73	7056.28
534.095	7090.63
534.461	7055.15
534.826	7106.9
535.192	7154.36
535.557	7112.33
535.923	7119.33
536.288	7179.9
536.653	7186.9
537.019	7150.07
537.384	7169.5
537.749	7221.48
538.114	7214.47
538.479	7231.65
538.845	7237.97
539.21	7218.09
539.575	7290.4
539.94	7268.71
540.305	7263.28
540.67	7313.23
541.034	7290.4
541.399	7331.08
541.764	7360.68
542.129	7399.78
542.494	7396.16
542.858	7415.6
543.223	7478.87
543.587	7465.99
543.952	7430.28
544.316	7504.86
544.681	7430.51
545.045	7450.85
545.41	7564.74
545.774	7578.53
546.138	7530.62
546.503	7544.63
546.867	7511.64
547.231	7595.48
547.595	7596.38
547.959	7627.57
548.324	7639.32
548.688	7605.65
549.052	7627.12
549.416	7611.3
549.779	7628.92
550.143	7687.23
550.507	7677.28
550.871	7685.19
551.235	7652.88
551.599	7735.36
551.962	7717.73
552.326	7807.68
552.689	7856.04
553.053	7759.32
553.417	7732.2
553.78	7872.76
554.143	7860.56
554.507	7838.86
554.87	7839.09
555.234	7909.37
555.597	7874.11
555.96	7932.42
556.323	7861.69
556.686	7880.44
557.05	8006.77
557.413	7999.99
557.776	8046.31
558.139	8014
558.502	8005.41
558.865	8039.53
559.228	8103.94
559.59	8094.67
559.953	8073.21
560.316	8176.03
560.679	8206.99
561.041	8212.41
561.404	8232.3
561.767	8274.33
562.129	8247.66
562.492	8277.49
562.854	8354.55
563.217	8291.51
563.579	8349.81
563.941	8402.46
564.304	8403.82
564.666	8485.4
565.028	8431.84
565.39	8488.56
565.753	8508.45
566.115	8543.7
566.477	8615.56
566.839	8614.21
567.201	8688.33
567.563	8618.95
567.925	8701.66
568.287	8681.78
568.648	8744.15
569.01	8788.22
569.372	8861.66
569.734	8811.72
570.095	8904.37
570.457	8890.81
570.819	8990.47
571.18	8911.15
571.542	8916.57
571.903	8994.31
572.265	8992.73
572.626	9062.11
572.987	9104.14
573.349	9115.21
573.71	9124.03
574.071	9211.93
574.432	9178.26
574.794	9257.36
575.155	9292.16
575.516	9185.27
575.877	9311.82
576.238	9348.43
576.599	9462.55
576.96	9455.09
577.32	9448.08
577.681	9417.58
578.042	9572.38
578.403	9593.39
578.763	9630.45
579.124	9634.29
579.485	9767.17
579.845	9757
580.206	9762.88
580.566	9790.22
580.927	9847.17
581.287	9945.25
581.648	9974.62
582.008	10028.18
582.368	9997
582.728	10069.54
583.089	10126.26
583.449	10110.44
583.809	10249.65
584.169	10312.47
584.529	10293.49
584.889	10417.55
585.249	10404.67
585.609	10498.23
585.969	10572.35
586.329	10599.92
586.688	10603.31
587.048	10715.4
587.408	10749.07
587.768	10808.5
588.127	10943.86
588.487	10916.97
588.846	11083.52
589.206	11058.21
589.565	11088.27
589.925	11182.95
590.284	11192.45
590.643	11344.08
591.003	11393.34
591.362	11486
591.721	11489.39
592.08	11514.92
592.44	11641.93
592.799	11699.1
593.158	11751.3
593.517	11738.19
593.876	11915.14
594.235	11896.38
594.593	12031.75
594.952	11989.26
595.311	12025.19
595.67	12133.21
596.029	12289.37
596.387	12340.89
596.746	12319.65
597.104	12433.77
597.463	12480.32
597.822	12506.54
598.18	12507.89
598.538	12663.82
598.897	12719.64
599.255	12617.04
599.613	12808.67
599.972	12762.8
600.33	12928.67
600.688	12928.22
601.046	12950.82
601.404	12955.79
601.762	13107.2
602.12	13205.27
602.478	13214.54
602.836	13168.67
603.194	13228.78
603.552	13368.66
603.91	13329.11
604.268	13353.29
604.625	13353.74
604.983	13459.05
605.341	13341.54
605.698	13499.28
606.056	13541.99
606.413	13517.58
606.771	13678.26
607.128	13674.64
607.485	13653.85
607.843	13645.26
608.2	13738.82
608.557	13853.62
608.914	13847.07
609.272	13925.71
609.629	13883.67
609.986	14007.97
610.343	13933.16
610.7	14088.41
611.057	14077.12
611.414	14102.88
611.771	14150.33
612.127	14185.81
612.484	14320.27
612.841	14278.47
613.198	14173.84
613.554	14280.05
613.911	14385.13
614.267	14357.56
614.624	14338.35
614.98	14443.89
615.337	14479.14
615.693	14462.19
616.05	14425.58
616.406	14554.84
616.762	14580.83
617.118	14524.34
617.475	14588.06
617.831	14656.99
618.187	14646.37
618.543	14592.81
618.899	14745.57
619.255	14722.75
619.611	14644.78
619.967	14750.77
620.323	14774.95
620.678	14803.2
621.034	14690.66
621.39	14732.47
621.746	14739.7
622.101	14853.82
622.457	14758.68
622.812	14802.07
623.168	14776.76
623.523	14838.23
623.879	14903.53
624.234	14848.39
624.589	14866.47
624.945	14837.1
625.3	14851.56
625.655	14823.54
626.01	14919.58
626.365	14867.38
626.72	14926.36
627.075	14808.4
627.43	14896.08
627.785	14933.82
628.14	14900.82
628.495	14924.33
628.85	14911.44
629.205	14869.86
629.559	14928.84
629.914	14920.03
630.269	14859.02
630.623	14884.33
630.978	14865.57
631.332	14904.21
631.687	14955.96
632.041	14858.79
632.396	14908.96
632.75	14868.06
633.104	14783.99
633.459	14832.8
633.813	14662.64
634.167	14821.95
634.521	14781.05
634.875	14760.94
635.229	14791.9
635.583	14742.18
635.937	14675.74
636.291	14696.99
636.645	14705.57
636.999	14645.46
637.352	14730.21
637.706	14490.66
638.06	14702.64
638.413	14637.78
638.767	14546.48
639.121	14617.67
639.474	14476.43
639.828	14543.54
640.181	14529.31
640.534	14552.81
640.888	14549.65
641.241	14418.12
641.594	14478.69
641.947	14561.62
642.301	14481.85
642.654	14515.3
643.007	14511.23
643.36	14456.77
643.713	14514.84
644.066	14530.44
644.419	14484.34
644.771	14420.16
645.124	14291.12
645.477	14227.39
645.83	14185.81
646.182	14095.42
646.535	14079.6
646.888	13972.71
647.24	14010.68
647.593	14041.18
647.945	14033.05
648.298	13959.15
648.65	13898.36
649.002	13900.85
649.355	14087.06
649.707	14038.92
650.059	14001.19
650.411	14195.08
650.763	14203.89
651.115	14329.54
651.467	14345.58
651.819	14252.7
652.171	14307.17
652.523	14291.12
652.875	14313.72
653.227	14261.74
653.578	14354.4
653.93	14306.71
654.282	14230.78
654.633	14185.81
654.985	14313.27
655.337	14341.06
655.688	14341.29
656.039	14329.76
656.391	14207.28
656.742	14302.42
657.094	14267.85
657.445	14323.44
657.796	14293.16
658.147	14379.03
658.498	14308.97
658.849	14406.82
659.2	14337.45
659.551	14290.44
659.902	14411.34
660.253	14369.76
660.604	14428.29
660.955	14315.98
661.306	14355.53
661.656	14344.91
662.007	14398.24
662.358	14358.69
662.708	14442.98
663.059	14337.9
663.409	14262.42
663.76	14375.64
664.11	14437.78
664.461	14415.19
664.811	14460.38
665.161	14399.37
665.511	14407.73
665.862	14458.57
666.212	14440.5
666.562	14481.4
666.912	14479.37
667.262	14388.52
667.612	14441.4
667.962	14422.19
668.312	14394.85
668.662	14492.47
669.011	14440.27
669.361	14390.1
669.711	14403.89
670.06	14360.05
670.41	14297.22
670.76	14320.95
671.109	14426.03
671.459	14384
671.808	14305.81
672.157	14394.85
672.507	14243.67
672.856	14288.18
673.205	14247.73
673.554	14300.39
673.904	14327.96
674.253	14335.19
674.602	14288.64
674.951	14101.52
675.3	13981.07
675.649	14274.85
675.998	14160.73
676.346	14173.84
676.695	14236.21
677.044	14171.8
677.393	14141.75
677.741	14212.48
678.09	14098.58
678.438	14109.88
678.787	14073.95
679.135	14139.94
679.484	13967.06
679.832	14072.6
680.181	13981.98
680.529	14002.99
680.877	13965.71
681.225	14026.27
681.573	14008.87
681.922	13900.62
682.27	13834.86
682.618	13885.48
682.966	13933.16
683.314	13943.11
683.661	13815.43
684.009	13765.94
684.357	13754.19
684.705	13731.14
685.053	13700.63
685.4	13733.4
685.748	13655.43
686.095	13634.42
686.443	13618.6
686.79	13536.79
687.138	13528.88
687.485	13576.34
687.832	13506.06
688.18	13483.01
688.527	13361.88
688.874	13364.82
689.221	13352.62
689.568	13312.39
689.915	13255.22
690.262	13278.94
690.609	13224.26
690.956	13164.82
691.303	13117.14
691.65	13096.8
691.997	13040.76
692.344	12885.06
692.69	12970.48
693.037	12932.29
693.383	12820.43
693.73	12913.08
694.077	12768.68
694.423	12836.24
694.769	12634.67
695.116	12663.14
695.462	12619.98
695.808	12645.51
696.155	12672.18
696.501	12508.57
696.847	12478.29
697.193	12410.94
697.539	12450.72
697.885	12321.23
698.231	12279.2
698.577	12342.47
698.923	12332.53
699.269	12178.41
699.614	12131.63
699.96	12074.68
700.306	12042.59
700.651	12076.26
700.997	12024.74
701.342	11963.72
701.688	11920.79
702.033	11875.59
702.379	11891.86
702.724	11827.46
703.069	11775.48
703.415	11603.06
703.76	11651.87
704.105	11627.69
704.45	11536.62
704.795	11513.57
705.14	11460.24
705.485	11504.75
705.83	11415.26
706.175	11401.25
706.52	11391.08
706.865	11355.83
707.209	11298.21
707.554	11310.41
707.899	11252.11
708.243	11240.81
708.588	11127.81
708.932	11110.19
709.277	11199.9
709.621	11121.26
709.966	11015.95
710.31	11088.95
710.654	10950.64
710.998	10902.06
711.342	11040.59
711.687	10921.94
712.031	10880.82
712.375	10882.62
712.719	10886.01
713.063	10879.69
713.407	10789.74
713.75	10763.53
714.094	10748.62
714.438	10723.31
714.782	10707.71
715.125	10676.3
715.469	10737.32
715.812	10693.7
716.156	10586.59
716.499	10603.76
716.843	10577.77
717.186	10535.29
717.53	10497.32
717.873	10620.26
718.216	10506.81
718.559	10553.14
718.902	10409.42
719.246	10536.19
719.589	10528.28
719.932	10364.9
720.275	10446.7
720.617	10385.69
720.96	10401.96
721.303	10420.71
721.646	10412.58
721.989	10328.06
722.331	10324.67
722.674	10291
723.016	10392.24
723.359	10291.9
723.701	10295.29
724.044	10251.45
724.386	10206.71
724.729	10263.66
725.071	10187.27
725.413	10268.4
725.755	10206.03
726.097	10164.22
726.439	10102.3
726.782	10180.27
727.124	10183.43
727.465	10185.92
727.807	10123.77
728.149	10075.64
728.491	10124.23
728.833	10161.51
729.175	10130.33
729.516	10087.39
729.858	10091.91
730.199	10124.23
730.541	10125.58
730.882	10128.52
731.224	10139.37
731.565	10055.75
731.906	10015.53
732.248	10107.05
732.589	10071.8
732.93	9980.73
733.271	10011.91
733.612	10116.09
733.953	10063.44
734.294	10041.97
734.635	10039.03
734.976	10027.96
735.317	9961.07
735.658	10039.48
735.999	10117.67
736.339	10006.04
736.68	10074.51
737.021	10029.09
737.361	10008.07
737.702	10090.1
738.042	10078.8
738.383	10066.83
738.723	10113.6
739.063	10025.02
739.404	10129.2
739.744	10122.64
740.084	10046.71
740.424	10121.51
740.764	10150.67
741.104	10171.23
741.444	10136.88
741.784	10160.16
742.124	10158.8
742.464	10176.43
742.804	10222.3
743.143	10198.35
743.483	10247.39
743.823	10263.2
744.162	10300.27
744.502	10290.55
744.841	10322.41
745.181	10373.94
745.52	10389.53
745.86	10464.1
746.199	10488.51
746.538	10516.98
746.877	10574.83
747.216	10677.43
747.556	10696.41
747.895	10734.83
748.234	10671.56
748.573	10785.22
748.911	10862.29
749.25	10950.87
749.589	10990.42
749.928	11046.01
750.267	11145.89
750.605	11144.99
750.944	11172.33
751.283	11222.73
751.621	11373.68
751.96	11392.67
752.298	11555.6
752.636	11636.5
752.975	11696.61
753.313	11798.98
753.651	12044.4
753.989	12023.38
754.327	12090.28
754.666	12175.7
755.004	12333.43
755.342	12507.44
755.679	12633.09
756.017	12612.97
756.355	12780.43
756.693	12966.64
757.031	13109.46
757.368	13158.95
757.706	13263.35
758.044	13450.24
758.381	13596
758.719	13610.69
759.056	13819.5
759.394	13937.23
759.731	13984.24
