Data from hue_140_FLMS001491_00082.txt Node
Date: Tue Feb 07 16:56:31 GMT 2017
User: dcchb
Spectrometer: FLMS00149
Trigger mode: 0
Integration Time (sec): 2.000000E-2
Scans to average: 10
Electric dark correction enabled: true
Nonlinearity correction enabled: false
Boxcar width: 0
XAxis mode: Wavelengths
Number of Pixels in Spectrum: 2048
>>>>>Begin Spectral Data<<<<<
341.393	6.24
341.776	6.24
342.16	6.24
342.543	-38.05
342.927	-44.6
343.31	-46.19
343.693	-82.57
344.077	-57.94
344.46	-61.33
344.843	-63.13
345.226	-59.97
345.61	-8.67
345.993	-28.33
346.376	-23.36
346.759	4.89
347.142	24.77
347.525	59.12
347.908	67.03
348.291	79.24
348.674	90.99
349.057	105.45
349.44	132.34
349.823	135.28
350.206	164.2
350.588	179.35
350.971	207.82
351.354	223.64
351.737	229.97
352.119	255.5
352.502	274.94
352.884	278.55
353.267	275.61
353.65	265.9
354.032	291.66
354.414	327.14
354.797	290.53
355.179	335.73
355.562	332.79
355.944	334.6
356.326	335.95
356.709	313.81
357.091	336.4
357.473	350.64
357.855	360.81
358.238	342.51
358.62	320.81
359.002	323.52
359.384	335.5
359.766	340.47
360.148	332.56
360.53	341.83
360.912	342.73
361.294	333.69
361.676	334.6
362.057	310.42
362.439	348.83
362.821	338.44
363.203	329.17
363.584	324.65
363.966	341.38
364.348	323.75
364.729	340.92
365.111	331.21
365.493	328.49
365.874	300.7
366.256	316.74
366.637	311.09
367.019	310.87
367.4	319.68
367.781	326.91
368.163	324.2
368.544	310.87
368.925	311.32
369.306	307.25
369.688	324.2
370.069	299.12
370.45	313.35
370.831	326.01
371.212	317.42
371.593	312
371.974	302.51
372.355	300.7
372.736	309.51
373.117	309.51
373.498	320.58
373.879	321.04
374.26	316.29
374.641	316.29
375.021	301.6
375.402	315.61
375.783	340.02
376.163	349.74
376.544	314.71
376.925	310.19
377.305	316.97
377.686	336.4
378.066	313.35
378.447	320.81
378.827	304.77
379.208	315.39
379.588	330.98
379.968	326.23
380.349	351.54
380.729	328.49
381.109	330.53
381.489	341.38
381.87	329.4
382.25	342.73
382.63	337.99
383.01	342.28
383.39	351.09
383.77	340.92
384.15	340.47
384.53	326.91
384.91	333.47
385.29	361.94
385.67	340.92
386.049	356.06
386.429	337.53
386.809	354.93
387.189	346.12
387.568	337.76
387.948	354.03
388.328	350.87
388.707	353.8
389.087	363.52
389.466	344.54
389.846	370.75
390.225	381.83
390.605	360.58
390.984	355.84
391.363	345.44
391.743	361.26
392.122	387.48
392.501	380.47
392.881	368.95
393.26	377.98
393.639	348.61
394.018	368.27
394.397	367.82
394.776	372.33
395.155	382.73
395.534	372.33
395.913	377.53
396.292	395.39
396.671	387.02
397.05	392.45
397.429	365.56
397.808	391.32
398.186	386.57
398.565	388.38
398.944	396.51
399.323	400.81
399.701	383.41
400.08	401.94
400.458	383.18
400.837	382.96
401.215	406.23
401.594	405.78
401.972	408.72
402.351	405.55
402.729	405.1
403.107	398.77
403.486	393.13
403.864	414.37
404.242	403.29
404.62	402.62
404.999	405.1
405.377	414.37
405.755	429.28
406.133	413.69
406.511	428.83
406.889	424.99
407.267	431.77
407.645	420.47
408.023	437.42
408.401	447.81
408.779	401.71
409.156	436.06
409.534	437.19
409.912	430.64
410.29	452.78
410.667	442.16
411.045	443.97
411.422	438.77
411.8	453.91
412.178	460.24
412.555	467.7
412.933	474.93
413.31	466.12
413.687	472.45
414.065	469.96
414.442	460.92
414.819	479.45
415.197	476.96
415.574	482.16
415.951	475.61
416.328	476.06
416.705	483.29
417.082	471.09
417.46	506.57
417.837	493.24
418.214	498.89
418.591	505.21
418.967	516.06
419.344	522.61
419.721	512.9
420.098	493.01
420.475	520.13
420.852	523.74
421.228	526.23
421.605	507.47
421.982	527.13
422.358	529.17
422.735	532.1
423.111	543.86
423.488	543.86
423.864	540.01
424.241	573.23
424.617	545.89
424.994	547.47
425.37	566.23
425.746	549.73
426.123	556.28
426.499	563.74
426.875	563.97
427.251	591.31
427.627	588.6
428.003	578.88
428.379	596.51
428.756	593.57
429.132	577.98
429.507	606.23
429.883	612.33
430.259	635.15
430.635	625.66
431.011	631.99
431.387	627.24
431.763	640.58
432.138	627.02
432.514	621.37
432.89	650.07
433.265	629.28
433.641	655.94
434.016	655.49
434.392	672.21
434.767	664.08
435.143	679.45
435.518	683.06
435.894	718.99
436.269	697.3
436.644	692.55
437.02	708.6
437.395	716.28
437.77	722.83
438.145	729.61
438.52	721.93
438.895	744.75
439.271	738.2
439.646	732.33
440.021	755.15
440.395	741.14
440.77	749.27
441.145	790.85
441.52	777.3
441.895	803.74
442.27	760.57
442.645	782.72
443.019	800.8
443.394	811.19
443.769	812.55
444.143	789.72
444.518	838.09
444.892	821.59
445.267	797.63
445.641	821.59
446.016	823.85
446.39	836.28
446.764	849.84
447.139	836.28
447.513	822.49
447.887	830.18
448.262	836.5
448.636	845.77
449.01	857.52
449.384	858.2
449.758	876.28
450.132	882.38
450.506	893
450.88	901.59
451.254	932.55
451.628	896.16
452.002	934.58
452.376	930.29
452.75	929.83
453.123	937.29
453.497	939.33
453.871	970.06
454.244	951.75
454.618	986.33
454.992	1001.7
455.365	998.08
455.739	1026.55
456.112	1014.35
456.486	1060.45
456.859	1013.9
457.232	1041.47
457.606	1048.48
457.979	1063.62
458.352	1091.86
458.725	1093.67
459.099	1115.37
459.472	1134.35
459.845	1137.51
460.218	1160.56
460.591	1170.05
460.964	1167.57
461.337	1189.49
461.71	1201.69
462.083	1218.41
462.456	1242.82
462.829	1229.26
463.201	1278.98
463.574	1290.5
463.947	1299.77
464.32	1335.93
464.692	1309.26
465.065	1339.09
465.438	1369.82
465.81	1411.63
466.183	1407.79
466.555	1444.62
466.928	1448.46
467.3	1432.87
467.672	1485.98
468.045	1529.82
468.417	1529.82
468.789	1549.25
469.161	1536.82
469.534	1597.16
469.906	1626.09
470.278	1623.15
470.65	1685.29
471.022	1724.16
471.394	1742.69
471.766	1770.94
472.138	1792.41
472.51	1815.91
472.882	1873.99
473.253	1923.48
473.625	1932.07
473.997	1996.47
474.369	2003.03
474.74	2073.31
475.112	2132.51
475.484	2176.81
475.855	2203.93
476.227	2251.16
476.598	2309.23
476.97	2349.23
477.341	2463.81
477.713	2501.54
478.084	2581.99
478.455	2633.97
478.827	2682.33
479.198	2794.42
479.569	2810.46
479.94	2982.21
480.311	2983.34
480.682	3058.37
481.053	3137.01
481.424	3228.76
481.795	3330.9
482.166	3437.11
482.537	3482.76
482.908	3592.82
483.279	3683.89
483.65	3758.23
484.021	3899.93
484.391	4000.94
484.762	4070.32
485.133	4159.13
485.503	4263.53
485.874	4393.25
486.244	4518.67
486.615	4667.59
486.985	4666.91
487.356	4871.65
487.726	5002.5
488.097	5110.52
488.467	5208.82
488.837	5342.37
489.207	5473.44
489.578	5635.47
489.948	5749.82
490.318	5852.42
490.688	5933.32
491.058	6111.17
491.428	6227.55
491.798	6371.05
492.168	6542.79
492.538	6646.29
492.908	6740.3
493.278	6900.3
493.648	6949.34
494.017	7198.14
494.387	7238.37
494.757	7393.62
495.126	7508.64
495.496	7605.14
495.866	7724.46
496.235	7786.15
496.605	7962.19
496.974	8062.08
497.344	8229.76
497.713	8262.75
498.082	8391.33
498.452	8627.71
498.821	8678.56
499.19	8744.77
499.559	8789.74
499.928	8961.71
500.298	8972.79
500.667	9134.82
501.036	9159.9
501.405	9351.99
501.774	9333.68
502.143	9562.6
502.512	9518.76
502.88	9670.17
503.249	9725.31
503.618	9804.63
503.987	9820.67
504.356	9893.89
504.724	10058.41
505.093	10072.87
505.462	10215.92
505.83	10274.45
506.199	10361
506.567	10416.14
506.936	10417.27
507.304	10626.98
507.672	10606.87
508.041	10686.41
508.409	10790.37
508.777	10864.49
509.145	10967.08
509.514	10940.64
509.882	10972.73
510.25	11012.96
510.618	11193.75
510.986	11135.22
511.354	11291.82
511.722	11308.32
512.09	11343.8
512.458	11455.43
512.826	11435.32
513.193	11502.89
513.561	11491.36
513.929	11573.4
514.297	11671.7
514.664	11763.67
515.032	11682.77
515.4	11751.7
515.767	11802.09
516.135	11874.18
516.502	11766.16
516.869	12015.42
517.237	11939.49
517.604	11921.64
517.972	11989.88
518.339	12059.49
518.706	12017.68
519.073	12007.06
519.44	12094.51
519.808	12205.92
520.175	12136.32
520.542	12266.26
520.909	12311.91
521.276	12274.39
521.643	12385.8
522.009	12422.41
522.376	12379.93
522.743	12501.96
523.11	12499.02
523.477	12600.26
523.843	12552.81
524.21	12633.48
524.577	12655.4
524.943	12753.03
525.31	12715.29
525.676	12809.07
526.043	12767.26
526.409	12724.33
526.776	12871.67
527.142	12835.28
527.508	12859.92
527.874	12898.79
528.241	12836.64
528.607	12966.81
528.973	12955.73
529.339	12813.82
529.705	12889.75
530.071	12925.9
530.437	12993.25
530.803	12977.2
531.169	13052.45
531.535	12929.97
531.901	12868.05
532.267	12871.22
532.632	12982.62
532.998	12938.78
533.364	13012
533.73	12942.85
534.095	12983.75
534.461	12879.12
534.826	12903.76
535.192	12918.22
535.557	12913.93
535.923	12961.38
536.288	12804.55
536.653	12845
537.019	12796.41
537.384	12769.52
537.749	12719.81
538.114	12769.75
538.479	12705.57
538.845	12769.97
539.21	12587.61
539.575	12666.25
539.94	12627.61
540.305	12634.61
540.67	12543.54
541.034	12581.05
541.399	12565.69
541.764	12422.64
542.129	12419.25
542.494	12408.63
542.858	12447.27
543.223	12360.27
543.587	12402.3
543.952	12321.17
544.316	12311.23
544.681	12229.88
545.045	12241.85
545.41	12305.81
545.774	12217
546.138	12127.51
546.503	12143.1
546.867	12131.57
547.231	12122.53
547.595	12032.59
547.959	12076.43
548.324	12061.97
548.688	12014.29
549.052	11997.34
549.416	11916.21
549.779	11873.73
550.143	11853.61
550.507	11847.06
550.871	11790.11
551.235	11793.28
551.599	11879.38
551.962	11773.17
552.326	11758.02
552.689	11861.52
553.053	11711.47
553.417	11642.1
553.78	11663.56
554.143	11598.25
554.507	11617.24
554.87	11658.82
555.234	11678.7
555.597	11563.23
555.96	11545.37
556.323	11505.6
556.686	11552.38
557.05	11603.23
557.413	11575.88
557.776	11468.09
558.139	11505.15
558.502	11558.93
558.865	11401.65
559.228	11480.97
559.59	11471.93
559.953	11405.04
560.316	11530.91
560.679	11480.97
561.041	11538.82
561.404	11430.8
561.767	11605.49
562.129	11569.55
562.492	11557.13
562.854	11485.94
563.217	11511.48
563.579	11554.64
563.941	11572.04
564.304	11543.57
564.666	11567.52
565.028	11606.84
565.39	11536.11
565.753	11574.98
566.115	11674.18
566.477	11631.47
566.839	11653.39
567.201	11625.6
567.563	11572.72
567.925	11725.03
568.287	11650.46
568.648	11642.1
569.01	11675.54
569.372	11802.32
569.734	11720.96
570.095	11721.64
570.457	11716.9
570.819	11737.69
571.18	11772.94
571.542	11769.78
571.903	11809.55
572.265	11766.39
572.626	11847.97
572.987	11844.12
573.349	11832.15
573.71	11863.33
574.071	11860.85
574.432	11835.08
574.794	11878.25
575.155	11875.08
575.516	11827.4
575.877	11879.6
576.238	11942.2
576.599	11951.92
576.96	11919.38
577.32	11907.4
577.681	11872.82
578.042	11952.14
578.403	11824.69
578.763	11984.68
579.124	11836.67
579.485	11904.69
579.845	11923.67
580.206	11918.47
580.566	11959.83
580.927	11906.72
581.287	11965.02
581.648	11903.33
582.008	11937.23
582.368	11933.84
582.728	11928.64
583.089	11931.13
583.449	11951.69
583.809	11922.77
584.169	11945.59
584.529	11830.79
584.889	12029.43
585.249	11856.33
585.609	11841.86
585.969	12002.09
586.329	11883.9
586.688	11928.87
587.048	11827.17
587.408	11842.77
587.768	11726.16
588.127	11720.29
588.487	11749.66
588.846	11817.68
589.206	11737.01
589.565	11735.65
589.925	11756.22
590.284	11787.63
590.643	11755.54
591.003	11801.86
591.362	11852.94
591.721	11809.32
592.08	11805.71
592.44	11726.84
592.799	11793.05
593.158	11715.54
593.517	11691.13
593.876	11713.28
594.235	11704.01
594.593	11678.93
594.952	11721.19
595.311	11606.84
595.67	11640.51
596.029	11697.91
596.387	11765.03
596.746	11786.95
597.104	11738.82
597.463	11676.9
597.822	11757.35
598.18	11659.27
598.538	11668.76
598.897	11725.71
599.255	11557.8
599.613	11743.79
599.972	11739.04
600.33	11698.59
600.688	11643.9
601.046	11693.39
601.404	11686.84
601.762	11670.79
602.12	11710.12
602.478	11736.56
602.836	11708.31
603.194	11697.23
603.552	11629.44
603.91	11584.47
604.268	11697.69
604.625	11685.03
604.983	11700.17
605.341	11707.63
605.698	11740.85
606.056	11696.33
606.413	11713.51
606.771	11763.67
607.128	11728.65
607.485	11702.21
607.843	11766.61
608.2	11784.24
608.557	11747.85
608.914	11683.68
609.272	11716.67
609.629	11722.77
609.986	11784.92
610.343	11765.48
610.7	11817.01
611.057	11832.6
611.414	11855.87
611.771	11783.11
612.127	11813.39
612.484	11855.42
612.841	11818.81
613.198	11804.8
613.554	11800.51
613.911	11811.36
614.267	11843.22
614.624	11834.86
614.98	11852.94
615.337	11993.72
615.693	11846.16
616.05	11783.11
616.406	11957.57
616.762	11893.61
617.118	11918.92
617.475	11869.21
617.831	11909.66
618.187	11962.99
618.543	11923.44
618.899	11964.12
619.255	11931.8
619.611	11977.91
619.967	11956.44
620.323	12056.1
620.678	11988.3
621.034	12008.19
621.39	11998.02
621.746	11883.67
622.101	12068.75
622.457	11949.43
622.812	11983.78
623.168	12064.23
623.523	11981.97
623.879	12041.86
624.234	12015.87
624.589	12161.4
624.945	12002.99
625.3	12061.74
625.655	12097.45
626.01	11980.84
626.365	12017.23
626.72	12008.41
627.075	11925.93
627.43	12035.98
627.785	11947.17
628.14	11921.86
628.495	12014.51
628.85	12027.4
629.205	11937.91
629.559	12048.64
629.914	11918.7
630.269	12039.15
630.623	11974.97
630.978	11944.46
631.332	11970.22
631.687	11920.28
632.041	11893.84
632.396	11948.08
632.75	11932.26
633.104	11922.09
633.459	11839.83
633.813	11785.82
634.167	11918.92
634.521	11942.65
634.875	11856.55
635.229	11777.91
635.583	11690.23
635.937	11715.77
636.291	11653.17
636.645	11717.35
636.999	11646.84
637.352	11697.46
637.706	11678.48
638.06	11672.38
638.413	11585.6
638.767	11607.75
639.121	11612.94
639.474	11605.49
639.828	11637.58
640.181	11630.34
640.534	11587.18
640.888	11583.11
641.241	11517.13
641.594	11545.83
641.947	11612.72
642.301	11598.03
642.654	11475.09
643.007	11575.66
643.36	11555.09
643.713	11476.45
644.066	11486.62
644.419	11438.26
644.771	11439.39
645.124	11293.18
645.477	11260.18
645.83	11232.84
646.182	11191.26
646.535	11179.51
646.888	11207.08
647.24	11092.05
647.593	11216.34
647.945	11163.24
648.298	11005.5
648.65	11051.15
649.002	10999.17
649.355	11073.75
649.707	11078.72
650.059	11163.92
650.411	11291.14
650.763	11285.04
651.115	11423.34
651.467	11375.89
651.819	11364.14
652.171	11339.05
652.523	11350.13
652.875	11365.49
653.227	11260.18
653.578	11309.45
653.93	11261.77
654.282	11276.68
654.633	11332.95
654.985	11328.66
655.337	11322.78
655.688	11326.17
656.039	11361.2
656.391	11290.69
656.742	11322.1
657.094	11323.46
657.445	11403.01
657.796	11304.25
658.147	11332.05
658.498	11377.47
658.849	11427.86
659.2	11402.33
659.551	11342.89
659.902	11377.92
660.253	11309.45
660.604	11314.42
660.955	11254.08
661.306	11354.64
661.656	11322.78
662.007	11305.15
662.358	11378.6
662.708	11343.35
663.059	11320.75
663.409	11263.8
663.76	11345.61
664.11	11355.1
664.461	11458.15
664.811	11384.25
665.161	11413.63
665.511	11423.12
665.862	11384.93
666.212	11462.89
666.562	11455.66
666.912	11332.27
667.262	11327.3
667.612	11375.66
667.962	11396
668.312	11413.85
668.662	11444.13
669.011	11384.02
669.361	11344.48
669.711	11401.65
670.06	11375.44
670.41	11304.25
670.76	11360.29
671.109	11410.69
671.459	11362.78
671.808	11329.33
672.157	11379.05
672.507	11232.84
672.856	11250.92
673.205	11318.71
673.554	11281.65
673.904	11257.02
674.253	11300.41
674.602	11234.2
674.951	11157.14
675.3	11083.47
675.649	11265.61
675.998	11218.83
676.346	11138.38
676.695	11292.95
677.044	11163.24
677.393	11190.13
677.741	11228.55
678.09	11160.3
678.438	11207.53
678.787	11126.85
679.135	11116.23
679.484	11095.44
679.832	11120.98
680.181	11073.3
680.529	11062.45
680.877	11084.6
681.225	10984.94
681.573	11119.4
681.922	10949.46
682.27	10956.92
682.618	10963.24
682.966	10954.2
683.314	10962.11
683.661	10919.18
684.009	10857.71
684.357	10851.83
684.705	10798.73
685.053	10870.82
685.4	10792.63
685.748	10693.19
686.095	10779.97
686.443	10692.97
686.79	10703.14
687.138	10692.97
687.485	10651.39
687.832	10578.62
688.18	10648.67
688.527	10576.13
688.874	10502.46
689.221	10507.21
689.568	10425.86
689.915	10486.42
690.262	10475.35
690.609	10427.44
690.956	10340.66
691.303	10315.8
691.65	10331.62
691.997	10307.89
692.344	10253.43
692.69	10188.57
693.037	10189.03
693.383	10163.49
693.73	10169.14
694.077	10042.36
694.423	9991.06
694.769	10061.35
695.116	9982.03
695.462	9946.09
695.808	9925.08
696.155	9968.69
696.501	9887.34
696.847	9930.5
697.193	9811.86
697.539	9904.51
697.885	9723.73
698.231	9670.4
698.577	9711.98
698.923	9537.74
699.269	9566.67
699.614	9585.43
699.96	9511.98
700.306	9516.73
700.651	9404.41
700.997	9391.31
701.342	9343.4
701.688	9359.9
702.033	9308.37
702.379	9376.62
702.724	9253.23
703.069	9262.72
703.415	9175.95
703.76	9170.07
704.105	9121.03
704.45	9139.11
704.795	9080.81
705.14	9013.92
705.485	9101.37
705.83	9006.68
706.175	8994.48
706.52	8977.08
706.865	8938.21
707.209	8933.01
707.554	8879.68
707.899	8944.09
708.243	8836.07
708.588	8834.03
708.932	8748.39
709.277	8715.39
709.621	8801.27
709.966	8707.71
710.31	8669.07
710.654	8624.32
710.998	8697.99
711.342	8591.78
711.687	8618.22
712.031	8541.84
712.375	8498.45
712.719	8563.76
713.063	8537.77
713.407	8565.57
713.75	8509.97
714.094	8463.42
714.438	8476.3
714.782	8419.13
715.125	8459.58
715.469	8504.1
715.812	8342.97
716.156	8359.02
716.499	8393.37
716.843	8397.89
717.186	8347.49
717.53	8345.46
717.873	8366.02
718.216	8350.66
718.559	8283.77
718.902	8172.81
719.246	8206.03
719.589	8256.65
719.932	8160.38
720.275	8224.56
720.617	8143.43
720.96	8205.12
721.303	8246.03
721.646	8152.7
721.989	8124.22
722.331	8186.37
722.674	8131.9
723.016	8136.88
723.359	8191.11
723.701	8202.41
724.044	8134.84
724.386	8052.81
724.729	8159.02
725.071	8153.37
725.413	8144.11
725.755	8128.06
726.097	8056.88
726.439	8050.55
726.782	8072.47
727.124	8196.31
727.465	8079.93
727.807	8035.41
728.149	8071.79
728.491	8011.91
728.833	8046.48
729.175	8047.84
729.516	8036.77
729.858	8011.91
730.199	7989.31
730.541	8012.81
730.882	7975.98
731.224	8014.62
731.565	7985.92
731.906	7959.93
732.248	8014.17
732.589	7914.28
732.93	7945.02
733.271	7964.68
733.612	7940.27
733.953	8031.34
734.294	7950.44
734.635	7928.52
734.976	8006.48
735.317	7896.2
735.658	7935.3
735.999	7945.7
736.339	7983.21
736.68	7994.73
737.021	7997.45
737.361	7966.94
737.702	8026.6
738.042	7992.02
738.383	7934.4
738.723	8000.16
739.063	8006.26
739.404	7974.62
739.744	8048.07
740.084	8047.39
740.424	8012.36
740.764	8041.06
741.104	8118.8
741.444	8114.05
741.784	8030.21
742.124	8055.3
742.464	8108.63
742.804	8107.27
743.143	8061.17
743.483	8142.3
743.823	8100.27
744.162	8189.3
744.502	8217.33
744.841	8207.16
745.181	8325.8
745.52	8243.31
745.86	8330.54
746.199	8350.2
746.538	8367.83
746.877	8398.79
747.216	8503.65
747.556	8531.67
747.895	8542.29
748.234	8635.39
748.573	8604.89
748.911	8677.65
749.25	8746.8
749.589	8758.33
749.928	8872
750.267	8959
750.605	9011.66
750.944	9070.64
751.283	9104.99
751.621	9180.46
751.96	9228.6
752.298	9352.21
752.636	9436.5
752.975	9509.5
753.313	9547.23
753.651	9768.7
753.989	9780.68
754.327	9919.65
754.666	9899.09
755.004	10066.32
755.342	10232.64
755.679	10397.61
756.017	10532.07
756.355	10516.02
756.693	10696.36
757.031	10904.26
757.368	10929.8
757.706	11139.74
758.044	11177.7
758.381	11388.32
758.719	11491.59
759.056	11654.52
759.394	11840.73
759.731	11893.84
760.068	12055.42
