Data from hue_32_FLMS001491_00057.txt Node
Date: Tue Feb 07 17:23:36 GMT 2017
User: dcchb
Spectrometer: FLMS00149
Trigger mode: 0
Integration Time (sec): 2.000000E-2
Scans to average: 10
Electric dark correction enabled: true
Nonlinearity correction enabled: false
Boxcar width: 0
XAxis mode: Wavelengths
Number of Pixels in Spectrum: 2048
>>>>>Begin Spectral Data<<<<<
341.393	-3.3
341.776	-3.3
342.16	-3.3
342.543	-68.84
342.927	-59.8
343.31	-67.26
343.693	-76.75
344.077	-66.13
344.46	-59.12
344.843	-54.38
345.226	-45.79
345.61	-19.8
345.993	-15.06
346.376	1.44
346.759	8.45
347.142	22.91
347.525	43.47
347.908	55.68
348.291	66.52
348.674	90.25
349.057	115.56
349.44	125.05
349.823	147.43
350.206	174.32
350.588	191.49
350.971	238.5
351.354	222.9
351.737	233.52
352.119	260.87
352.502	259.74
352.884	259.74
353.267	279.4
353.65	313.97
354.032	313.52
354.414	313.97
354.797	323.24
355.179	314.65
355.562	341.09
355.944	347.87
356.326	354.88
356.709	346.29
357.091	334.99
357.473	341.32
357.855	334.54
358.238	351.26
358.62	349.68
359.002	340.19
359.384	341.77
359.766	366.18
360.148	338.38
360.53	340.87
360.912	342.67
361.294	343.8
361.676	334.77
362.057	335.22
362.439	351.04
362.821	328.66
363.203	346.74
363.584	331.38
363.966	327.53
364.348	334.09
364.729	337.03
365.111	328.21
365.493	328.21
365.874	306.29
366.256	346.97
366.637	308.55
367.019	326.86
367.4	313.3
367.781	344.26
368.163	332.28
368.544	342
368.925	311.71
369.306	333.41
369.688	331.6
370.069	314.65
370.45	315.1
370.831	337.48
371.212	315.1
371.593	321.88
371.974	327.76
372.355	327.76
372.736	322.56
373.117	327.31
373.498	334.99
373.879	331.6
374.26	321.66
374.641	317.82
375.021	317.36
375.402	324.6
375.783	324.14
376.163	321.66
376.544	336.12
376.925	342.22
377.305	305.84
377.686	334.54
378.066	328.44
378.447	338.61
378.827	338.15
379.208	343.8
379.588	349.23
379.968	345.61
380.349	354.88
380.729	355.56
381.109	328.66
381.489	362.34
381.87	327.53
382.25	367.31
382.63	352.62
383.01	346.97
383.39	356.23
383.77	332.73
384.15	335.67
384.53	340.87
384.91	367.53
385.29	346.06
385.67	373.18
386.049	349
386.429	344.03
386.809	365.72
387.189	346.06
387.568	369.57
387.948	387.42
388.328	377.02
388.707	369.34
389.087	345.16
389.466	383.35
389.846	377.02
390.225	381.32
390.605	370.7
390.984	375.22
391.363	372.28
391.743	406.4
392.122	376.8
392.501	376.8
392.881	377.25
393.26	384.48
393.639	384.03
394.018	368.89
394.397	394.42
394.776	392.84
395.155	383.8
395.534	406.85
395.913	379.28
396.292	393.07
396.671	400.98
397.05	382.9
397.429	384.71
397.808	396.23
398.186	417.02
398.565	410.7
398.944	382.67
399.323	407.08
399.701	404.37
400.08	416.12
400.458	418.15
400.837	422.45
401.215	397.81
401.594	426.97
401.972	415.67
402.351	400.98
402.729	424.25
403.107	422.67
403.486	423.8
403.864	431.26
404.242	422.45
404.62	438.49
404.999	440.07
405.377	428.32
405.755	444.82
406.133	447.08
406.511	422.22
406.889	435.78
407.267	460.41
407.645	443.24
408.023	437.81
408.401	470.35
408.779	442.56
409.156	455.89
409.534	458.83
409.912	447.98
410.29	445.5
410.667	462.67
411.045	473.52
411.422	485.04
411.8	472.39
412.178	473.74
412.555	480.07
412.933	479.62
413.31	479.62
413.687	489.34
414.065	470.35
414.442	498.6
414.819	488.21
415.197	502.9
415.574	494.99
415.951	507.64
416.328	499.96
416.705	527.3
417.082	502.22
417.46	504.25
417.837	499.51
418.214	512.84
418.591	511.94
418.967	525.27
419.344	565.04
419.721	531.14
420.098	513.07
420.475	544.25
420.852	542.22
421.228	539.51
421.605	538.15
421.982	530.69
422.358	535.21
422.735	547.64
423.111	569.11
423.488	574.31
423.864	569.34
424.241	575.66
424.617	577.7
424.994	565.04
425.37	572.05
425.746	591.71
426.123	593.06
426.499	596.23
426.875	602.33
427.251	598.26
427.627	621.09
428.003	609.33
428.379	613.18
428.756	596
429.132	612.05
429.507	608.43
429.883	628.32
430.259	627.86
430.635	644.14
431.011	620.41
431.387	635.77
431.763	654.53
432.138	671.93
432.514	683.91
432.89	648.2
433.265	681.65
433.641	678.26
434.016	688.65
434.392	692.27
434.767	701.54
435.143	708.31
435.518	715.09
435.894	716.22
436.269	716.45
436.644	708.09
437.02	705.15
437.395	718.94
437.77	735.88
438.145	755.32
438.52	737.01
438.895	760.97
439.271	757.58
439.646	766.17
440.021	761.87
440.395	774.08
440.77	787.86
441.145	776.79
441.52	779.73
441.895	808.65
442.27	778.82
442.645	794.64
443.019	793.74
443.394	783.34
443.769	805.94
444.143	803.23
444.518	827.86
444.892	801.87
445.267	815.43
445.641	845.71
446.016	832.15
446.39	833.28
446.764	849.55
447.139	830.35
447.513	856.33
447.887	860.63
448.262	838.25
448.636	862.89
449.01	855.43
449.384	864.47
449.758	860.18
450.132	867.18
450.506	894.07
450.88	904.24
451.254	888.42
451.628	876.22
452.002	892.94
452.376	914.19
452.75	918.48
453.123	921.87
453.497	932.72
453.871	960.06
454.244	947.63
454.618	972.71
454.992	971.81
455.365	974.3
455.739	999.15
456.112	1021.53
456.486	1010.68
456.859	1037.8
457.232	1015.2
457.606	1039.38
457.979	1024.01
458.352	1038.02
458.725	1035.54
459.099	1071.69
459.472	1086.38
459.845	1113.28
460.218	1096.78
460.591	1117.12
460.964	1152.6
461.337	1150.56
461.71	1170.9
462.083	1165.93
462.456	1176.78
462.829	1177.45
463.201	1184.91
463.574	1240.05
463.947	1230.79
464.32	1263.55
464.692	1254.74
465.065	1258.36
465.438	1292.48
465.81	1311.69
466.183	1339.71
466.555	1369.09
466.928	1345.13
467.3	1347.85
467.672	1398.69
468.045	1404.57
468.417	1410.22
468.789	1422.19
469.161	1443.44
469.534	1466.03
469.906	1549.65
470.278	1508.29
470.65	1526.6
471.022	1590.55
471.394	1604.34
471.766	1584.45
472.138	1640.49
472.51	1643.21
472.882	1717.1
473.253	1709.64
473.625	1772.92
473.997	1787.83
474.369	1808.62
474.74	1837.32
475.112	1882.75
475.484	1878.23
475.855	1928.62
476.227	1978.34
476.598	2046.81
476.97	2075.74
477.341	2094.27
477.713	2147.82
478.084	2166.58
478.455	2247.71
478.827	2296.75
479.198	2337.2
479.569	2392.79
479.94	2421.49
480.311	2477.31
480.682	2535.39
481.053	2597.53
481.424	2654.7
481.795	2722.5
482.166	2792.78
482.537	2828.71
482.908	2928.37
483.279	2922.72
483.65	3010.85
484.021	3106.67
484.391	3194.58
484.762	3232.32
485.133	3311.18
485.503	3365.42
485.874	3428.7
486.244	3534.23
486.615	3580.1
486.985	3714.34
487.356	3796.6
487.726	3815.8
488.097	3972.64
488.467	3972.64
488.837	4056.93
489.207	4141.44
489.578	4239.07
489.948	4357.26
490.318	4413.3
490.688	4425.05
491.058	4526.07
491.428	4589.34
491.798	4718.38
492.168	4845.61
492.538	4921.99
492.908	4953.85
493.278	5051.7
493.648	5162.66
494.017	5184.58
494.387	5267.74
494.757	5319.04
495.126	5401.3
495.496	5514.97
495.866	5559.71
496.235	5611.24
496.605	5687.17
496.974	5771.68
497.344	5848.07
497.713	5906.82
498.082	5921.28
498.452	6064.11
498.821	6140.49
499.19	6156.76
499.559	6236.3
499.928	6321.95
500.298	6384.32
500.667	6482.85
501.036	6505.9
501.405	6576.86
501.774	6593.81
502.143	6661.6
502.512	6693.47
502.88	6798.78
503.249	6808.49
503.618	6928.04
503.987	6958.09
504.356	7030.41
504.724	7088.94
505.093	7065.44
505.462	7171.2
505.83	7201.93
506.199	7248.03
506.567	7381.36
506.936	7350.17
507.304	7474.01
507.672	7538.64
508.041	7578.19
508.409	7579.55
508.777	7711.97
509.145	7723.5
509.514	7732.54
509.882	7895.92
510.25	7885.08
510.618	7929.59
510.986	8014.34
511.354	8048.91
511.722	8150.6
512.09	8208.23
512.458	8171.4
512.826	8300.21
513.193	8294.56
513.561	8388.56
513.929	8433.08
514.297	8521.22
514.664	8524.83
515.032	8532.06
515.4	8604.83
515.767	8598.95
516.135	8685.96
516.502	8647.09
516.869	8779.97
517.237	8802.11
517.604	8852.73
517.972	8892.28
518.339	8928.21
518.706	8954.65
519.073	8993.07
519.44	9087.76
519.808	9153.06
520.175	9113.29
520.542	9280.52
520.909	9274.64
521.276	9266.51
521.643	9387.86
522.009	9496.11
522.376	9509.89
522.743	9618.36
523.11	9655.65
523.477	9725.25
523.843	9781.3
524.21	9837.57
524.577	9880.5
524.943	9998.47
525.31	9999.14
525.676	10106.26
526.043	10157.56
526.409	10136.99
526.776	10226.71
527.142	10312.36
527.508	10314.62
527.874	10412.69
528.241	10514.38
528.607	10544.89
528.973	10649.52
529.339	10565.91
529.705	10774.49
530.071	10767.49
530.437	10846.35
530.803	10908.95
531.169	10935.16
531.535	10953.02
531.901	10905.11
532.267	10972.9
532.632	11075.95
532.998	11154.14
533.364	11198.89
533.73	11236.85
534.095	11294.48
534.461	11408.37
534.826	11405.43
535.192	11461.93
535.557	11532.66
535.923	11545.09
536.288	11656.5
536.653	11734.47
537.019	11610.85
537.384	11736.5
537.749	11793.9
538.114	11765.88
538.479	11844.75
538.845	11940.11
539.21	11903.27
539.575	11941.69
539.94	12028.24
540.305	12153.89
540.67	12085.42
541.034	12177.17
541.399	12211.97
541.764	12247.67
542.129	12313.89
542.494	12392.53
542.858	12312.76
543.223	12510.04
543.587	12533.31
543.952	12499.42
544.316	12622.13
544.681	12625.74
545.045	12701.22
545.41	12784.61
545.774	12769.92
546.138	12779.64
546.503	12849.92
546.867	12929.46
547.231	13009.23
547.595	12969.69
547.959	13100.08
548.324	13055.56
548.688	13195.9
549.052	13257.59
549.416	13283.8
549.779	13254.2
550.143	13274.31
550.507	13366.06
550.871	13430.92
551.235	13429.11
551.599	13488.09
551.962	13508.2
552.326	13565.6
552.689	13606.05
553.053	13595.21
553.417	13666.17
553.78	13871.13
554.143	13819.38
554.507	13899.38
554.87	13894.18
555.234	13995.87
555.597	13941.64
555.96	13975.31
556.323	14109.54
556.686	14105.93
557.05	14168.75
557.413	14276.09
557.776	14271.12
558.139	14355.19
558.502	14310.89
558.865	14449.2
559.228	14528.52
559.59	14510.21
559.953	14591.11
560.316	14770.54
560.679	14757.89
561.041	14730.09
561.404	14819.13
561.767	14884.21
562.129	14927.83
562.492	15050.31
562.854	15039.01
563.217	15045.11
563.579	15079.46
563.941	15119.69
564.304	15269.29
564.666	15268.38
565.028	15407.82
565.39	15398.1
565.753	15416.63
566.115	15573.01
566.477	15538.43
566.839	15553.8
567.201	15678.32
567.563	15719.22
567.925	15867.46
568.287	15879.89
568.648	15967.35
569.01	16003.28
569.372	16180
569.734	16022.71
570.095	16288.92
570.457	16226.55
570.819	16310.62
571.18	16311.97
571.542	16400.11
571.903	16480.56
572.265	16588.35
572.626	16602.81
572.987	16721.9
573.349	16728.46
573.71	16841
574.071	16821.79
574.432	17059.52
574.794	17214.1
575.155	17286.18
575.516	17259.97
575.877	17408.67
576.238	17503.58
576.599	17552.84
576.96	17781.76
577.32	17804.59
577.681	17874.87
578.042	18004.81
578.403	18144.01
578.763	18203.22
579.124	18365.93
579.485	18522.31
579.845	18751.91
580.206	18784.68
580.566	18906.25
580.927	19121.62
581.287	19354.38
581.648	19448.84
582.008	19663.97
582.368	19669.62
582.728	19890.64
583.089	19986.45
583.449	20163.62
583.809	20419.89
584.169	20671.41
584.529	20812.87
584.889	21011.06
585.249	21226.87
585.609	21436.81
585.969	21748.67
586.329	21734.43
586.688	22006.29
587.048	22310.23
587.408	22439.95
587.768	22754.06
588.127	22996.99
588.487	23153.83
588.846	23533.7
589.206	23593.14
589.565	23866.12
589.925	24276.28
590.284	24359.67
590.643	24635.37
591.003	24991.97
591.362	25114.68
591.721	25379.53
592.08	25720.54
592.44	26017.93
592.799	26287.08
593.158	26588.54
593.517	26812.94
593.876	27049.54
594.235	27363.66
594.593	27540.38
594.952	27809.52
595.311	28085.9
595.67	28234.82
596.029	28731.98
596.387	28958.42
596.746	29195.02
597.104	29300.78
597.463	29611.28
597.822	29992.29
598.18	30117.94
598.538	30268.89
598.897	30818.71
599.255	30842.66
599.613	31421.18
599.972	31512.25
600.33	31703.66
600.688	31852.58
601.046	32281.27
601.404	32522.39
601.762	32670.19
602.12	32959.44
602.478	33234.47
602.836	33426.55
603.194	33397.4
603.552	33643.95
603.91	33697.5
604.268	34103.14
604.625	34139.75
604.983	34457.94
605.341	34554.66
605.698	34836.91
606.056	35196.67
606.413	35299.72
606.771	35518.7
607.128	35768.64
607.485	35769.54
607.843	35956.65
608.2	36341.5
608.557	36616.52
608.914	36547.82
609.272	36861.04
609.629	37067.81
609.986	37357.29
610.343	37227.13
610.7	37706.21
611.057	37743.95
611.414	37746.66
611.771	37947.11
612.127	38305.07
612.484	38291.73
612.841	38692.4
613.198	38594.55
613.554	38804.49
613.911	39148.89
614.267	39143.01
614.624	39144.82
614.98	39376.68
615.337	39594.98
615.693	39783.67
616.05	39731.92
616.406	40005.13
616.762	39907.96
617.118	40137.79
617.475	40173.94
617.831	40481.51
618.187	40599.92
618.543	40539.13
618.899	40963.53
619.255	40859.12
619.611	40897.77
619.967	41199
620.323	41420.24
620.678	41290.52
621.034	41194.93
621.39	41339.56
621.746	41389.96
622.101	41816.39
622.457	41705.88
622.812	41830.62
623.168	41865.88
623.523	41919.43
623.879	42247.79
624.234	41923.95
624.589	42187.22
624.945	42221.12
625.3	42300.89
625.655	42291.63
626.01	42287.33
626.365	42443.04
626.72	42457.73
627.075	42607.78
627.43	42558.06
627.785	42509.93
628.14	42605.07
628.495	42668.57
628.85	42635.12
629.205	42469.48
629.559	42864.27
629.914	42704.72
630.269	42723.93
630.623	42827.21
630.978	42700.43
631.332	42925.51
631.687	43055.9
632.041	42811.16
632.396	43052.96
632.75	42796.93
633.104	42891.84
633.459	42716.48
633.813	42803.48
634.167	42900.2
634.521	42898.39
634.875	42910.82
635.229	42878.51
635.583	42825.63
635.937	42700.2
636.291	42776.81
636.645	42843.48
636.999	42728.68
637.352	42887.32
637.706	42552.86
638.06	42885.96
638.413	42835.34
638.767	42648.45
639.121	42725.52
639.474	42536.14
639.828	42458.86
640.181	42634.22
640.534	42801.9
640.888	42598.29
641.241	42601.45
641.594	42424.28
641.947	42494.79
642.301	42597.38
642.654	42604.16
643.007	42686.65
643.36	42572.3
643.713	42599.42
644.066	42517.61
644.419	42422.02
644.771	42198.98
645.124	41641.93
645.477	41778.2
645.83	41556.73
646.182	41412.56
646.535	41270.86
646.888	41393.57
647.24	41236.74
647.593	41358.09
647.945	41285.1
648.298	41271.54
648.65	41201.26
649.002	41097.31
649.355	41140.7
649.707	41239.45
650.059	41352.44
650.411	41825.65
650.763	41816.39
651.115	42238.07
651.467	42060.45
651.819	42095.93
652.171	41884.63
652.523	42049.83
652.875	41954.69
653.227	41763.96
653.578	41929.6
653.93	41893.67
654.282	41784.3
654.633	41673.79
654.985	41958.08
655.337	41866.33
655.688	41891.64
656.039	42028.13
656.391	41672.44
656.742	41685.77
657.094	41860.68
657.445	41899.55
657.796	41749.5
658.147	41769.83
658.498	41649.61
658.849	41746.78
659.2	41889.6
659.551	41711.98
659.902	41816.61
660.253	41715.15
660.604	41801.47
660.955	41474.47
661.306	41673.79
661.656	41653.45
662.007	41664.75
662.358	41699.1
662.708	41660.01
663.059	41666.33
663.409	41370.97
663.76	41705.88
664.11	41540.01
664.461	41760.34
664.811	41641.02
665.161	41726.45
665.511	41481.25
665.862	41440.13
666.212	41470.41
666.562	41593.79
666.912	41423.85
667.262	41370.52
667.612	41488.71
667.962	41536.39
668.312	41454.59
668.662	41487.58
669.011	41478.32
669.361	41367.58
669.711	41347.92
670.06	41256.18
670.41	41301.15
670.76	41159.68
671.109	41460.46
671.459	41458.88
671.808	41200.81
672.157	41453.46
672.507	41147.48
672.856	41118.55
673.205	41206.68
673.554	41393.8
673.904	41300.69
674.253	41507.47
674.602	41218.66
674.951	40645.57
675.3	40488.96
675.649	41171.66
675.998	41124.2
676.346	41157.87
676.695	41315.61
677.044	40962.62
677.393	41049.17
677.741	41095.05
678.09	41010.76
678.438	40931.89
678.787	40980.02
679.135	41088.04
679.484	40770.76
679.832	40764.66
680.181	40691.67
680.529	40761.72
680.877	40756.3
681.225	40601.28
681.573	40819.12
681.922	40552.24
682.27	40388.18
682.618	40520.15
682.966	40326.71
683.314	40476.53
683.661	40425.01
684.009	40098.69
684.357	40164.45
684.705	40038.35
685.053	40176.2
685.4	39986.15
685.748	39929.43
686.095	39891.92
686.443	39701.19
686.79	39792.71
687.138	39745.93
687.485	39819.15
687.832	39541.87
688.18	39495.32
688.527	39358.6
688.874	39404.47
689.221	39206.06
689.568	39108.21
689.915	39074.76
690.262	39079.74
690.609	38954.31
690.956	38760.2
691.303	38884.03
691.65	38579.86
691.997	38571.73
692.344	38433.88
692.69	38471.39
693.037	38345.29
693.383	38192.3
693.73	38249.25
694.077	38042.47
694.423	37898.75
694.769	37922.03
695.116	37878.64
695.462	37825.3
695.808	37635.71
696.155	37839.77
696.501	37409.5
696.847	37607.01
697.193	37108.94
697.539	37338.31
697.885	37086.57
698.231	36956.4
698.577	37036.63
698.923	36975.16
699.269	36772
699.614	36630.76
699.96	36492.46
700.306	36711.21
700.651	36240.26
700.997	36299.7
701.342	36267.15
701.688	36351.9
702.033	35976.09
702.379	36182.41
702.724	35908.29
703.069	36056.09
703.415	35709.43
703.76	35650.45
704.105	35648.19
704.45	35583.78
704.795	35325.94
705.14	35120.52
705.485	35130.91
705.83	35090.69
706.175	35148.09
706.52	35052.27
706.865	34929.11
707.209	34881.65
707.554	34729.79
707.899	34935.21
708.243	34725.27
708.588	34619.29
708.932	34482.34
709.277	34477.14
709.621	34416.58
709.966	34181.33
710.31	34273.53
710.654	33857.5
710.998	34112.63
711.342	34069.7
711.687	33956.71
712.031	33702.02
712.375	33688.46
712.719	33665.19
713.063	33664.96
713.407	33726.2
713.75	33584.96
714.094	33451.18
714.438	33336.61
714.782	33375.03
715.125	33255.26
715.469	33359.66
715.812	33143.85
716.156	32928.03
716.499	33003.28
716.843	33046.67
717.186	32917.19
717.53	33124.41
717.873	32963.29
718.216	32857.75
718.559	32642.62
718.902	32443.75
719.246	32519
719.589	32556.52
719.932	32377.54
720.275	32390.42
720.617	32356.52
720.96	32357.65
721.303	32256.41
721.646	32394.94
721.989	32060.48
722.331	32106.36
722.674	31914.73
723.016	31974.61
723.359	31941.84
723.701	32003.54
724.044	31675.18
724.386	31684
724.729	31747.72
725.071	31759.48
725.413	31769.64
725.755	31565.36
726.097	31608.52
726.439	31398.58
726.782	31324.91
727.124	31529.65
727.465	31302.76
727.807	31226.38
728.149	31293.27
728.491	31247.4
728.833	31244.91
729.175	31065.26
729.516	31093.05
729.858	31002.89
730.199	31046.95
730.541	30947.75
730.882	30912.94
731.224	30906.39
731.565	30756.34
731.906	30803.34
732.248	30720.86
732.589	30607.64
732.93	30526.29
733.271	30504.59
733.612	30611.03
733.953	30563.57
734.294	30503.46
734.635	30444.03
734.976	30520.19
735.317	30353.41
735.658	30321.77
735.999	30279.06
736.339	30122
736.68	30260.53
737.021	30160.65
737.361	30007.43
737.702	30173.3
738.042	30058.96
738.383	29915
738.723	30030.71
739.063	29786.42
739.404	30022.35
739.744	29754.33
740.084	29705.74
740.424	29841.33
740.764	29696.48
741.104	29805.85
741.444	29699.64
741.784	29635.01
742.124	29575.35
742.464	29579.65
742.804	29437.28
743.143	29363.83
743.483	29375.13
743.823	29343.72
744.162	29316.38
744.502	29270.05
744.841	29268.02
745.181	29209.49
745.52	29181.01
745.86	29257.62
746.199	29018.53
746.538	28977.18
746.877	29141.01
747.216	29059.21
747.556	28896.5
747.895	28865.77
748.234	28694.25
748.573	28778.09
748.911	28896.5
749.25	28767.92
749.589	28536.06
749.928	28701.7
750.267	28579.67
750.605	28525.21
750.944	28549.84
751.283	28567.24
751.621	28559.11
751.96	28335.16
752.298	28238.89
752.636	28274.6
752.975	28144.66
753.313	28059.23
753.651	28129.06
753.989	27997.77
754.327	27998.67
754.666	27830.54
755.004	27910.31
755.342	27959.8
755.679	27838.9
756.017	27647.49
756.355	27840.03
756.693	27641.17
757.031	27702.41
757.368	27492.92
757.706	27587.61
758.044	27411.12
