Data from hue_240_FLMS001491_00028.txt Node
Date: Tue Feb 07 16:35:16 GMT 2017
User: dcchb
Spectrometer: FLMS00149
Trigger mode: 0
Integration Time (sec): 2.000000E-2
Scans to average: 10
Electric dark correction enabled: true
Nonlinearity correction enabled: false
Boxcar width: 0
XAxis mode: Wavelengths
Number of Pixels in Spectrum: 2048
>>>>>Begin Spectral Data<<<<<
341.393	1.6
341.776	1.6
342.16	1.6
342.543	-58.97
342.927	-64.62
343.31	-59.65
343.693	-63.71
344.077	-52.41
344.46	-71.62
344.843	-70.04
345.226	-61.23
345.61	-29.82
345.993	-11.96
346.376	-3.6
346.759	32.1
347.142	19.22
347.525	47.24
347.908	44.31
348.291	93.12
348.674	91.31
349.057	96.73
349.44	141.93
349.823	137.64
350.206	153.23
350.588	195.72
350.971	194.59
351.354	188.26
351.737	229.84
352.119	216.05
352.502	277.75
352.884	254.47
353.267	271.42
353.65	259.44
354.032	297.41
354.414	301.93
354.797	302.38
355.179	313.9
355.562	317.07
355.944	310.06
356.326	327.92
356.709	343.06
357.091	322.72
357.473	338.31
357.855	316.62
358.238	342.15
358.62	336.95
359.002	331.53
359.384	303.51
359.766	332.66
360.148	325.43
360.53	329.5
360.912	351.87
361.294	316.84
361.676	313.68
362.057	333.56
362.439	330.63
362.821	318.2
363.203	313.9
363.584	305.54
363.966	307.8
364.348	330.63
364.729	313.45
365.111	315.03
365.493	335.15
365.874	300.35
366.256	310.06
366.637	295.83
367.019	297.18
367.4	317.07
367.781	319.55
368.163	303.28
368.544	286.56
368.925	303.28
369.306	298.76
369.688	319.33
370.069	295.83
370.45	294.7
370.831	290.18
371.212	305.77
371.593	301.93
371.974	309.16
372.355	297.63
372.736	310.29
373.117	314.13
373.498	303.06
373.879	303.96
374.26	306.67
374.641	322.94
375.021	316.62
375.402	307.58
375.783	329.5
376.163	315.49
376.544	311.42
376.925	306.9
377.305	316.16
377.686	307.12
378.066	326.33
378.447	350.74
378.827	319.33
379.208	303.28
379.588	321.14
379.968	328.37
380.349	305.77
380.729	312.55
381.109	325.88
381.489	340.57
381.87	330.63
382.25	332.43
382.63	318.2
383.01	304.41
383.39	324.75
383.77	317.52
384.15	364.75
384.53	325.43
384.91	332.21
385.29	354.13
385.67	339.44
386.049	356.16
386.429	342.38
386.809	346.67
387.189	326.56
387.568	338.76
387.948	346.67
388.328	352.32
388.707	343.06
389.087	347.35
389.466	349.84
389.846	364.52
390.225	362.72
390.605	360.68
390.984	361.13
391.363	356.39
391.743	372.66
392.122	353.9
392.501	363.39
392.881	375.6
393.26	380.57
393.639	365.65
394.018	384.86
394.397	384.41
394.776	387.57
395.155	373.11
395.534	379.21
395.913	378.08
396.292	357.29
396.671	414.69
397.05	371.08
397.429	400
397.808	397.29
398.186	385.54
398.565	398.42
398.944	383.96
399.323	374.69
399.701	388.48
400.08	381.92
400.458	417.4
400.837	404.98
401.215	400.46
401.594	397.07
401.972	421.47
402.351	428.03
402.729	414.47
403.107	414.92
403.486	429.16
403.864	404.07
404.242	411.08
404.62	440.45
404.999	413.56
405.377	433.9
405.755	450.17
406.133	445.65
406.511	458.08
406.889	453.79
407.267	447.91
407.645	456.73
408.023	476.61
408.401	442.94
408.779	465.99
409.156	480
409.534	463.96
409.912	486.56
410.29	483.17
410.667	510.51
411.045	508.02
411.422	511.19
411.8	532.43
412.178	501.47
412.555	522.49
412.933	536.72
413.31	544.86
413.687	533.79
414.065	545.54
414.442	546.21
414.819	590.73
415.197	555.71
415.574	579.21
415.951	570.17
416.328	592.09
416.705	597.29
417.082	598.42
417.46	584.86
417.837	608.36
418.214	632.31
418.591	621.24
418.967	610.39
419.344	622.82
419.721	622.6
420.098	644.52
420.475	640.45
420.852	674.57
421.228	663.5
421.605	674.57
421.982	679.09
422.358	682.03
422.735	705.76
423.111	694.46
423.488	715.48
423.864	736.94
424.241	767.45
424.617	732.65
424.994	768.13
425.37	765.64
425.746	794.34
426.123	786.43
426.499	784.4
426.875	807.22
427.251	809.94
427.627	825.98
428.003	839.99
428.379	832.99
428.756	866.66
429.132	855.36
429.507	865.75
429.883	890.39
430.259	880.22
430.635	907.33
431.011	876.15
431.387	919.09
431.763	912.31
432.138	953.44
432.514	945.07
432.89	962.02
433.265	961.12
433.641	984.17
434.016	974.9
434.392	1002.93
434.767	1036.37
435.143	1012.87
435.518	1048.8
435.894	1045.64
436.269	1049.93
436.644	1112.98
437.02	1121.11
437.395	1119.76
437.77	1160.21
438.145	1148.46
438.52	1191.62
438.895	1212.86
439.271	1204.05
439.646	1229.59
440.021	1229.59
440.395	1241.79
440.77	1284.05
441.145	1273.43
441.52	1291.05
441.895	1283.6
442.27	1309.81
442.645	1304.84
443.019	1343.26
443.394	1338.51
443.769	1335.57
444.143	1359.98
444.518	1401.33
444.892	1378.73
445.267	1405.4
445.641	1389.81
446.016	1406.53
446.39	1404.72
446.764	1450.15
447.139	1428.68
447.513	1443.37
447.887	1469.13
448.262	1447.43
448.636	1465.29
449.01	1472.97
449.384	1496.25
449.758	1508.9
450.132	1523.36
450.506	1527.66
450.88	1511.84
451.254	1543.7
451.628	1589.58
452.002	1583.02
452.376	1624.6
452.75	1630.03
453.123	1628.9
453.497	1657.37
453.871	1671.38
454.244	1693.53
454.618	1703.02
454.992	1732.4
455.365	1726.3
455.739	1741.44
456.112	1785.05
456.486	1756.8
456.859	1804.71
457.232	1825.05
457.606	1842.45
457.979	1855.78
458.352	1883.35
458.725	1907.76
459.099	1890.13
459.472	1929.23
459.845	1935.56
460.218	1948.89
460.591	1995.67
460.964	2008.1
461.337	2042.9
461.71	2056.01
462.083	2091.26
462.456	2076.57
462.829	2102.33
463.201	2119.05
463.574	2134.2
463.947	2181.88
464.32	2209.22
464.692	2220.07
465.065	2277.24
465.438	2300.07
465.81	2327.18
466.183	2340.97
466.555	2383
466.928	2376
467.3	2392.04
467.672	2414.41
468.045	2463.68
468.417	2466.62
468.789	2471.14
469.161	2538.25
469.534	2545.26
469.906	2605.6
470.278	2578.25
470.65	2627.74
471.022	2728.08
471.394	2758.81
471.766	2762.88
472.138	2758.59
472.51	2832.93
472.882	2873.38
473.253	2923.55
473.625	2948.41
473.997	2987.28
474.369	3040.61
474.74	3044.45
475.112	3089.42
475.484	3145.92
475.855	3178.69
476.227	3168.07
476.598	3279.7
476.97	3297.1
477.341	3350.21
477.713	3392.69
478.084	3443.54
478.455	3528.96
478.827	3545.23
479.198	3659.35
479.569	3607.15
479.94	3702.74
480.311	3728.73
480.682	3795.85
481.053	3853.92
481.424	3955.84
481.795	3968.72
482.166	4027.25
482.537	4048.95
482.908	4145.44
483.279	4162.84
483.65	4208.94
484.021	4309.73
484.391	4346.34
484.762	4395.6
485.133	4408.71
485.503	4479.22
485.874	4571.42
486.244	4575.49
486.615	4697.29
486.985	4742.04
487.356	4726.67
487.726	4778.42
488.097	4901.13
488.467	4901.13
488.837	4923.73
489.207	5053.89
489.578	5116.26
489.948	5156.94
490.318	5215.24
490.688	5165.75
491.058	5272.87
491.428	5324.85
491.798	5395.8
492.168	5487.78
492.538	5547.21
492.908	5586.99
493.278	5572.97
493.648	5667.44
494.017	5653.42
494.387	5752.41
494.757	5742.24
495.126	5811.39
495.496	5811.84
495.866	5888.67
496.235	5935
496.605	5894.32
496.974	5989.91
497.344	6007.77
497.713	6008.67
498.082	6055.22
498.452	6169.57
498.821	6137.71
499.19	6138.61
499.559	6246.63
499.928	6172.28
500.298	6314.88
500.667	6345.38
501.036	6258.61
501.405	6387.64
501.774	6361.65
502.143	6454.76
502.512	6416.79
502.88	6512.39
503.249	6466.28
503.618	6498.83
503.987	6541.09
504.356	6633.51
504.724	6596.9
505.093	6659.05
505.462	6657.69
505.83	6667.18
506.199	6730.68
506.567	6763
506.936	6747.86
507.304	6820.63
507.672	6794.41
508.041	6815.65
508.409	6872.83
508.777	6886.61
509.145	6970
509.514	6896.78
509.882	6985.37
510.25	6988.53
510.618	6996.89
510.986	7010.9
511.354	7064.24
511.722	7087.29
512.09	7150.56
512.458	7130
512.826	7175.19
513.193	7168.41
513.561	7231.91
513.929	7233.27
514.297	7224.23
514.664	7275.98
515.032	7282.08
515.4	7330.22
515.767	7384.23
516.135	7324.79
516.502	7356.2
516.869	7398.92
517.237	7355.75
517.604	7415.19
517.972	7474.62
518.339	7455.41
518.706	7417.22
519.073	7501.74
519.44	7500.83
519.808	7548.06
520.175	7516.88
520.542	7619.7
520.909	7616.99
521.276	7660.83
521.643	7705.12
522.009	7724.56
522.376	7729.53
522.743	7738.57
523.11	7773.6
523.477	7876.42
523.843	7823.54
524.21	7893.59
524.577	7908.51
524.943	7880.48
525.31	7954.61
525.676	7924.33
526.043	7961.39
526.409	8022.4
526.776	8053.59
527.142	8018.11
527.508	8086.58
527.874	8061.72
528.241	8127.26
528.607	8117.54
528.973	8165.22
529.339	8130.87
529.705	8176.75
530.071	8265.33
530.437	8225.56
530.803	8247.71
531.169	8256.07
531.535	8283.41
531.901	8210.19
532.267	8237.09
532.632	8229.18
532.998	8287.48
533.364	8268.5
533.73	8275.28
534.095	8225.56
534.461	8311.89
534.826	8288.38
535.192	8284.09
535.557	8373.35
535.923	8347.59
536.288	8346.91
536.653	8357.76
537.019	8278.89
537.384	8330.42
537.749	8340.81
538.114	8327.93
538.479	8324.77
538.845	8331.32
539.21	8265.11
539.575	8285.67
539.94	8262.17
540.305	8330.87
540.67	8278.89
541.034	8277.08
541.399	8289.06
541.764	8254.94
542.129	8244.54
542.494	8285.22
542.858	8314.15
543.223	8303.07
543.587	8343.07
543.952	8276.63
544.316	8259.46
544.681	8269.63
545.045	8256.29
545.41	8249.74
545.774	8241.61
546.138	8260.14
546.503	8327.48
546.867	8228.27
547.231	8254.49
547.595	8304.88
547.959	8226.92
548.324	8235.73
548.688	8282.96
549.052	8293.81
549.416	8325.22
549.779	8296.52
550.143	8195.28
550.507	8266.46
550.871	8276.18
551.235	8228.05
551.599	8221.94
551.962	8265.33
552.326	8237.99
552.689	8252.9
553.053	8236.41
553.417	8173.81
553.78	8271.66
554.143	8268.72
554.507	8269.4
554.87	8309.4
555.234	8299.46
555.597	8230.53
555.96	8263.53
556.323	8279.12
556.686	8301.26
557.05	8327.25
557.413	8344.43
557.776	8331.77
558.139	8379.23
558.502	8376.97
558.865	8262.17
559.228	8370.42
559.59	8434.14
559.953	8465.1
560.316	8460.13
560.679	8454.48
561.041	8513.01
561.404	8499.9
561.767	8535.83
562.129	8506.01
562.492	8559.79
562.854	8543.52
563.217	8455.61
563.579	8537.87
563.941	8569.73
564.304	8639.56
564.666	8666.45
565.028	8654.93
565.39	8668.26
565.753	8717.07
566.115	8738.09
566.477	8728.15
566.839	8760.24
567.201	8807.47
567.563	8793.46
567.925	8910.29
568.287	8848.6
568.648	8881.36
569.01	8979.89
569.372	8973.11
569.734	8928.37
570.095	8984.64
570.457	8993.68
570.819	8989.83
571.18	9071.41
571.542	9088.59
571.903	9076.16
572.265	9075.26
572.626	9128.36
572.987	9128.81
573.349	9136.95
573.71	9178.3
574.071	9200
574.432	9251.75
574.794	9342.59
575.155	9244.97
575.516	9211.07
575.877	9290.39
576.238	9293.56
576.599	9321.35
576.96	9350.95
577.32	9387.79
577.681	9411.97
578.042	9432.53
578.403	9418.52
578.763	9459.43
579.124	9462.14
579.485	9461.23
579.845	9530.39
580.206	9514.34
580.566	9519.99
580.927	9555.47
581.287	9557.73
581.648	9602.47
582.008	9629.59
582.368	9591.4
582.728	9616.03
583.089	9661.23
583.449	9671.85
583.809	9721.34
584.169	9615.13
584.529	9592.3
584.889	9662.36
585.249	9604.73
585.609	9654
585.969	9719.08
586.329	9727.89
586.688	9722.92
587.048	9719.53
587.408	9749.81
587.768	9704.39
588.127	9751.17
588.487	9706.65
588.846	9812.19
589.206	9742.81
589.565	9752.98
589.925	9742.36
590.284	9810.83
590.643	9745.52
591.003	9829.59
591.362	9862.58
591.721	9802.47
592.08	9802.92
592.44	9900.54
592.799	9859.64
593.158	9891.51
593.517	9772.86
593.876	9842.47
594.235	9897.16
594.593	9837.5
594.952	9881.56
595.311	9938.74
595.67	9890.6
596.029	9958.4
596.387	9938.74
596.746	9951.84
597.104	9910.71
597.463	9960.88
597.822	9937.83
598.18	9941.45
598.538	9928.79
598.897	9919.08
599.255	9948.68
599.613	10015.34
599.972	10010.37
600.33	10008.56
600.688	9950.03
601.046	9938.06
601.404	10036.81
601.762	9973.31
602.12	10011.95
602.478	10057.83
602.836	10039.52
603.194	9943.93
603.552	10022.8
603.91	10013.99
604.268	10051.95
604.625	9986.64
604.983	10069.35
605.341	10035.23
605.698	10128.34
606.056	10028.45
606.413	10021.22
606.771	10112.74
607.128	10079.07
607.485	10041.78
607.843	10075
608.2	10125.4
608.557	10173.76
608.914	10120.65
609.272	10131.73
609.629	10148
609.986	10230.25
610.343	10193.64
610.7	10189.58
611.057	10226.64
611.414	10234.77
611.771	10226.19
612.127	10305.51
612.484	10236.81
612.841	10234.32
613.198	10224.6
613.554	10249.69
613.911	10286.3
614.267	10321.78
614.624	10254.66
614.98	10313.19
615.337	10335.11
615.693	10349.57
616.05	10328.78
616.406	10407.2
616.762	10334.43
617.118	10368.78
617.475	10329.46
617.831	10364.04
618.187	10388.67
618.543	10438.38
618.899	10434.77
619.255	10379.63
619.611	10479.06
619.967	10513.18
620.323	10509.12
620.678	10443.81
621.034	10440.64
621.39	10381.21
621.746	10416.24
622.101	10424.82
622.457	10450.13
622.812	10380.76
623.168	10401.55
623.523	10430.7
623.879	10443.13
624.234	10430.47
624.589	10389.8
624.945	10456.69
625.3	10460.53
625.655	10412.4
626.01	10436.58
626.365	10417.59
626.72	10397.03
627.075	10482.22
627.43	10464.15
627.785	10426.86
628.14	10416.01
628.495	10402.68
628.85	10425.95
629.205	10382.34
629.559	10424.37
629.914	10373.75
630.269	10358.61
630.623	10351.38
630.978	10300.31
631.332	10349.35
631.687	10396.8
632.041	10276.58
632.396	10377.59
632.75	10312.74
633.104	10233.42
633.459	10259.41
633.813	10252.4
634.167	10235
634.521	10280.65
634.875	10255.34
635.229	10229.12
635.583	10184.38
635.937	10192.29
636.291	10184.83
636.645	10188.9
636.999	10110.03
637.352	10115.23
637.706	10087.43
638.06	10151.16
638.413	10114.1
638.767	10065.74
639.121	10119.97
639.474	10090.6
639.828	10013.31
640.181	10012.41
640.534	10051.05
640.888	9989.36
641.241	9972.18
641.594	10066.19
641.947	10011.05
642.301	9989.58
642.654	10044.04
643.007	10003.14
643.36	9963.82
643.713	9915.23
644.066	9947.1
644.419	9921.79
644.771	9865.74
645.124	9708.46
645.477	9696.48
645.83	9651.06
646.182	9672.53
646.535	9593.66
646.888	9623.49
647.24	9565.64
647.593	9601.34
647.945	9559.76
648.298	9502.59
648.65	9564.28
649.002	9454.91
649.355	9534.23
649.707	9552.53
650.059	9587.11
650.411	9695.8
650.763	9674.34
651.115	9859.87
651.467	9764.5
651.819	9810.15
652.171	9830.49
652.523	9812.19
652.875	9739.19
653.227	9701.45
653.578	9750.94
653.93	9790.94
654.282	9726.31
654.633	9641.12
654.985	9710.49
655.337	9702.58
655.688	9746.88
656.039	9721.34
656.391	9596.82
656.742	9712.53
657.094	9681.79
657.445	9738.29
657.796	9783.26
658.147	9652.19
658.498	9676.6
658.849	9696.93
659.2	9718.85
659.551	9675.24
659.902	9706.2
660.253	9692.41
660.604	9676.37
660.955	9658.52
661.306	9707.78
661.656	9663.04
662.007	9666.88
662.358	9710.27
662.708	9710.72
663.059	9728.12
663.409	9608.58
663.76	9744.16
664.11	9707.1
664.461	9700.32
664.811	9620.55
665.161	9687.22
665.511	9651.29
665.862	9667.56
666.212	9632.3
666.562	9761.34
666.912	9609.7
667.262	9695.8
667.612	9665.75
667.962	9650.38
668.312	9638.63
668.662	9661.23
669.011	9622.59
669.361	9679.31
669.711	9636.37
670.06	9596.6
670.41	9600.21
670.76	9574
671.109	9584.17
671.459	9593.66
671.808	9615.58
672.157	9593.66
672.507	9511.18
672.856	9519.09
673.205	9600.67
673.554	9659.65
673.904	9616.48
674.253	9568.58
674.602	9554.34
674.951	9438.41
675.3	9434.34
675.649	9565.19
675.998	9524.28
676.346	9478.86
676.695	9536.94
677.044	9456.71
677.393	9534.9
677.741	9474.57
678.09	9514.57
678.438	9388.47
678.787	9433.44
679.135	9521.57
679.484	9376.26
679.832	9477.51
680.181	9403.61
680.529	9428.92
680.877	9351.18
681.225	9313.22
681.573	9327.23
681.922	9316.15
682.27	9322.93
682.618	9282.71
682.966	9311.63
683.314	9297.17
683.661	9249.26
684.009	9177.17
684.357	9205.65
684.705	9145.54
685.053	9189.6
685.4	9151.64
685.748	9093.79
686.095	9097.4
686.443	8990.29
686.79	9040.23
687.138	9065.31
687.485	9039.78
687.832	9031.42
688.18	8971.08
688.527	8978.76
688.874	8944.64
689.221	8981.25
689.568	8910.06
689.915	8859.44
690.262	8801.14
690.609	8915.71
690.956	8778.77
691.303	8808.14
691.65	8780.35
691.997	8741.48
692.344	8744.64
692.69	8757.3
693.037	8725.66
693.383	8712.55
693.73	8683.85
694.077	8601.6
694.423	8561.14
694.769	8567.25
695.116	8497.42
695.462	8501.94
695.808	8439.11
696.155	8506.68
696.501	8446.12
696.847	8428.72
697.193	8308.72
697.539	8396.18
697.885	8366.8
698.231	8311.21
698.577	8316.18
698.923	8286.35
699.269	8216.3
699.614	8176.07
699.96	8176.52
700.306	8191.21
700.651	8130.2
700.997	8123.42
701.342	8107.37
701.688	8111.44
702.033	8010.42
702.379	8028.96
702.724	7932.01
703.069	7979.69
703.415	7864.67
703.76	7928.39
704.105	7883.65
704.45	7898.79
704.795	7821.05
705.14	7790.54
705.485	7776.31
705.83	7743.54
706.175	7773.6
706.52	7668.29
706.865	7703.09
707.209	7646.14
707.554	7647.95
707.899	7628.29
708.243	7554.62
708.588	7580.38
708.932	7528.86
709.277	7462.87
709.621	7561.17
709.966	7545.58
710.31	7522.75
710.654	7366.83
710.998	7426.71
711.342	7468.52
711.687	7385.13
712.031	7353.49
712.375	7367.5
712.719	7416.09
713.063	7335.64
713.407	7282.08
713.75	7295.64
714.094	7253.83
714.438	7286.6
714.782	7290.9
715.125	7244.34
715.469	7269.43
715.812	7261.74
716.156	7178.13
716.499	7214.97
716.843	7259.26
717.186	7158.7
717.53	7176.55
717.873	7181.29
718.216	7159.83
718.559	7161.18
718.902	7065.37
719.246	7108.08
719.589	7099.71
719.932	7110.34
720.275	7074.63
720.617	7051.58
720.96	7047.29
721.303	7016.33
721.646	7044.57
721.989	6981.3
722.331	6967.97
722.674	6978.14
723.016	7006.16
723.359	6938.59
723.701	6972.03
724.044	6971.58
724.386	6909.66
724.729	6912.6
725.071	6904.47
725.413	6940.85
725.755	6905.6
726.097	6881.87
726.439	6894.3
726.782	6869.89
727.124	6965.03
727.465	6874.41
727.807	6840.74
728.149	6831.92
728.491	6846.39
728.833	6843.9
729.175	6781.3
729.516	6861.08
729.858	6820.4
730.199	6852.49
730.541	6782.89
730.882	6850.23
731.224	6788.54
731.565	6798.03
731.906	6786.5
732.248	6755.09
732.589	6744.24
732.93	6767.07
733.271	6759.16
733.612	6798.71
733.953	6811.81
734.294	6732.27
734.635	6754.86
734.976	6807.29
735.317	6755.09
735.658	6739.27
735.999	6757.12
736.339	6790.12
736.68	6795.54
737.021	6740.18
737.361	6720.52
737.702	6795.77
738.042	6721.87
738.383	6788.31
738.723	6817.46
739.063	6796.22
739.404	6758.03
739.744	6824.02
740.084	6772.04
740.424	6800.06
740.764	6795.99
741.104	6798.03
741.444	6805.94
741.784	6802.1
742.124	6781.08
742.464	6819.04
742.804	6809.33
743.143	6826.5
743.483	6888.19
743.823	6829.67
744.162	6870.34
744.502	6897.91
744.841	6876.44
745.181	6940.85
745.52	6959.83
745.86	6942.88
746.199	6941.53
746.538	6948.53
746.877	6979.94
747.216	7053.39
747.556	7007.29
747.895	7068.08
748.234	7110.11
748.573	7136.1
748.911	7113.73
749.25	7216.55
749.589	7146.49
749.928	7185.59
750.267	7324.79
750.605	7288.86
750.944	7361.4
751.283	7284.57
751.621	7397.11
751.96	7492.25
752.298	7548.29
752.636	7555.3
752.975	7587.84
753.313	7609.08
753.651	7753.93
753.989	7763.2
754.327	7780.37
754.666	7860.6
755.004	7967.49
755.342	8034.83
755.679	8085.68
756.017	8102.63
756.355	8277.54
756.693	8303.52
757.031	8408.61
757.368	8489.51
757.706	8488.83
758.044	8573.57
758.381	8700.12
758.719	8793.23
759.056	8882.04
759.394	9012.66
759.731	9051.98
760.068	9178.76
760.405	9127.46
760.743	9254.46
761.08	9407.22
761.417	9480.22
761.754	9571.06
762.091	9662.81
762.428	9726.54
762.765	9846.31
763.102	9964.27
763.438	9992.75
763.775	10117.49
764.112	10164.49
764.449	10230.03
764.785	10343.02
765.122	10302.34
765.458	10412.62
765.795	10520.19
766.131	10673.63
766.467	10669.11
766.804	10754.53
767.14	10836.79
767.476	10957.01
