Data from hue_340_FLMS001491_89.txt Node
Date: Mon Feb 06 15:43:45 GMT 2017
User: dcchb
Spectrometer: FLMS00149
Trigger mode: 0
Integration Time (sec): 2.000000E-2
Scans to average: 10
Electric dark correction enabled: true
Nonlinearity correction enabled: false
Boxcar width: 0
XAxis mode: Wavelengths
Number of Pixels in Spectrum: 2048
>>>>>Begin Spectral Data<<<<<
341.393	-24.93
341.776	-24.93
342.16	-24.93
342.543	-77.13
342.927	-79.39
343.31	-62.67
343.693	-52.95
344.077	-58.37
344.46	-59.73
344.843	-45.27
345.226	-48.66
345.61	-26.28
345.993	-18.38
346.376	-8.88
346.759	22.53
347.142	27.95
347.525	30.21
347.908	62.98
348.291	65.24
348.674	79.93
349.057	92.36
349.44	126.48
349.823	124.67
350.206	145.24
350.588	184.33
350.971	211.68
351.354	226.36
351.737	237.89
352.119	239.7
352.502	251.45
352.884	271.79
353.267	286.93
353.65	288.06
354.032	292.8
354.414	319.24
354.797	318.11
355.179	323.08
355.562	305.23
355.944	316.08
356.326	309.75
356.709	326.93
357.091	322.63
357.473	355.17
357.855	345.46
358.238	335.29
358.62	326.7
359.002	325.8
359.384	327.83
359.766	344.1
360.148	337.32
360.53	323.99
360.912	334.16
361.294	300.49
361.676	318.79
362.057	328.06
362.439	326.47
362.821	359.47
363.203	316.53
363.584	322.18
363.966	332.58
364.348	309.75
364.729	294.84
365.111	311.79
365.493	321.05
365.874	303.42
366.256	312.24
366.637	328.06
367.019	300.03
367.4	307.49
367.781	300.26
368.163	306.59
368.544	287.61
368.925	316.08
369.306	300.03
369.688	326.47
370.069	302.97
370.45	305.23
370.831	330.54
371.212	313.14
371.593	307.04
371.974	285.35
372.355	290.77
372.736	320.82
373.117	313.37
373.498	314.5
373.879	300.03
374.26	286.93
374.641	315.4
375.021	308.85
375.402	327.38
375.783	305.23
376.163	333.25
376.544	317.44
376.925	309.98
377.305	305.46
377.686	306.59
378.066	316.76
378.447	329.41
378.827	301.62
379.208	318.57
379.588	330.54
379.968	319.47
380.349	311.79
380.729	323.31
381.109	316.53
381.489	324.44
381.87	320.6
382.25	312.69
382.63	332.35
383.01	338.45
383.39	333.71
383.77	313.82
384.15	332.35
384.53	342.52
384.91	314.05
385.29	340.03
385.67	334.61
386.049	340.71
386.429	324.89
386.809	352.91
387.189	341.62
387.568	347.49
387.948	340.03
388.328	344.55
388.707	327.15
389.087	340.26
389.466	350.88
389.846	347.49
390.225	352.46
390.605	344.1
390.984	338.23
391.363	348.62
391.743	366.7
392.122	343.42
392.501	355.4
392.881	346.81
393.26	375.74
393.639	356.53
394.018	363.54
394.397	347.49
394.776	373.03
395.155	364.89
395.534	370.09
395.913	368.28
396.292	373.93
396.671	377.09
397.05	374.61
397.429	357.21
397.808	356.98
398.186	366.02
398.565	356.98
398.944	381.84
399.323	382.52
399.701	383.42
400.08	378.68
400.458	385.23
400.837	385.91
401.215	404.44
401.594	369.41
401.972	383.42
402.351	382.29
402.729	393.82
403.107	409.64
403.486	405.79
403.864	404.44
404.242	408.28
404.62	401.27
404.999	387.49
405.377	405.79
405.755	398.11
406.133	398.34
406.511	414.38
406.889	403.76
407.267	427.49
407.645	428.17
408.023	404.21
408.401	407.15
408.779	440.14
409.156	436.3
409.534	439.24
409.912	435.62
410.29	446.7
410.667	435.62
411.045	417.09
411.422	453.25
411.8	455.51
412.178	449.41
412.555	466.81
412.933	467.26
413.31	462.52
413.687	481.05
414.065	471.78
414.442	480.82
414.819	489.86
415.197	499.13
415.574	477.43
415.951	508.16
416.328	524.66
416.705	512.46
417.082	500.03
417.46	530.99
417.837	507.03
418.214	501.16
418.591	511.55
418.967	525.57
419.344	525.57
419.721	556.52
420.098	546.81
420.475	554.27
420.852	535.96
421.228	561.27
421.605	554.94
421.982	567.37
422.358	555.4
422.735	564.21
423.111	561.5
423.488	578.22
423.864	593.59
424.241	593.13
424.617	588.61
424.994	592.23
425.37	595.62
425.746	622.74
426.123	591.55
426.499	602.63
426.875	603.3
427.251	591.1
427.627	638.56
428.003	632.91
428.379	626.35
428.756	658.67
429.132	660.48
429.507	660.25
429.883	672.23
430.259	665.45
430.635	678.33
431.011	671.78
431.387	672.45
431.763	684.43
432.138	690.08
432.514	708.16
432.89	698.22
433.265	699.12
433.641	711.55
434.016	723.3
434.392	749.97
434.767	742.28
435.143	724.43
435.518	761.94
435.894	756.29
436.269	757.2
436.644	750.64
437.02	771.21
437.395	765.56
437.77	785.45
438.145	777.76
438.52	793.58
438.895	819.34
439.271	807.14
439.646	818.21
440.021	827.25
440.395	813.24
440.77	813.92
441.145	829.96
441.52	849.17
441.895	832.22
442.27	847.14
442.645	848.04
443.019	861.83
443.394	841.72
443.769	845.33
444.143	863.64
444.518	874.26
444.892	867.25
445.267	883.97
445.641	878.78
446.016	876.74
446.39	869.74
446.764	914.26
447.139	894.82
447.513	906.57
447.887	905.44
448.262	895.95
448.636	908.15
449.01	913.58
449.384	923.29
449.758	946.57
450.132	918.1
450.506	915.16
450.88	956.06
451.254	932.56
451.628	921.04
452.002	939.11
452.376	976.63
452.75	979.34
453.123	952.9
453.497	981.6
453.871	989.73
454.244	1010.52
454.618	979.56
454.992	1006.23
455.365	1002.39
455.739	1032.44
456.112	1050.98
456.486	1072.22
456.859	1028.83
457.232	1075.61
457.606	1055.95
457.979	1060.24
458.352	1077.42
458.725	1103.63
459.099	1102.73
459.472	1133.46
459.845	1123.06
460.218	1132.78
460.591	1130.52
460.964	1153.35
461.337	1152.22
461.71	1164.64
462.083	1178.2
462.456	1205.1
462.829	1201.93
463.201	1220.01
463.574	1185.89
463.947	1237.41
464.32	1245.55
464.692	1264.75
465.065	1253.23
465.438	1251.65
465.81	1280.35
466.183	1307.24
466.555	1329.61
466.928	1328.03
467.3	1320.12
467.672	1348.59
468.045	1363.06
468.417	1357.86
468.789	1362.83
469.161	1383.85
469.534	1433.56
469.906	1427.01
470.278	1441.7
470.65	1453.45
471.022	1488.48
471.394	1501.13
471.766	1479.89
472.138	1528.7
472.51	1562.6
472.882	1544.97
473.253	1588.59
473.625	1615.03
473.997	1650.28
474.369	1638.53
474.74	1659.32
475.112	1690.51
475.484	1729.38
475.855	1738.64
476.227	1761.92
476.598	1788.13
476.97	1836.94
477.341	1836.72
477.713	1888.02
478.084	1871.97
478.455	1907.22
478.827	1908.13
479.198	1987.22
479.569	1992.87
479.94	2010.5
480.311	2071.74
480.682	2070.84
481.053	2120.55
481.424	2141.57
481.795	2182.92
482.166	2192.87
482.537	2266.76
482.908	2273.77
483.279	2295.91
483.65	2359.19
484.021	2383.82
484.391	2421.56
484.762	2437.38
485.133	2432.18
485.503	2444.38
485.874	2494.33
486.244	2516.25
486.615	2557.15
486.985	2628.79
487.356	2682.8
487.726	2656.81
488.097	2740.87
488.467	2734.32
488.837	2772.51
489.207	2814.09
489.578	2839.4
489.948	2878.5
490.318	2898.84
490.688	2922.34
491.058	2976.57
491.428	2979.29
491.798	3013.86
492.168	3098.83
492.538	3110.81
492.908	3147.42
493.278	3134.76
493.648	3181.54
494.017	3177.7
494.387	3244.14
494.757	3229.9
495.126	3306.74
495.496	3298.15
495.866	3335.66
496.235	3363
496.605	3405.94
496.974	3428.99
497.344	3453.85
497.713	3435.09
498.082	3483.45
498.452	3511.48
498.821	3498.37
499.19	3527.97
499.559	3548.76
499.928	3597.8
500.298	3585.15
500.667	3624.24
501.036	3618.14
501.405	3682.32
501.774	3631.7
502.143	3697.91
502.512	3717.35
502.88	3697.91
503.249	3703.56
503.618	3746.95
503.987	3755.76
504.356	3793.5
504.724	3811.13
505.093	3827.4
505.462	3870.56
505.83	3862.2
506.199	3901.52
506.567	3926.83
506.936	3944.23
507.304	3967.51
507.672	3982.88
508.041	3962.76
508.409	3987.4
508.777	4007.06
509.145	4054.06
509.514	4010.67
509.882	4048.41
510.25	4082.31
510.618	4045.7
510.986	4094.96
511.354	4138.35
511.722	4107.17
512.09	4136.77
512.458	4192.36
512.826	4163.89
513.193	4184.9
513.561	4200.72
513.929	4237.56
514.297	4273.72
514.664	4240.95
515.032	4294.28
515.4	4305.8
515.767	4302.64
516.135	4292.7
516.502	4280.49
516.869	4360.72
517.237	4376.31
517.604	4361.62
517.972	4381.96
518.339	4464.67
518.706	4421.73
519.073	4431.9
519.44	4464.44
519.808	4502.86
520.175	4518.91
520.542	4482.3
520.909	4477.33
521.276	4513.03
521.643	4536.99
522.009	4586.02
522.376	4593.93
522.743	4628.96
523.11	4646.81
523.477	4697.66
523.843	4680.71
524.21	4690.2
524.577	4703.99
524.943	4762.97
525.31	4777.66
525.676	4795.51
526.043	4791.22
526.409	4847.94
526.776	4882.06
527.142	4900.37
527.508	4909.86
527.874	4939.69
528.241	5036.86
528.607	4979.01
528.973	5023.3
529.339	5015.84
529.705	5042.96
530.071	5105.56
530.437	5051.55
530.803	5170.19
531.169	5212.67
531.535	5169.28
531.901	5191.43
532.267	5235.5
532.632	5236.85
532.998	5264.42
533.364	5299
533.73	5284.54
534.095	5372.22
534.461	5380.35
534.826	5393.01
535.192	5379.9
535.557	5403.63
535.923	5381.26
536.288	5439.33
536.653	5511.65
537.019	5531.54
537.384	5510.97
537.749	5508.26
538.114	5575.83
538.479	5560.91
538.845	5646.11
539.21	5544.64
539.575	5655.6
539.94	5614.25
540.305	5671.87
540.67	5661.48
541.034	5699.44
541.399	5724.75
541.764	5743.28
542.129	5740.57
542.494	5809.95
542.858	5774.24
543.223	5841.13
543.587	5910.51
543.952	5925.2
544.316	5888.81
544.681	5919.32
545.045	5927.68
545.41	6005.42
545.774	6045.65
546.138	5990.73
546.503	6075.93
546.867	6048.13
547.231	6122.71
547.595	6111.18
547.959	6169.94
548.324	6138.75
548.688	6166.09
549.052	6184.85
549.416	6223.04
549.779	6183.72
550.143	6223.95
550.507	6275.7
550.871	6307.79
551.235	6325.86
551.599	6384.17
551.962	6327.45
552.326	6369.71
552.689	6432.98
553.053	6384.17
553.417	6429.14
553.78	6479.08
554.143	6475.92
554.507	6497.39
554.87	6522.92
555.234	6605.41
555.597	6562.47
555.96	6576.25
556.323	6611.51
556.686	6629.13
557.05	6648.34
557.413	6677.49
557.776	6646.08
558.139	6750.26
558.502	6722.69
558.865	6734.89
559.228	6759.75
559.59	6794.33
559.953	6794.1
560.316	6913.65
560.679	6876.58
561.041	6856.92
561.404	6931.95
561.767	6970.14
562.129	6928.56
562.492	6998.16
562.854	6980.08
563.217	7010.14
563.579	7039.74
563.941	6972.85
564.304	7071.16
564.666	7119.06
565.028	7099.18
565.39	7124.71
565.753	7169.23
566.115	7205.84
566.477	7222.34
566.839	7242.9
567.201	7294.2
567.563	7245.16
567.925	7345.72
568.287	7354.54
568.648	7333.07
569.01	7367.42
569.372	7444.93
569.734	7423.46
570.095	7499.17
570.457	7551.14
570.819	7489.9
571.18	7608.09
571.542	7646.73
571.903	7615.55
572.265	7730.8
572.626	7791.14
572.987	7796.11
573.349	7783.91
573.71	7872.26
574.071	7842.89
574.432	7972.15
574.794	8038.59
575.155	8029.32
575.516	8103.45
575.877	8201.97
576.238	8200.17
576.599	8277.45
576.96	8362.2
577.32	8402.42
577.681	8483.32
578.042	8535.98
578.403	8612.58
578.763	8650.1
579.124	8758.57
579.485	8899.81
579.845	8966.93
580.206	9064.32
580.566	9164.66
580.927	9272.68
581.287	9415.95
581.648	9445.78
582.008	9721.93
582.368	9786.11
582.728	9899.78
583.089	10088.48
583.449	10111.53
583.809	10314.46
584.169	10441.69
584.529	10586.77
584.889	10796.26
585.249	10908.34
585.609	11094.1
585.969	11363.47
586.329	11489.34
586.688	11614.99
587.048	11829.9
587.408	12122.77
587.768	12306.5
588.127	12487.51
588.487	12646.83
588.846	12986.93
589.206	13154.39
589.565	13388.96
589.925	13659.23
590.284	13879.34
590.643	14119.56
591.003	14390.96
591.362	14622.82
591.721	14860.33
592.08	15151.4
592.44	15429.81
592.799	15758.16
593.158	15948.21
593.517	16188.2
593.876	16459.61
594.235	16700.28
594.593	17056.88
594.952	17281.73
595.311	17504.78
595.67	17912.68
596.029	18121.49
596.387	18480.12
596.746	18871.07
597.104	19016.6
597.463	19231.97
597.822	19682.35
598.18	19800.09
598.538	20045.28
598.897	20542.67
599.255	20622.21
599.613	21138.36
599.972	21318.46
600.33	21663.77
600.688	21878.45
601.046	22209.97
601.404	22508.26
601.762	22672.78
602.12	23054.69
602.478	23216.49
602.836	23501.68
603.194	23606.54
603.552	23990.03
603.91	24166.53
604.268	24471.15
604.625	24655.33
604.983	24970.35
605.341	25114.52
605.698	25503.44
606.056	25657.79
606.413	25859.81
606.771	26218.22
607.128	26448.5
607.485	26513.81
607.843	26802.16
608.2	27098.2
608.557	27374.8
608.914	27443.95
609.272	27763.95
609.629	27999.87
609.986	28326.87
610.343	28297.94
610.7	28670.81
611.057	28906.29
611.414	29100.41
611.771	29289.55
612.127	29493.84
612.484	29623.11
612.841	29912.14
613.198	29872.36
613.554	30085.24
613.911	30334.5
614.267	30579.46
614.624	30727.93
614.98	30850.87
615.337	31013.8
615.693	31190.52
616.05	31170.86
616.406	31611.75
616.762	31639.78
617.118	31850.39
617.475	31898.3
617.831	32035.47
618.187	32357.72
618.543	32469.81
618.899	32824.83
619.255	32843.59
619.611	32870.03
619.967	32992.51
620.323	33247.19
620.678	33145.5
621.034	33394.98
621.39	33358.83
621.746	33503.91
622.101	33929.66
622.457	33671.36
622.812	33692.83
623.168	33957
623.523	34105.02
623.879	34312.25
624.234	34178.92
624.589	34320.83
624.945	34252.81
625.3	34654.39
625.655	34526.25
626.01	34589.98
626.365	34686.25
626.72	34765.34
627.075	34770.09
627.43	34730.09
627.785	34812.57
628.14	35003.75
628.495	34969.18
628.85	35146.8
629.205	35111.32
629.559	35241.04
629.914	35163.75
630.269	35192.45
630.623	35294.82
630.978	35256.63
631.332	35377.76
631.687	35597.86
632.041	35408.26
632.396	35394.03
632.75	35419.79
633.104	35425.89
633.459	35369.17
633.813	35452.56
634.167	35403.52
634.521	35389.73
634.875	35463.63
635.229	35435.83
635.583	35384.99
635.937	35470.64
636.291	35417.76
636.645	35460.47
636.999	35433.12
637.352	35417.98
637.706	35412.11
638.06	35494.36
638.413	35398.32
638.767	35383.18
639.121	35609.39
639.474	35421.6
639.828	35420.24
640.181	35378.89
640.534	35458.43
640.888	35517.19
641.241	35314.71
641.594	35406.23
641.947	35369.62
642.301	35439.22
642.654	35423.86
643.007	35493.91
643.36	35384.99
643.713	35309.96
644.066	35456.17
644.419	35119.91
644.771	35044.88
645.124	34655.97
645.477	34636.76
645.83	34404.22
646.182	34309.76
646.535	34424.79
646.888	34344.11
647.24	34210.78
647.593	34392.25
647.945	34350.66
648.298	34210.33
648.65	34114.96
649.002	34132.82
649.355	34199.48
649.707	34213.04
650.059	34320.16
650.411	34758.34
650.763	34922.4
651.115	35213.01
651.467	35046.24
651.819	35098.89
652.171	34974.6
652.523	34986.81
652.875	34885.57
653.227	34789.52
653.578	35041.04
653.93	35009.63
654.282	34731.67
654.633	34766.47
654.985	34738
655.337	34855.51
655.688	34711.11
656.039	34836.53
656.391	34603.99
656.742	34686.93
657.094	34701.84
657.445	34825.68
657.796	34725.12
658.147	34679.02
658.498	34641.5
658.849	34720.15
659.2	34685.57
659.551	34587.27
659.902	34759.92
660.253	34606.7
660.604	34621.39
660.955	34589.98
661.306	34719.47
661.656	34548.85
662.007	34595.18
662.358	34498.68
662.708	34534.61
663.059	34512.92
663.409	34458.91
663.76	34627.72
664.11	34631.56
664.461	34568.74
664.811	34649.87
665.161	34582.3
665.511	34554.28
665.862	34495.07
666.212	34725.12
666.562	34628.17
666.912	34628.85
667.262	34548.17
667.612	34499.81
667.962	34450.77
668.312	34539.36
668.662	34682.86
669.011	34543.88
669.361	34320.16
669.711	34452.13
670.06	34367.61
670.41	34422.3
670.76	34432.47
671.109	34367.39
671.459	34438.8
671.808	34347.27
672.157	34496.65
672.507	34111.12
672.856	34274.28
673.205	34358.35
673.554	34293.04
673.904	34244.45
674.253	34393.83
674.602	34314.96
674.951	33782.77
675.3	33735.54
675.649	34263.89
675.998	34121.29
676.346	34216.88
676.695	34360.61
677.044	34133.27
677.393	34156.55
677.741	34074.97
678.09	33990
678.438	33927.85
678.787	34083.78
679.135	34150.67
679.484	34008.75
679.832	33945.25
680.181	33793.39
680.529	33695.09
680.877	33735.99
681.225	33748.42
681.573	34035.19
681.922	33644.92
682.27	33600.18
682.618	33565.37
682.966	33398.15
683.314	33521.76
683.661	33540.29
684.009	33376.23
684.357	33415.55
684.705	33305.04
685.053	33318.15
685.4	33147.08
685.748	33173.29
686.095	33041.77
686.443	33068.21
686.79	32916.8
687.138	32943.7
687.485	32936.69
687.832	32876.58
688.18	32842
688.527	32659.86
688.874	32635.68
689.221	32666.87
689.568	32509.13
689.915	32445.63
690.262	32566.53
690.609	32270.27
690.956	32154.79
691.303	32182.36
691.65	32122.7
691.997	32074.11
692.344	31837.06
692.69	31868.7
693.037	31859.43
693.383	31637.29
693.73	31746.21
694.077	31572.21
694.423	31550.96
694.769	31491.53
695.116	31498.31
695.462	31304.42
695.808	31308.03
696.155	31391.42
696.501	30971.77
696.847	31100.35
697.193	30937.2
697.539	30960.25
697.885	30807.25
698.231	30703.08
698.577	30692.68
698.923	30696.07
699.269	30424.67
699.614	30345.57
699.96	30422.18
700.306	30369.75
700.651	30237.78
700.997	30138.8
701.342	30156.42
701.688	30103.77
702.033	29862.2
702.379	29923.89
702.724	29687.51
703.069	29857.45
703.415	29405.71
703.76	29628.3
704.105	29598.25
704.45	29488.65
704.795	29310.8
705.14	29151.48
705.485	29274.41
705.83	28969.56
706.175	29293.62
706.52	29076.68
706.865	28991.26
707.209	28927.08
707.554	28739.06
707.899	28854.54
708.243	28724.37
708.588	28649.57
708.932	28492.29
709.277	28522.8
709.621	28458.84
709.966	28328
710.31	28380.65
710.654	28177.04
710.998	28135.91
711.342	28220.2
711.687	28179.3
712.031	28052.3
712.375	27978.63
712.719	27993.09
713.063	27872.64
713.407	27901.57
713.75	27786.09
714.094	27719.2
714.438	27525.08
714.782	27632.2
715.125	27554.46
715.469	27514.46
715.812	27254.13
716.156	27282.38
716.499	27338.65
716.843	27307.69
717.186	27227.24
717.53	27302.04
717.873	27293.9
718.216	27223.39
718.559	27025.21
718.902	26819.11
719.246	26961.03
719.589	26895.04
719.932	26750.19
720.275	26754.93
720.617	26734.82
720.96	26714.93
721.303	26684.88
721.646	26729.85
721.989	26499.12
722.331	26663.86
722.674	26535.05
723.016	26470.87
723.359	26384.55
723.701	26417.31
724.044	26305.68
724.386	26097.55
724.729	26293.93
725.071	26137.1
725.413	26140.48
725.755	26195.62
726.097	26020.71
726.439	25869.31
726.782	25963.31
727.124	26153.82
727.465	26014.39
727.807	25835.63
728.149	25862.07
728.491	25808.52
728.833	25686.49
729.175	25701.85
729.516	25721.96
729.858	25597.67
730.199	25616.43
730.541	25682.64
730.882	25437.45
731.224	25566.04
731.565	25440.84
731.906	25490.33
732.248	25513.83
732.589	25212.37
732.93	25236.33
733.271	25296.67
733.612	25267.29
733.953	25287.4
734.294	25194.75
734.635	25101.87
734.976	25144.58
735.317	25018.25
735.658	25001.08
735.999	24933.29
736.339	24803.8
736.68	25088.76
737.021	24894.87
737.361	24744.82
737.702	24843.57
738.042	24740.97
738.383	24624.59
738.723	24676.12
739.063	24705.72
739.404	24696.23
739.744	24727.19
740.084	24533.3
740.424	24610.81
740.764	24468.21
741.104	24581.66
741.444	24431.38
741.784	24335.79
742.124	24399.74
742.464	24330.59
742.804	24267.09
743.143	24327.43
743.483	24315.45
743.823	24093.99
744.162	24194.55
744.502	24283.13
744.841	24002.24
745.181	24125.17
745.52	23953.42
745.86	24078.84
746.199	24051.95
746.538	23958.17
746.877	23919.53
747.216	23976.25
747.556	23830.49
747.895	23880.43
748.234	23811.28
748.573	23759.76
748.911	23703.26
749.25	23784.61
749.589	23587.33
749.928	23480.44
750.267	23592.08
750.605	23519.76
750.944	23576.03
751.283	23451.97
751.621	23434.79
751.96	23222.14
752.298	23294.23
752.636	23294.91
752.975	23144.86
753.313	23156.61
753.651	23241.35
753.989	23062.15
754.327	23026.89
754.666	22903.51
755.004	22989.83
755.342	22914.36
755.679	22882.04
756.017	22743.96
756.355	22854.47
756.693	22718.43
757.031	22795.49
757.368	22620.8
757.706	22580.13
758.044	22542.39
758.381	22434.37
758.719	22454.03
759.056	22518.21
759.394	22308.95
759.731	22225.79
760.068	22216.52
760.405	22053.13
