Data from hue_34_FLMS001491_00016.txt Node
Date: Tue Feb 07 17:25:16 GMT 2017
User: dcchb
Spectrometer: FLMS00149
Trigger mode: 0
Integration Time (sec): 2.000000E-2
Scans to average: 10
Electric dark correction enabled: true
Nonlinearity correction enabled: false
Boxcar width: 0
XAxis mode: Wavelengths
Number of Pixels in Spectrum: 2048
>>>>>Begin Spectral Data<<<<<
341.393	1.43
341.776	1.43
342.16	1.43
342.543	-66.14
342.927	-48.97
343.31	-53.04
343.693	-84.9
344.077	-57.33
344.46	-86.48
344.843	-52.13
345.226	-43.54
345.61	-36.99
345.993	-27.95
346.376	8.66
346.759	10.47
347.142	25.38
347.525	38.49
347.908	65.83
348.291	78.71
348.674	96.34
349.057	118.49
349.44	120.29
349.823	141.31
350.206	141.08
350.588	203.68
350.971	207.75
351.354	241.42
351.737	251.82
352.119	232.61
352.502	283.68
352.884	255.88
353.267	280.52
353.65	293.62
354.032	301.76
354.414	310.8
354.797	326.62
355.179	325.03
355.562	325.49
355.944	322.32
356.326	346.05
356.709	331.36
357.091	334.53
357.473	329.78
357.855	334.53
358.238	332.49
358.62	347.63
359.002	341.98
359.384	339.5
359.766	347.63
360.148	355.09
360.53	377.46
360.912	331.14
361.294	350.8
361.676	353.06
362.057	335.88
362.439	337.91
362.821	342.21
363.203	337.69
363.584	315.77
363.966	334.3
364.348	308.09
364.729	325.71
365.111	340.85
365.493	320.06
365.874	324.13
366.256	323.23
366.637	327.07
367.019	307.18
367.4	299.05
367.781	321.64
368.163	298.37
368.544	314.19
368.925	315.99
369.306	332.49
369.688	314.41
370.069	293.85
370.45	294.07
370.831	313.06
371.212	323.68
371.593	286.62
371.974	321.42
372.355	318.93
372.736	307.18
373.117	321.87
373.498	321.64
373.879	299.05
374.26	314.41
374.641	308.31
375.021	316.67
375.402	309.44
375.783	336.56
376.163	340.4
376.544	330.68
376.925	320.29
377.305	327.52
377.686	332.04
378.066	322.1
378.447	352.15
378.827	350.8
379.208	330.01
379.588	346.28
379.968	327.97
380.349	325.26
380.729	323.9
381.109	352.83
381.489	345.37
381.87	319.16
382.25	344.92
382.63	345.15
383.01	341.53
383.39	354.41
383.77	349.89
384.15	348.76
384.53	343.34
384.91	338.14
385.29	322.77
385.67	351.02
386.049	353.51
386.429	357.58
386.809	352.83
387.189	364.58
387.568	337.01
387.948	378.82
388.328	358.25
388.707	374.52
389.087	362.32
389.466	362.09
389.846	343.79
390.225	369.1
390.605	368.2
390.984	363.22
391.363	365.94
391.743	374.3
392.122	374.52
392.501	383.79
392.881	406.16
393.26	379.72
393.639	379.95
394.018	375.2
394.397	381.08
394.776	372.49
395.155	368.87
395.534	384.02
395.913	375.43
396.292	397.12
396.671	384.24
397.05	383.79
397.429	384.02
397.808	376.78
398.186	368.42
398.565	381.98
398.944	388.08
399.323	392.83
399.701	396.44
400.08	407.52
400.458	392.38
400.837	407.52
401.215	404.35
401.594	401.64
401.972	401.64
402.351	397.57
402.729	415.88
403.107	404.35
403.486	412.72
403.864	415.65
404.242	416.1
404.62	412.04
404.999	426.5
405.377	404.35
405.755	416.78
406.133	429.66
406.511	421.75
406.889	425.6
407.267	438.03
407.645	423.56
408.023	439.38
408.401	446.16
408.779	452.04
409.156	440.51
409.534	426.73
409.912	452.26
410.29	458.82
410.667	477.35
411.045	447.29
411.422	454.75
411.8	460.85
412.178	473.05
412.555	475.09
412.933	465.37
413.31	482.32
413.687	465.6
414.065	464.92
414.442	480.51
414.819	475.76
415.197	487.97
415.574	467.63
415.951	489.55
416.328	495.65
416.705	505.37
417.082	502.66
417.46	504.24
417.837	484.58
418.214	503.33
418.591	515.09
418.967	544.69
419.344	521.64
419.721	530.23
420.098	498.81
420.475	514.86
420.852	543.33
421.228	526.16
421.605	523.22
421.982	509.89
422.358	533.84
422.735	532.94
423.111	531.36
423.488	555.54
423.864	553.05
424.241	572.03
424.617	570.45
424.994	537.68
425.37	568.19
425.746	582.2
426.123	561.41
426.499	547.17
426.875	580.85
427.251	570.9
427.627	603.22
428.003	612.71
428.379	570.23
428.756	586.72
429.132	612.94
429.507	607.29
429.883	613.16
430.259	639.15
430.635	609.32
431.011	629.88
431.387	614.97
431.763	633.73
432.138	652.03
432.514	638.7
432.89	635.99
433.265	654.06
433.641	690.9
434.016	668.53
434.392	679.15
434.767	679.6
435.143	668.08
435.518	702.88
435.894	694.29
436.269	686.38
436.644	714.4
437.02	725.25
437.395	704.91
437.77	726.38
438.145	690.45
438.52	700.62
438.895	715.31
439.271	754.4
439.646	733.84
440.021	760.73
440.395	757.11
440.77	775.42
441.145	759.82
441.52	755.98
441.895	775.42
442.27	795.98
442.645	779.94
443.019	759.82
443.394	774.29
443.769	792.59
444.143	802.54
444.518	805.25
444.892	798.02
445.267	801.18
445.641	794.63
446.016	804.34
446.39	823.55
446.764	835.98
447.139	822.42
447.513	829.65
447.887	857.68
448.262	819.71
448.636	854.74
449.01	859.71
449.384	850.22
449.758	846.38
450.132	881.4
450.506	856.09
450.88	836.21
451.254	901.52
451.628	895.87
452.002	912.14
452.376	912.81
452.75	912.81
453.123	919.82
453.497	918.46
453.871	934.96
454.244	949.65
454.618	929.99
454.992	967.95
455.365	955.53
455.739	958.01
456.112	989.88
456.486	982.19
456.859	997.78
457.232	1001.4
457.606	1010.89
457.979	1025.35
458.352	1035.07
458.725	1038.24
459.099	1103.54
459.472	1066.03
459.845	1075.75
460.218	1111
460.591	1108.29
460.964	1112.58
461.337	1119.59
461.71	1138.35
462.083	1162.07
462.456	1163.88
462.829	1153.26
463.201	1172.92
463.574	1161.62
463.947	1211.79
464.32	1229.19
464.692	1237.55
465.065	1261.96
465.438	1263.99
465.81	1282.07
466.183	1293.6
466.555	1323.65
466.928	1345.8
467.3	1333.82
467.672	1367.49
468.045	1383.54
468.417	1408.17
468.789	1423.08
469.161	1445.23
469.534	1453.14
469.906	1493.59
470.278	1518.45
470.65	1524.1
471.022	1539.01
471.394	1572.46
471.766	1599.58
472.138	1632.34
472.51	1652.68
472.882	1728.39
473.253	1744.21
473.625	1748.73
473.997	1772
474.369	1782.62
474.74	1865.33
475.112	1877.99
475.484	1892.9
475.855	1953.47
476.227	1936.06
476.598	2019.23
476.97	2042.05
477.341	2127.25
477.713	2124.99
478.084	2206.11
478.455	2261.25
478.827	2298.32
479.198	2388.03
479.569	2394.36
479.94	2475.49
480.311	2494.24
480.682	2576.95
481.053	2650.4
481.424	2723.39
481.795	2745.08
482.166	2857.62
482.537	2900.79
482.908	2934.68
483.279	3029.37
483.65	3101.91
484.021	3164.28
484.391	3245.86
484.762	3330.83
485.133	3379.87
485.503	3433.2
485.874	3572.86
486.244	3598.17
486.615	3716.36
486.985	3811.27
487.356	3882.68
487.726	3954.99
488.097	4079.51
488.467	4131.04
488.837	4223.69
489.207	4347.98
489.578	4414.42
489.948	4491.7
490.318	4595.43
490.688	4641.08
491.058	4790.23
491.428	4860.96
491.798	4946.38
492.168	5088.3
492.538	5108.64
492.908	5197.45
493.278	5310.21
493.648	5382.3
494.017	5430.21
494.387	5510.89
494.757	5639.02
495.126	5639.02
495.496	5737.55
495.866	5830.43
496.235	5876.75
496.605	5980.7
496.974	6091.89
497.344	6158.55
497.713	6262.96
498.082	6295.05
498.452	6383.86
498.821	6453.91
499.19	6562.84
499.559	6639.67
499.928	6693.45
500.298	6682.61
500.667	6821.13
501.036	6858.42
501.405	6961.7
501.774	6956.5
502.143	7006.44
502.512	7164.63
502.88	7125.76
503.249	7234.68
503.618	7304.51
503.987	7370.05
504.356	7417.28
504.724	7502.7
505.093	7533.66
505.462	7565.75
505.83	7647.1
506.199	7702.69
506.567	7844.16
506.936	7885.29
507.304	7956.7
507.672	8017.03
508.041	8090.71
508.409	8111.95
508.777	8184.49
509.145	8218.16
509.514	8306.97
509.882	8316.91
510.25	8382.45
510.618	8390.81
510.986	8437.14
511.354	8536.34
511.722	8576.34
512.09	8650.01
512.458	8671.93
512.826	8751.25
513.193	8853.62
513.561	8805.04
513.929	8871.02
514.297	8991.92
514.664	9052.04
515.032	9061.08
515.4	9147.85
515.767	9213.16
516.135	9230.79
516.502	9191.92
516.869	9338.36
517.237	9443.44
517.604	9347.85
517.972	9476.88
518.339	9505.58
518.706	9536.32
519.073	9540.61
519.44	9659.7
519.808	9716.65
520.175	9734.96
520.542	9830.77
520.909	9840.26
521.276	9883.88
521.643	9986.47
522.009	10051.78
522.376	10065.79
522.743	10114.83
523.11	10204.77
523.477	10322.06
523.843	10316.86
524.21	10434.82
524.577	10525.22
524.943	10522.28
525.31	10559.57
525.676	10706.23
526.043	10810.86
526.409	10805.44
526.776	10923.17
527.142	11000.46
527.508	11029.84
527.874	11146.9
528.241	11100.8
528.607	11183.73
528.973	11260.57
529.339	11240.23
529.705	11358.19
530.071	11405.87
530.437	11416.04
530.803	11527.9
531.169	11629.37
531.535	11564.06
531.901	11711.4
532.267	11736.71
532.632	11759.08
532.998	11816.94
533.364	11920.21
533.73	11929.47
534.095	12105.74
534.461	12088.79
534.826	12166.98
535.192	12144.61
535.557	12245.85
535.923	12263.25
536.288	12367.2
536.653	12465.96
537.019	12369.69
537.384	12417.15
537.749	12515.45
538.114	12483.13
538.479	12580.08
538.845	12635.44
539.21	12701.88
539.575	12674.31
539.94	12766.74
540.305	12861.88
540.67	12871.82
541.034	12985.72
541.399	12928.54
541.764	12960.63
542.129	12998.6
542.494	13069.56
542.858	13198.14
543.223	13165.83
543.587	13317.01
543.952	13251.7
544.316	13321.98
544.681	13352.49
545.045	13430
545.41	13546.16
545.774	13552.03
546.138	13553.16
546.503	13625.7
546.867	13649.2
547.231	13754.74
547.595	13773.49
547.959	13833.15
548.324	13863.66
548.688	13858.69
549.052	14042.87
549.416	14004
549.779	14011.23
550.143	14015.75
550.507	14158.79
550.871	14237.21
551.235	14222.52
551.599	14331.67
551.962	14306.81
552.326	14464.1
552.689	14542.29
553.053	14470.42
553.417	14554.72
553.78	14715.39
554.143	14629.06
554.507	14842.17
554.87	14743.64
555.234	14875.16
555.597	14865.67
555.96	14937.08
556.323	14921.71
556.686	14950.86
557.05	15060.92
557.413	15120.8
557.776	15172.33
558.139	15177.98
558.502	15294.81
558.865	15300.91
559.228	15342.72
559.59	15421.81
559.953	15419.33
560.316	15548.36
560.679	15636.72
561.041	15732.99
561.404	15717.85
561.767	15824.29
562.129	15680.11
562.492	15952.19
562.854	15961.91
563.217	15914.91
563.579	15984.28
563.941	16113.09
564.304	16112.19
564.666	16193.77
565.028	16255.46
565.39	16298.63
565.753	16417.72
566.115	16448.9
566.477	16528.9
566.839	16478.51
567.201	16652.51
567.563	16682.12
567.925	16844.37
568.287	16762.12
568.648	16973.41
569.01	16876.01
569.372	17033.75
569.734	17144.48
570.095	17218.15
570.457	17139.28
570.819	17230.13
571.18	17271.71
571.542	17476.22
571.903	17478.71
572.265	17468.31
572.626	17697.91
572.987	17654.3
573.349	17870.56
573.71	17880.96
574.071	17948.53
574.432	18085.24
574.794	18315.75
575.155	18261.96
575.516	18299.7
575.877	18369.08
576.238	18585.57
576.599	18633.93
576.96	18696.53
577.32	18783.76
577.681	18888.39
578.042	19067.14
578.403	19148.72
578.763	19236.4
579.124	19427.13
579.485	19567.69
579.845	19767.69
580.206	19851.75
580.566	19932.43
580.927	20151.18
581.287	20354.79
581.648	20349.82
582.008	20594.33
582.368	20784.16
582.728	21037.71
583.089	21143.24
583.449	21304.14
583.809	21532.16
584.169	21804.7
584.529	21926.5
584.889	22170.11
585.249	22340.95
585.609	22451.91
585.969	22697.33
586.329	22884.21
586.688	23168.73
587.048	23437.42
587.408	23661.82
587.768	23796.28
588.127	24034.01
588.487	24168.02
588.846	24519.88
589.206	24571.63
589.565	24934.33
589.925	25348.78
590.284	25434.43
590.643	25788.32
591.003	25911.48
591.362	26307.85
591.721	26515.98
592.08	26648.18
592.44	27068.29
592.799	27303.08
593.158	27522.74
593.517	27667.37
593.876	27993.23
594.235	28014.25
594.593	28514.12
594.952	28658.53
595.311	28839.76
595.67	29221.22
596.029	29569.91
596.387	29685.62
596.746	30031.82
597.104	30101.2
597.463	30385.94
597.822	30584.13
598.18	30829.09
598.538	31045.81
598.897	31548.62
599.255	31377.55
599.613	32010.98
599.972	32119
600.33	32481.7
600.688	32475.83
601.046	32713.33
601.404	33026.77
601.762	33197.39
602.12	33438.97
602.478	33655
602.836	33982.91
603.194	33887.32
603.552	34144.03
603.91	34378.6
604.268	34586.96
604.625	34672.83
604.983	34967.06
605.341	35020.84
605.698	35338.35
606.056	35460.61
606.413	35578.34
606.771	35914.61
607.128	36033.25
607.485	35988.05
607.843	36230.98
608.2	36472.78
608.557	36724.3
608.914	36739.44
609.272	37081.13
609.629	37312.76
609.986	37499.88
610.343	37470.27
610.7	37851.28
611.057	37922.69
611.414	37935.8
611.771	38043.14
612.127	38384.6
612.484	38454.65
612.841	38696
613.198	38660.3
613.554	38776.23
613.911	39222.54
614.267	39204.24
614.624	39301.18
614.98	39386.61
615.337	39559.03
615.693	39508.18
616.05	39767.39
616.406	40057.77
616.762	39949.3
617.118	39998.11
617.475	40072.69
617.831	40360.37
618.187	40517.42
618.543	40602.62
618.899	40763.07
619.255	40812.1
619.611	40832.67
619.967	41034.02
620.323	41191.3
620.678	41177.52
621.034	41060.23
621.39	41252.55
621.746	41196.73
622.101	41692.76
622.457	41411.19
622.812	41666.77
623.168	41713.32
623.523	41714.68
623.879	41913.32
624.234	41638.52
624.589	41945.63
624.945	41996.48
625.3	42014.79
625.655	42116.7
626.01	42190.6
626.365	42175.01
626.72	42212.75
627.075	42138.62
627.43	42295
627.785	42251.39
628.14	42259.75
628.495	42391.27
628.85	42384.49
629.205	42212.97
629.559	42543.81
629.914	42297.04
630.269	42476.69
630.623	42376.36
630.978	42268.11
631.332	42469.69
631.687	42669.01
632.041	42432.18
632.396	42405.28
632.75	42412.51
633.104	42486.41
633.459	42380.2
633.813	42323.25
634.167	42299.3
634.521	42495.9
634.875	42500.65
635.229	42385.17
635.583	42207.1
635.937	42406.64
636.291	42295.46
636.645	42261.33
636.999	42312.4
637.352	42432.18
637.706	42238.28
638.06	42399.63
638.413	42305.17
638.767	42008.91
639.121	42291.61
639.474	42171.39
639.828	42092.52
640.181	42306.08
640.534	42124.84
640.888	42125.06
641.241	42079.64
641.594	42178.17
641.947	42278.73
642.301	42078.06
642.654	42077.38
643.007	42173.42
643.36	42169.81
643.713	42088.46
644.066	42161
644.419	41801.91
644.771	41664.29
645.124	41329.83
645.477	41251.42
645.83	41018.2
646.182	40990.18
646.535	40719.68
646.888	40994.7
647.24	40672
647.593	40777.3
647.945	40837.41
648.298	40452.79
648.65	40615.5
649.002	40486.24
649.355	40757.87
649.707	40661.6
650.059	40890.52
650.411	41301.58
650.763	41165.99
651.115	41783.38
651.467	41638.52
651.819	41512.88
652.171	41416.38
652.523	41455.93
652.875	41356.27
653.227	41286.67
653.578	41573.89
653.93	41385.42
654.282	41197.41
654.633	41094.58
654.985	41243.73
655.337	41237.18
655.688	41271.75
656.039	41550.62
656.391	41123.96
656.742	41137.07
657.094	41334.13
657.445	41295.26
657.796	41328.93
658.147	41046.67
658.498	41062.49
658.849	41186.11
659.2	41165.32
659.551	41080.35
659.902	41200.34
660.253	41140.68
660.604	41144.07
660.955	41004.64
661.306	41061.14
661.656	41071.76
662.007	40981.37
662.358	40923.51
662.708	41040.57
663.059	40999.67
663.409	40724.88
663.76	41034.92
664.11	41046
664.461	41038.09
664.811	41029.95
665.161	41132.1
665.511	40970.52
665.862	40950.86
666.212	41073.79
666.562	41079.22
666.912	41037.41
667.262	40900.01
667.612	41032.89
667.962	41017.52
668.312	40900.24
668.662	41023.17
669.011	40959.45
669.361	40899.33
669.711	40931.2
670.06	40871.99
670.41	40914.7
670.76	40786.12
671.109	40915.38
671.459	40814.59
671.808	40710.64
672.157	40881.26
672.507	40577.08
672.856	40459.8
673.205	40646.46
673.554	40648.49
673.904	40586.57
674.253	40722.39
674.602	40634.26
674.951	40139.35
675.3	39982.07
675.649	40565.33
675.998	40579.57
676.346	40678.1
676.695	40769.85
677.044	40382.29
677.393	40415.05
677.741	40626.57
678.09	40387.71
678.438	40399.91
678.787	40367.82
679.135	40414.6
679.484	40118.79
679.832	40269.52
680.181	39968.06
680.529	40242.18
680.877	40073.82
681.225	40099.81
681.573	40380.25
681.922	40031.56
682.27	39804.9
682.618	39972.13
682.966	39736.88
683.314	39815.29
683.661	39765.35
684.009	39594.06
684.357	39466.38
684.705	39488.52
685.053	39639.71
685.4	39490.11
685.748	39211.69
686.095	39216.89
686.443	39205.59
686.79	39170.34
687.138	39108.65
687.485	39168.53
687.832	39073.39
688.18	39160.17
688.527	38910.69
688.874	38843.12
689.221	38715.66
689.568	38655.55
689.915	38556.57
690.262	38656.23
690.609	38537.81
690.956	38332.17
691.303	38381.21
691.65	38154.1
691.997	38162.68
692.344	37903.93
692.69	37813.31
693.037	37905.29
693.383	37548.24
693.73	37724.95
694.077	37575.81
694.423	37476.83
694.769	37390.95
695.116	37251.97
695.462	37392.31
695.808	37088.81
696.155	37229.15
696.501	36843.62
696.847	36873
697.193	36588.26
697.539	36769.73
697.885	36497.87
698.231	36456.74
698.577	36557.98
698.923	36537.19
699.269	36228.27
699.614	36047.03
699.96	36017.65
700.306	36163.19
700.651	35921.61
700.997	35677.32
701.342	35770.66
701.688	35688.62
702.033	35580.6
702.379	35611.34
702.724	35480.95
703.069	35527.72
703.415	35104.46
703.76	35148.3
704.105	35013.39
704.45	34973.84
704.795	34914.86
705.14	34765.03
705.485	34912.15
705.83	34568.2
706.175	34646.17
706.52	34501.31
706.865	34426.96
707.209	34293.18
707.554	34356.91
707.899	34361.65
708.243	34113.75
708.588	33965.73
708.932	33894.55
709.277	33890.93
709.621	33872.17
709.966	33736.36
710.31	33767.09
710.654	33455.91
710.998	33586.76
711.342	33629.47
711.687	33456.37
712.031	33292.3
712.375	33178.63
712.719	33253.21
713.063	33154.23
713.407	33118.75
713.75	33078.52
714.094	33055.02
714.438	32832.43
714.782	32876.04
715.125	32745.65
715.469	32816.16
715.812	32589.04
716.156	32454.13
716.499	32490.29
716.843	32509.95
717.186	32291.2
717.53	32459.33
717.873	32476.5
718.216	32353.57
718.559	32219.79
718.902	32004.43
719.246	32009.62
719.589	31820.93
719.932	31801.04
720.275	31837.65
720.617	31785.68
720.96	31806.47
721.303	31824.54
721.646	31731.44
721.989	31542.07
722.331	31687.37
722.674	31506.36
723.016	31655.74
723.359	31553.14
723.701	31441.96
724.044	31394.95
724.386	31274.73
724.729	31285.8
725.071	31184.11
725.413	31317.67
725.755	31131
726.097	31086.26
726.439	30920.16
726.782	30961.97
727.124	30930.56
727.465	30965.58
727.807	30836.1
728.149	30817.79
728.491	30723.78
728.833	30668.64
729.175	30608.98
729.516	30583.22
729.858	30478.59
730.199	30638.36
730.541	30507.97
730.882	30492.38
731.224	30364.7
731.565	30284.92
731.906	30268.65
732.248	30493.51
732.589	30046.06
732.93	30077.02
733.271	30050.13
733.612	30016.23
733.953	30017.59
734.294	29978.04
734.635	29876.57
734.976	30000.86
735.317	29781.21
735.658	29797.48
735.999	29660.76
736.339	29597.26
736.68	29753.41
737.021	29684.26
737.361	29507.32
737.702	29724.49
738.042	29544.83
738.383	29554.77
738.723	29510.48
739.063	29354.1
739.404	29439.3
739.744	29394.55
740.084	29212.18
740.424	29312.29
740.764	29076.82
741.104	29397.26
741.444	29148
741.784	29015.58
742.124	29142.36
742.464	29039.31
742.804	29047.22
743.143	29007.67
743.483	28962.7
743.823	28887.45
744.162	28877.28
744.502	29029.36
744.841	28768.13
745.181	28740.56
745.52	28729.03
745.86	28753.66
746.199	28680.22
746.538	28637.96
746.877	28489.04
747.216	28693.33
747.556	28385.76
747.895	28375.82
748.234	28338.31
748.573	28358.87
748.911	28312.32
749.25	28193
749.589	28214.47
749.928	28160.91
750.267	28177.41
750.605	28112.78
750.944	28034.36
751.283	27819.68
751.621	27996.4
751.96	27865.78
752.298	27813.58
752.636	27804.76
752.975	27613.58
753.313	27607.03
753.651	27633.02
753.989	27483.87
754.327	27494.71
754.666	27347.6
755.004	27465.56
755.342	27477.09
755.679	27364.1
756.017	27147.15
756.355	27289.97
756.693	27020.6
757.031	27118.68
757.368	27012.69
757.706	26926.14
758.044	26887.05
