Data from hue_210_FLMS001491_00082.txt Node
Date: Tue Feb 07 16:41:52 GMT 2017
User: dcchb
Spectrometer: FLMS00149
Trigger mode: 0
Integration Time (sec): 2.000000E-2
Scans to average: 10
Electric dark correction enabled: true
Nonlinearity correction enabled: false
Boxcar width: 0
XAxis mode: Wavelengths
Number of Pixels in Spectrum: 2048
>>>>>Begin Spectral Data<<<<<
341.393	-16.41
341.776	-16.41
342.16	-16.41
342.543	-63.42
342.927	-57.54
343.31	-68.39
343.693	-65.22
344.077	-59.57
344.46	-51.89
344.843	-35.85
345.226	-46.47
345.61	-17.77
345.993	-9.63
346.376	-0.37
346.759	-5.79
347.142	4.83
347.525	37.6
347.908	50.93
348.291	73.98
348.674	88.67
349.057	104.94
349.44	135.67
349.823	156.46
350.206	154.66
350.588	192.62
350.971	218.84
351.354	221.55
351.737	247.31
352.119	256.35
352.502	272.39
352.884	276.01
353.267	283.47
353.65	292.51
354.032	305.39
354.414	323.24
354.797	311.49
355.179	318.49
355.562	311.94
355.944	322.79
356.326	329.34
356.709	341.32
357.091	339.51
357.473	349.23
357.855	334.31
358.238	351.26
358.62	354.88
359.002	325.05
359.384	334.09
359.766	342.22
360.148	323.69
360.53	337.25
360.912	340.64
361.294	330.25
361.676	343.13
362.057	336.57
362.439	351.71
362.821	343.13
363.203	329.12
363.584	324.6
363.966	298.38
364.348	330.02
364.729	341.32
365.111	303.35
365.493	337.25
365.874	320.08
366.256	337.03
366.637	288.44
367.019	325.27
367.4	311.26
367.781	316.01
368.163	318.27
368.544	305.16
368.925	315.1
369.306	297.25
369.688	322.56
370.069	294.31
370.45	294.77
370.831	286.4
371.212	327.76
371.593	289.12
371.974	308.33
372.355	321.43
372.736	324.14
373.117	302
373.498	315.1
373.879	316.46
374.26	297.03
374.641	299.51
375.021	308.33
375.402	327.53
375.783	339.06
376.163	335.44
376.544	295.44
376.925	324.82
377.305	338.15
377.686	335.67
378.066	318.04
378.447	334.09
378.827	335.67
379.208	323.69
379.588	316.91
379.968	321.66
380.349	344.71
380.729	323.69
381.109	337.03
381.489	349.45
381.87	334.09
382.25	348.55
382.63	331.83
383.01	331.15
383.39	349
383.77	346.52
384.15	347.87
384.53	362.11
384.91	358.49
385.29	348.32
385.67	339.51
386.049	351.26
386.429	345.39
386.809	350.36
387.189	348.1
387.568	337.48
387.948	369.79
388.328	357.59
388.707	364.14
389.087	363.47
389.466	352.62
389.846	360.08
390.225	358.49
390.605	365.95
390.984	367.53
391.363	375.44
391.743	367.98
392.122	368.66
392.501	382.45
392.881	388.32
393.26	369.57
393.639	381.09
394.018	393.29
394.397	400.98
394.776	373.18
395.155	368.89
395.534	367.53
395.913	388.1
396.292	384.71
396.671	397.36
397.05	386.52
397.429	387.42
397.808	404.14
398.186	402.33
398.565	390.58
398.944	426.06
399.323	405.72
399.701	410.24
400.08	413.41
400.458	422.45
400.837	438.27
401.215	429.9
401.594	434.88
401.972	441.2
402.351	425.38
402.729	433.29
403.107	428.32
403.486	452.05
403.864	452.5
404.242	442.56
404.62	457.93
404.999	447.53
405.377	476.23
405.755	445.27
406.133	465.61
406.511	471.03
406.889	466.06
407.267	486.63
407.645	497.92
408.023	509.22
408.401	495.44
408.779	490.47
409.156	499.96
409.534	519.17
409.912	540.86
410.29	539.05
410.667	522.1
411.045	555.78
411.422	554.87
411.8	551.48
412.178	583.35
412.555	574.31
412.933	588.54
413.31	567.75
413.687	606.4
414.065	607.53
414.442	631.48
414.819	622.22
415.197	617.47
415.574	650.24
415.951	661.54
416.328	658.37
416.705	683.68
417.082	685.49
417.46	681.42
417.837	694.08
418.214	708.99
418.591	720.29
418.967	717.13
419.344	730.01
419.721	717.81
420.098	743.57
420.475	732.72
420.852	781.99
421.228	778.82
421.605	789.44
421.982	822.66
422.358	820.4
422.735	825.37
423.111	843
423.488	868.31
423.864	853.62
424.241	903.11
424.617	891.13
424.994	921.19
425.37	916.22
425.746	936.11
426.123	948.76
426.499	951.47
426.875	966.39
427.251	987.63
427.627	1011.81
428.003	1049.77
428.379	1033.96
428.756	1022.88
429.132	1069.89
429.507	1071.69
429.883	1056.55
430.259	1085.71
430.635	1122.32
431.011	1132.48
431.387	1115.08
431.763	1171.58
432.138	1185.82
432.514	1182.43
432.89	1198.02
433.265	1207.51
433.641	1258.36
434.016	1250.9
434.392	1293.16
434.767	1320.73
435.143	1329.77
435.518	1335.64
435.894	1372.03
436.269	1414.96
436.644	1442.08
437.02	1474.17
437.395	1460.61
437.77	1510.33
438.145	1535.64
438.52	1528.63
438.895	1557.11
439.271	1596.43
439.646	1617.67
440.021	1634.39
440.395	1654.28
440.77	1671
441.145	1685.24
441.52	1731.11
441.895	1740.15
442.27	1724.33
442.645	1758.46
443.019	1775.86
443.394	1808.62
443.769	1835.52
444.143	1831.22
444.518	1871.45
444.892	1882.3
445.267	1896.98
445.641	1921.84
446.016	1936.31
446.39	1901.5
446.764	1944.67
447.139	1983.99
447.513	1974.95
447.887	1970.65
448.262	1971.11
448.636	2013.14
449.01	2038.9
449.384	2028.28
449.758	2066.47
450.132	2122.06
450.506	2072.57
450.88	2112.8
451.254	2136.53
451.628	2163.87
452.002	2176.52
452.376	2185.11
452.75	2226.01
453.123	2242.06
453.497	2267.37
453.871	2299.46
454.244	2317.09
454.618	2307.82
454.992	2365.9
455.365	2343.3
455.739	2433.69
456.112	2455.39
456.486	2445.44
456.859	2481.6
457.232	2531.54
457.606	2500.13
457.979	2560.47
458.352	2602.05
458.725	2631.43
459.099	2634.82
459.472	2697.41
459.845	2706.45
460.218	2731.76
460.591	2745.1
460.964	2773.57
461.337	2842.04
461.71	2876.39
462.083	2883.85
462.456	2908.03
462.829	2922.27
463.201	3013.79
463.574	2986.67
463.947	3086.78
464.32	3137.63
464.692	3109.16
465.065	3155.26
465.438	3205.65
465.81	3240.23
466.183	3244.97
466.555	3283.61
466.928	3315.93
467.3	3343.05
467.672	3378.08
468.045	3511.86
468.417	3466.89
468.789	3496.72
469.161	3569.03
469.534	3579.2
469.906	3675.24
470.278	3716.15
470.65	3711.63
471.022	3795.92
471.394	3853.32
471.766	3878.85
472.138	3936.7
472.51	3989.58
472.882	4088.56
473.253	4080.2
473.625	4157.04
473.997	4193.87
474.369	4237.94
474.74	4287.66
475.112	4384.38
475.484	4416.69
475.855	4452.85
476.227	4525.39
476.598	4620.98
476.97	4665.05
477.341	4710.24
477.713	4801.99
478.084	4776.91
478.455	4938.03
478.827	4996.56
479.198	5146.62
479.569	5126.05
479.94	5232.49
480.311	5266.61
480.682	5319.94
481.053	5436.33
481.424	5556.32
481.795	5604.68
482.166	5704.79
482.537	5702.99
482.908	5819.59
483.279	5845.58
483.65	5926.93
484.021	6106.82
484.391	6105.23
484.762	6200.6
485.133	6204.44
485.503	6296.87
485.874	6415.96
486.244	6459.35
486.615	6593.81
486.985	6620.25
487.356	6707.25
487.726	6830.64
488.097	6915.61
488.467	6876.06
488.837	7064.31
489.207	7118.09
489.578	7222.04
489.948	7255.94
490.318	7353.56
490.688	7412.09
491.058	7492.54
491.428	7566.67
491.798	7654.8
492.168	7693.22
492.538	7741.58
492.908	7852.31
493.278	7924.85
493.648	7919.88
494.017	7977.5
494.387	8031.51
494.757	8109.7
495.126	8213.65
495.496	8156.93
495.866	8233.09
496.235	8339.98
496.605	8379.3
496.974	8418.39
497.344	8513.31
497.713	8516.7
498.082	8549.92
498.452	8608.22
498.821	8629.24
499.19	8613.87
499.559	8676.24
499.928	8761.89
500.298	8798.5
500.667	8841.89
501.036	8837.82
501.405	8871.94
501.774	8885.5
502.143	9033.97
502.512	8982.45
502.88	9003.24
503.249	9014.31
503.618	9085.72
503.987	9164.59
504.356	9233.51
504.724	9146.96
505.093	9193.06
505.462	9163.46
505.83	9212.95
506.199	9314.64
506.567	9351.25
506.936	9316
507.304	9428.31
507.672	9405.26
508.041	9467.18
508.409	9530
508.777	9588.31
509.145	9542.88
509.514	9614.52
509.882	9622.66
510.25	9664.01
510.618	9692.26
510.986	9708.53
511.354	9692.71
511.722	9774.07
512.09	9759.38
512.458	9726.83
512.826	9835.98
513.193	9787.85
513.561	9800.51
513.929	9889.09
514.297	9939.26
514.664	9978.81
515.032	9961.4
515.4	10050.67
515.767	9999.6
516.135	10042.98
516.502	9867.4
516.869	10135.41
517.237	10067.39
517.604	10029.2
517.972	10077.11
518.339	10043.21
518.706	10126.82
519.073	10070.33
519.44	10130.21
519.808	10110.55
520.175	10145.13
520.542	10254.05
520.909	10195.07
521.276	10186.03
521.643	10219.48
522.009	10200.27
522.376	10307.16
522.743	10268.52
523.11	10339.25
523.477	10358.46
523.843	10332.02
524.21	10453.37
524.577	10490.88
524.943	10492.24
525.31	10398.91
525.676	10469.87
526.043	10532.24
526.409	10437.55
526.776	10572.01
527.142	10566.59
527.508	10607.04
527.874	10574.27
528.241	10600.26
528.607	10552.12
528.973	10579.69
529.339	10574.04
529.705	10674.83
530.071	10636.87
530.437	10605.91
530.803	10616.08
531.169	10651.33
531.535	10489.53
531.901	10526.59
532.267	10517.55
532.632	10588.73
532.998	10558.68
533.364	10527.04
533.73	10640.93
534.095	10559.58
534.461	10475.52
534.826	10542.18
535.192	10491.56
535.557	10585.12
535.923	10492.01
536.288	10516.64
536.653	10494.5
537.019	10449.08
537.384	10412.92
537.749	10438
538.114	10356.2
538.479	10353.94
538.845	10434.61
539.21	10253.83
539.575	10272.58
539.94	10314.39
540.305	10315.75
540.67	10288.85
541.034	10221.74
541.399	10210.44
541.764	10224.22
542.129	10221.74
542.494	10162.08
542.858	10146.48
543.223	10133.83
543.587	10130.21
543.952	9999.82
544.316	10109.42
544.681	9969.77
545.045	10010.67
545.41	9996.43
545.774	9965.92
546.138	9963.44
546.503	9949.88
546.867	9860.84
547.231	9930.9
547.595	9898.13
547.959	9911.24
548.324	9821.3
548.688	9790.11
549.052	9757.57
549.416	9772.03
549.779	9698.81
550.143	9672.6
550.507	9674.86
550.871	9643.67
551.235	9632.6
551.599	9637.57
551.962	9575.65
552.326	9571.36
552.689	9628.31
553.053	9536.11
553.417	9530.23
553.78	9564.35
554.143	9453.17
554.507	9494.98
554.87	9486.16
555.234	9548.76
555.597	9449.55
555.96	9445.94
556.323	9420.63
556.686	9373.85
557.05	9387.41
557.413	9469.67
557.776	9410.91
558.139	9378.82
558.502	9398.26
558.865	9376.11
559.228	9432.38
559.59	9435.99
559.953	9447.75
560.316	9444.13
560.679	9409.78
561.041	9454.07
561.404	9418.14
561.767	9429.22
562.129	9395.77
562.492	9427.63
562.854	9418.14
563.217	9368.65
563.579	9384.92
563.941	9428.09
564.304	9435.54
564.666	9511.93
565.028	9520.06
565.39	9427.41
565.753	9513.96
566.115	9518.93
566.477	9583.11
566.839	9512.15
567.201	9545.37
567.563	9524.13
567.925	9620.4
568.287	9624.69
568.648	9527.97
569.01	9567.74
569.372	9628.53
569.734	9608.42
570.095	9633.28
570.457	9623.33
570.819	9659.27
571.18	9620.17
571.542	9605.03
571.903	9647.74
572.265	9715.54
572.626	9687.51
572.987	9743.33
573.349	9756.21
573.71	9807.51
574.071	9807.51
574.432	9737.46
574.794	9821.75
575.155	9827.4
575.516	9795.31
575.877	9820.62
576.238	9831.46
576.599	9912.82
576.96	9840.05
577.32	9902.42
577.681	9896.77
578.042	9870.11
578.403	9913.27
578.763	9867.17
579.124	9914.4
579.485	10017.67
579.845	10001.86
580.206	9922.54
580.566	10029.43
580.927	9977
581.287	9964.57
581.648	9948.52
582.008	10011.12
582.368	10042.53
582.728	10040.72
583.089	10026.04
583.449	10039.59
583.809	10112.14
584.169	10101.51
584.529	10090.67
584.889	10073.04
585.249	10079.82
585.609	10056.09
585.969	10148.74
586.329	10117.78
586.688	10085.92
587.048	10081.18
587.408	10127.73
587.768	10121.85
588.127	10189.65
588.487	10119.59
588.846	10182.87
589.206	10102.42
589.565	10185.13
589.925	10161.4
590.284	10140.61
590.643	10149.42
591.003	10253.83
591.362	10174.05
591.721	10174.28
592.08	10179.7
592.44	10221.74
592.799	10243.66
593.158	10178.8
593.517	10207.5
593.876	10278.01
594.235	10197.33
594.593	10259.7
594.952	10259.02
595.311	10220.38
595.67	10251.79
596.029	10317.1
596.387	10297.22
596.746	10282.75
597.104	10260.61
597.463	10239.82
597.822	10279.36
598.18	10250.44
598.538	10280.94
598.897	10290.21
599.255	10275.52
599.613	10352.81
599.972	10277.78
600.33	10360.26
600.688	10329.53
601.046	10290.89
601.404	10305.58
601.762	10308.06
602.12	10401.17
602.478	10350.32
602.836	10314.39
603.194	10341.96
603.552	10340.83
603.91	10332.69
604.268	10394.39
604.625	10335.86
604.983	10409.75
605.341	10346.48
605.698	10308.74
606.056	10341.73
606.413	10411.56
606.771	10361.85
607.128	10386.48
607.485	10371.79
607.843	10398.68
608.2	10480.94
608.557	10435.29
608.914	10376.31
609.272	10452.69
609.629	10445.23
609.986	10537.21
610.343	10389.87
610.7	10515.06
611.057	10482.52
611.414	10452.24
611.771	10478.23
612.127	10548.06
612.484	10573.37
612.841	10602.97
613.198	10480.26
613.554	10495.18
613.911	10580.37
614.267	10595.96
614.624	10528.4
614.98	10559.36
615.337	10632.12
615.693	10645.45
616.05	10557.55
616.406	10577.66
616.762	10678.9
617.118	10647.26
617.475	10593.7
617.831	10707.15
618.187	10671.89
618.543	10701.05
618.899	10713.02
619.255	10642.97
619.611	10599.81
619.967	10733.81
620.323	10755.06
620.678	10703.08
621.034	10567.49
621.39	10684.1
621.746	10643.42
622.101	10721.16
622.457	10609.75
622.812	10746.69
623.168	10703.98
623.523	10683.65
623.879	10747.82
624.234	10739.46
624.589	10683.19
624.945	10661.73
625.3	10698.33
625.655	10662.18
626.01	10722.74
626.365	10694.27
626.72	10703.08
627.075	10644.78
627.43	10633.48
627.785	10655.62
628.14	10642.97
628.495	10643.65
628.85	10618.56
629.205	10605.91
629.559	10728.39
629.914	10619.01
630.269	10644.55
630.623	10582.18
630.978	10563.87
631.332	10645.45
631.687	10550.54
632.041	10543.76
632.396	10588.28
632.75	10484.55
633.104	10521.84
633.459	10552.8
633.813	10434.61
634.167	10482.97
634.521	10530.2
634.875	10479.13
635.229	10415.4
635.583	10475.29
635.937	10382.64
636.291	10397.33
636.645	10383.54
636.999	10327.04
637.352	10392.35
637.706	10355.52
638.06	10375.18
638.413	10326.37
638.767	10307.16
639.121	10345.58
639.474	10242.53
639.828	10223.32
640.181	10269.87
640.534	10303.54
640.888	10212.47
641.241	10229.65
641.594	10181.74
641.947	10185.58
642.301	10174.28
642.654	10246.82
643.007	10222.41
643.36	10164.56
643.713	10190.78
644.066	10137.22
644.419	10124.56
644.771	10073.04
645.124	10013.38
645.477	10018.8
645.83	9928.64
646.182	9876.89
646.535	9838.92
646.888	9852.26
647.24	9754.63
647.593	9844.57
647.945	9786.72
648.298	9760.73
648.65	9770.22
649.002	9740.85
649.355	9775.87
649.707	9876.66
650.059	9885.7
650.411	9979.48
650.763	9957.56
651.115	10003.21
651.467	10081.63
651.819	9977.9
652.171	10075.98
652.523	9951.24
652.875	9972.25
653.227	9949.65
653.578	10048.86
653.93	9978.13
654.282	9966.38
654.633	9924.34
654.985	10020.39
655.337	9985.58
655.688	10053.61
656.039	9954.85
656.391	9990.1
656.742	9945.81
657.094	9987.84
657.445	9963.44
657.796	9992.36
658.147	9990.1
658.498	9988.97
658.849	9994.4
659.2	10005.25
659.551	9984
659.902	10029.2
660.253	10001.4
660.604	10000.05
660.955	10024.91
661.306	10017
661.656	10023.78
662.007	9944.23
662.358	10012.7
662.708	10053.83
663.059	10009.99
663.409	9950.56
663.76	10030.56
664.11	10000.27
664.461	10047.05
664.811	10014.28
665.161	10041.85
665.511	9969.09
665.862	10048.18
666.212	10074.62
666.562	10061.52
666.912	10036.66
667.262	10044.57
667.612	10015.64
667.962	10063.32
668.312	9976.09
668.662	10055.64
669.011	10024.45
669.361	10020.39
669.711	10004.12
670.06	10051.57
670.41	10047.96
670.76	9969.31
671.109	9991.91
671.459	9948.07
671.808	9967.05
672.157	9959.37
672.507	9950.56
672.856	9891.8
673.205	9946.72
673.554	9941.52
673.904	9868.98
674.253	9895.19
674.602	9910.11
674.951	9806.15
675.3	9693.62
675.649	9887.28
675.998	9889.32
676.346	9906.94
676.695	9965.47
677.044	9747.63
677.393	9847.51
677.741	9881.41
678.09	9831.24
678.438	9805.02
678.787	9845.7
679.135	9839.37
679.484	9753.05
679.832	9810
680.181	9734.74
680.529	9720.73
680.877	9715.08
681.225	9725.03
681.573	9699.49
681.922	9711.02
682.27	9702.2
682.618	9606.61
682.966	9655.88
683.314	9601.41
683.661	9669.44
684.009	9521.19
684.357	9567.74
684.705	9512.83
685.053	9501.08
685.4	9503.56
685.748	9474.64
686.095	9435.32
686.443	9419.5
686.79	9347.18
687.138	9398.71
687.485	9382.44
687.832	9346.05
688.18	9310.35
688.527	9327.3
688.874	9273.74
689.221	9234.64
689.568	9219.28
689.915	9099.73
690.262	9130.47
690.609	9109.45
690.956	9112.16
691.303	9091.37
691.65	9020.86
691.997	9112.84
692.344	8984.93
692.69	8993.97
693.037	8903.81
693.383	8876.91
693.73	8932.05
694.077	8880.3
694.423	8778.61
694.769	8810.25
695.116	8806.63
695.462	8768.44
695.808	8727.76
696.155	8774.54
696.501	8664.72
696.847	8696.58
697.193	8548.11
697.539	8566.19
697.885	8516.7
698.231	8516.47
698.577	8499.07
698.923	8462.46
699.269	8417.49
699.614	8386.08
699.96	8299.75
700.306	8373.88
700.651	8304.27
700.997	8277.38
701.342	8313.09
701.688	8261.56
702.033	8162.36
702.379	8204.39
702.724	8159.42
703.069	8140.66
703.415	8071.96
703.76	8073.09
704.105	8058.86
704.45	8020.66
704.795	7988.58
705.14	7918.07
705.485	7934.79
705.83	7907.67
706.175	7883.95
706.52	7849.82
706.865	7833.55
707.209	7790.16
707.554	7836.26
707.899	7848.24
708.243	7803.27
708.588	7722.14
708.932	7682.82
709.277	7640.34
709.621	7663.39
709.966	7672.88
710.31	7639.66
710.654	7494.58
710.998	7568.25
711.342	7603.95
711.687	7530.73
712.031	7481.24
712.375	7509.49
712.719	7529.15
713.063	7456.16
713.407	7492.32
713.75	7429.72
714.094	7393.34
714.438	7413.68
714.782	7438.31
715.125	7418.65
715.469	7398.99
715.812	7335.49
716.156	7334.81
716.499	7299.78
716.843	7321.7
717.186	7263.17
717.53	7265.88
717.873	7274.7
718.216	7300.01
718.559	7303.17
718.902	7255.49
719.246	7231.53
719.589	7169.39
719.932	7180.01
720.275	7182.49
720.617	7175.26
720.96	7141.14
721.303	7136.17
721.646	7172.33
721.989	7148.37
722.331	7159.22
722.674	7131.2
723.016	7154.02
723.359	7102.95
723.701	7101.59
724.044	7069.96
724.386	7028.83
724.729	7100.24
725.071	7022.27
725.413	7052.1
725.755	7046.91
726.097	6933.01
726.439	7020.69
726.782	7030.18
727.124	6996.51
727.465	7022.72
727.807	7010.3
728.149	6985.66
728.491	6934.14
728.833	6994.03
729.175	7000.35
729.516	6998.77
729.858	6949.05
730.199	6964.87
730.541	6962.39
730.882	6913.12
731.224	6994.03
731.565	6934.59
731.906	6940.47
732.248	6991.99
732.589	6905.44
732.93	6892.33
733.271	6933.69
733.612	6952.9
733.953	6937.98
734.294	6901.6
734.635	6947.47
734.976	6967.81
735.317	6949.96
735.658	6968.94
735.999	6949.51
736.339	6915.61
736.68	6902.28
737.021	6943.18
737.361	6920.81
737.702	6980.92
738.042	6927.13
738.383	6932.56
738.723	6992.22
739.063	6949.28
739.404	7026.11
739.744	7001.71
740.084	6939.34
740.424	6976.85
740.764	7034.48
741.104	7069.28
741.444	7010.52
741.784	6998.32
742.124	7069.73
742.464	7032.22
742.804	7050.29
743.143	7041.93
743.483	7029.73
743.823	7103.63
744.162	7069.96
744.502	7153.79
744.841	7170.29
745.181	7218.88
745.52	7195.15
745.86	7288.03
746.199	7333.23
746.538	7387.01
746.877	7350.85
747.216	7403.73
747.556	7405.99
747.895	7471.07
748.234	7519.21
748.573	7554.01
748.911	7608.25
749.25	7688.47
749.589	7732.76
749.928	7781.58
750.267	7899.99
750.605	7897.96
750.944	7962.59
751.283	8060.89
751.621	8166.2
751.96	8206.65
752.298	8203.94
752.636	8332.75
752.975	8459.75
753.313	8504.95
753.651	8608.67
753.989	8678.5
754.327	8786.75
754.666	8816.12
755.004	9042.11
755.342	9094.08
755.679	9230.8
756.017	9284.13
756.355	9500.63
756.693	9647.97
757.031	9782.2
757.368	9806.61
757.706	10038.69
758.044	10141.06
758.381	10239.59
758.719	10400.26
759.056	10581.28
759.394	10740.59
759.731	10846.58
760.068	11026.91
760.405	11162.28
760.743	11254.93
761.08	11426.9
761.417	11620.57
761.754	11792.09
762.091	11996.61
762.428	12142.82
762.765	12207.67
