Data from hue_220_FLMS001491_00094.txt Node
Date: Tue Feb 07 16:40:11 GMT 2017
User: dcchb
Spectrometer: FLMS00149
Trigger mode: 0
Integration Time (sec): 2.000000E-2
Scans to average: 10
Electric dark correction enabled: true
Nonlinearity correction enabled: false
Boxcar width: 0
XAxis mode: Wavelengths
Number of Pixels in Spectrum: 2048
>>>>>Begin Spectral Data<<<<<
341.393	-13.09
341.776	-13.09
342.16	-13.09
342.543	-58.52
342.927	-64.39
343.31	-78.18
343.693	-64.16
344.077	-74.56
344.46	-49.25
344.843	-64.84
345.226	-50.38
345.61	-29.36
345.993	-21.68
346.376	15.83
346.759	5.89
347.142	44.76
347.525	52.89
347.908	44.76
348.291	84.98
348.674	82.27
349.057	101.03
349.44	110.52
349.823	156.17
350.206	175.38
350.588	212.66
350.971	202.72
351.354	221.7
351.737	221.03
352.119	251.08
352.502	259.67
352.884	253.11
353.267	272.32
353.65	294.02
354.032	306.9
354.414	304.41
354.797	300.35
355.179	333.11
355.562	323.62
355.944	313.68
356.326	322.72
356.709	318.65
357.091	325.43
357.473	313.45
357.855	321.59
358.238	340.12
358.62	339.67
359.002	329.95
359.384	334.02
359.766	322.04
360.148	347.35
360.53	334.92
360.912	339.44
361.294	338.54
361.676	329.5
362.057	345.32
362.439	319.55
362.821	327.24
363.203	334.92
363.584	331.3
363.966	327.01
364.348	320.23
364.729	298.31
365.111	337.18
365.493	305.54
365.874	290.85
366.256	313.9
366.637	301.25
367.019	318.65
367.4	333.79
367.781	314.81
368.163	321.36
368.544	340.57
368.925	323.17
369.306	337.86
369.688	286.79
370.069	311.87
370.45	321.81
370.831	315.03
371.212	300.57
371.593	291.98
371.974	314.58
372.355	311.64
372.736	303.06
373.117	297.41
373.498	323.85
373.879	328.82
374.26	324.75
374.641	297.18
375.021	299.89
375.402	331.53
375.783	310.97
376.163	313.23
376.544	300.12
376.925	332.66
377.305	312.55
377.686	326.56
378.066	331.76
378.447	311.87
378.827	327.01
379.208	322.49
379.588	341.25
379.968	324.53
380.349	335.82
380.729	336.95
381.109	331.98
381.489	338.99
381.87	326.79
382.25	332.66
382.63	342.38
383.01	350.29
383.39	333.11
383.77	325.88
384.15	326.56
384.53	343.73
384.91	335.6
385.29	353
385.67	351.42
386.049	358.2
386.429	322.27
386.809	359.55
387.189	352.1
387.568	332.43
387.948	356.61
388.328	355.03
388.707	362.72
389.087	363.62
389.466	341.02
389.846	375.6
390.225	366.78
390.605	352.77
390.984	372.66
391.363	376.05
391.743	339.44
392.122	356.84
392.501	375.82
392.881	378.54
393.26	377.63
393.639	374.02
394.018	367.91
394.397	377.41
394.776	373.34
395.155	382.38
395.534	380.34
395.913	398.87
396.292	385.31
396.671	380.8
397.05	386.9
397.429	405.2
397.808	394.13
398.186	405.65
398.565	407.69
398.944	396.84
399.323	414.24
399.701	397.97
400.08	400.68
400.458	411.3
400.837	422.38
401.215	399.33
401.594	407.24
401.972	444.3
402.351	429.61
402.729	423.73
403.107	421.47
403.486	430.29
403.864	440.91
404.242	433.22
404.62	444.97
404.999	447.46
405.377	439.1
405.755	458.76
406.133	454.47
406.511	468.02
406.889	459.89
407.267	475.48
407.645	485.88
408.023	469.83
408.401	476.61
408.779	460.79
409.156	472.32
409.534	501.24
409.912	498.53
410.29	524.52
410.667	521.58
411.045	531.3
411.422	532.2
411.8	531.75
412.178	549.15
412.555	546.89
412.933	567
413.31	572.88
413.687	581.24
414.065	601.81
414.442	598.19
414.819	615.14
415.197	589.6
415.574	614.01
415.951	617.63
416.328	640.9
416.705	644.74
417.082	652.88
417.46	644.74
417.837	657.85
418.214	659.21
418.591	675.48
418.967	676.15
419.344	687.23
419.721	687.91
420.098	701.24
420.475	721.58
420.852	735.59
421.228	736.72
421.605	755.47
421.982	750.73
422.358	789.15
422.735	804.96
423.111	792.76
423.488	786.89
423.864	811.74
424.241	824.17
424.617	862.59
424.994	841.57
425.37	868.24
425.746	884.28
426.123	893.1
426.499	895.81
426.875	904.85
427.251	924.96
427.627	927
428.003	934.45
428.379	974.23
428.756	950.5
429.132	998.18
429.507	995.02
429.883	1019.2
430.259	1036.6
430.635	1011.96
431.011	1033.89
431.387	1077.05
431.763	1086.99
432.138	1083.38
432.514	1099.87
432.89	1102.13
433.265	1148.46
433.641	1145.97
434.016	1147.1
434.392	1203.6
434.767	1231.17
435.143	1235.91
435.518	1276.14
435.894	1298.06
436.269	1307.32
436.644	1308
437.02	1333.76
437.395	1353.2
437.77	1356.36
438.145	1406.53
438.52	1430.94
438.895	1442.46
439.271	1470.03
439.646	1486.3
440.021	1516.81
440.395	1538.28
440.77	1513.87
441.145	1545.96
441.52	1604.94
441.895	1565.62
442.27	1591.61
442.645	1608.56
443.019	1628.67
443.394	1613.31
443.769	1656.69
444.143	1646.98
444.518	1704.38
444.892	1677.03
445.267	1701.66
445.641	1742.57
446.016	1758.16
446.39	1754.09
446.764	1773.98
447.139	1774.2
447.513	1829.8
447.887	1800.87
448.262	1789.12
448.636	1817.37
449.01	1850.36
449.384	1850.59
449.758	1849.23
450.132	1902.11
450.506	1908.21
450.88	1938.04
451.254	1894.88
451.628	1930.81
452.002	1951.83
452.376	1953.64
452.75	2011.94
453.123	1989.57
453.497	2036.12
453.871	2076.57
454.244	2084.25
454.618	2127.87
454.992	2119.51
455.365	2089.68
455.739	2218.03
456.112	2207.64
456.486	2195.21
456.859	2247.41
457.232	2237.02
457.606	2231.37
457.979	2296.68
458.352	2321.99
458.725	2358.14
459.099	2366.73
459.472	2406.73
459.845	2446.05
460.218	2416.45
460.591	2508.42
460.964	2467.97
461.337	2529.44
461.71	2540.29
462.083	2574.41
462.456	2618.02
462.829	2636.78
463.201	2662.54
463.574	2677.91
463.947	2665.48
464.32	2753.39
464.692	2764.46
465.065	2768.3
465.438	2794.97
465.81	2831.58
466.183	2865.48
466.555	2912.03
466.928	2948.86
467.3	2957.22
467.672	3008.97
468.045	3033.38
468.417	3053.04
468.789	3085.58
469.161	3079.93
469.534	3115.41
469.906	3225.01
470.278	3224.11
470.65	3273.6
471.022	3311.34
471.394	3343.66
471.766	3393.6
472.138	3427.95
472.51	3500.49
472.882	3535.06
473.253	3575.29
473.625	3577.32
473.997	3678.79
474.369	3682.63
474.74	3716.53
475.112	3812.57
475.484	3874.26
475.855	3881.27
476.227	3918.1
476.598	4001.26
476.97	4014.6
477.341	4086.69
477.713	4174.37
478.084	4153.35
478.455	4301.82
478.827	4328.49
479.198	4414.36
479.569	4416.85
479.94	4523.51
480.311	4586.11
480.682	4656.61
481.053	4699.1
481.424	4794.01
481.795	4838.3
482.166	4887.57
482.537	4965.53
482.908	4985.65
483.279	5044.85
483.65	5129.82
484.021	5223.61
484.391	5280.1
484.762	5301.12
485.133	5347.67
485.503	5453.43
485.874	5485.97
486.244	5515.35
486.615	5656.36
486.985	5669.02
487.356	5806.19
487.726	5775.46
488.097	5864.49
488.467	5866.53
488.837	6041.21
489.207	6120.31
489.578	6144.94
489.948	6177.03
490.318	6255.22
490.688	6270.36
491.058	6323.01
491.428	6392.61
491.798	6477.36
492.168	6546.06
492.538	6578.6
492.908	6568.88
493.278	6719.61
493.648	6724.58
494.017	6743.34
494.387	6822.43
494.757	6882.09
495.126	6934.97
495.496	6965.48
495.866	6964.12
496.235	7007.51
496.605	7089.32
496.974	7114.4
497.344	7166.38
497.713	7154.63
498.082	7244.34
498.452	7265.59
498.821	7288.18
499.19	7301.52
499.559	7450.67
499.928	7391.01
500.298	7428.29
500.667	7417.9
501.036	7367.28
501.405	7521.62
501.774	7493.15
502.143	7536.99
502.512	7572.47
502.88	7591.45
503.249	7577.67
503.618	7680.49
503.987	7638.01
504.356	7710.32
504.724	7685.69
505.093	7742.86
505.462	7792.13
505.83	7771.34
506.199	7815.18
506.567	7959.8
506.936	7847.27
507.304	7949.41
507.672	7958
508.041	7990.09
508.409	7976.98
508.777	8018.11
509.145	8067.82
509.514	8041.16
509.882	8066.92
510.25	8044.77
510.618	8127.48
510.986	8059.69
511.354	8109.63
511.722	8152.57
512.09	8145.79
512.458	8235.05
512.826	8254.94
513.193	8237.09
513.561	8253.81
513.929	8240.93
514.297	8307.14
514.664	8337.87
515.032	8271.44
515.4	8348.27
515.767	8381.71
516.135	8335.61
516.502	8260.14
516.869	8391.21
517.237	8420.13
517.604	8322.06
517.972	8390.3
518.339	8351.88
518.706	8333.35
519.073	8401.15
519.44	8416.29
519.808	8423.07
520.175	8403.63
520.542	8554.59
520.909	8499
521.276	8461.71
521.643	8532.45
522.009	8444.99
522.376	8539.9
522.743	8501.94
523.11	8612.44
523.477	8594.59
523.843	8617.19
524.21	8648.37
524.577	8653.35
524.943	8608.6
525.31	8664.65
525.676	8712.55
526.043	8680.46
526.409	8747.35
526.776	8769.95
527.142	8687.7
527.508	8721.37
527.874	8771.08
528.241	8814.02
528.607	8822.38
528.973	8759.56
529.339	8692.44
529.705	8796.62
530.071	8736.28
530.437	8823.28
530.803	8816.28
531.169	8781.93
531.535	8737.41
531.901	8755.49
532.267	8767.47
532.632	8825.54
532.998	8765.89
533.364	8797.52
533.73	8729.73
534.095	8770.4
534.461	8727.02
534.826	8700.35
535.192	8735.6
535.557	8745.77
535.923	8756.62
536.288	8756.17
536.653	8675.72
537.019	8663.06
537.384	8666.9
537.749	8666
538.114	8603.86
538.479	8609.73
538.845	8618.77
539.21	8572.9
539.575	8552.56
539.94	8571.31
540.305	8532.22
540.67	8497.87
541.034	8552.11
541.399	8520.69
541.764	8570.18
542.129	8496.06
542.494	8491.54
542.858	8486.12
543.223	8441.37
543.587	8489.51
543.952	8426.69
544.316	8295.62
544.681	8374.03
545.045	8340.59
545.41	8405.89
545.774	8360.25
546.138	8280.47
546.503	8315.05
546.867	8261.72
547.231	8345.78
547.595	8344.43
547.959	8269.63
548.324	8237.09
548.688	8199.12
549.052	8208.84
549.416	8183.08
549.779	8216.75
550.143	8185.56
550.507	8141.95
550.871	8071.21
551.235	8101.5
551.599	8142.85
551.962	8117.99
552.326	8060.14
552.689	8079.12
553.053	7978.79
553.417	8058.11
553.78	8070.08
554.143	8031.44
554.507	8028.73
554.87	8051.33
555.234	8069.63
555.597	8024.66
555.96	7973.82
556.323	8030.76
556.686	7958.45
557.05	8009.07
557.413	7939.01
557.776	8085.23
558.139	7985.57
558.502	8012.91
558.865	7935.62
559.228	7964.55
559.59	7946.02
559.953	7994.61
560.316	8029.86
560.679	8003.42
561.041	8010.2
561.404	8021.27
561.767	8039.12
562.129	7958.45
562.492	7997.54
562.854	7977.88
563.217	7953.48
563.579	8009.75
563.941	8059.69
564.304	8034.61
564.666	8131.1
565.028	8118.67
565.39	8120.03
565.753	8050.2
566.115	8150.31
566.477	8185.79
566.839	8139.46
567.201	8176.3
567.563	8101.5
567.925	8208.84
568.287	8217.43
568.648	8174.71
569.01	8192.12
569.372	8242.06
569.734	8196.41
570.095	8188.5
570.457	8264.43
570.819	8312.79
571.18	8239.35
571.542	8280.02
571.903	8296.29
572.265	8337.2
572.626	8314.15
572.987	8336.74
573.349	8348.72
573.71	8364.99
574.071	8431.43
574.432	8435.27
574.794	8480.02
575.155	8409.51
575.516	8407.7
575.877	8476.85
576.238	8490.64
576.599	8557.98
576.96	8541.71
577.32	8610.64
577.681	8580.58
578.042	8604.53
578.403	8545.55
578.763	8574.93
579.124	8613.35
579.485	8597.98
579.845	8623.74
580.206	8644.98
580.566	8657.19
580.927	8683.4
581.287	8734.93
581.648	8745.32
582.008	8762.95
582.368	8729.5
582.728	8795.04
583.089	8813.57
583.449	8736.51
583.809	8768.15
584.169	8723.17
584.529	8748.03
584.889	8815.38
585.249	8881.81
585.609	8763.17
585.969	8890.63
586.329	8840.01
586.688	8862.38
587.048	8872.32
587.408	8868.03
587.768	8868.03
588.127	8902.38
588.487	8937.63
588.846	8980.57
589.206	8983.28
589.565	8936.73
589.925	8960.23
590.284	8947.12
590.643	9000.46
591.003	8971.98
591.362	9066.22
591.721	9030.96
592.08	9075.48
592.44	9127.23
592.799	9036.84
593.158	9026.22
593.517	9087.91
593.876	9083.84
594.235	9149.38
594.593	9043.17
594.952	9138.53
595.311	9065.99
595.67	9154.8
596.029	9151.19
596.387	9190.73
596.746	9234.57
597.104	9144.63
597.463	9197.51
597.822	9194.8
598.18	9151.41
598.538	9112.09
598.897	9242.71
599.255	9121.81
599.613	9243.84
599.972	9255.82
600.33	9219.66
600.688	9166.33
601.046	9251.75
601.404	9289.71
601.762	9210.62
602.12	9314.35
602.478	9251.3
602.836	9274.35
603.194	9276.38
603.552	9277.96
603.91	9231.86
604.268	9277.06
604.625	9255.14
604.983	9265.08
605.341	9198.87
605.698	9287.45
606.056	9275.25
606.413	9316.83
606.771	9365.64
607.128	9313.89
607.485	9323.84
607.843	9311.41
608.2	9398.41
608.557	9402.03
608.914	9371.07
609.272	9380.56
609.629	9418.52
609.986	9451.74
610.343	9325.87
610.7	9455.58
611.057	9368.81
611.414	9390.5
611.771	9412.65
612.127	9500.1
612.484	9475.25
612.841	9468.47
613.198	9454.23
613.554	9469.82
613.911	9496.04
614.267	9556.37
614.624	9493.1
614.98	9482.02
615.337	9579.65
615.693	9543.72
616.05	9521.57
616.406	9580.78
616.762	9534.68
617.118	9553.44
617.475	9523.61
617.831	9602.25
618.187	9671.62
618.543	9598.41
618.899	9649.25
619.255	9617.84
619.611	9599.31
619.967	9680.44
620.323	9644.28
620.678	9621.68
621.034	9613.09
621.39	9611.51
621.746	9640.89
622.101	9696.48
622.457	9653.77
622.812	9606.09
623.168	9712.53
623.523	9675.24
623.879	9743.26
624.234	9630.72
624.589	9682.02
624.945	9711.62
625.3	9646.99
625.655	9570.61
626.01	9660.55
626.365	9629.82
626.72	9624.17
627.075	9609.7
627.43	9573.55
627.785	9655.81
628.14	9574.23
628.495	9617.16
628.85	9607.9
629.205	9586.88
629.559	9649.25
629.914	9548.01
630.269	9587.78
630.623	9608.8
630.978	9518.63
631.332	9563.83
631.687	9661.46
632.041	9466.88
632.396	9590.72
632.75	9524.28
633.104	9533.77
633.459	9446.77
633.813	9427.11
634.167	9450.61
634.521	9440.9
634.875	9463.04
635.229	9446.77
635.583	9396.38
635.937	9391.18
636.291	9390.28
636.645	9416.26
636.999	9361.58
637.352	9388.69
637.706	9331.07
638.06	9384.17
638.413	9371.29
638.767	9286.55
639.121	9313.67
639.474	9176.5
639.828	9266.89
640.181	9227.12
640.534	9232.54
640.888	9216.04
641.241	9202.26
641.594	9229.6
641.947	9259.43
642.301	9214.69
642.654	9265.99
643.007	9246.1
643.36	9207.68
643.713	9165.42
644.066	9234.57
644.419	9171.75
644.771	9053.11
645.124	9102.37
645.477	9008.36
645.83	8948.93
646.182	8948.25
646.535	8917.52
646.888	8934.02
647.24	8901.93
647.593	8921.14
647.945	8913
648.298	8910.51
648.65	8863.74
649.002	8838.2
649.355	8882.72
649.707	8914.58
650.059	8959.1
650.411	9033.22
650.763	9044.97
651.115	9095.59
651.467	9081.58
651.819	9084.3
652.171	9073
652.523	9041.81
652.875	9068.48
653.227	9057.63
653.578	9083.39
653.93	9041.13
654.282	9051.98
654.633	9014.01
654.985	9040.91
655.337	9058.76
655.688	9096.05
656.039	9093.56
656.391	8969.72
656.742	8975.82
657.094	9068.02
657.445	9122.26
657.796	9058.53
658.147	9023.51
658.498	9083.39
658.849	9011.75
659.2	9118.42
659.551	9096.72
659.902	9051.08
660.253	9080
660.604	9085.42
660.955	8973.34
661.306	9107.12
661.656	9063.05
662.007	9040.45
662.358	9154.35
662.708	9142.15
663.059	9092.2
663.409	9029.61
663.76	9115.48
664.11	9145.54
664.461	9132.43
664.811	9159.32
665.161	9119.55
665.511	9166.78
665.862	9096.5
666.212	9161.81
666.562	9153.45
666.912	9108.02
667.262	9099.66
667.612	9143.28
667.962	9122.94
668.312	9111.64
668.662	9179.43
669.011	9070.51
669.361	9120
669.711	9101.47
670.06	9049.95
670.41	9031.19
670.76	9094.69
671.109	9103.96
671.459	9102.6
671.808	9084.52
672.157	9118.19
672.507	9028.93
672.856	9030.96
673.205	9008.14
673.554	9007.23
673.904	8978.54
674.253	9073.45
674.602	9050.4
674.951	8917.07
675.3	8888.14
675.649	9042.49
675.998	9040
676.346	9076.84
676.695	9031.64
677.044	8929.27
677.393	8970.85
677.741	8952.32
678.09	8969.5
678.438	8911.87
678.787	8922.94
679.135	8927.69
679.484	8907.12
679.832	8941.47
680.181	8862.61
680.529	8884.98
680.877	8811.76
681.225	8827.35
681.573	8846.79
681.922	8762.95
682.27	8719.56
682.618	8755.94
682.966	8768.6
683.314	8749.39
683.661	8756.85
684.009	8702.84
684.357	8661.93
684.705	8646.11
685.053	8650.86
685.4	8619.22
685.748	8581.03
686.095	8578.09
686.443	8574.25
686.79	8573.57
687.138	8538.77
687.485	8520.02
687.832	8531.77
688.18	8498.32
688.527	8472.11
688.874	8445.44
689.221	8397.31
689.568	8346.01
689.915	8381.94
690.262	8325.22
690.609	8302.39
690.956	8265.11
691.303	8293.58
691.65	8265.33
691.997	8191.21
692.344	8127.26
692.69	8148.5
693.037	8127.03
693.383	8075.28
693.73	8122.29
694.077	8028.05
694.423	8011.33
694.769	8018.79
695.116	7903.99
695.462	7949.86
695.808	7859.92
696.155	7891.78
696.501	7850.2
696.847	7867.15
697.193	7760.71
697.539	7858.11
697.885	7765.01
698.231	7726.14
698.577	7707.16
698.923	7658.12
699.269	7633.71
699.614	7556.2
699.96	7605.69
700.306	7570.21
700.651	7551.45
700.997	7504.45
701.342	7464.22
701.688	7386.94
702.033	7352.36
702.379	7407.28
702.724	7405.24
703.069	7363.44
703.415	7289.54
703.76	7291.12
704.105	7319.37
704.45	7242.76
704.795	7220.16
705.14	7134.06
705.485	7126.61
705.83	7132.71
706.175	7249.54
706.52	7092.48
706.865	7156.21
707.209	7128.87
707.554	7079.15
707.899	7030.56
708.243	7049.55
708.588	7047.96
708.932	7040.06
709.277	6944.92
709.621	7006.61
709.966	6888.42
710.31	6955.99
710.654	6871.47
710.998	6901.3
711.342	6904.01
711.687	6867.4
712.031	6857.91
712.375	6817.46
712.719	6782.66
713.063	6779.04
713.407	6847.52
713.75	6762.55
714.094	6728.65
714.438	6704.02
714.782	6745.6
715.125	6664.47
715.469	6728.42
715.812	6656.34
716.156	6657.01
716.499	6659.73
716.843	6645.04
717.186	6562.78
717.53	6622.89
717.873	6607.98
718.216	6650.23
718.559	6624.25
718.902	6532.27
719.246	6540.86
719.589	6611.82
719.932	6534.76
720.275	6534.31
720.617	6545.15
720.96	6527.53
721.303	6523.01
721.646	6519.39
721.989	6519.84
722.331	6490.46
722.674	6469.9
723.016	6542.67
723.359	6485.04
723.701	6480.07
724.044	6469.9
724.386	6441.43
724.729	6471.93
725.071	6430.35
725.413	6473.06
725.755	6382.9
726.097	6379.51
726.439	6358.49
726.782	6414.76
727.124	6396.46
727.465	6399.17
727.807	6435.78
728.149	6387.42
728.491	6356.01
728.833	6371.37
729.175	6356.01
729.516	6385.83
729.858	6373.18
730.199	6320.53
730.541	6391.48
730.882	6404.82
731.224	6434.42
731.565	6347.42
731.906	6349.45
732.248	6360.98
732.589	6385.61
732.93	6344.71
733.271	6315.33
733.612	6306.06
733.953	6357.14
734.294	6332.28
734.635	6336.34
734.976	6338.38
735.317	6296.57
735.658	6357.81
735.999	6343.12
736.339	6342.22
736.68	6360.75
737.021	6387.64
737.361	6348.77
737.702	6407.76
738.042	6387.42
738.383	6392.16
738.723	6381.32
739.063	6391.03
739.404	6452.95
739.744	6427.64
740.084	6376.57
740.424	6418.15
740.764	6414.31
741.104	6420.64
741.444	6462.44
741.784	6400.52
742.124	6458.6
742.464	6491.37
742.804	6481.2
743.143	6555.1
743.483	6558.26
743.823	6511.48
744.162	6585.83
744.502	6638.71
744.841	6599.84
745.181	6692.72
745.52	6670.35
745.86	6661.99
746.199	6724.58
746.538	6800.74
746.877	6822.66
747.216	6904.01
747.556	6877.57
747.895	6927.74
748.234	6942.43
748.573	6982.2
748.911	7033.05
749.25	7101.97
749.589	7142.88
749.928	7179.03
750.267	7271.01
750.605	7331.12
750.944	7414.51
751.283	7485.02
751.621	7537.44
751.96	7536.99
752.298	7660.15
752.636	7760.94
752.975	7803.2
753.313	7937.21
753.651	8021.72
753.989	8047.94
754.327	8181.27
754.666	8290.42
755.004	8421.04
755.342	8526.57
755.679	8604.99
756.017	8731.76
756.355	8853.57
756.693	8972.89
757.031	9100.11
757.368	9213.33
757.706	9407.22
758.044	9501.01
758.381	9681.57
758.719	9795.69
759.056	9934.89
759.394	10043.14
759.731	10256.24
760.068	10388.22
760.405	10486.07
760.743	10633.86
761.08	10833.18
761.417	10999.72
761.754	11195.65
762.091	11320.62
762.428	11475.64
762.765	11571.69
763.102	11784.11
763.438	11923.99
763.775	12093.93
764.112	12272.23
764.449	12522.17
764.785	12537.99
765.122	12755.84
765.458	12934.36
765.795	12997.64
766.131	13208.48
766.467	13389.94
766.804	13500.68
767.14	13536.38
767.476	13790.39
767.812	13850.05
768.148	14054.56
768.485	14184.27
768.821	14244.84
