Data from hue_34_FLMS001491_00017.txt Node
Date: Tue Feb 07 17:25:16 GMT 2017
User: dcchb
Spectrometer: FLMS00149
Trigger mode: 0
Integration Time (sec): 2.000000E-2
Scans to average: 10
Electric dark correction enabled: true
Nonlinearity correction enabled: false
Boxcar width: 0
XAxis mode: Wavelengths
Number of Pixels in Spectrum: 2048
>>>>>Begin Spectral Data<<<<<
341.393	-27.81
341.776	-27.81
342.16	-27.81
342.543	-68.03
342.927	-70.07
343.31	-75.72
343.693	-62.84
344.077	-69.39
344.46	-53.12
344.843	-62.61
345.226	-47.47
345.61	-32.78
345.993	-12.22
346.376	8.35
346.759	15.35
347.142	34.34
347.525	38.85
347.908	45.63
348.291	64.62
348.674	89.7
349.057	119.3
349.44	145.29
349.823	149.36
350.206	174.9
350.588	188.91
350.971	223.71
351.354	213.31
351.737	228.91
352.119	255.12
352.502	275.01
352.884	276.14
353.267	273.2
353.65	309.36
354.032	302.8
354.414	305.29
354.797	322.01
355.179	318.4
355.562	307.77
355.944	324.27
356.326	320.88
356.709	330.37
357.091	322.01
357.473	357.94
357.855	338.73
358.238	355.68
358.62	336.7
359.002	340.54
359.384	349.13
359.766	338.06
360.148	323.82
360.53	331.5
360.912	328.79
361.294	333.31
361.676	333.08
362.057	334.44
362.439	322.24
362.821	352.07
363.203	315.91
363.584	332.41
363.966	338.28
364.348	315.91
364.729	327.43
365.111	314.55
365.493	317.27
365.874	311.39
366.256	306.64
366.637	330.6
367.019	329.92
367.4	336.7
367.781	318.4
368.163	290.15
368.544	317.27
368.925	332.18
369.306	328.79
369.688	287.44
370.069	318.4
370.45	326.08
370.831	303.48
371.212	327.66
371.593	317.27
371.974	327.89
372.355	293.09
372.736	308.68
373.117	324.95
373.498	312.97
373.879	309.58
374.26	304.84
374.641	289.92
375.021	316.14
375.402	337.15
375.783	331.05
376.163	306.87
376.544	312.75
376.925	332.18
377.305	310.71
377.686	336.93
378.066	326.3
378.447	324.27
378.827	338.51
379.208	328.34
379.588	324.27
379.968	342.8
380.349	334.89
380.729	331.95
381.109	342.12
381.489	353.2
381.87	335.34
382.25	332.18
382.63	315.68
383.01	324.5
383.39	350.03
383.77	357.26
384.15	335.34
384.53	347.77
384.91	349.81
385.29	369.92
385.67	348.23
386.049	331.95
386.429	348.45
386.809	349.36
387.189	357.72
387.568	328.34
387.948	358.85
388.328	359.98
388.707	371.73
389.087	352.07
389.466	371.73
389.846	376.25
390.225	371.73
390.605	359.3
390.984	361.11
391.363	366.98
391.743	378.51
392.122	344.84
392.501	367.43
392.881	378.28
393.26	360.43
393.639	367.66
394.018	371.5
394.397	396.59
394.776	376.25
395.155	359.98
395.534	381.44
395.913	393.87
396.292	379.64
396.671	375.12
397.05	390.03
397.429	391.84
397.808	397.72
398.186	375.57
398.565	394.78
398.944	389.35
399.323	398.85
399.701	389.81
400.08	394.33
400.458	377.83
400.837	411.73
401.215	394.78
401.594	385.29
401.972	392.97
402.351	398.62
402.729	404.04
403.107	406.3
403.486	413.31
403.864	411.05
404.242	419.41
404.62	438.17
404.999	414.89
405.377	404.72
405.755	425.74
406.133	433.42
406.511	405.4
406.889	418.73
407.267	440.43
407.645	434.55
408.023	428
408.401	437.04
408.779	433.19
409.156	437.26
409.534	438.84
409.912	444.04
410.29	451.27
410.667	440.43
411.045	458.96
411.422	438.62
411.8	453.99
412.178	469.35
412.555	485.4
412.933	459.18
413.31	496.47
413.687	484.27
414.065	470.71
414.442	474.1
414.819	495.57
415.197	476.13
415.574	476.13
415.951	486.98
416.328	491.5
416.705	508.67
417.082	508.9
417.46	496.92
417.837	518.84
418.214	494.89
418.591	526.98
418.967	505.51
419.344	513.87
419.721	508.9
420.098	533.76
420.475	543.25
420.852	526.75
421.228	534.89
421.605	532.85
421.982	549.8
422.358	532.63
422.735	543.02
423.111	550.03
423.488	545.51
423.864	526.75
424.241	548.22
424.617	563.13
424.994	554.1
425.37	566.52
425.746	549.12
426.123	580.08
426.499	565.39
426.875	571.95
427.251	578.28
427.627	577.6
428.003	601.1
428.379	585.96
428.756	599.74
429.132	599.07
429.507	625.73
429.883	588.9
430.259	628.67
430.635	614.66
431.011	610.82
431.387	632.51
431.763	622.12
432.138	643.58
432.514	654.88
432.89	674.32
433.265	668.22
433.641	658.27
434.016	653.98
434.392	690.36
434.767	661.89
435.143	680.42
435.518	683.81
435.894	696.92
436.269	674.54
436.644	703.7
437.02	697.37
437.395	715.22
437.77	714.54
438.145	715.9
438.52	733.75
438.895	717.48
439.271	730.59
439.646	757.25
440.021	739.63
440.395	783.92
440.77	759.51
441.145	759.06
441.52	773.98
441.895	783.47
442.27	773.3
442.645	745.73
443.019	752.96
443.394	778.5
443.769	806.97
444.143	774.43
444.518	803.58
444.892	798.16
445.267	807.2
445.641	835.67
446.016	823.47
446.39	809.91
446.764	818.5
447.139	837.7
447.513	820.08
447.887	823.02
448.262	844.26
448.636	860.53
449.01	860.53
449.384	867.31
449.758	850.58
450.132	887.65
450.506	888.78
450.88	865.73
451.254	901.43
451.628	872.51
452.002	902.79
452.376	904.14
452.75	892.39
453.123	904.14
453.497	902.79
453.871	931.03
454.244	950.02
454.618	959.06
454.992	955.89
455.365	961.09
455.739	985.5
456.112	1003.8
456.486	1006.74
456.859	985.5
457.232	1039.51
457.606	1010.13
457.979	1015.55
458.352	1031.37
458.725	1045.61
459.099	1083.12
459.472	1087.19
459.845	1073.4
460.218	1098.26
460.591	1094.19
460.964	1124.48
461.337	1140.29
461.71	1157.47
462.083	1141.42
462.456	1156.79
462.829	1164.93
463.201	1210.35
463.574	1184.81
463.947	1199.28
464.32	1227.07
464.692	1243.34
465.065	1270.01
465.438	1283.12
465.81	1291.48
466.183	1301.42
466.555	1308.43
466.928	1334.87
467.3	1350.68
467.672	1349.33
468.045	1392.27
468.417	1394.98
468.789	1429.78
469.161	1410.12
469.534	1444.02
469.906	1485.6
470.278	1515.2
470.65	1531.02
471.022	1562.66
471.394	1566.72
471.766	1592.71
472.138	1660.06
472.51	1674.52
472.882	1712.71
473.253	1705.48
473.625	1752.26
473.997	1775.53
474.369	1805.81
474.74	1865.7
475.112	1852.59
475.484	1915.87
475.855	1960.84
476.227	2002.19
476.598	2051.46
476.97	2077.67
477.341	2138.01
477.713	2149.76
478.084	2188.18
478.455	2261.85
478.827	2288.51
479.198	2400.15
479.569	2396.31
479.94	2471.56
480.311	2520.82
480.682	2621.61
481.053	2646.92
481.424	2746.35
481.795	2782.74
482.166	2814.38
482.537	2926.01
482.908	3004.2
483.279	3034.71
483.65	3103.41
484.021	3197.87
484.391	3274.02
484.762	3325.55
485.133	3353.8
485.503	3476.28
485.874	3554.47
486.244	3658.87
486.615	3730.51
486.985	3767.12
487.356	3868.81
487.726	3982.03
488.097	4099.77
488.467	4139.54
488.837	4250.5
489.207	4302.25
489.578	4442.81
489.948	4476.48
490.318	4563.71
490.688	4636.93
491.058	4762.35
491.428	4868.78
491.798	4912.63
492.168	5054.54
492.538	5083.47
492.908	5153.97
493.278	5316.46
493.648	5366.85
494.017	5428.77
494.387	5493.63
494.757	5614.98
495.126	5714.41
495.496	5740.17
495.866	5853.17
496.235	5896.78
496.605	6022.43
496.974	6075.31
497.344	6177.9
497.713	6279.59
498.082	6271.91
498.452	6463.77
498.821	6456.09
499.19	6534.28
499.559	6625.8
499.928	6638.91
500.298	6704.22
500.667	6812.01
501.036	6868.51
501.405	6942.4
501.774	6992.8
502.143	7081.83
502.512	7076.41
502.88	7189.85
503.249	7233.69
503.618	7266.46
503.987	7376.52
504.356	7424.2
504.724	7452.22
505.093	7584.65
505.462	7577.64
505.83	7659.9
506.199	7726.34
506.567	7847.69
506.936	7817.41
507.304	7887.01
507.672	8023.05
508.041	8008.59
508.409	8103.28
508.777	8178.3
509.145	8230.73
509.514	8313.89
509.882	8359.54
510.25	8396.6
510.618	8421.23
510.986	8466.2
511.354	8532.64
511.722	8639.08
512.09	8675.01
512.458	8649.93
512.826	8787.1
513.193	8785.97
513.561	8842.92
513.929	8886.76
514.297	8928.34
514.664	9039.07
515.032	9124.49
515.4	9150.71
515.767	9152.74
516.135	9303.7
516.502	9189.57
516.869	9463.47
517.237	9370.81
517.604	9422.11
517.972	9542.33
518.339	9577.14
518.706	9596.34
519.073	9591.15
519.44	9610.58
519.808	9696.45
520.175	9708.21
520.542	9812.84
520.909	9867.07
521.276	9900.52
521.643	10002.89
522.009	10031.13
522.376	10091.47
522.743	10131.24
523.11	10161.53
523.477	10303.44
523.843	10355.65
524.21	10404.91
524.577	10579.14
524.943	10580.72
525.31	10572.59
525.676	10620.95
526.043	10719.48
526.409	10761.06
526.776	10926.48
527.142	10923.99
527.508	10965.12
527.874	11126.7
528.241	11133.7
528.607	11166.02
528.973	11241.95
529.339	11302.97
529.705	11331.89
530.071	11421.61
530.437	11514.49
530.803	11575.73
531.169	11588.16
531.535	11573.01
531.901	11705.67
532.267	11745.44
532.632	11798.55
532.998	11899.79
533.364	11921.03
533.73	11936.17
534.095	12076.05
534.461	12133.9
534.826	12137.97
535.192	12157.63
535.557	12320.34
535.923	12292.09
536.288	12303.39
536.653	12449.6
537.019	12395.14
537.384	12438.75
537.749	12560.56
538.114	12592.88
538.479	12646.88
538.845	12723.49
539.21	12629.94
539.575	12805.75
539.94	12754.68
540.305	12851.17
540.67	12876.48
541.034	12943.6
541.399	12968.46
541.764	12980.66
542.129	13059.08
542.494	13099.3
542.858	13131.17
543.223	13174.1
543.587	13278.96
543.952	13302.69
544.316	13327.32
544.681	13407.09
545.045	13524.6
545.41	13512.62
545.774	13538.84
546.138	13547.88
546.503	13645.5
546.867	13663.13
547.231	13766.86
547.595	13804.14
547.959	13840.98
548.324	13932.05
548.688	13924.82
549.052	14058.83
549.416	14027.41
549.779	14074.42
550.143	14112.84
550.507	14207.75
550.871	14264.47
551.235	14269.22
551.599	14401.19
551.962	14327.97
552.326	14446.16
552.689	14539.04
553.053	14533.39
553.417	14499.49
553.78	14742.88
554.143	14638.47
554.507	14780.61
554.87	14678.02
555.234	14948.97
555.597	14831.69
555.96	14870.78
556.323	15045.24
556.686	14902.64
557.05	15081.17
557.413	15154.39
557.776	15150.77
558.139	15265.35
558.502	15284.1
558.865	15340.83
559.228	15364.1
559.59	15414.27
559.953	15459.24
560.316	15609.74
560.679	15488.84
561.041	15684.77
561.404	15750.98
561.767	15917.76
562.129	15779.23
562.492	15921.83
562.854	16012.9
563.217	15988.72
563.579	16062.84
563.941	16182.39
564.304	16138.77
564.666	16281.14
565.028	16200.92
565.39	16309.84
565.753	16381.48
566.115	16458.54
566.477	16468.25
566.839	16519.1
567.201	16665.99
567.563	16762.03
567.925	16722.26
568.287	16851.75
568.648	16927.9
569.01	16990.27
569.372	17043.83
569.734	17054.45
570.095	17203.6
570.457	17260.55
570.819	17368.79
571.18	17351.17
571.542	17453.99
571.903	17533.99
572.265	17659.63
572.626	17656.02
572.987	17642.01
573.349	17773.3
573.71	17933.53
574.071	17924.94
574.432	18069.34
574.794	18195.89
575.155	18266.62
575.516	18258.94
575.877	18358.6
576.238	18450.12
576.599	18668.42
576.96	18693.28
577.32	18885.37
577.681	18982.09
578.042	19108.64
578.403	19187.96
578.763	19276.09
579.124	19420.27
579.485	19599.02
579.845	19746.13
580.206	19845.11
580.566	19956.98
580.927	20106.58
581.287	20380.69
581.648	20488.03
582.008	20672.44
582.368	20965.31
582.728	20977.29
583.089	21253.21
583.449	21369.14
583.809	21561
584.169	21796.93
584.529	21925.29
584.889	22195.33
585.249	22403.92
585.609	22465.38
585.969	22831.02
586.329	23037.8
586.688	23197.34
587.048	23401.63
587.408	23491.12
587.768	23851.11
588.127	24088.84
588.487	24192.8
588.846	24636.4
589.206	24597.76
589.565	24928.14
589.925	25324.97
590.284	25389.83
590.643	25764.05
591.003	25973.54
591.362	26235
591.721	26461.44
592.08	26649.23
592.44	27031.82
592.799	27218.48
593.158	27422.54
593.517	27686.94
593.876	28020.27
594.235	28121.05
594.593	28388.17
594.952	28734.82
595.311	28891.88
595.67	29169.61
596.029	29551.98
596.387	29839.43
596.746	30077.16
597.104	30079.19
597.463	30313.31
597.822	30746.52
598.18	30752.85
598.538	31115.33
598.897	31412.95
599.255	31447.29
599.613	31957.11
599.972	32024.45
600.33	32360.72
600.688	32440.26
601.046	32811.78
601.404	33197.98
601.762	33113.69
602.12	33576.73
602.478	33741.25
602.836	34000.45
603.194	33871.41
603.552	34149.14
603.91	34282.02
604.268	34509.59
604.625	34680.66
604.983	35054.21
605.341	34933.08
605.698	35321.54
606.056	35581.65
606.413	35706.84
606.771	36015.99
607.128	36041.3
607.485	36002.43
607.843	36222.76
608.2	36553.6
608.557	36804.44
608.914	36826.59
609.272	37109.74
609.629	37263.19
609.986	37570.3
610.343	37462.96
610.7	37907.69
611.057	38045.09
611.414	37959.44
611.771	38127.34
612.127	38372.31
612.484	38480.78
612.841	38695.69
613.198	38671.51
613.554	38713.54
613.911	39136.13
614.267	39110.37
614.624	39207.32
614.98	39452.96
615.337	39645.95
615.693	39598.72
616.05	39760.07
616.406	40064.7
616.762	40126.39
617.118	39950.35
617.475	40242.54
617.831	40426.27
618.187	40494.06
618.543	40536.77
618.899	40736.32
619.255	40716.88
619.611	40942.19
619.967	41039.81
620.323	41213.14
620.678	41158.45
621.034	41216.98
621.39	41174.95
621.746	41191.45
622.101	41582.17
622.457	41387.15
622.812	41639.12
623.168	41665.33
623.523	41745.78
623.879	41863.52
624.234	41736.97
624.589	41977.41
624.945	42113.68
625.3	42066.9
625.655	42083.17
626.01	42076.17
626.365	42314.81
626.72	42199.1
627.075	42240.23
627.43	42195.49
627.785	42207.01
628.14	42331.08
628.495	42471.86
628.85	42404.75
629.205	42275.71
629.559	42464.41
629.914	42341.92
630.269	42521.13
630.623	42367.91
630.978	42380.34
631.332	42545.99
631.687	42679.32
632.041	42368.36
632.396	42591.63
632.75	42489.94
633.104	42515.93
633.459	42472.54
633.813	42501.92
634.167	42445.2
634.521	42382.37
634.875	42431.41
635.229	42460.34
635.583	42331.3
635.937	42324.3
636.291	42536.04
636.645	42373.79
636.999	42359.78
637.352	42382.83
637.706	42237.97
638.06	42443.62
638.413	42362.94
638.767	42298.08
639.121	42468.93
639.474	42183.28
639.828	42246.33
640.181	42185.09
640.534	42332.88
640.888	42182.61
641.241	42018.54
641.594	42071.87
641.947	42136.51
642.301	42101.25
642.654	42089.27
643.007	42062.38
643.36	42044.53
643.713	42171.98
644.066	42148.71
644.419	41934.7
644.771	41772.22
645.124	41318.67
645.477	41228.05
645.83	41222.18
646.182	40948.06
646.535	40934.5
646.888	40827.39
647.24	40722.76
647.593	40992.13
647.945	40740.16
648.298	40641.63
648.65	40678.24
649.002	40505.81
649.355	40636.43
649.707	40666.04
650.059	40860.83
650.411	41260.14
650.763	41477.31
651.115	41711.21
651.467	41592.11
651.819	41497.65
652.171	41541.49
652.523	41536.29
652.875	41438.22
653.227	41186.02
653.578	41453.36
653.93	41377.88
654.282	41264.21
654.633	41229.86
654.985	41330.2
655.337	41321.61
655.688	41278.9
656.039	41385.34
656.391	41222.63
656.742	41228.05
657.094	41273.25
657.445	41376.98
657.796	41283.65
658.147	41174.04
658.498	41285.68
658.849	41172.46
659.2	41196.87
659.551	41032.13
659.902	41231.22
660.253	41094.72
660.604	41238.45
660.955	40971.34
661.306	41263.31
661.656	41103.31
662.007	41088.62
662.358	41115.06
662.708	41041.39
663.059	41019.47
663.409	40851.57
663.76	41103.99
664.11	41034.84
664.461	41138.11
664.811	41116.19
665.161	41069.87
665.511	40886.59
665.862	41042.75
666.212	40988.29
666.562	41000.94
666.912	40979.93
667.262	41099.92
667.612	40953.94
667.962	40925.92
668.312	40916.65
668.662	41089.98
669.011	40941.73
669.361	41014.05
669.711	40793.26
670.06	40839.14
670.41	40826.93
670.76	40860.83
671.109	41060.6
671.459	40978.57
671.808	40929.98
672.157	40867.16
672.507	40680.5
672.856	40655.41
673.205	40723.66
673.554	40834.39
673.904	40631.91
674.253	40845.47
674.602	40745.13
674.951	40146.73
675.3	39904.02
675.649	40687.05
675.998	40641.86
676.346	40689.54
676.695	40721.63
677.044	40409.09
677.393	40537.45
677.741	40627.17
678.09	40558.92
678.438	40423.56
678.787	40366.83
679.135	40405.03
679.484	40139.04
679.832	40282.77
680.181	40048.88
680.529	40260.4
680.877	40054.3
681.225	40018.59
681.573	40393.05
681.922	39852.27
682.27	39814.31
682.618	39753.29
682.966	39904.93
683.314	39906.96
683.661	39823.35
684.009	39632.39
684.357	39566.63
684.705	39586.74
685.053	39476.69
685.4	39415.9
685.748	39323.47
686.095	39363.92
686.443	39204.38
686.79	39196.02
687.138	39287.77
687.485	39299.74
687.832	39005.97
688.18	39146.75
688.527	38905.4
688.874	38866.76
689.221	38833.09
689.568	38709.48
689.915	38607.78
690.262	38620.67
690.609	38568.24
690.956	38336.6
691.303	38337.06
691.65	38179.77
691.997	38136.84
692.344	37961.7
692.69	37859.1
693.037	38038.99
693.383	37605.55
693.73	37734.36
694.077	37584.08
694.423	37561.48
694.769	37416.18
695.116	37304.32
695.462	37319.46
695.808	37227.93
696.155	37282.4
696.501	36920.15
696.847	37010.09
697.193	36726.03
697.539	36949.52
697.885	36581.62
698.231	36431.8
698.577	36540.49
698.923	36422.31
699.269	36387.96
699.614	36038.36
699.96	36138.47
700.306	36141.18
700.651	36001.53
700.997	35823.68
701.342	35811.47
701.688	35661.2
702.033	35695.09
702.379	35590.91
702.724	35449.9
703.069	35594.76
703.415	35105.73
703.76	35190.25
704.105	35134.2
704.45	35095.11
704.795	34832.06
705.14	34868.22
705.485	34758.39
705.83	34708.68
706.175	34696.02
706.52	34463.49
706.865	34461.9
707.209	34311.4
707.554	34260.78
707.899	34479.53
708.243	34243.83
708.588	34222.14
708.932	33903.95
709.277	33861.24
709.621	33940.11
709.966	33717.97
710.31	33839.77
710.654	33490.18
710.998	33613.79
711.342	33579.44
711.687	33404.31
712.031	33355.72
712.375	33290.18
712.719	33201.6
713.063	33149.4
713.407	33297.64
713.75	33051.77
714.094	33093.58
714.438	32932.45
714.782	33110.98
715.125	32742.4
715.469	32833.92
715.812	32582.41
716.156	32391.68
716.499	32406.14
716.843	32520.94
717.186	32305.13
717.53	32400.72
717.873	32394.84
718.216	32359.59
718.559	32270.1
718.902	32127.95
719.246	32076.43
719.589	32071.46
719.932	31921.86
720.275	31771.13
720.617	31913.5
720.96	31900.39
721.303	31840.73
721.646	31822.2
721.989	31575.65
722.331	31696.33
722.674	31588.76
723.016	31609.55
723.359	31597.12
723.701	31561.64
724.044	31360.74
724.386	31257.02
724.729	31273.97
725.071	31292.72
725.413	31193.74
725.755	31317.81
726.097	31032.39
726.439	30900.19
726.782	31021.77
727.124	31052.5
727.465	30893.64
727.807	30822
728.149	30812.96
728.491	30699.97
728.833	30850.7
729.175	30628.33
729.516	30520.99
729.858	30553.53
730.199	30665.17
730.541	30495.91
730.882	30455.91
731.224	30539.3
731.565	30356.93
731.906	30338.4
732.248	30433.76
732.589	30108.8
732.93	30011.85
733.271	30039.87
733.612	30172.75
733.953	30139.08
734.294	30016.82
734.635	29817.73
734.976	29890.95
735.317	29804.4
735.658	29883.49
735.999	29630.17
736.339	29582.26
736.68	29711.07
737.021	29795.81
737.361	29608.02
737.702	29746.32
738.042	29618.42
738.383	29401.7
738.723	29611.64
739.063	29428.59
739.404	29608.25
739.744	29419.1
740.084	29379.1
740.424	29234.25
740.764	29310.63
741.104	29371.19
741.444	29202.16
741.784	28951.99
742.124	29189.5
742.464	29140.46
742.804	29065.44
743.143	29003.74
743.483	28928.94
743.823	28875.84
744.162	28767.82
744.502	28910.19
744.841	28739.57
745.181	28814.14
745.52	28680.14
745.86	28769.17
746.199	28562.4
746.538	28615.28
746.877	28631.1
747.216	28546.13
747.556	28568.05
747.895	28486.24
748.234	28500.03
748.573	28355.17
748.911	28324.21
749.25	28321.73
749.589	28155.63
749.928	28300.03
750.267	28183.65
750.605	28166.48
750.944	27910.21
751.283	27910.89
751.621	28095.52
751.96	27852.59
752.298	27849.88
752.636	27871.57
752.975	27694.17
753.313	27607.17
753.651	27806.71
753.989	27638.81
754.327	27507.74
754.666	27353.84
755.004	27397.91
755.342	27453.5
755.679	27279.72
756.017	27218.71
756.355	27263.68
756.693	27129.44
757.031	27182.77
757.368	26950.46
757.706	26931.48
