Data from hue_10_FLMS001491_70.txt Node
Date: Mon Feb 06 15:32:21 GMT 2017
User: dcchb
Spectrometer: FLMS00149
Trigger mode: 0
Integration Time (sec): 2.000000E-2
Scans to average: 10
Electric dark correction enabled: true
Nonlinearity correction enabled: false
Boxcar width: 0
XAxis mode: Wavelengths
Number of Pixels in Spectrum: 2048
>>>>>Begin Spectral Data<<<<<
341.393	-19.24
341.776	-19.24
342.16	-19.24
342.543	-68.95
342.927	-56.52
343.31	-68.95
343.693	-50.87
344.077	-69.86
344.46	-59.69
344.843	-52.23
345.226	-45.68
345.61	-26.47
345.993	-17.88
346.376	1.55
346.759	0.65
347.142	37.03
347.525	25.28
347.908	68.44
348.291	76.35
348.674	78.39
349.057	103.92
349.44	129.91
349.823	163.36
350.206	145.28
350.588	195.45
350.971	206.52
351.354	222.56
351.737	232.51
352.119	258.04
352.502	281.77
352.884	283.58
353.267	291.49
353.65	287.2
354.032	306.18
354.414	298.27
354.797	320.19
355.179	317.25
355.562	327.42
355.944	325.16
356.326	342.56
356.709	339.85
357.091	348.21
357.473	348.66
357.855	344.14
358.238	341.21
358.62	333.3
359.002	329
359.384	345.05
359.766	338.95
360.148	326.74
360.53	357.02
360.912	357.93
361.294	321.32
361.676	332.17
362.057	329.91
362.439	327.19
362.821	319.51
363.203	319.06
363.584	324.26
363.966	328.78
364.348	328.55
364.729	334.43
365.111	320.64
365.493	322.68
365.874	321.09
366.256	300.3
366.637	321.09
367.019	311.38
367.4	326.52
367.781	309.34
368.163	293.98
368.544	310.47
368.925	323.35
369.306	301.88
369.688	316.35
370.069	302.34
370.45	298.72
370.831	323.58
371.212	333.52
371.593	296.01
371.974	311.15
372.355	317.48
372.736	299.62
373.117	311.6
373.498	314.09
373.879	299.17
374.26	324.26
374.641	323.58
375.021	316.57
375.402	308.89
375.783	311.38
376.163	299.17
376.544	308.44
376.925	327.42
377.305	344.82
377.686	334.65
378.066	318.16
378.447	316.57
378.827	310.47
379.208	347.08
379.588	326.29
379.968	321.77
380.349	354.99
380.729	324.26
381.109	326.29
381.489	320.42
381.87	315.67
382.25	337.14
382.63	351.15
383.01	336.23
383.39	336.46
383.77	320.42
384.15	324.03
384.53	326.52
384.91	335.33
385.29	339.17
385.67	334.43
386.049	351.15
386.429	354.54
386.809	341.88
387.189	349.12
387.568	362
387.948	320.64
388.328	339.4
388.707	333.3
389.087	339.17
389.466	350.25
389.846	361.32
390.225	369.68
390.605	346.63
390.984	357.02
391.363	345.05
391.743	349.57
392.122	343.01
392.501	353.41
392.881	339.4
393.26	347.08
393.639	345.05
394.018	340.08
394.397	379.17
394.776	372.84
395.155	361.77
395.534	350.02
395.913	349.12
396.292	365.61
396.671	372.17
397.05	371.26
397.429	386.4
397.808	371.94
398.186	375.1
398.565	366.29
398.944	384.14
399.323	380.3
399.701	378.04
400.08	364.03
400.458	367.42
400.837	395.22
401.215	373.52
401.594	391.83
401.972	367.65
402.351	373.52
402.729	386.4
403.107	376.23
403.486	395.89
403.864	402.9
404.242	369.91
404.62	405.16
404.999	384.14
405.377	393.63
405.755	400.41
406.133	395.67
406.511	390.24
406.889	408.32
407.267	387.31
407.645	414.2
408.023	420.75
408.401	386.18
408.779	423.24
409.156	439.28
409.534	403.12
409.912	408.1
410.29	409
410.667	393.63
411.045	419.4
411.422	440.64
411.8	436.34
412.178	453.97
412.555	424.82
412.933	443.12
413.31	444.48
413.687	433.63
414.065	450.81
414.442	447.64
414.819	452.62
415.197	426.4
415.574	448.1
415.951	437.93
416.328	439.06
416.705	472.5
417.082	464.14
417.46	455.1
417.837	459.39
418.214	463.91
418.591	481.32
418.967	469.11
419.344	454.2
419.721	486.74
420.098	470.24
420.475	491.94
420.852	487.19
421.228	477.25
421.605	487.64
421.982	479.28
422.358	501.65
422.735	484.48
423.111	482.22
423.488	504.37
423.864	493.07
424.241	508.21
424.617	507.98
424.994	472.28
425.37	491.26
425.746	503.69
426.123	532.84
426.499	539.84
426.875	516.57
427.251	508.66
427.627	522.67
428.003	537.81
428.379	547.53
428.756	527.19
429.132	554.53
429.507	531.71
429.883	550.24
430.259	537.58
430.635	575.32
431.011	563.12
431.387	579.17
431.763	583.91
432.138	573.06
432.514	575.55
432.89	587.07
433.265	601.09
433.641	614.87
434.016	593.63
434.392	577.13
434.767	607.64
435.143	623.01
435.518	630.69
435.894	622.33
436.269	650.8
436.644	621.42
437.02	647.19
437.395	621.88
437.77	617.81
438.145	648.54
438.52	633.4
438.895	629.33
439.271	638.83
439.646	677.02
440.021	647.19
440.395	660.75
440.77	666.17
441.145	697.35
441.52	675.21
441.895	675.21
442.27	662.33
442.645	690.58
443.019	694.19
443.394	670.69
443.769	707.07
444.143	690.35
444.518	712.5
444.892	677.24
445.267	696.45
445.641	704.59
446.016	723.12
446.39	731.25
446.764	705.26
447.139	706.62
447.513	727.41
447.887	737.81
448.262	712.04
448.636	723.34
449.01	720.86
449.384	750.23
449.758	747.97
450.132	769.22
450.506	751.82
450.88	752.49
451.254	752.49
451.628	769.44
452.002	757.24
452.376	772.61
452.75	783
453.123	795.43
453.497	768.09
453.871	806.5
454.244	806.96
454.618	824.36
454.992	808.31
455.365	828.65
455.739	802.89
456.112	837.46
456.486	831.14
456.859	835.66
457.232	876.56
457.606	878.82
457.979	859.84
458.352	870.46
458.725	910
459.099	904.81
459.472	927.86
459.845	926.5
460.218	918.14
460.591	927.18
460.964	919.72
461.337	966.95
461.71	956.33
462.083	960.85
462.456	971.92
462.829	986.84
463.201	996.56
463.574	985.26
463.947	971.47
464.32	1005.82
464.692	1046.05
465.065	1043.79
465.438	1034.75
465.81	1065.03
466.183	1068.64
466.555	1094.41
466.928	1080.17
467.3	1074.07
467.672	1115.42
468.045	1126.95
468.417	1117
468.789	1145.93
469.161	1159.26
469.534	1182.31
469.906	1220.05
470.278	1185.03
470.65	1215.76
471.022	1231.35
471.394	1265.93
471.766	1300.5
472.138	1288.07
472.51	1302.31
472.882	1316.77
473.253	1331.91
473.625	1373.04
473.997	1381.63
474.369	1354.06
474.74	1408.75
475.112	1450.56
475.484	1453.49
475.855	1465.92
476.227	1488.07
476.598	1524.45
476.97	1594.73
477.341	1564
477.713	1617.78
478.084	1624.34
478.455	1662.3
478.827	1702.98
479.198	1724.67
479.569	1749.98
479.94	1766.93
480.311	1801.73
480.682	1812.13
481.053	1888.28
481.424	1915.85
481.795	1921.05
482.166	1927.38
482.537	2000.37
482.908	2028.39
483.279	2088.73
483.65	2084.89
484.021	2142.51
484.391	2182.06
484.762	2173.47
485.133	2222.29
485.503	2245.79
485.874	2299.35
486.244	2348.16
486.615	2354.03
486.985	2423.18
487.356	2437.42
487.726	2501.6
488.097	2563.75
488.467	2566.46
488.837	2598.1
489.207	2660.01
489.578	2669.96
489.948	2691.43
490.318	2722.39
490.688	2758.77
491.058	2816.85
491.428	2836.51
491.798	2921.02
492.168	2952.44
492.538	2951.98
492.908	3005.99
493.278	3074.47
493.648	3060.23
494.017	3073.11
494.387	3102.04
494.757	3152.21
495.126	3177.29
495.496	3183.84
495.866	3255.71
496.235	3276.27
496.605	3328.47
496.974	3320.34
497.344	3373.89
497.713	3399.66
498.082	3450.5
498.452	3456.15
498.821	3452.76
499.19	3487.56
499.559	3541.35
499.928	3518.52
500.298	3538.86
500.667	3625.41
501.036	3595.36
501.405	3644.17
501.774	3667.45
502.143	3709.03
502.512	3683.04
502.88	3704.51
503.249	3742.92
503.618	3753.09
503.987	3773.88
504.356	3770.27
504.724	3842.13
505.093	3818.18
505.462	3856.59
505.83	3868.57
506.199	3911.73
506.567	3959.64
506.936	3936.37
507.304	3951.05
507.672	4008.23
508.041	4031.28
508.409	4045.74
508.777	4067.21
509.145	4088.45
509.514	4075.8
509.882	4102.46
510.25	4138.39
510.618	4133.2
510.986	4156.7
511.354	4176.59
511.722	4228.56
512.09	4196.7
512.458	4242.8
512.826	4249.8
513.193	4275.11
513.561	4274.21
513.929	4321.89
514.297	4376.81
514.664	4363.25
515.032	4375
515.4	4378.61
515.767	4429.46
516.135	4400.76
516.502	4379.74
516.869	4473.3
517.237	4466.52
517.604	4470.14
517.972	4480.76
518.339	4474.2
518.706	4522.34
519.073	4527.76
519.44	4572.73
519.808	4607.31
520.175	4606.63
520.542	4619.74
520.909	4613.64
521.276	4688.44
521.643	4744.03
522.009	4677.59
522.376	4698.15
522.743	4771.37
523.11	4771.15
523.477	4785.38
523.843	4819.96
524.21	4866.28
524.577	4872.84
524.943	4884.82
525.31	4875.55
525.676	4945.83
526.043	5017.92
526.409	4986.96
526.776	5012.5
527.142	4995.09
527.508	5099.05
527.874	5055.66
528.241	5095.66
528.607	5165.03
528.973	5225.15
529.339	5174.07
529.705	5238.25
530.071	5277.8
530.437	5266.05
530.803	5262.43
531.169	5281.64
531.535	5328.19
531.901	5334.29
532.267	5388.53
532.632	5396.21
532.998	5475.31
533.364	5494.74
533.73	5530
534.095	5530.45
534.461	5545.81
534.826	5559.37
535.192	5581.52
535.557	5595.76
535.923	5590.11
536.288	5631.69
536.653	5674.85
537.019	5672.14
537.384	5672.36
537.749	5725.92
538.114	5694.96
538.479	5710.78
538.845	5779.93
539.21	5794.85
539.575	5857.67
539.94	5812.7
540.305	5873.94
540.67	5921.4
541.034	5914.84
541.399	5970.89
541.764	5942.41
542.129	5957.33
542.494	5965.01
542.858	6045.46
543.223	6022.86
543.587	6063.77
543.952	6109.64
544.316	6079.36
544.681	6120.04
545.045	6210.2
545.41	6193.71
545.774	6237.1
546.138	6269.86
546.503	6266.47
546.867	6231.45
547.231	6295.4
547.595	6298.11
547.959	6384.66
548.324	6334.72
548.688	6386.24
549.052	6403.87
549.416	6416.75
549.779	6380.14
550.143	6437.32
550.507	6506.92
550.871	6517.77
551.235	6534.49
551.599	6579.46
551.962	6532.68
552.326	6605
552.689	6655.84
553.053	6636.86
553.417	6635.28
553.78	6710.76
554.143	6639.35
554.507	6748.27
554.87	6697.87
555.234	6801.83
555.597	6775.84
555.96	6769.96
556.323	6792.11
556.686	6864.42
557.05	6877.31
557.413	6898.1
557.776	6873.69
558.139	6944.42
558.502	6990.75
558.865	7042.27
559.228	7021.71
559.59	7047.24
559.953	7069.62
560.316	7084.53
560.679	7117.98
561.041	7145.32
561.404	7188.94
561.767	7162.5
562.129	7200.91
562.492	7216.96
562.854	7243.4
563.217	7230.29
563.579	7297.41
563.941	7329.27
564.304	7382.6
564.666	7426.22
565.028	7403.84
565.39	7368.14
565.753	7419.66
566.115	7510.96
566.477	7505.31
566.839	7553.22
567.201	7505.31
567.563	7567.68
567.925	7604.97
568.287	7638.64
568.648	7740.56
569.01	7766.32
569.372	7769.71
569.734	7743.27
570.095	7844.74
570.457	7836.6
570.819	7929.71
571.18	7903.94
571.542	7969.03
571.903	7949.59
572.265	8006.99
572.626	8032.3
572.987	8075.24
573.349	8140.32
573.71	8141.45
574.071	8151.62
574.432	8197.95
574.794	8361.56
575.155	8342.13
575.516	8391.62
575.877	8430.71
576.238	8476.13
576.599	8548.67
576.96	8629.8
577.32	8658.73
577.681	8739.63
578.042	8823.47
578.403	8824.6
578.763	8952.28
579.124	9026.63
579.485	9104.37
579.845	9169.9
580.206	9298.71
580.566	9411.7
580.927	9593.84
581.287	9610.11
581.648	9674.97
582.008	9907.06
582.368	9961.97
582.728	10082.87
583.089	10242.64
583.449	10349.3
583.809	10607.15
584.169	10601.95
584.529	10816.64
584.889	10989.29
585.249	11087.14
585.609	11213.01
585.969	11493.23
586.329	11629.5
586.688	11848.47
587.048	12014.8
587.408	12192.19
587.768	12420.66
588.127	12553.77
588.487	12829.46
588.846	13057.26
589.206	13205.95
589.565	13502.22
589.925	13709.44
590.284	13923.9
590.643	14107.85
591.003	14443.66
591.362	14712.81
591.721	14932.01
592.08	15178.33
592.44	15417.87
592.799	15712.78
593.158	15993.45
593.517	16306.44
593.876	16512.08
594.235	16740.32
594.593	17037.26
594.952	17415.11
595.311	17654.2
595.67	17877.02
596.029	18283.11
596.387	18513.38
596.746	18866.59
597.104	18895.75
597.463	19302.29
597.822	19716.52
598.18	19862.73
598.538	20032.44
598.897	20394.69
599.255	20580.9
599.613	21163.48
599.972	21364.61
600.33	21584.04
600.688	21733.86
601.046	22166.39
601.404	22481.19
601.762	22617.91
602.12	23118.23
602.478	23311
602.836	23523.42
603.194	23687.48
603.552	23935.16
603.91	24202.95
604.268	24568.37
604.625	24699.66
604.983	25059.43
605.341	25218.52
605.698	25539.87
606.056	25867.54
606.413	26009.01
606.771	26411.71
607.128	26445.83
607.485	26625.03
607.843	26958.36
608.2	27263.21
608.557	27606.03
608.914	27647.61
609.272	27921.95
609.629	28241.49
609.986	28438.55
610.343	28466.57
610.7	29044.86
611.057	29061.13
611.414	29217.28
611.771	29367.11
612.127	29720.77
612.484	29762.58
612.841	30080.08
613.198	30114.66
613.554	30479.62
613.911	30536.12
614.267	30861.99
614.624	30906.28
614.98	31198.02
615.337	31367.28
615.693	31563.21
616.05	31577.67
616.406	31964.56
616.762	31856.31
617.118	32168.39
617.475	32193.93
617.831	32480.93
618.187	32628.72
618.543	32834.14
618.899	33062.38
619.255	33231.19
619.611	33251.53
619.967	33516.6
620.323	33641.35
620.678	33612.42
621.034	33622.82
621.39	33820.78
621.746	33859.42
622.101	34359.07
622.457	34072.3
622.812	34306.19
623.168	34510.7
623.523	34563.81
623.879	34603.81
624.234	34576.92
624.589	34710.7
624.945	34922.44
625.3	35026.17
625.655	34987.98
626.01	35131.48
626.365	35080.41
626.72	35141.87
627.075	35257.8
627.43	35367.4
627.785	35306.61
628.14	35444.24
628.495	35470.9
628.85	35457.57
629.205	35487.4
629.559	35790.44
629.914	35641.52
630.269	35707.73
630.623	35617.79
630.978	35739.82
631.332	35888.52
631.687	35945.47
632.041	35769.65
632.396	35924.9
632.75	35906.82
633.104	35902.3
633.459	35823.89
633.813	35869.09
634.167	35900.5
634.521	35835.64
634.875	36191.34
635.229	35989.99
635.583	35848.75
635.937	35916.09
636.291	35989.99
636.645	36086.25
636.999	35975.75
637.352	36120.15
637.706	35909.08
638.06	36014.62
638.413	35995.86
638.767	35899.82
639.121	36093.94
639.474	35896.43
639.828	35880.16
640.181	35986.14
640.534	36007.84
640.888	36005.58
641.241	35883.55
641.594	35858.69
641.947	36086.25
642.301	35873.83
642.654	35969.65
643.007	35886.49
643.36	35774.85
643.713	35865.24
644.066	36008.06
644.419	35810.78
644.771	35589.09
645.124	35255.54
645.477	35173.28
645.83	35044.02
646.182	35044.02
646.535	34819.17
646.888	34980.97
647.24	34754.31
647.593	35010.8
647.945	34849
648.298	34557.03
648.65	34609.91
649.002	34639.96
649.355	34824.37
649.707	34701.21
650.059	34726.52
650.411	35255.32
650.763	35356.33
651.115	35639.26
651.467	35508.19
651.819	35627.51
652.171	35432.49
652.523	35491.02
652.875	35417.35
653.227	35305.48
653.578	35658.24
653.93	35443.56
654.282	35299.61
654.633	35401.75
654.985	35379.83
655.337	35368.53
655.688	35378.48
656.039	35490.79
656.391	35143.91
656.742	35218.25
657.094	35255.32
657.445	35341.42
657.796	35290.12
658.147	35150.01
658.498	35228.2
658.849	35217.35
659.2	35226.84
659.551	35152.95
659.902	35213.28
660.253	35209.89
660.604	35266.84
660.955	35164.24
661.306	35306.61
661.656	35183.68
662.007	35092.83
662.358	35056.45
662.708	35081.99
663.059	35290.12
663.409	34924.93
663.76	35167.18
664.11	35193.62
664.461	35234.53
664.811	35232.94
665.161	35140.29
665.511	35016.9
665.862	35050.8
666.212	35178.93
666.562	35081.99
666.912	34967.64
667.262	35083.12
667.612	34968.54
667.962	35163.57
668.312	35174.19
668.662	35225.49
669.011	35019.62
669.361	34978.49
669.711	34892.16
670.06	34961.09
670.41	34823.46
670.76	34843.12
671.109	35085.15
671.459	35050.58
671.808	34953.4
672.157	34977.58
672.507	34700.75
672.856	34729
673.205	34965.15
673.554	34871.82
673.904	34722.45
674.253	34947.3
674.602	34874.08
674.951	34389.58
675.3	34167.21
675.649	34892.39
675.998	34741.88
676.346	34662.34
676.695	34867.53
677.044	34489.01
677.393	34658.72
677.741	34718.83
678.09	34754.76
678.438	34587.31
678.787	34626.18
679.135	34594.99
679.484	34256.7
679.832	34504.38
680.181	34169.02
680.529	34403.36
680.877	34319.3
681.225	34196.36
681.573	34195.46
681.922	34132.63
682.27	34016.25
682.618	34082.47
682.966	33979.19
683.314	34012.41
683.661	34072.97
684.009	33794.56
684.357	33758.18
684.705	33708.24
685.053	33775.81
685.4	33836.37
685.748	33551.18
686.095	33568.35
686.443	33612.2
686.79	33513.44
687.138	33530.62
687.485	33492.65
687.832	33338.98
688.18	33417.62
688.527	33137.41
688.874	33147.8
689.221	33023.28
689.568	33067.58
689.915	33009.95
690.262	32954.13
690.609	32864.87
690.956	32802.05
691.303	32687.02
691.65	32428.27
691.997	32614.93
692.344	32391.89
692.69	32394.83
693.037	32402.74
693.383	32012.46
693.73	32273.93
694.077	31987.83
694.423	32071.22
694.769	31929.3
695.116	31805.46
695.462	31864.44
695.808	31735.63
696.155	31794.39
696.501	31490.22
696.847	31598.91
697.193	31284.8
697.539	31435.53
697.885	31198.25
698.231	31259.49
698.577	31108.76
698.923	30991.25
699.269	30952.83
699.614	30818.6
699.96	30724.14
700.306	30711.03
700.651	30645.27
700.997	30496.57
701.342	30546.74
701.688	30488.66
702.033	30321.89
702.379	30356.46
702.724	30121.44
703.069	30219.97
703.415	29999.86
703.76	30001.67
704.105	29961.22
704.45	29964.16
704.795	29641.9
705.14	29781.34
705.485	29561.91
705.83	29530.95
706.175	29492.08
706.52	29396.71
706.865	29357.62
707.209	29262.03
707.554	29285.98
707.899	29317.17
708.243	29072.88
708.588	29204.4
708.932	28905.65
709.277	28844.19
709.621	28883.96
709.966	28708.37
710.31	28650.29
710.654	28452.78
710.998	28483.29
711.342	28651.42
711.687	28432.44
712.031	28396.06
712.375	28281.26
712.719	28387.02
713.063	28304.31
713.407	28352.9
713.75	28114.49
714.094	28098.89
714.438	27914.49
714.782	28083.75
715.125	27952.68
715.469	27999.01
715.812	27920.37
716.156	27669.53
716.499	27593.14
716.843	27753.82
717.186	27493.03
717.53	27719.24
717.873	27576.2
718.216	27466.82
718.559	27396.77
718.902	27156.55
719.246	27183.44
719.589	27302.76
719.932	27091.69
720.275	27136.21
720.617	27030.22
720.96	27135.3
721.303	26993.61
721.646	27066.6
721.989	26783
722.331	26965.14
722.674	26841.07
723.016	26891.92
723.359	26810.79
723.701	26810.34
724.044	26650.12
724.386	26460.97
724.729	26702.32
725.071	26622.1
725.413	26599.5
725.755	26496.45
726.097	26417.13
726.439	26352.5
726.782	26248.77
727.124	26427.75
727.465	26130.13
727.807	26247.19
728.149	26035.45
728.491	26154.99
728.833	26232.73
729.175	26043.81
729.516	25985.05
729.858	25962.68
730.199	26040.87
730.541	25817.15
730.882	25918.61
731.224	25935.56
731.565	25745.28
731.906	25745.74
732.248	25744.83
732.589	25659.86
732.93	25609.02
733.271	25636.13
733.612	25537.61
733.953	25525.4
734.294	25479.53
734.635	25386.2
734.976	25410.83
735.317	25260.1
735.658	25323.6
735.999	25341.23
736.339	25207.9
736.68	25307.55
737.021	25300.55
737.361	25182.36
737.702	25232.98
738.042	25257.39
738.383	25102.36
738.723	25187.56
739.063	24979.65
739.404	25035.92
739.744	24964.74
740.084	24999.99
740.424	24931.07
740.764	24845.65
741.104	24845.65
741.444	24798.87
741.784	24642.71
742.124	24803.84
742.464	24743.5
742.804	24680.68
743.143	24699.21
743.483	24639.78
743.823	24550.51
744.162	24466
744.502	24499.21
744.841	24443.4
745.181	24486.56
745.52	24392.78
745.86	24416.05
746.199	24323.63
746.538	24382.83
746.877	24397.52
747.216	24378.54
747.556	24222.61
747.895	24228.94
748.234	24170.41
748.573	24159.56
748.911	24103.07
749.25	24148.49
749.589	23860.81
749.928	23925.44
750.267	23937.87
750.605	23921.83
750.944	23892.9
751.283	23803.64
751.621	23749.86
751.96	23677.09
752.298	23727.71
752.636	23686.81
752.975	23567.04
753.313	23524.1
753.651	23530.88
753.989	23488.17
754.327	23508.96
754.666	23287.27
755.004	23447.72
755.342	23327.27
755.679	23295.86
756.017	23172.47
756.355	23238.91
756.693	23120.04
757.031	23116.2
757.368	23092.25
757.706	23095.41
758.044	22872.59
758.381	23020.84
758.719	22797.56
759.056	22793.27
759.394	22766.15
759.731	22657.46
760.068	22646.38
760.405	22552.37
760.743	22497.69
761.08	22447.74
761.417	22397.35
