Data from hue_180_FLMS001491_00060.txt Node
Date: Tue Feb 07 16:47:12 GMT 2017
User: dcchb
Spectrometer: FLMS00149
Trigger mode: 0
Integration Time (sec): 2.000000E-2
Scans to average: 10
Electric dark correction enabled: true
Nonlinearity correction enabled: false
Boxcar width: 0
XAxis mode: Wavelengths
Number of Pixels in Spectrum: 2048
>>>>>Begin Spectral Data<<<<<
341.393	1.72
341.776	1.72
342.16	1.72
342.543	-58.39
342.927	-69.46
343.31	-66.75
343.693	-78.05
344.077	-74.21
344.46	-67.43
344.843	-57.48
345.226	-58.61
345.61	-22.68
345.993	-25.39
346.376	1.95
346.759	10.08
347.142	41.72
347.525	24.77
347.908	79.91
348.291	83.75
348.674	93.7
349.057	114.71
349.44	115.17
349.823	136.18
350.206	145
350.588	190.64
350.971	185
351.354	245.78
351.737	231.55
352.119	252.11
352.502	251.21
352.884	270.64
353.267	280.59
353.65	302.28
354.032	297.99
354.414	306.57
354.797	312.45
355.179	315.39
355.562	334.37
355.944	331.66
356.326	345.67
356.709	346.35
357.091	330.3
357.473	324.65
357.855	336.18
358.238	343.64
358.62	340.92
359.002	329.17
359.384	351.32
359.766	322.84
360.148	338.89
360.53	337.53
360.912	313.81
361.294	315.84
361.676	337.76
362.057	316.52
362.439	322.17
362.821	335.73
363.203	307.25
363.584	321.71
363.966	323.97
364.348	334.37
364.729	312
365.111	314.48
365.493	313.35
365.874	332.11
366.256	321.26
366.637	304.54
367.019	303.41
367.4	309.96
367.781	302.96
368.163	311.55
368.544	290.98
368.925	312.22
369.306	317.87
369.688	300.7
370.069	301.83
370.45	316.52
370.831	313.81
371.212	312.22
371.593	298.21
371.974	315.16
372.355	296.63
372.736	317.87
373.117	310.42
373.498	322.84
373.879	305.9
374.26	294.6
374.641	309.74
375.021	324.88
375.402	314.03
375.783	314.71
376.163	333.47
376.544	316.07
376.925	310.19
377.305	307.25
377.686	339.12
378.066	315.84
378.447	309.74
378.827	318.78
379.208	333.24
379.588	358.55
379.968	320.81
380.349	324.2
380.729	323.97
381.109	340.25
381.489	335.73
381.87	342.28
382.25	343.41
382.63	349.06
383.01	347.25
383.39	340.02
383.77	331.88
384.15	356.29
384.53	338.66
384.91	358.78
385.29	349.06
385.67	334.6
386.049	344.54
386.429	335.73
386.809	347.93
387.189	349.06
387.568	349.28
387.948	353.13
388.328	354.26
388.707	364.43
389.087	354.26
389.466	369.4
389.846	333.47
390.225	361.04
390.605	349.96
390.984	371.43
391.363	365.78
391.743	362.39
392.122	375.27
392.501	361.26
392.881	379.79
393.26	373.69
393.639	377.53
394.018	371.66
394.397	388.15
394.776	381.37
395.155	387.7
395.534	385.67
395.913	390.19
396.292	369.62
396.671	389.51
397.05	384.99
397.429	376.4
397.808	381.83
398.186	402.62
398.565	406.01
398.944	391.09
399.323	385.67
399.701	421.6
400.08	408.94
400.458	403.97
400.837	423.18
401.215	430.19
401.594	404.88
401.972	422.28
402.351	410.98
402.729	427.25
403.107	411.66
403.486	400.36
403.864	441.03
404.242	425.21
404.62	424.08
404.999	431.54
405.377	428.83
405.755	443.07
406.133	433.12
406.511	441.26
406.889	441.03
407.267	452.78
407.645	464.08
408.023	468.6
408.401	479.45
408.779	465.89
409.156	497.08
409.534	476.51
409.912	500.47
410.29	484.2
410.667	499.79
411.045	503.86
411.422	513.8
411.8	513.8
412.178	504.76
412.555	535.27
412.933	553.57
413.31	558.77
413.687	580.92
414.065	550.64
414.442	572.56
414.819	567.58
415.197	610.07
415.574	580.24
415.951	598.32
416.328	610.29
416.705	603.97
417.082	614.81
417.46	633.8
417.837	625.89
418.214	623.63
418.591	631.76
418.967	639.9
419.344	648.49
419.721	633.12
420.098	676.28
420.475	682.61
420.852	693.23
421.228	693
421.605	708.6
421.982	716.51
422.358	709.05
422.735	755.15
423.111	756.51
423.488	755.15
423.864	761.25
424.241	775.71
424.617	815.26
424.994	797.18
425.37	817.52
425.746	800.12
426.123	809.84
426.499	836.96
426.875	838.31
427.251	876.05
427.627	862.04
428.003	869.27
428.379	896.16
428.756	872.66
429.132	908.14
429.507	918.99
429.883	937.74
430.259	937.29
430.635	960.79
431.011	953.79
431.387	982.04
431.763	992.66
432.138	1000.57
432.514	1017.29
432.89	1014.8
433.265	1060.23
433.641	1057.06
434.016	1070.62
434.392	1100.23
434.767	1115.59
435.143	1115.82
435.518	1132.54
435.894	1161.01
436.269	1160.11
436.644	1175.03
437.02	1183.61
437.395	1230.84
437.77	1218.41
438.145	1262.03
438.52	1288.02
438.895	1307.9
439.271	1325.53
439.646	1322.59
440.021	1347.68
440.395	1358.52
440.77	1383.61
441.145	1379.09
441.52	1414.79
441.895	1418.41
442.27	1437.17
442.645	1409.6
443.019	1476.49
443.394	1427
443.769	1488.69
444.143	1505.86
444.518	1547.22
444.892	1511.06
445.267	1543.6
445.641	1572.3
446.016	1537.28
446.39	1584.05
446.764	1559.2
447.139	1572.98
447.513	1569.14
447.887	1619.76
448.262	1638.06
448.636	1631.28
449.01	1698.63
449.384	1660.44
449.758	1679.42
450.132	1737.95
450.506	1734.11
450.88	1754.45
451.254	1735.01
451.628	1777.04
452.002	1809.81
452.376	1774.11
452.75	1806.2
453.123	1803.71
453.497	1881.9
453.871	1880.09
454.244	1892.52
454.618	1940.2
454.992	1953.54
455.365	1957.15
455.739	1968
456.112	2021.78
456.486	2051.16
456.859	2055.45
457.232	2106.53
457.606	2114.21
457.979	2118.73
458.352	2183.13
458.725	2216.13
459.099	2222.46
459.472	2231.27
459.845	2245.96
460.218	2262.45
460.591	2322.11
460.964	2327.09
461.337	2415.67
461.71	2407.54
462.083	2458.61
462.456	2496.57
462.829	2481.43
463.201	2563.01
463.574	2530.7
463.947	2573.41
464.32	2624.25
464.692	2642.78
465.065	2668.77
465.438	2725.72
465.81	2794.87
466.183	2818.6
466.555	2867.18
466.928	2853.63
467.3	2873.51
467.672	2970.68
468.045	3022.43
468.417	3068.76
468.789	3045.03
469.161	3115.77
469.534	3161.64
469.906	3243.45
470.278	3231.24
470.65	3318.47
471.022	3343.1
471.394	3421.52
471.766	3474.63
472.138	3535.64
472.51	3611.57
472.882	3677.78
473.253	3695.86
473.625	3748.52
473.997	3846.59
474.369	3885.01
474.74	3931.79
475.112	4038.91
475.484	4106.02
475.855	4193.03
476.227	4214.95
476.598	4301.05
476.97	4371.78
477.341	4456.3
477.713	4532.23
478.084	4558.67
478.455	4756.85
478.827	4843.4
479.198	4943.51
479.569	4996.62
479.94	5101.25
480.311	5156.16
480.682	5303.28
481.053	5417.63
481.424	5547.34
481.795	5643.83
482.166	5687.9
482.537	5803.6
482.908	5950.04
483.279	5990.27
483.65	6134.67
484.021	6260.32
484.391	6312.52
484.762	6354.55
485.133	6457.6
485.503	6584.37
485.874	6744.6
486.244	6808.78
486.615	6960.86
486.985	7066.85
487.356	7193.85
487.726	7258.93
488.097	7446.05
488.467	7404.47
488.837	7590.22
489.207	7690.33
489.578	7820.27
489.948	7904.34
490.318	8042.42
490.688	8069.08
491.058	8218.91
491.428	8273.37
491.798	8425
492.168	8652.8
492.538	8596.98
492.908	8743.64
493.278	8852.56
493.648	8903.64
494.017	8975.27
494.387	9080.13
494.757	9172.33
495.126	9304.76
495.496	9328.26
495.866	9372.32
496.235	9424.53
496.605	9583.62
496.974	9624.29
497.344	9658.42
497.713	9702.94
498.082	9805.53
498.452	9930.73
498.821	9993.78
499.19	9909.94
499.559	10050.95
499.928	10081.91
500.298	10196.03
500.667	10293.2
501.036	10334.33
501.405	10327.1
501.774	10361.22
502.143	10443.93
502.512	10423.6
502.88	10565.97
503.249	10562.58
503.618	10576.59
503.987	10649.58
504.356	10712.18
504.724	10718.96
505.093	10772.06
505.462	10829.46
505.83	10835.56
506.199	10914.2
506.567	11043.69
506.936	11054.09
507.304	11148.77
507.672	11004.15
508.041	11140.64
508.409	11226.96
508.777	11290.69
509.145	11293.18
509.514	11377.47
509.882	11300.86
510.25	11309.9
510.618	11350.58
510.986	11398.26
511.354	11436.45
511.722	11534.98
512.09	11574.07
512.458	11527.52
512.826	11652.26
513.193	11523.91
513.561	11659.27
513.929	11596.22
514.297	11722.09
514.664	11758.02
515.032	11745.14
515.4	11866.95
515.767	11864.46
516.135	11897.46
516.502	11740.85
516.869	11892.26
517.237	11886.61
517.604	11725.48
517.972	11940.39
518.339	11938.81
518.706	11909.66
519.073	11934.52
519.44	11891.35
519.808	12005.7
520.175	11938.81
520.542	12035.76
520.909	12167.73
521.276	12019.26
521.643	12121.63
522.009	12172.48
522.376	12143.78
522.743	12186.71
523.11	12243.66
523.477	12302.42
523.843	12334.96
524.21	12317.11
524.577	12443.2
524.943	12351.68
525.31	12344.68
525.676	12380.38
526.043	12392.36
526.409	12436.2
526.776	12456.99
527.142	12433.26
527.508	12397.56
527.874	12472.36
528.241	12452.02
528.607	12417.67
528.973	12439.36
529.339	12393.49
529.705	12475.75
530.071	12468.74
530.437	12452.47
530.803	12424.22
531.169	12400.95
531.535	12351.91
531.901	12331.57
532.267	12410.89
532.632	12354.84
532.998	12360.49
533.364	12343.32
533.73	12289.08
534.095	12332.02
534.461	12249.54
534.826	12235.07
535.192	12194.4
535.557	12259.48
535.923	12191.91
536.288	12052.93
536.653	12186.71
537.019	12011.12
537.384	12050.67
537.749	12053.38
538.114	11950.11
538.479	11948.53
538.845	11886.83
539.21	11812.71
539.575	11882.09
539.94	11828.53
540.305	11875.99
540.67	11690
541.034	11680.74
541.399	11585.15
541.764	11679.16
542.129	11634.19
542.494	11553.06
542.858	11561.19
543.223	11449.56
543.587	11499.05
543.952	11410.24
544.316	11382.44
544.681	11306.06
545.045	11277.13
545.41	11264.03
545.774	11266.74
546.138	11203.91
546.503	11166.4
546.867	11116.46
547.231	11054.77
547.595	11075.56
547.959	11032.62
548.324	10998.27
548.688	10921.89
549.052	10898.39
549.416	10859.74
549.779	10822.46
550.143	10800.31
550.507	10826.98
550.871	10799.86
551.235	10649.13
551.599	10690.71
551.962	10755.56
552.326	10603.03
552.689	10627.66
553.053	10486.87
553.417	10512.86
553.78	10556.7
554.143	10462.69
554.507	10457.72
554.87	10424.05
555.234	10446.42
555.597	10378.17
555.96	10375.69
556.323	10328.01
556.686	10261.57
557.05	10290.04
557.413	10283.94
557.776	10216.82
558.139	10307.21
558.502	10169.59
558.865	10231.74
559.228	10137.95
559.59	10207.1
559.953	10191.06
560.316	10244.39
560.679	10153.32
561.041	10157.39
561.404	10164.17
561.767	10183.83
562.129	10172.76
562.492	10177.05
562.854	10086.43
563.217	10080.78
563.579	10156.26
563.941	10150.38
564.304	10088.01
564.666	10184.73
565.028	10136.6
565.39	10077.84
565.753	10212.3
566.115	10158.52
566.477	10128.24
566.839	10188.8
567.201	10126.2
567.563	10100.67
567.925	10141.34
568.287	10172.3
568.648	10204.17
569.01	10159.2
569.372	10157.84
569.734	10180.44
570.095	10205.52
570.457	10147.45
570.819	10171.4
571.18	10204.39
571.542	10207.78
571.903	10192.19
572.265	10203.71
572.626	10101.12
572.987	10195.35
573.349	10131.63
573.71	10238.06
574.071	10131.63
574.432	10210.72
574.794	10291.85
575.155	10280.32
575.516	10167.11
575.877	10222.7
576.238	10196.94
576.599	10235.8
576.96	10214.79
577.32	10280.1
577.681	10286.2
578.042	10258.63
578.403	10188.35
578.763	10256.59
579.124	10199.42
579.485	10279.42
579.845	10262.92
580.206	10239.65
580.566	10215.47
580.927	10203.26
581.287	10179.08
581.648	10153.55
582.008	10189.25
582.368	10168.01
582.728	10233.54
583.089	10208.23
583.449	10117.62
583.809	10220.89
584.169	10211.17
584.529	10099.76
584.889	10217.5
585.249	10115.58
585.609	10063.83
585.969	10117.84
586.329	10152.64
586.688	10180.89
587.048	10072.64
587.408	9994.23
587.768	10143.15
588.127	10052.31
588.487	10024.06
588.846	10058.63
589.206	10070.38
589.565	9975.02
589.925	10000.78
590.284	9959.43
590.643	10029.71
591.003	10022.93
591.362	10042.59
591.721	9973.21
592.08	10046.2
592.44	10029.48
592.799	9989.71
593.158	9979.77
593.517	9925.98
593.876	9995.58
594.235	9982.25
594.593	10012.99
594.952	10022.48
595.311	9891.63
595.67	9952.2
596.029	9976.38
596.387	9930.28
596.746	9962.82
597.104	9894.12
597.463	9883.05
597.822	9898.64
598.18	9924.17
598.538	9853.44
598.897	9909.94
599.255	9826.32
599.613	9894.57
599.972	9899.77
600.33	9836.27
600.688	9929.6
601.046	9806.44
601.404	9846.66
601.762	9896.83
602.12	9941.35
602.478	9858.64
602.836	9895.7
603.194	9867.68
603.552	9888.02
603.91	9801.92
604.268	9871.29
604.625	9796.27
604.983	9833.1
605.341	9768.7
605.698	9871.97
606.056	9882.59
606.413	9818.87
606.771	9904.06
607.128	9868.13
607.485	9803.73
607.843	9803.05
608.2	9885.53
608.557	9921.01
608.914	9798.08
609.272	9879.66
609.629	9879.43
609.986	9886.66
610.343	9873.55
610.7	9909.71
611.057	9871.07
611.414	9872.42
611.771	9894.8
612.127	9918.52
612.484	9922.14
612.841	9916.26
613.198	9927.11
613.554	9939.99
613.911	9944.96
614.267	9932.54
614.624	9921.69
614.98	9970.5
615.337	10024.96
615.693	9916.94
616.05	9969.82
616.406	10082.81
616.762	9961.91
617.118	9965.08
617.475	9959.2
617.831	10034.68
618.187	10116.71
618.543	10034.23
618.899	10028.58
619.255	10016.38
619.611	10025.64
619.967	10043.27
620.323	10087.56
620.678	10065.19
621.034	10023.83
621.39	10047.11
621.746	10000.1
622.101	10121.91
622.457	10022.7
622.812	10057.5
623.168	10090.95
623.523	10079.65
623.879	10072.87
624.234	10034.68
624.589	10045.75
624.945	10099.54
625.3	10085.53
625.655	10076.71
626.01	10053.44
626.365	10045.53
626.72	10005.08
627.075	10063.61
627.43	9981.8
627.785	10036.71
628.14	9982.48
628.495	9953.1
628.85	10044.17
629.205	9977.51
629.559	10115.58
629.914	9994.91
630.269	10010.73
630.623	9986.77
630.978	9981.12
631.332	9969.6
631.687	10018.86
632.041	9947.22
632.396	9930.73
632.75	9932.99
633.104	9923.27
633.459	9849.6
633.813	9871.97
634.167	9899.32
634.521	9863.16
634.875	9881.69
635.229	9852.09
635.583	9769.38
635.937	9822.93
636.291	9827.45
636.645	9785.87
636.999	9713.78
637.352	9813.44
637.706	9768.47
638.06	9793.56
638.413	9674.01
638.767	9716.72
639.121	9689.83
639.474	9595.37
639.828	9709.72
640.181	9662.71
640.534	9616.61
640.888	9613.45
641.241	9619.1
641.594	9580.91
641.947	9678.08
642.301	9539.33
642.654	9639.89
643.007	9619.1
643.36	9601.92
643.713	9608.93
644.066	9596.05
644.419	9506.56
644.771	9441.47
645.124	9404.19
645.477	9378.65
645.83	9375.04
646.182	9285.55
646.535	9303.63
646.888	9293.68
647.24	9240.12
647.593	9226.34
647.945	9233.8
648.298	9256.4
648.65	9155.61
649.002	9236.73
649.355	9234.7
649.707	9272.67
650.059	9238.09
650.411	9345.66
650.763	9387.24
651.115	9531.87
651.467	9420.68
651.819	9467.01
652.171	9442.15
652.523	9419.78
652.875	9423.85
653.227	9336.39
653.578	9429.95
653.93	9370.97
654.282	9422.72
654.633	9400.57
654.985	9397.18
655.337	9404.19
655.688	9482.15
656.039	9446.67
656.391	9429.72
656.742	9401.25
657.094	9399.22
657.445	9454.36
657.796	9401.02
658.147	9467.24
658.498	9464.07
658.849	9488.25
659.2	9532.55
659.551	9478.54
659.902	9470.85
660.253	9476.5
660.604	9507.01
660.955	9460.23
661.306	9477.63
661.656	9527.12
662.007	9506.33
662.358	9453.9
662.708	9398.31
663.059	9511.3
663.409	9411.65
663.76	9526.9
664.11	9535.03
664.461	9471.53
664.811	9506.33
665.161	9485.77
665.511	9468.14
665.862	9516.05
666.212	9515.6
666.562	9560.12
666.912	9460.46
667.262	9500
667.612	9479.44
667.962	9525.77
668.312	9459.78
668.662	9570.74
669.011	9491.64
669.361	9503.39
669.711	9451.19
670.06	9497.97
670.41	9419.55
670.76	9396.96
671.109	9427.01
671.459	9506.56
671.808	9425.66
672.157	9521.92
672.507	9388.14
672.856	9486.45
673.205	9450.06
673.554	9403.06
673.904	9402.83
674.253	9412.1
674.602	9444.41
674.951	9258.88
675.3	9217.75
675.649	9427.92
675.998	9343.62
676.346	9405.09
676.695	9370.97
677.044	9380.91
677.393	9356.51
677.741	9304.76
678.09	9331.2
678.438	9311.53
678.787	9330.07
679.135	9273.8
679.484	9252.1
679.832	9305.66
680.181	9123.97
680.529	9294.13
680.877	9226.11
681.225	9222.95
681.573	9281.71
681.922	9137.53
682.27	9135.49
682.618	9167.58
682.966	9099.11
683.314	9151.31
683.661	9067.25
684.009	9045.55
684.357	9041.26
684.705	9028.38
685.053	8949.28
685.4	9037.42
685.748	8885.33
686.095	8920.36
686.443	8804.88
686.79	8894.37
687.138	8877.87
687.485	8837.87
687.832	8815.05
688.18	8792.68
688.527	8756.97
688.874	8772.34
689.221	8723.75
689.568	8700.93
689.915	8658.22
690.262	8735.96
690.609	8712.68
690.956	8642.17
691.303	8623.64
691.65	8594.04
691.997	8523.53
692.344	8438.79
692.69	8511.1
693.037	8484.66
693.383	8350.88
693.73	8431.56
694.077	8345.91
694.423	8319.47
694.769	8290.54
695.116	8315.85
695.462	8271.79
695.808	8263.65
696.155	8220.49
696.501	8205.8
696.847	8158.34
697.193	8089.87
697.539	8109.08
697.885	8052.81
698.231	8022.08
698.577	7995.64
698.923	8018.69
699.269	7968.97
699.614	7889.43
699.96	7947.5
700.306	7881.29
700.651	7847.62
700.997	7845.58
701.342	7726.94
701.688	7805.59
702.033	7733.05
702.379	7671.8
702.724	7636.78
703.069	7630
703.415	7596.55
703.76	7530.34
704.105	7591.81
704.45	7502.32
704.795	7532.15
705.14	7471.58
705.485	7403.56
705.83	7469.32
706.175	7425.93
706.52	7410.79
706.865	7357.01
707.209	7335.09
707.554	7295.09
707.899	7273.62
708.243	7265.26
708.588	7290.57
708.932	7254.41
709.277	7158.82
709.621	7232.04
709.966	7139.84
710.31	7145.49
710.654	7069.79
710.998	7168.54
711.342	7069.11
711.687	7054.19
712.031	7036.11
712.375	7031.82
712.719	7077.47
713.063	7032.5
713.407	7077.92
713.75	6992.05
714.094	6987.08
714.438	6970.13
714.782	6989.34
715.125	6883.12
715.469	6914.54
715.812	6930.35
716.156	6916.12
716.499	6874.76
716.843	6872.95
717.186	6886.06
717.53	6900.98
717.873	6873.41
718.216	6827.53
718.559	6818.27
718.902	6771.94
719.246	6774.43
719.589	6778.27
719.932	6704.37
720.275	6761.32
720.617	6706.41
720.96	6702.79
721.303	6728.55
721.646	6668.21
721.989	6674.09
722.331	6707.31
722.674	6754.31
723.016	6723.58
723.359	6722.45
723.701	6704.6
724.044	6682.9
724.386	6596.58
724.729	6698.5
725.071	6651.72
725.413	6628.67
725.755	6619.85
726.097	6621.44
726.439	6596.8
726.782	6572.4
727.124	6605.84
727.465	6624.37
727.807	6601.55
728.149	6560.87
728.491	6600.42
728.833	6599.52
729.175	6632.96
729.516	6574.66
729.858	6517.48
730.199	6650.14
730.541	6514.09
730.882	6562.45
731.224	6616.01
731.565	6554.55
731.906	6564.71
732.248	6588.22
732.589	6559.06
732.93	6594.77
733.271	6555.45
733.612	6559.52
733.953	6571.49
734.294	6568.56
734.635	6552.51
734.976	6579.86
735.317	6538.95
735.658	6519.97
735.999	6588.44
736.339	6615.33
736.68	6652.4
737.021	6610.59
737.361	6611.27
737.702	6560.87
738.042	6609.23
738.383	6647.88
738.723	6595.45
739.063	6605.39
739.404	6668.44
739.744	6680.87
740.084	6602.45
740.424	6686.29
740.764	6669.12
741.104	6718.16
741.444	6660.53
741.784	6687.42
742.124	6810.58
742.464	6682.68
742.804	6741.88
743.143	6796.35
743.483	6761.55
743.823	6831.15
744.162	6792.73
744.502	6980.3
744.841	6895.33
745.181	6934.87
745.52	6930.13
745.86	7018.71
746.199	7000.41
746.538	7034.31
746.877	7119.73
747.216	7174.19
747.556	7140.52
747.895	7177.13
748.234	7297.58
748.573	7272.72
748.911	7331.47
749.25	7369.66
749.589	7411.25
749.928	7448.53
750.267	7563.11
750.605	7655.76
750.944	7630.45
751.283	7758.36
751.621	7835.42
751.96	7853.49
752.298	8013.04
752.636	8141.17
752.975	8211
753.313	8211
753.651	8382.29
753.989	8407.83
754.327	8529.86
754.666	8601.72
755.004	8780.48
755.342	8887.14
755.679	9022.73
756.017	9130.97
756.355	9291.42
756.693	9367.35
757.031	9486.67
757.368	9639.66
757.706	9769.38
758.044	9892.76
758.381	10066.54
758.719	10201.91
759.056	10308.8
759.394	10541.11
759.731	10603.93
760.068	10822.23
760.405	10906.97
760.743	11049.79
761.08	11266.51
761.417	11415.66
761.754	11548.54
762.091	11759.61
762.428	11778.59
762.765	11886.61
763.102	12198.01
763.438	12367.5
763.775	12536.53
