Data from hue_230_FLMS001491_00029.txt Node
Date: Tue Feb 07 16:37:01 GMT 2017
User: dcchb
Spectrometer: FLMS00149
Trigger mode: 0
Integration Time (sec): 2.000000E-2
Scans to average: 10
Electric dark correction enabled: true
Nonlinearity correction enabled: false
Boxcar width: 0
XAxis mode: Wavelengths
Number of Pixels in Spectrum: 2048
>>>>>Begin Spectral Data<<<<<
341.393	-19.62
341.776	-19.62
342.16	-19.62
342.543	-49.9
342.927	-79.96
343.31	-85.15
343.693	-53.06
344.077	-48.54
344.46	-57.81
344.843	-51.03
345.226	-40.41
345.61	-51.48
345.993	-10.8
346.376	-28.88
346.759	9.31
347.142	35.75
347.525	37.56
347.908	65.35
348.291	61.74
348.674	104.67
349.057	112.81
349.44	133.6
349.823	136.08
350.206	160.49
350.588	192.81
350.971	208.17
351.354	231.45
351.737	212.92
352.119	229.41
352.502	248.17
352.884	259.47
353.267	272.13
353.65	282.29
354.032	306.7
354.414	294.05
354.797	319.58
355.179	317.77
355.562	313.93
355.944	334.72
356.326	318.9
356.709	332.69
357.091	345.8
357.473	344.21
357.855	322.07
358.238	332.24
358.62	344.89
359.002	326.59
359.384	339.47
359.766	339.69
360.148	328.62
360.53	327.94
360.912	316.19
361.294	329.3
361.676	344.89
362.057	352.58
362.439	324.55
362.821	318.68
363.203	304.67
363.584	336.3
363.966	319.81
364.348	299.7
364.729	320.94
365.111	292.46
365.493	323.2
365.874	310.32
366.256	326.36
366.637	314.84
367.019	296.98
367.4	304.44
367.781	333.37
368.163	313.25
368.544	304.22
368.925	305.12
369.306	314.38
369.688	306.47
370.069	282.07
370.45	286.14
370.831	314.61
371.212	296.76
371.593	320.26
371.974	324.33
372.355	311.9
372.736	292.69
373.117	304.44
373.498	297.44
373.879	326.59
374.26	317.77
374.641	296.31
375.021	310.09
375.402	307.83
375.783	312.35
376.163	312.12
376.544	322.52
376.925	315.97
377.305	324.55
377.686	322.29
378.066	331.56
378.447	317.1
378.827	333.59
379.208	327.49
379.588	346.7
379.968	323.2
380.349	327.72
380.729	334.95
381.109	338.34
381.489	341.5
381.87	348.28
382.25	319.36
382.63	358
383.01	331.79
383.39	331.79
383.77	347.38
384.15	323.2
384.53	331.33
384.91	352.12
385.29	336.53
385.67	347.15
386.049	367.04
386.429	341.73
386.809	339.92
387.189	367.26
387.568	339.24
387.948	339.02
388.328	360.48
388.707	376.53
389.087	355.51
389.466	358
389.846	352.12
390.225	360.71
390.605	369.52
390.984	359.35
391.363	362.52
391.743	395.06
392.122	370.65
392.501	389.86
392.881	362.74
393.26	365.23
393.639	382.41
394.018	383.08
394.397	396.19
394.776	362.07
395.155	391.22
395.534	370.65
395.913	393.25
396.292	409.75
396.671	405.68
397.05	403.65
397.429	421.27
397.808	395.96
398.186	401.16
398.565	392.35
398.944	409.98
399.323	402.97
399.701	421.95
400.08	411.78
400.458	394.38
400.837	402.29
401.215	421.27
401.594	401.61
401.972	398.22
402.351	400.71
402.729	417.66
403.107	436.87
403.486	446.36
403.864	410.43
404.242	438.67
404.62	422.4
404.999	461.05
405.377	426.02
405.755	436.19
406.133	457.43
406.511	434.38
406.889	444.1
407.267	463.53
407.645	462.18
408.023	490.42
408.401	478.45
408.779	470.31
409.156	470.09
409.534	491.1
409.912	478.9
410.29	513.25
410.667	510.31
411.045	512.12
411.422	502.63
411.8	513.25
412.178	531.78
412.555	522.29
412.933	530.42
413.31	523.64
413.687	527.71
414.065	544.21
414.442	570.2
414.819	577.65
415.197	594.38
415.574	602.06
415.951	588.05
416.328	583.08
416.705	594.15
417.082	613.13
417.46	618.11
417.837	608.61
418.214	638.9
418.591	646.35
418.967	623.75
419.344	658.1
419.721	645
420.098	657.2
420.475	673.92
420.852	641.83
421.228	677.31
421.605	681.38
421.982	694.04
422.358	707.37
422.735	718.89
423.111	739.91
423.488	739.23
423.864	748.05
424.241	763.64
424.617	781.72
424.994	755.73
425.37	784.2
425.746	792.79
426.123	794.82
426.499	801.15
426.875	832.11
427.251	840.25
427.627	836.18
428.003	859.45
428.379	870.75
428.756	872.56
429.132	910.07
429.507	896.29
429.883	906.69
430.259	920.24
430.635	947.36
431.011	924.99
431.387	980.36
431.763	966.34
432.138	971.77
432.514	980.81
432.89	987.81
433.265	1000.47
433.641	1026.46
434.016	1043.18
434.392	1095.61
434.767	1064.42
435.143	1082.27
435.518	1120.46
435.894	1134.93
436.269	1149.39
436.644	1145.32
437.02	1182.38
437.395	1181.71
437.77	1192.78
438.145	1211.31
438.52	1240.24
438.895	1258.54
439.271	1268.26
439.646	1302.83
440.021	1293.79
440.395	1281.36
440.77	1320.91
441.145	1314.36
441.52	1361.81
441.895	1363.85
442.27	1355.49
442.645	1346.9
443.019	1387.8
443.394	1393
443.769	1440.68
444.143	1414.92
444.518	1425.99
444.892	1443.39
445.267	1479.1
445.641	1457.18
446.016	1457.41
446.39	1498.99
446.764	1498.31
447.139	1497.86
447.513	1513.45
447.887	1523.17
448.262	1540.11
448.636	1543.73
449.01	1598.87
449.384	1609.04
449.758	1581.7
450.132	1602.49
450.506	1599.32
450.88	1630.96
451.254	1591.64
451.628	1653.56
452.002	1667.34
452.376	1701.47
452.75	1689.26
453.123	1701.92
453.497	1722.26
453.871	1709.15
454.244	1789.15
454.618	1766.1
454.992	1797.28
455.365	1794.8
455.739	1845.19
456.112	1844.29
456.486	1831.41
456.859	1862.82
457.232	1925.87
457.606	1896.49
457.979	1932.87
458.352	1959.09
458.725	2005.41
459.099	2007.9
459.472	2002.93
459.845	2035.47
460.218	2078.18
460.591	2063.94
460.964	2078.41
461.337	2155.47
461.71	2134
462.083	2217.16
462.456	2157.05
462.829	2204.96
463.201	2230.72
463.574	2265.75
463.947	2273.65
464.32	2313.43
464.692	2330.15
465.065	2351.39
465.438	2409.47
465.81	2418.28
466.183	2430.94
466.555	2464.16
466.928	2477.04
467.3	2493.76
467.672	2537.6
468.045	2576.25
468.417	2548.68
468.789	2591.39
469.161	2633.87
469.534	2649.24
469.906	2693.08
470.278	2728.78
470.65	2776.01
471.022	2774.43
471.394	2805.17
471.766	2851.49
472.138	2894.2
472.51	2917.71
472.882	2977.59
473.253	2995.44
473.625	3045.39
473.997	3096.23
474.369	3097.59
474.74	3127.87
475.112	3173.97
475.484	3232.73
475.855	3288.09
476.227	3262.33
476.598	3404.7
476.97	3410.8
477.341	3473.4
477.713	3523.11
478.084	3529.67
478.455	3629.55
478.827	3623
479.198	3730.34
479.569	3717.68
479.94	3804.91
480.311	3810.34
480.682	3851.92
481.053	3935.53
481.424	4068.41
481.795	4042.87
482.166	4117
482.537	4155.64
482.908	4202.42
483.279	4275.41
483.65	4345.46
484.021	4418.91
484.391	4456.42
484.762	4487.16
485.133	4496.65
485.503	4550.21
485.874	4615.74
486.244	4680.82
486.615	4739.35
486.985	4849.41
487.356	4857.54
487.726	4890.08
488.097	4957.2
488.467	4968.27
488.837	5072.23
489.207	5145.9
489.578	5175.27
489.948	5217.98
490.318	5258.66
490.688	5273.8
491.058	5378.21
491.428	5368.94
491.798	5517.86
492.168	5559.9
492.538	5588.6
492.908	5613.45
493.278	5725.32
493.648	5681.7
494.017	5746.33
494.387	5724.19
494.757	5828.14
495.126	5858.65
495.496	5827.46
495.866	5895.93
496.235	5977.74
496.605	5997.85
496.974	6068.36
497.344	6061.8
497.713	6123.05
498.082	6111.97
498.452	6204.62
498.821	6146.55
499.19	6174.8
499.559	6241.01
499.928	6259.09
500.298	6298.41
500.667	6331.85
501.036	6323.49
501.405	6398.29
501.774	6399.65
502.143	6403.72
502.512	6454.56
502.88	6524.84
503.249	6478.06
503.618	6504.28
503.987	6540.21
504.356	6602.81
504.724	6605.74
505.093	6611.39
505.462	6550.15
505.83	6593.99
506.199	6724.39
506.567	6753.99
506.936	6750.37
507.304	6796.47
507.672	6811.16
508.041	6797.38
508.409	6836.02
508.777	6889.58
509.145	6865.4
509.514	6884.61
509.882	6945.62
510.25	6857.72
510.618	6949.46
510.986	6988.56
511.354	7006.41
511.722	7050.48
512.09	7128.22
512.458	7007.09
512.826	7060.2
513.193	7116.24
513.561	7109.01
513.929	7124.15
514.297	7138.61
514.664	7190.59
515.032	7202.79
515.4	7247.31
515.767	7229.23
516.135	7252.51
516.502	7207.08
516.869	7292.05
517.237	7269
517.604	7245.95
517.972	7284.6
518.339	7320.3
518.706	7289.79
519.073	7334.76
519.44	7308.1
519.808	7284.82
520.175	7358.27
520.542	7348.55
520.909	7402.33
521.276	7367.53
521.643	7451.6
522.009	7436.23
522.376	7462.45
522.743	7555.55
523.11	7586.96
523.477	7530.24
523.843	7578.6
524.21	7674.64
524.577	7651.14
524.943	7641.2
525.31	7598.94
525.676	7685.94
526.043	7706.51
526.409	7652.27
526.776	7766.39
527.142	7758.71
527.508	7733.85
527.874	7773.62
528.241	7781.31
528.607	7758.48
528.973	7774.98
529.339	7747.18
529.705	7804.36
530.071	7874.86
530.437	7843.68
530.803	7883.45
531.169	7843.9
531.535	7810.68
531.901	7871.25
532.267	7774.53
532.632	7758.03
532.998	7899.5
533.364	7845.71
533.73	7864.47
534.095	7877.35
534.461	7793.06
534.826	7904.69
535.192	7838.03
535.557	7880.51
535.923	7849.1
536.288	7837.35
536.653	7879.16
537.019	7757.35
537.384	7851.14
537.749	7777.92
538.114	7801.19
538.479	7807.29
538.845	7853.17
539.21	7760.74
539.575	7736.11
539.94	7793.96
540.305	7796
540.67	7767.07
541.034	7781.53
541.399	7778.82
541.764	7755.77
542.129	7793.51
542.494	7753.51
542.858	7705.83
543.223	7730.69
543.587	7724.59
543.952	7719.39
544.316	7695.66
544.681	7653.4
545.045	7704.02
545.41	7686.62
545.774	7786.28
546.138	7620.41
546.503	7600.52
546.867	7605.72
547.231	7639.16
547.595	7678.94
547.959	7645.72
548.324	7590.58
548.688	7570.46
549.052	7558.26
549.416	7594.64
549.779	7549.45
550.143	7532.05
550.507	7577.92
550.871	7626.51
551.235	7497.02
551.599	7505.16
551.962	7584.7
552.326	7518.49
552.689	7518.94
553.053	7440.52
553.417	7542.67
553.78	7579.73
554.143	7505.16
554.507	7565.95
554.87	7535.66
555.234	7608.43
555.597	7494.53
555.96	7478.26
556.323	7543.8
556.686	7562.56
557.05	7484.14
557.413	7573.4
557.776	7570.92
558.139	7587.87
558.502	7595.1
558.865	7591.26
559.228	7656.79
559.59	7606.4
559.953	7614.31
560.316	7697.92
560.679	7619.28
561.041	7596
561.404	7705.15
561.767	7635.1
562.129	7693.63
562.492	7654.53
562.854	7680.74
563.217	7671.25
563.579	7691.37
563.941	7698.6
564.304	7798.48
564.666	7788.76
565.028	7724.81
565.39	7776.56
565.753	7814.98
566.115	7864.69
566.477	7817.01
566.839	7881.19
567.201	7923.9
567.563	7959.83
567.925	7956.67
568.287	7924.58
568.648	7955.99
569.01	7955.99
569.372	8005.48
569.734	8011.36
570.095	8044.8
570.457	8041.19
570.819	8087.74
571.18	8064.01
571.542	8063.56
571.903	8047.29
572.265	8097.91
572.626	8068.98
572.987	8124.8
573.349	8147.62
573.71	8163.67
574.071	8219.04
574.432	8208.64
574.794	8340.16
575.155	8263.1
575.516	8232.37
575.877	8283.44
576.238	8273.27
576.599	8285.47
576.96	8384
577.32	8332.25
577.681	8333.38
578.042	8376.77
578.403	8340.39
578.763	8332.7
579.124	8447.73
579.485	8421.06
579.845	8529.08
580.206	8551.46
580.566	8507.16
580.927	8436.43
581.287	8469.2
581.648	8431.91
582.008	8519.14
582.368	8506.26
582.728	8572.47
583.089	8596.43
583.449	8613.6
583.809	8605.92
584.169	8614.51
584.529	8618.12
584.889	8652.92
585.249	8600.04
585.609	8681.62
585.969	8660.83
586.329	8723.2
586.688	8675.52
587.048	8727.72
587.408	8736.08
587.768	8750.55
588.127	8690.44
588.487	8631.23
588.846	8832.58
589.206	8677.1
589.565	8682.3
589.925	8779.25
590.284	8789.64
590.643	8858.34
591.003	8872.35
591.362	8903.76
591.721	8777.89
592.08	8848.85
592.44	8867.83
592.799	8836.19
593.158	8833.03
593.517	8930.88
593.876	8881.16
594.235	8861.73
594.593	8893.82
594.952	8912.12
595.311	8873.93
595.67	8922.52
596.029	9032.57
596.387	9028.28
596.746	9061.95
597.104	8936.3
597.463	8961.39
597.822	9027.83
598.18	8968.62
598.538	8951.22
598.897	9019.69
599.255	8935.4
599.613	9137.2
599.972	9004.78
600.33	9051.1
600.688	9030.99
601.046	9032.8
601.404	9121.61
601.762	9092.23
602.12	9074.15
602.478	9089.29
602.836	9159.12
603.194	9064.44
603.552	9100.37
603.91	9080.48
604.268	9122.51
604.625	9054.27
604.983	9115.06
605.341	9092.46
605.698	9108.05
606.056	9138.79
606.413	9132.91
606.771	9168.39
607.128	9207.03
607.485	9134.72
607.843	9177.43
608.2	9193.7
608.557	9205.45
608.914	9253.81
609.272	9230.76
609.629	9233.7
609.986	9319.57
610.343	9265.34
610.7	9274.15
611.057	9276.18
611.414	9271.21
611.771	9232.57
612.127	9328.61
612.484	9309.4
612.841	9287.93
613.198	9276.63
613.554	9347.82
613.911	9316.86
614.267	9332.68
614.624	9343.07
614.98	9266.01
615.337	9371.32
615.693	9325.67
616.05	9325.45
616.406	9429.4
616.762	9389.4
617.118	9407.03
617.475	9380.13
617.831	9379.23
618.187	9398.21
618.543	9431.66
618.899	9484.31
619.255	9444.99
619.611	9458.1
619.967	9455.39
620.323	9494.93
620.678	9432.56
621.034	9441.83
621.39	9465.78
621.746	9412.9
622.101	9491.54
622.457	9386.91
622.812	9402.28
623.168	9461.04
623.523	9410.87
623.879	9499.91
624.234	9504.43
624.589	9469.4
624.945	9427.59
625.3	9475.73
625.655	9451.55
626.01	9458.78
626.365	9435.5
626.72	9483.18
627.075	9460.58
627.43	9444.77
627.785	9436.4
628.14	9451.09
628.495	9471.43
628.85	9452.68
629.205	9413.13
629.559	9463.3
629.914	9387.59
630.269	9430.3
630.623	9419.46
630.978	9368.38
631.332	9425.11
631.687	9373.58
632.041	9408.83
632.396	9371.55
632.75	9327.93
633.104	9335.84
633.459	9322.74
633.813	9269.18
634.167	9265.11
634.521	9239.8
634.875	9321.15
635.229	9307.37
635.583	9266.24
635.937	9242.06
636.291	9245.22
636.645	9165.68
636.999	9256.07
637.352	9201.38
637.706	9209.07
638.06	9202.74
638.413	9201.38
638.767	9123.42
639.121	9158.67
639.474	9057.43
639.828	9099.92
640.181	9071.89
640.534	9144.89
640.888	9066.02
641.241	9069.86
641.594	9115.51
641.947	9036.19
642.301	9061.05
642.654	9097.88
643.007	9054.72
643.36	9018.11
643.713	9076.64
644.066	9034.38
644.419	8992.8
644.771	9020.6
645.124	8875.97
645.477	8807.72
645.83	8826.25
646.182	8757.55
646.535	8747.38
646.888	8713.94
647.24	8819.7
647.593	8734.5
647.945	8730.43
648.298	8715.29
648.65	8682.07
649.002	8684.11
649.355	8773.37
649.707	8707.38
650.059	8744.22
650.411	8844.78
650.763	8861.5
651.115	8917.1
651.467	8875.97
651.819	8924.33
652.171	8933.82
652.523	8832.58
652.875	8933.14
653.227	8865.8
653.578	8936.98
653.93	8852.46
654.282	8871.22
654.633	8885.68
654.985	8828.28
655.337	8902.86
655.688	8853.59
656.039	8865.57
656.391	8762.07
656.742	8887.94
657.094	8863.54
657.445	8842.07
657.796	8840.71
658.147	8843.43
658.498	8835.29
658.849	8875.74
659.2	8900.37
659.551	8791
659.902	8823.09
660.253	8805.01
660.604	8780.38
660.955	8876.65
661.306	8847.95
661.656	8846.36
662.007	8889.07
662.358	8965.23
662.708	8912.8
663.059	8844.33
663.409	8805.91
663.76	8857.66
664.11	8863.09
664.461	8875.52
664.811	8863.99
665.161	8877.32
665.511	8820.15
665.862	8863.09
666.212	8912.12
666.562	8846.82
666.912	8891.33
667.262	8892.69
667.612	8885.68
667.962	8938.34
668.312	8806.14
668.662	8893.82
669.011	8901.28
669.361	8828.96
669.711	8863.99
670.06	8756.87
670.41	8802.3
670.76	8840.71
671.109	8842.3
671.459	8830.32
671.808	8819.7
672.157	8772.92
672.507	8852.46
672.856	8805.69
673.205	8801.17
673.554	8828.06
673.904	8745.35
674.253	8796.87
674.602	8799.81
674.951	8665.8
675.3	8606.14
675.649	8741.28
675.998	8673.26
676.346	8740.83
676.695	8729.53
677.044	8682.3
677.393	8736.76
677.741	8741.51
678.09	8623.77
678.438	8630.78
678.787	8674.84
679.135	8635.52
679.484	8629.42
679.832	8584.22
680.181	8526.6
680.529	8613.83
680.877	8587.84
681.225	8535.19
681.573	8560.27
681.922	8568.86
682.27	8485.69
682.618	8529.76
682.966	8464.68
683.314	8513.72
683.661	8490.21
684.009	8430.33
684.357	8451.57
684.705	8433.04
685.053	8429.43
685.4	8424.68
685.748	8309.88
686.095	8396.21
686.443	8318.47
686.79	8312.82
687.138	8276.21
687.485	8259.26
687.832	8313.27
688.18	8277.79
688.527	8186.72
688.874	8198.92
689.221	8175.65
689.568	8176.32
689.915	8125.48
690.262	8178.81
690.609	8090.23
690.956	8085.48
691.303	8048.19
691.65	8001.41
691.997	8035.09
692.344	8021.53
692.69	7950.79
693.037	7926.61
693.383	7859.27
693.73	7924.35
694.077	7868.54
694.423	7867.41
694.769	7779.27
695.116	7834.64
695.462	7821.08
695.808	7702.44
696.155	7748.54
696.501	7714.42
696.847	7664.7
697.193	7673.74
697.539	7675.32
697.885	7520.97
698.231	7556.91
698.577	7523.01
698.923	7482.11
699.269	7504.03
699.614	7522.56
699.96	7410.69
700.306	7384.93
700.651	7433.29
700.997	7342.45
701.342	7322.79
701.688	7366.18
702.033	7247.08
702.379	7354.2
702.724	7271.49
703.069	7182.23
703.415	7252.96
703.76	7212.96
704.105	7251.15
704.45	7184.49
704.795	7104.49
705.14	7104.04
705.485	7096.13
705.83	7087.77
706.175	7080.31
706.52	6972.74
706.865	6992.17
707.209	6965.51
707.554	6940.65
707.899	6988.79
708.243	6874.89
708.588	6928.45
708.932	6876.25
709.277	6867.66
709.621	6812.74
709.966	6847.77
710.31	6839.18
710.654	6779.07
710.998	6770.71
711.342	6781.33
711.687	6747.89
712.031	6723.48
712.375	6699.75
712.719	6754.22
713.063	6643.94
713.407	6735.91
713.75	6641.22
714.094	6605.29
714.438	6640.32
714.782	6610.26
715.125	6608.91
715.469	6623.15
715.812	6574.33
716.156	6552.86
716.499	6577.27
716.843	6573.65
717.186	6512.64
717.53	6535.69
717.873	6526.2
718.216	6579.3
718.559	6469.02
718.902	6481
719.246	6474.67
719.589	6446.88
719.932	6418.4
720.275	6421.79
720.617	6461.57
720.96	6399.2
721.303	6445.75
721.646	6450.04
721.989	6428.35
722.331	6437.39
722.674	6368.46
723.016	6360.78
723.359	6403.49
723.701	6349.03
724.044	6424.28
724.386	6352.87
724.729	6382.93
725.071	6365.75
725.413	6338.18
725.755	6352.87
726.097	6309.93
726.439	6300.22
726.782	6309.93
727.124	6388.8
727.465	6305.87
727.807	6286.2
728.149	6347.45
728.491	6281.01
728.833	6269.93
729.175	6276.94
729.516	6287.79
729.858	6291.85
730.199	6291.85
730.541	6279.2
730.882	6265.87
731.224	6320.1
731.565	6255.7
731.906	6297.05
732.248	6264.96
732.589	6223.61
732.93	6247.11
733.271	6229.03
733.612	6231.74
733.953	6254.12
734.294	6204.85
734.635	6242.59
734.976	6255.7
735.317	6221.35
735.658	6268.35
735.999	6264.51
736.339	6194.46
736.68	6279.43
737.021	6230.16
737.361	6186.09
737.702	6259.09
738.042	6277.17
738.383	6282.36
738.723	6294.11
739.063	6220.22
739.404	6302.02
739.744	6279.88
740.084	6217.51
740.424	6311.74
740.764	6330.27
741.104	6274.91
741.444	6323.49
741.784	6211.86
742.124	6375.69
742.464	6309.93
742.804	6323.04
743.143	6322.81
743.483	6407.56
743.823	6398.52
744.162	6387.67
744.502	6401.46
744.841	6416.14
745.181	6524.39
745.52	6448.46
745.86	6477.39
746.199	6526.88
746.538	6514.45
746.877	6561.68
747.216	6634.44
747.556	6583.6
747.895	6659.3
748.234	6652.97
748.573	6641
748.911	6707.89
749.25	6754.89
749.589	6781.56
749.928	6818.62
750.267	6890.03
750.605	6985.4
750.944	6922.57
751.283	7005.73
751.621	7095.9
751.96	7090.03
752.298	7224.49
752.636	7330.02
752.975	7300.87
753.313	7342.22
753.651	7504.93
753.989	7497.47
754.327	7604.36
754.666	7651.59
755.004	7797.58
755.342	7889.33
755.679	7938.14
756.017	7991.02
756.355	8097.46
756.693	8254.29
757.031	8335.42
757.368	8394.17
757.706	8484.11
758.044	8514.39
758.381	8664.9
758.719	8761.17
759.056	8864.89
759.394	8963.87
759.731	9044.1
760.068	9168.39
760.405	9296.07
760.743	9404.54
761.08	9539.45
761.417	9626.68
761.754	9775.38
762.091	9842.04
762.428	9944.87
762.765	10078.42
763.102	10220.11
763.438	10322.26
763.775	10449.94
764.112	10513.66
764.449	10641.8
764.785	10792.07
765.122	10783.04
765.458	10943.26
765.795	11070.71
766.131	11219.41
766.467	11216.92
766.804	11295.11
767.14	11401.1
767.476	11540.98
767.812	11644.71
768.148	11712.28
768.485	11853.97
768.821	11904.36
769.157	11978.48
769.492	12047.18
769.828	12194.75
