Data from hue_230_FLMS001491_00081.txt Node
Date: Tue Feb 07 16:37:50 GMT 2017
User: dcchb
Spectrometer: FLMS00149
Trigger mode: 0
Integration Time (sec): 2.000000E-2
Scans to average: 10
Electric dark correction enabled: true
Nonlinearity correction enabled: false
Boxcar width: 0
XAxis mode: Wavelengths
Number of Pixels in Spectrum: 2048
>>>>>Begin Spectral Data<<<<<
341.393	0.28
341.776	0.28
342.16	0.28
342.543	-52.15
342.927	-54.41
343.31	-65.03
343.693	-74.29
344.077	-63.44
344.46	-56.89
344.843	-47.63
345.226	-42.88
345.61	-34.07
345.993	-11.47
346.376	-28.19
346.759	4.58
347.142	18.14
347.525	31.47
347.908	76.44
348.291	93.39
348.674	82.99
349.057	116.89
349.44	129.09
349.823	130
350.206	168.64
350.588	183.78
350.971	205.7
351.354	227.62
351.737	222.2
352.119	231.91
352.502	253.61
352.884	273.95
353.267	272.14
353.65	275.98
354.032	280.5
354.414	301.52
354.797	304
355.179	325.25
355.562	327.96
355.944	320.95
356.326	316.88
356.709	318.92
357.091	329.54
357.473	340.16
357.855	325.47
358.238	332.25
358.62	312.14
359.002	331.35
359.384	352.36
359.766	337.45
360.148	343.1
360.53	325.92
360.912	316.66
361.294	321.63
361.676	347.62
362.057	322.53
362.439	316.21
362.821	309.2
363.203	315.98
363.584	325.02
363.966	306.72
364.348	313.95
364.729	317.56
365.111	301.97
365.493	347.17
365.874	295.87
366.256	289.54
366.637	295.64
367.019	315.08
367.4	282.53
367.781	309.43
368.163	294.29
368.544	275.3
368.925	282.31
369.306	309.65
369.688	299.48
370.069	310.1
370.45	304.23
370.831	299.26
371.212	299.71
371.593	299.48
371.974	298.58
372.355	286.83
372.736	305.36
373.117	304
373.498	313.49
373.879	308.52
374.26	306.49
374.641	301.74
375.021	321.4
375.402	302.2
375.783	303.1
376.163	323.44
376.544	310.1
376.925	332.25
377.305	319.6
377.686	310.1
378.066	328.86
378.447	310.78
378.827	297.9
379.208	316.21
379.588	327.73
379.968	296.32
380.349	330.22
380.729	325.25
381.109	336.32
381.489	324.12
381.87	306.94
382.25	331.35
382.63	359.14
383.01	320.95
383.39	337
383.77	318.01
384.15	325.02
384.53	337
384.91	337.9
385.29	325.7
385.67	352.36
386.049	347.17
386.429	344.23
386.809	344.68
387.189	339.48
387.568	348.07
387.948	363.66
388.328	346.94
388.707	348.97
389.087	348.75
389.466	351.01
389.846	349.65
390.225	355.98
390.605	348.52
390.984	335.19
391.363	367.5
391.743	361.4
392.122	358.01
392.501	357.56
392.881	377.45
393.26	361.63
393.639	372.25
394.018	350.33
394.397	361.85
394.776	387.84
395.155	370.67
395.534	393.27
395.913	359.6
396.292	381.97
396.671	388.07
397.05	366.15
397.429	395.53
397.808	368.41
398.186	384.91
398.565	362.53
398.944	378.58
399.323	398.69
399.701	377.22
400.08	383.1
400.458	406.6
400.837	400.5
401.215	399.82
401.594	419.48
401.972	415.64
402.351	424.9
402.729	416.09
403.107	421.51
403.486	405.92
403.864	403.89
404.242	428.75
404.62	432.59
404.999	405.7
405.377	439.14
405.755	433.49
406.133	432.36
406.511	428.75
406.889	455.64
407.267	449.99
407.645	443.66
408.023	452.25
408.401	456.09
408.779	475.75
409.156	454.96
409.534	489.99
409.912	470.78
410.29	491.12
410.667	499.25
411.045	483.43
411.422	513.49
411.8	505.35
412.178	525.24
412.555	515.75
412.933	507.61
413.31	537.44
413.687	543.32
414.065	542.87
414.442	526.14
414.819	537.44
415.197	562.75
415.574	579.93
415.951	584
416.328	585.13
416.705	575.63
417.082	598.91
417.46	602.53
417.837	602.98
418.214	602.07
418.591	624.67
418.967	631.23
419.344	645.01
419.721	627.61
420.098	631.68
420.475	634.39
420.852	650.89
421.228	674.84
421.605	678.91
421.982	661.73
422.358	691.56
422.735	698.34
423.111	716.42
423.488	744.9
423.864	754.84
424.241	759.36
424.617	743.31
424.994	768.62
425.37	758.91
425.746	803.43
426.123	784.44
426.499	776.99
426.875	801.84
427.251	831.45
427.627	822.18
428.003	851.79
428.379	857.44
428.756	858.11
429.132	858.11
429.507	880.71
429.883	884.33
430.259	888.62
430.635	885
431.011	915.74
431.387	918.9
431.763	950.99
432.138	960.48
432.514	959.13
432.89	961.16
433.265	1013.14
433.641	994.38
434.016	1012.91
434.392	1026.47
434.767	1045.45
435.143	1042.51
435.518	1077.54
435.894	1065.34
436.269	1096.3
436.644	1122.06
437.02	1141.04
437.395	1146.69
437.77	1174.49
438.145	1184.21
438.52	1200.25
438.895	1237.31
439.271	1239.57
439.646	1257.88
440.021	1278.67
440.395	1280.93
440.77	1289.06
441.145	1301.49
441.52	1332.68
441.895	1322.06
442.27	1356.18
442.645	1334.48
443.019	1359.57
443.394	1388.27
443.769	1398.89
444.143	1378.1
444.518	1426.91
444.892	1425.78
445.267	1419.91
445.641	1455.61
446.016	1452.22
446.39	1457.87
446.764	1481.83
447.139	1454.93
447.513	1506.68
447.887	1503.97
448.262	1508.49
448.636	1547.81
449.01	1547.59
449.384	1564.99
449.758	1552.78
450.132	1590.07
450.506	1564.31
450.88	1593.69
451.254	1617.64
451.628	1629.39
452.002	1618.77
452.376	1687.24
452.75	1668.94
453.123	1677.07
453.497	1722.72
453.871	1687.47
454.244	1751.2
454.618	1752.33
454.992	1773.12
455.365	1765.43
455.739	1811.99
456.112	1821.03
456.486	1829.39
456.859	1847.69
457.232	1868.26
457.606	1857.63
457.979	1923.17
458.352	1956.62
458.725	1947.35
459.099	1964.52
459.472	1981.02
459.845	2017.18
460.218	2055.37
460.591	2054.69
460.964	2058.99
461.337	2094.01
461.71	2082.94
462.083	2150.51
462.456	2138.76
462.829	2176.5
463.201	2200.9
463.574	2204.52
463.947	2195.7
464.32	2273.44
464.692	2316.61
465.065	2313.67
465.438	2317.06
465.81	2379.88
466.183	2404.51
466.555	2422.37
466.928	2441.8
467.3	2431.4
467.672	2452.87
468.045	2547.11
468.417	2513.44
468.789	2534.68
469.161	2586.88
469.534	2606.77
469.906	2663.26
470.278	2696.71
470.65	2723.6
471.022	2739.87
471.394	2788.91
471.766	2822.36
472.138	2840.43
472.51	2908.68
472.882	2931.5
473.253	2928.79
473.625	2968.79
473.997	3056.7
474.369	3078.39
474.74	3079.3
475.112	3162.91
475.484	3205.62
475.855	3254.89
476.227	3274.09
476.598	3330.36
476.97	3384.83
477.341	3437.25
477.713	3464.15
478.084	3471.83
478.455	3561.54
478.827	3592.05
479.198	3695.1
479.569	3641.09
479.94	3754.76
480.311	3799.05
480.682	3838.6
481.053	3898.03
481.424	3916.11
481.795	4029.78
482.166	4066.39
482.537	4115.2
482.908	4179.16
483.279	4208.31
483.65	4252.37
484.021	4383.44
484.391	4361.52
484.762	4408.08
485.133	4448.53
485.503	4477.23
485.874	4533.27
486.244	4604.46
486.615	4675.19
486.985	4709.99
487.356	4827.5
487.726	4848.74
488.097	4886.26
488.467	4910.21
488.837	5002.41
489.207	5064.78
489.578	5148.85
489.948	5167.83
490.318	5210.99
490.688	5245.79
491.058	5319.46
491.428	5335.51
491.798	5391.78
492.168	5439.91
492.538	5515.84
492.908	5491.21
493.278	5610.76
493.648	5605.78
494.017	5737.76
494.387	5715.61
494.757	5745.44
495.126	5809.62
495.496	5788.15
495.866	5819.11
496.235	5875.61
496.605	5904.53
496.974	5961.48
497.344	6001.71
497.713	5993.57
498.082	6032.89
498.452	6084.19
498.821	6132.55
499.19	6101.36
499.559	6086
499.928	6219.1
500.298	6250.97
500.667	6253
501.036	6251.19
501.405	6326.22
501.774	6312.66
502.143	6339.55
502.512	6333.45
502.88	6365.99
503.249	6383.62
503.618	6440.79
503.987	6384.97
504.356	6402.15
504.724	6472.88
505.093	6517.4
505.462	6495.25
505.83	6531.41
506.199	6591.97
506.567	6685.76
506.936	6655.47
507.304	6689.37
507.672	6725.76
508.041	6736.38
508.409	6684.63
508.777	6724.17
509.145	6801.23
509.514	6781.12
509.882	6802.14
510.25	6831.29
510.618	6862.7
510.986	6842.81
511.354	6866.99
511.722	6896.82
512.09	6968.91
512.458	6885.75
512.826	6935.92
513.193	6898.41
513.561	7003.71
513.929	7015.24
514.297	7043.49
514.664	7060.89
515.032	7085.29
515.4	7017.95
515.767	7144.5
516.135	7070.61
516.502	7052.75
516.869	7136.37
517.237	7118.29
517.604	7105.63
517.972	7139.53
518.339	7162.13
518.706	7170.26
519.073	7169.13
519.44	7162.35
519.808	7231.73
520.175	7155.57
520.542	7240.77
520.909	7254.33
521.276	7226.53
521.643	7204.39
522.009	7244.39
522.376	7340.43
522.743	7351.95
523.11	7367.55
523.477	7389.01
523.843	7398.73
524.21	7436.92
524.577	7459.3
524.943	7462.46
525.31	7440.09
525.676	7447.09
526.043	7499.52
526.409	7505.85
526.776	7504.94
527.142	7506.53
527.508	7477.15
527.874	7522.12
528.241	7503.59
528.607	7525.51
528.973	7654.54
529.339	7528.45
529.705	7623.58
530.071	7581.33
530.437	7550.59
530.803	7624.49
531.169	7652.51
531.535	7548.56
531.901	7572.51
532.267	7567.09
532.632	7582
532.998	7597.14
533.364	7570.48
533.73	7622
534.095	7634.66
534.461	7598.27
534.826	7638.27
535.192	7608.67
535.557	7592.85
535.923	7589.01
536.288	7567.09
536.653	7517.6
537.019	7534.77
537.384	7560.08
537.749	7494.1
538.114	7513.98
538.479	7491.38
538.845	7524.38
539.21	7481.22
539.575	7413.87
539.94	7480.09
540.305	7483.7
540.67	7434.89
541.034	7408.9
541.399	7434.21
541.764	7373.65
542.129	7418.62
542.494	7366.87
542.858	7384.27
543.223	7417.49
543.587	7382.01
543.952	7384.27
544.316	7312.86
544.681	7345.63
545.045	7283.93
545.41	7330.26
545.774	7323.71
546.138	7263.14
546.503	7269.92
546.867	7260.43
547.231	7264.27
547.595	7264.72
547.959	7262.69
548.324	7274.67
548.688	7194.22
549.052	7163.94
549.416	7202.8
549.779	7145.86
550.143	7222.24
550.507	7143.82
550.871	7176.59
551.235	7116.48
551.599	7163.03
551.962	7081.45
552.326	7108.8
552.689	7069.48
553.053	7073.32
553.417	7075.35
553.78	7159.87
554.143	7048.01
554.507	7055.92
554.87	7045.29
555.234	7111.51
555.597	7012.08
555.96	7065.18
556.323	7038.52
556.686	7093.2
557.05	7017.95
557.413	7096.82
557.776	7041.68
558.139	7075.58
558.502	7068.57
558.865	7043.49
559.228	7067.89
559.59	7067.67
559.953	7065.86
560.316	7115.8
560.679	7056.59
561.041	7148.34
561.404	7088.23
561.767	7141.56
562.129	7151.96
562.492	7151.51
562.854	7102.92
563.217	7151.73
563.579	7132.52
563.941	7212.52
564.304	7180.66
564.666	7171.17
565.028	7197.83
565.39	7273.09
565.753	7216.59
566.115	7245.74
566.477	7202.8
566.839	7281.67
567.201	7250.94
567.563	7297.04
567.925	7296.36
568.287	7320.54
568.648	7290.03
569.01	7356.47
569.372	7386.98
569.734	7330.03
570.095	7398.73
570.457	7391.95
570.819	7456.36
571.18	7450.93
571.542	7438.5
571.903	7463.14
572.265	7484.61
572.626	7477.15
572.987	7440.99
573.349	7494.77
573.71	7530.03
574.071	7519.41
574.432	7596.92
574.794	7609.8
575.155	7630.82
575.516	7596.92
575.877	7620.87
576.238	7617.48
576.599	7627.65
576.96	7671.72
577.32	7667.2
577.681	7748.33
578.042	7688.22
578.403	7690.25
578.763	7729.8
579.124	7786.29
579.485	7742.23
579.845	7781.55
580.206	7813.86
580.566	7765.5
580.927	7793.75
581.287	7801.66
581.648	7837.14
582.008	7838.72
582.368	7829.46
582.728	7849.12
583.089	7869
583.449	7920.75
583.809	7939.51
584.169	7862.22
584.529	7913.97
584.889	7964.37
585.249	7932.5
585.609	7900.41
585.969	7979.28
586.329	7913.07
586.688	7977.7
587.048	7983.58
587.408	7990.35
587.768	8016.79
588.127	7989.9
588.487	8011.37
588.846	8036
589.206	7986.29
589.565	8057.02
589.925	8091.37
590.284	7989.22
590.643	8064.7
591.003	8097.47
591.362	8144.48
591.721	8122.78
592.08	8144.93
592.44	8154.42
592.799	8118.26
593.158	8082.33
593.517	8156.23
593.876	8181.54
594.235	8112.39
594.593	8158.03
594.952	8196.68
595.311	8165.72
595.67	8208.88
596.029	8222.67
596.387	8234.64
596.746	8184.47
597.104	8239.84
597.463	8226.28
597.822	8251.82
598.18	8190.8
598.538	8158.49
598.897	8252.27
599.255	8183.12
599.613	8329.1
599.972	8218.15
600.33	8267.41
600.688	8248.88
601.046	8255.88
601.404	8308.54
601.762	8266.51
602.12	8296.11
602.478	8282.78
602.836	8266.28
603.194	8269.67
603.552	8245.49
603.91	8219.28
604.268	8317.35
604.625	8306.28
604.983	8332.49
605.341	8316.45
605.698	8331.14
606.056	8302.44
606.413	8264.25
606.771	8303.57
607.128	8359.61
607.485	8253.17
607.843	8290.23
608.2	8358.93
608.557	8392.83
608.914	8364.36
609.272	8393.06
609.629	8396.22
609.986	8407.97
610.343	8367.75
610.7	8481.42
611.057	8425.37
611.414	8418.59
611.771	8374.53
612.127	8411.81
612.484	8474.18
612.841	8475.99
613.198	8423.79
613.554	8470.79
613.911	8514.41
614.267	8533.84
614.624	8559.83
614.98	8546.05
615.337	8584.92
615.693	8471.47
616.05	8505.82
616.406	8559.83
616.762	8541.3
617.118	8529.32
617.475	8558.7
617.831	8584.46
618.187	8577.01
618.543	8620.17
618.899	8611.58
619.255	8579.49
619.611	8583.11
619.967	8647.96
620.323	8686.38
620.678	8627.4
621.034	8650
621.39	8559.61
621.746	8597.34
622.101	8720.96
622.457	8596.44
622.812	8646.16
623.168	8610.9
623.523	8615.2
623.879	8704.91
624.234	8537.46
624.589	8635.99
624.945	8623.56
625.3	8640.51
625.655	8622.88
626.01	8612.49
626.365	8685.03
626.72	8600.96
627.075	8615.65
627.43	8642.99
627.785	8570.9
628.14	8618.36
628.495	8577.46
628.85	8575.88
629.205	8669.89
629.559	8650.45
629.914	8574.75
630.269	8556.44
630.623	8576.55
630.978	8529.78
631.332	8584.46
631.687	8607.74
632.041	8505.82
632.396	8530.45
632.75	8515.99
633.104	8501.08
633.459	8496.1
633.813	8396.9
634.167	8519.38
634.521	8480.96
634.875	8481.64
635.229	8497.91
635.583	8443.45
635.937	8396.22
636.291	8403.45
636.645	8415.65
636.999	8385.82
637.352	8430.8
637.706	8359.38
638.06	8399.38
638.413	8366.16
638.767	8366.62
639.121	8340.63
639.474	8356.45
639.828	8343.34
640.181	8241.87
640.534	8295.88
640.888	8296.56
641.241	8227.18
641.594	8236
641.947	8341.31
642.301	8293.4
642.654	8271.7
643.007	8249.56
643.36	8294.08
643.713	8229.9
644.066	8304.02
644.419	8255.43
644.771	8225.83
645.124	8112.61
645.477	8093.63
645.83	8017.47
646.182	8007.98
646.535	7986.29
646.888	8031.94
647.24	7971.15
647.593	7967.53
647.945	7992.39
648.298	7924.82
648.65	7874.43
649.002	7934.09
649.355	7904.71
649.707	7916.68
650.059	7959.85
650.411	8057.7
650.763	8031.48
651.115	8199.84
651.467	8193.51
651.819	8165.49
652.171	8110.8
652.523	8154.87
652.875	8099.96
653.227	8047.3
653.578	8118.71
653.93	8089.56
654.282	8081.88
654.633	8040.98
654.985	8022.67
655.337	8069.22
655.688	8042.1
656.039	8094.08
656.391	8028.32
656.742	8036
657.094	8075.1
657.445	8073.29
657.796	8036.91
658.147	8057.47
658.498	8050.01
658.849	8076.68
659.2	8071.48
659.551	8126.62
659.902	8082.56
660.253	8104.93
660.604	8124.59
660.955	8107.19
661.306	8114.19
661.656	8128.66
662.007	8123.46
662.358	8107.41
662.708	8030.13
663.059	8099.28
663.409	7990.58
663.76	8078.49
664.11	8179.05
664.461	8067.41
664.811	8071.71
665.161	8160.52
665.511	8064.93
665.862	8092.05
666.212	8122.1
666.562	8142.67
666.912	8113.74
667.262	8096.79
667.612	8097.92
667.962	8132.27
668.312	8056.57
668.662	8158.26
669.011	8082.33
669.361	8134.98
669.711	8009.79
670.06	8097.47
670.41	8082.56
670.76	8064.7
671.109	8038.04
671.459	8094.31
671.808	8041.65
672.157	8102.44
672.507	7955.55
672.856	8040.52
673.205	8061.09
673.554	8075.78
673.904	8019.28
674.253	8123.68
674.602	7941.54
674.951	7901.77
675.3	7898.61
675.649	8004.82
675.998	8002.11
676.346	8024.93
676.695	7985.61
677.044	7970.69
677.393	7989.68
677.741	7952.16
678.09	7992.61
678.438	7928.21
678.787	7961.66
679.135	7968.66
679.484	7891.83
679.832	7920.98
680.181	7838.95
680.529	7854.09
680.877	7865.84
681.225	7866.06
681.573	7866.52
681.922	7804.37
682.27	7774.32
682.618	7779.74
682.966	7758.95
683.314	7788.78
683.661	7787.87
684.009	7687.76
684.357	7661.55
684.705	7658.39
685.053	7645.05
685.4	7679.4
685.748	7606.86
686.095	7631.95
686.443	7631.49
686.79	7584.49
687.138	7632.62
687.485	7603.02
687.832	7564.6
688.18	7543.59
688.527	7539.29
688.874	7459.3
689.221	7446.41
689.568	7429.92
689.915	7410.03
690.262	7415.45
690.609	7402.57
690.956	7381.56
691.303	7360.31
691.65	7309.02
691.997	7329.36
692.344	7297.72
692.69	7257.94
693.037	7220.88
693.383	7273.54
693.73	7222.92
694.077	7219.75
694.423	7161.68
694.769	7113.32
695.116	7142.47
695.462	7039.42
695.808	7116.71
696.155	7109.47
696.501	7021.34
696.847	6980.21
697.193	6949.93
697.539	6985.64
697.885	6893.66
698.231	6906.32
698.577	6902.02
698.923	6863.6
699.269	6819.31
699.614	6776.15
699.96	6801.91
700.306	6798.07
700.651	6754.68
700.997	6729.6
701.342	6742.7
701.688	6737.73
702.033	6737.28
702.379	6679.88
702.724	6609.15
703.069	6598.08
703.415	6592.65
703.76	6629.94
704.105	6564.86
704.45	6560.79
704.795	6543.61
705.14	6527.34
705.485	6469.72
705.83	6446.21
706.175	6445.54
706.52	6416.84
706.865	6418.64
707.209	6370.28
707.554	6345.88
707.899	6394.01
708.243	6378.42
708.588	6303.17
708.932	6280.8
709.277	6272.21
709.621	6281.93
709.966	6240.8
710.31	6200.8
710.654	6182.49
710.998	6212.32
711.342	6182.49
711.687	6176.39
712.031	6157.41
712.375	6094.81
712.719	6142.72
713.063	6090.07
713.407	6139.78
713.75	6090.29
714.094	6069.05
714.438	6111.08
714.782	6056.62
715.125	6068.6
715.469	6041.25
715.812	5981.37
716.156	5944.08
716.499	5995.61
716.843	6049.16
717.186	5950.18
717.53	5969.84
717.873	6004.42
718.216	5950.63
718.559	5941.6
718.902	5940.92
719.246	5929.62
719.589	5919.22
719.932	5883.74
720.275	5854.59
720.617	5910.86
720.96	5897.98
721.303	5893.23
721.646	5902.95
721.989	5810.75
722.331	5860.02
722.674	5820.47
723.016	5821.6
723.359	5866.79
723.701	5880.81
724.044	5864.76
724.386	5772.56
724.729	5838.77
725.071	5843.97
725.413	5813.69
725.755	5806.01
726.097	5753.35
726.439	5766.46
726.782	5791.32
727.124	5821.15
727.465	5788.15
727.807	5772.11
728.149	5770.07
728.491	5709.96
728.833	5783.18
729.175	5744.31
729.516	5752.67
729.858	5763.29
730.199	5728.95
730.541	5750.41
730.882	5730.08
731.224	5732.11
731.565	5713.13
731.906	5724.88
732.248	5702.96
732.589	5711.54
732.93	5697.08
733.271	5662.96
733.612	5714.48
733.953	5733.92
734.294	5720.81
734.635	5701.6
734.976	5764.88
735.317	5692.79
735.658	5719.68
735.999	5756.29
736.339	5705.44
736.68	5754.03
737.021	5747.02
737.361	5690.75
737.702	5747.25
738.042	5761.71
738.383	5762.39
738.723	5770.3
739.063	5728.04
739.404	5758.78
739.744	5761.49
740.084	5763.29
740.424	5734.37
740.764	5745.67
741.104	5795.84
741.444	5800.36
741.784	5819.56
742.124	5841.48
742.464	5798.55
742.804	5801.03
743.143	5862.05
743.483	5853.46
743.823	5872.9
744.162	5860.69
744.502	5899.79
744.841	5950.86
745.181	6001.25
745.52	5991.99
745.86	6007.36
746.199	5981.37
746.538	6005.55
746.877	6045.1
747.216	6134.36
747.556	6132.32
747.895	6132.32
748.234	6151.76
748.573	6210.97
748.911	6194.7
749.25	6290.74
749.589	6241.7
749.928	6361.92
750.267	6425.2
750.605	6446.67
750.944	6459.77
751.283	6563.5
751.621	6609.6
751.96	6658.19
752.298	6706.55
752.636	6789.03
752.975	6863.6
753.313	6835.13
753.651	6954
753.989	7009.59
754.327	7120.1
754.666	7186.08
755.004	7294.55
755.342	7371.61
755.679	7477.15
756.017	7533.87
756.355	7673.98
756.693	7673.3
757.031	7847.53
757.368	7922.56
757.706	7955.78
758.044	8170.92
758.381	8214.76
758.719	8320.29
759.056	8469.21
759.394	8509.21
759.731	8674.4
760.068	8709.43
760.405	8902.65
760.743	8918.47
761.08	9121.17
761.417	9233.26
761.754	9304.44
762.091	9493.37
762.428	9466.7
762.765	9675.06
763.102	9734.94
763.438	9835.5
763.775	9951.43
764.112	10127.7
764.449	10260.58
764.785	10371.31
765.122	10421.48
765.458	10456.96
765.795	10584.41
766.131	10714.13
766.467	10824.63
766.804	10849.26
767.14	10982.59
767.476	11127.67
767.812	11165.19
768.148	11230.04
768.485	11365.63
768.821	11426.87
769.157	11528.79
769.492	11613.54
769.828	11689.47
