Data from hue_60_FLMS001491_17.txt Node
Date: Mon Feb 06 15:12:00 GMT 2017
User: dcchb
Spectrometer: FLMS00149
Trigger mode: 0
Integration Time (sec): 2.000000E-2
Scans to average: 10
Electric dark correction enabled: true
Nonlinearity correction enabled: false
Boxcar width: 0
XAxis mode: Wavelengths
Number of Pixels in Spectrum: 2048
>>>>>Begin Spectral Data<<<<<
341.393	7.1
341.776	7.1
342.16	7.1
342.543	-54.36
342.927	-54.81
343.31	-61.82
343.693	-62.05
344.077	-53.46
344.46	-49.39
344.843	-65.44
345.226	-37.64
345.61	-38.77
345.993	-27.47
346.376	-17.3
346.759	2.58
347.142	25.18
347.525	29.48
347.908	61.11
348.291	75.35
348.674	93.66
349.057	125.97
349.44	133.43
349.823	144.28
350.206	158.29
350.588	184.73
350.971	209.36
351.354	237.38
351.737	240.77
352.119	250.04
352.502	269.47
352.884	268.79
353.267	303.14
353.65	300.2
354.032	310.83
354.414	304.27
354.797	321.45
355.179	320.32
355.562	350.6
355.944	350.6
356.326	334.78
356.709	314.21
357.091	347.21
357.473	357.38
357.855	361.45
358.238	331.84
358.62	356.02
359.002	362.35
359.384	337.27
359.766	329.13
360.148	340.43
360.53	324.61
360.912	358.96
361.294	328.68
361.676	330.71
362.057	345.4
362.439	353.08
362.821	349.24
363.203	342.69
363.584	324.16
363.966	342.01
364.348	351.5
364.729	332.29
365.111	354.67
365.493	329.81
365.874	308.79
366.256	323.03
366.637	306.53
367.019	318.73
367.4	331.39
367.781	323.71
368.163	311.28
368.544	332.52
368.925	330.94
369.306	331.39
369.688	319.64
370.069	332.07
370.45	327.77
370.831	318.28
371.212	338.17
371.593	316.47
371.974	329.13
372.355	315.12
372.736	320.77
373.117	345.4
373.498	322.35
373.879	330.49
374.26	335.91
374.641	334.1
375.021	314.89
375.402	294.33
375.783	358.28
376.163	326.42
376.544	334.78
376.925	327.1
377.305	318.28
377.686	316.7
378.066	340.65
378.447	356.02
378.827	325.51
379.208	325.06
379.588	344.27
379.968	351.73
380.349	344.5
380.729	340.88
381.109	341.56
381.489	339.98
381.87	333.2
382.25	341.11
382.63	335.01
383.01	343.14
383.39	333.42
383.77	347.66
384.15	339.3
384.53	365.06
384.91	318.06
385.29	331.39
385.67	338.17
386.049	321.9
386.429	352.63
386.809	355.12
387.189	340.2
387.568	366.42
387.948	369.81
388.328	350.82
388.707	363.93
389.087	369.58
389.466	362.8
389.846	335.91
390.225	360.77
390.605	379.3
390.984	365.29
391.363	346.3
391.743	354.89
392.122	377.94
392.501	386.76
392.881	376.13
393.26	391.28
393.639	374.1
394.018	374.55
394.397	377.72
394.776	382.91
395.155	392.63
395.534	387.21
395.913	388.11
396.292	384.04
396.671	398.96
397.05	383.59
397.429	382.24
397.808	374.55
398.186	395.12
398.565	382.24
398.944	403.48
399.323	400.99
399.701	372.52
400.08	394.21
400.458	399.64
400.837	397.15
401.215	396.47
401.594	396.7
401.972	399.18
402.351	407.55
402.729	410.48
403.107	403.03
403.486	395.57
403.864	400.99
404.242	418.39
404.62	409.58
404.999	421.78
405.377	406.42
405.755	407.77
406.133	409.58
406.511	440.99
406.889	435.79
407.267	402.8
407.645	438.96
408.023	421.56
408.401	454.1
408.779	433.08
409.156	454.1
409.534	437.15
409.912	445.96
410.29	431.5
410.667	453.65
411.045	446.87
411.422	432.86
411.8	443.7
412.178	431.73
412.555	459.3
412.933	478.73
413.31	460.65
413.687	464.04
414.065	470.14
414.442	479.18
414.819	473.53
415.197	452.52
415.574	496.81
415.951	485.74
416.328	462.69
416.705	483.48
417.082	476.47
417.46	490.93
417.837	491.16
418.214	497.94
418.591	495.45
418.967	497.03
419.344	492.74
419.721	504.04
420.098	517.15
420.475	499.75
420.852	502.46
421.228	509.69
421.605	537.49
421.982	535.9
422.358	526.19
422.735	546.07
423.111	533.87
423.488	526.64
423.864	557.82
424.241	532.97
424.617	513.31
424.994	550.82
425.37	548.56
425.746	556.24
426.123	572.29
426.499	539.97
426.875	560.08
427.251	571.84
427.627	577.03
428.003	559.63
428.379	583.36
428.756	586.07
429.132	567.09
429.507	568.45
429.883	568.45
430.259	593.08
430.635	595.56
431.011	606.18
431.387	581.55
431.763	622.91
432.138	608.44
432.514	637.82
432.89	638.05
433.265	636.24
433.641	624.49
434.016	661.32
434.392	640.76
434.767	655.9
435.143	646.18
435.518	633.75
435.894	670.82
436.269	663.58
436.644	683.7
437.02	680.76
437.395	680.08
437.77	673.08
438.145	680.31
438.52	696.35
438.895	687.99
439.271	695.9
439.646	695.45
440.021	711.72
440.395	704.26
440.77	700.87
441.145	723.92
441.52	727.09
441.895	728.44
442.27	741.55
442.645	717.82
443.019	718.05
443.394	727.54
443.769	737.03
444.143	741.77
444.518	740.64
444.892	751.04
445.267	772.51
445.641	759.17
446.016	768.67
446.39	772.51
446.764	801.43
447.139	782.9
447.513	755.56
447.887	773.41
448.262	760.08
448.636	780.42
449.01	805.5
449.384	772.51
449.758	826.97
450.132	823.58
450.506	826.74
450.88	818.83
451.254	827.65
451.628	852.96
452.002	822.9
452.376	835.56
452.75	838.95
453.123	862.45
453.497	867.87
453.871	886.4
454.244	857.03
454.618	889.57
454.992	902.9
455.365	905.61
455.739	919.62
456.112	927.98
456.486	938.15
456.859	957.36
457.232	945.61
457.606	969.34
457.979	941.09
458.352	963.69
458.725	970.92
459.099	989
459.472	998.04
459.845	1021.99
460.218	1011.15
460.591	1035.78
460.964	1030.13
461.337	1041.65
461.71	1088.21
462.083	1083.46
462.456	1113.74
462.829	1133.63
463.201	1127.98
463.574	1098.6
463.947	1157.36
464.32	1133.85
464.692	1162.55
465.065	1176.34
465.438	1215.43
465.81	1227.19
466.183	1243.91
466.555	1229.45
466.928	1271.7
467.3	1272.83
467.672	1294.98
468.045	1333.4
468.417	1353.74
468.789	1339.95
469.161	1379.5
469.534	1420.4
469.906	1447.74
470.278	1454.52
470.65	1475.99
471.022	1518.48
471.394	1530.23
471.766	1574.97
472.138	1574.07
472.51	1618.59
472.882	1667.63
473.253	1723.44
473.625	1743.56
473.997	1764.12
474.369	1793.27
474.74	1845.47
475.112	1875.53
475.484	1926.83
475.855	1972.93
476.227	2021.51
476.598	2048.41
476.97	2086.6
477.341	2178.12
477.713	2238.46
478.084	2280.04
478.455	2372.92
478.827	2407.27
479.198	2497.43
479.569	2534.5
479.94	2635.06
480.311	2726.81
480.682	2759.12
481.053	2892.23
481.424	2967.93
481.795	3018.1
482.166	3123.41
482.537	3191.65
482.908	3268.04
483.279	3384.19
483.65	3514.81
484.021	3585.99
484.391	3672.32
484.762	3827.79
485.133	3857.4
485.503	3982.14
485.874	4119.99
486.244	4249.48
486.615	4393.66
486.985	4474.33
487.356	4644.04
487.726	4744.15
488.097	4924.26
488.467	4991.38
488.837	5111.38
489.207	5308.89
489.578	5436.11
489.948	5546.17
490.318	5747.07
490.688	5816.44
491.058	5968.76
491.428	6173.04
491.798	6272.93
492.168	6491.91
492.538	6615.74
492.908	6733.26
493.278	6907.26
493.648	7008.05
494.017	7171.66
494.387	7319
494.757	7469.06
495.126	7639.22
495.496	7763.06
495.866	7934.13
496.235	8055.25
496.605	8266.77
496.974	8380.22
497.344	8602.36
497.713	8649.81
498.082	8870.37
498.452	9018.39
498.821	9122.8
499.19	9288.89
499.559	9482.56
499.928	9574.54
500.298	9698.15
500.667	9879.39
501.036	10004.58
501.405	10192.37
501.774	10207.74
502.143	10490.22
502.512	10539.03
502.88	10731.12
503.249	10831.68
503.618	11027.38
503.987	11137.43
504.356	11290.42
504.724	11347.37
505.093	11525.22
505.462	11638.44
505.83	11782.16
506.199	11953.46
506.567	12168.59
506.936	12304.18
507.304	12458.53
507.672	12462.14
508.041	12644.06
508.409	12819.87
508.777	12909.59
509.145	13099.64
509.514	13213.54
509.882	13344.61
510.25	13392.06
510.618	13553.64
510.986	13587.54
511.354	13789.34
511.722	13990.92
512.09	14139.39
512.458	14240.63
512.826	14359.5
513.193	14494.63
513.561	14611.24
513.929	14734.17
514.297	14962.19
514.664	15102.98
515.032	15190.21
515.4	15231.11
515.767	15415.06
516.135	15582.06
516.502	15532.12
516.869	15896.18
517.237	15945.89
517.604	15912
517.972	16169.39
518.339	16287.58
518.706	16332.55
519.073	16532.77
519.44	16592.2
519.808	16760.11
520.175	16890.05
520.542	17148.8
520.909	17231.51
521.276	17295.92
521.643	17502.46
522.009	17621.78
522.376	17773.87
522.743	17961.66
523.11	17959.4
523.477	18314.65
523.843	18401.65
524.21	18640.51
524.577	18727.29
524.943	18770.9
525.31	18957.79
525.676	19145.13
526.043	19290.21
526.409	19438.23
526.776	19640.03
527.142	19668.73
527.508	19761.39
527.874	19921.38
528.241	20138.1
528.607	20138.55
528.973	20381.94
529.339	20338.1
529.705	20522.27
530.071	20821.02
530.437	20826.9
530.803	20929.72
531.169	21071.18
531.535	21104.85
531.901	21181.24
532.267	21300.78
532.632	21566.09
532.998	21604.05
533.364	21734.22
533.73	21831.62
534.095	21957.94
534.461	21975.57
534.826	22142.79
535.192	22151.15
535.557	22314.54
535.923	22382.56
536.288	22425.5
536.653	22715.21
537.019	22585.72
537.384	22745.04
537.749	22755.21
538.114	22800.63
538.479	22968.76
538.845	23027.06
539.21	23042.88
539.575	23201.75
539.94	23274.74
540.305	23407.84
540.67	23345.25
541.034	23569.87
541.399	23595.86
541.764	23633.6
542.129	23814.61
542.494	23817.33
542.858	23938.23
543.223	24015.51
543.587	24073.59
543.952	24117.66
544.316	24204.21
544.681	24261.38
545.045	24304.32
545.41	24465.9
545.774	24601.71
546.138	24528.49
546.503	24687.36
546.867	24620.69
547.231	24910.63
547.595	24949.73
547.959	25017.29
548.324	25144.97
548.688	25046.45
549.052	25265.42
549.416	25162.38
549.779	25372.09
550.143	25330.73
550.507	25594.91
550.871	25570.95
551.235	25571.63
551.599	25914.9
551.962	25837.61
552.326	25980.21
552.689	26081.9
553.053	26070.37
553.417	26082.58
553.78	26396.69
554.143	26296.81
554.507	26387.2
554.87	26563.92
555.234	26806.4
555.597	26645.95
555.96	26754.88
556.323	27012.04
556.686	27020.86
557.05	27206.16
557.413	27287.29
557.776	27405.25
558.139	27489.77
558.502	27643.67
558.865	27658.13
559.228	27928.4
559.59	27917.56
559.953	28123.65
560.316	28390.31
560.679	28313.7
561.041	28448.16
561.404	28501.72
561.767	28756.63
562.129	28699.46
562.492	29093.12
562.854	28981.48
563.217	29073.01
563.579	29113.23
563.941	29297.63
564.304	29400
564.666	29654.69
565.028	29662.37
565.39	29865.98
565.753	29934
566.115	30061.46
566.477	30274.33
566.839	30437.04
567.201	30564.49
567.563	30480.65
567.925	30822.79
568.287	30832.28
568.648	30899.4
569.01	31071.82
569.372	31160.64
569.734	31160.86
570.095	31398.6
570.457	31571.47
570.819	31522.21
571.18	31572.38
571.542	31924.01
571.903	31863.89
572.265	31912.71
572.626	31963.1
572.987	32110.44
573.349	32139.37
573.71	32321.06
574.071	32414.61
574.432	32520.15
574.794	32702.52
575.155	32704.32
575.516	32579.36
575.877	32757.43
576.238	32963.07
576.599	32987.48
576.96	32944.32
577.32	33017.31
577.681	33148.38
578.042	33340.69
578.403	33213.24
578.763	33321.03
579.124	33346.79
579.485	33497.98
579.845	33535.04
580.206	33633.11
580.566	33563.28
580.927	33542.49
581.287	33815.48
581.648	33540.46
582.008	33870.85
582.368	33561.02
582.728	33912.43
583.089	34029.94
583.449	33911.07
583.809	33861.58
584.169	33986.78
584.529	33800.79
584.889	34120.11
585.249	33928.25
585.609	33991.97
585.969	34095.47
586.329	33956.95
586.688	34136.15
587.048	34088.02
587.408	34206.66
587.768	33984.52
588.127	34070.39
588.487	34055.93
588.846	34132.31
589.206	34050.05
589.565	34115.59
589.925	34264.73
590.284	34194
590.643	34205.3
591.003	34309.25
591.362	34379.99
591.721	34309.48
592.08	34338.41
592.44	34377.95
592.799	34456.59
593.158	34370.49
593.517	34403.71
593.876	34558.06
594.235	34379.53
594.593	34451.62
594.952	34486.2
595.311	34438.74
595.67	34599.19
596.029	34783.82
596.387	34679.19
596.746	34854.78
597.104	34700.66
597.463	34737.26
597.822	34725.51
598.18	34795.34
598.538	34754.21
598.897	35010.48
599.255	34737.49
599.613	35203.47
599.972	35054.77
600.33	35113.07
600.688	35002.34
601.046	35150.81
601.404	35281.88
601.762	35109.01
602.12	35353.75
602.478	35336.12
602.836	35341.99
603.194	35276.01
603.552	35425.83
603.91	35306.06
604.268	35503.35
604.625	35369.34
604.983	35596.9
605.341	35320.98
605.698	35628.09
606.056	35646.39
606.413	35536.11
606.771	35852.49
607.128	35755.54
607.485	35756.9
607.843	35793.06
608.2	36034.86
608.557	36063.78
608.914	35933.39
609.272	36198.7
609.629	36246.83
609.986	36494.96
610.343	36343.1
610.7	36629.42
611.057	36244.57
611.414	36535.86
611.771	36442.76
612.127	36667.61
612.484	36591.23
612.841	36796.65
613.198	36769.98
613.554	36885.23
613.911	36968.84
614.267	36976.3
614.624	36934.49
614.98	37051.55
615.337	37305.11
615.693	37122.51
616.05	37311.21
616.406	37454.03
616.762	37212
617.118	37324.54
617.475	37314.37
617.831	37396.4
618.187	37455.61
618.543	37673.01
618.899	37760.01
619.255	37720.91
619.611	37754.13
619.967	37865.32
620.323	37895.83
620.678	37756.85
621.034	37734.93
621.39	37794.13
621.746	37690.86
622.101	38093.33
622.457	37905.99
622.812	38015.37
623.168	38157.97
623.523	38163.62
623.879	38303.05
624.234	37903.51
624.589	38389.6
624.945	38113.22
625.3	38293.33
625.655	38241.35
626.01	38285.65
626.365	38254.69
626.72	38268.25
627.075	38283.84
627.43	38380.33
627.785	38241.81
628.14	38406.32
628.495	38356.15
628.85	38381.69
629.205	38219.66
629.559	38522.02
629.914	38313.67
630.269	38341.46
630.623	38195.25
630.978	38046.1
631.332	38458.3
631.687	38385.76
632.041	38253.1
632.396	38295.14
632.75	38145.54
633.104	38221.69
633.459	38156.38
633.813	38135.82
634.167	38009.72
634.521	38171.07
634.875	38168.13
635.229	38230.05
635.583	38044.07
635.937	38038.42
636.291	37994.35
636.645	38085.65
636.999	38010.85
637.352	38110.74
637.706	37866
638.06	38079.32
638.413	37879.78
638.767	37758.2
639.121	37854.7
639.474	37793.23
639.828	37732.89
640.181	37927.24
640.534	37828.03
640.888	37720.91
641.241	37552.11
641.594	37694.25
641.947	37722.04
642.301	37630.52
642.654	37609.73
643.007	37616.51
643.36	37574.25
643.713	37547.59
644.066	37684.31
644.419	37457.65
644.771	37225.79
645.124	36885.23
645.477	36764.33
645.83	36509.2
646.182	36381.06
646.535	36317.11
646.888	36407.73
647.24	36235.3
647.593	36471.91
647.945	36324.79
648.298	36187.17
648.65	36211.8
649.002	36040.28
649.355	36301.07
649.707	36194.18
650.059	36210.9
650.411	36704.22
650.763	36787.15
651.115	37213.36
651.467	36939.92
651.819	37028.73
652.171	36794.16
652.523	36748.96
652.875	36989.86
653.227	36731.79
653.578	36910.54
653.93	36755.52
654.282	36673.71
654.633	36625.8
654.985	36665.58
655.337	36611.79
655.688	36703.09
656.039	36868.96
656.391	36345.13
656.742	36510.1
657.094	36552.81
657.445	36626.93
657.796	36549.42
658.147	36635.07
658.498	36552.36
658.849	36602.98
659.2	36492.92
659.551	36446.82
659.902	36492.02
660.253	36490.66
660.604	36502.64
660.955	36399.59
661.306	36496.99
661.656	36347.39
662.007	36462.19
662.358	36377.45
662.708	36416.77
663.059	36297.9
663.409	36168.19
663.76	36472.36
664.11	36410.89
664.461	36343.55
664.811	36480.72
665.161	36336.09
665.511	36233.72
665.862	36357.11
666.212	36462.87
666.562	36372.25
666.912	36306.71
667.262	36307.62
667.612	36238.47
667.962	36332.7
668.312	36123.22
668.662	36496.09
669.011	36268.98
669.361	36244.8
669.711	36204.57
670.06	36192.82
670.41	36108.75
670.76	36127.28
671.109	36248.19
671.459	36163.22
671.808	35999.6
672.157	36091.35
672.507	35847.97
672.856	36054.97
673.205	36034.41
673.554	36111.47
673.904	35973.62
674.253	36195.53
674.602	35946.05
674.951	35504.02
675.3	35408.89
675.649	35908.08
675.998	35948.08
676.346	35874.41
676.695	35957.12
677.044	35815.65
677.393	35749.67
677.741	35806.84
678.09	35618.6
678.438	35636.22
678.787	35734.53
679.135	35649.56
679.484	35532.05
679.832	35568.43
680.181	35498.15
680.529	35585.38
680.877	35450.92
681.225	35346.97
681.573	35420.64
681.922	35372.95
682.27	35266.97
682.618	35256.57
682.966	35169.12
683.314	35355.1
683.661	35134.77
684.009	34958.28
684.357	34870.82
684.705	34884.61
685.053	35011.61
685.4	34751.95
685.748	34676.7
686.095	34682.12
686.443	34591.73
686.79	34549.47
687.138	34503.82
687.485	34553.54
687.832	34409.59
688.18	34409.14
688.527	34126.21
688.874	34435.13
689.221	34251.18
689.568	34110.61
689.915	34020
690.262	33990.62
690.609	33889.83
690.956	33707.69
691.303	33775.71
691.65	33682.6
691.997	33617.97
692.344	33456.62
692.69	33486.22
693.037	33525.09
693.383	33233.58
693.73	33334.36
694.077	33170.53
694.423	33096.86
694.769	33066.12
695.116	32909.29
695.462	32839.69
695.808	32849.63
696.155	32953.13
696.501	32642.18
696.847	32580.26
697.193	32359.7
697.539	32461.84
697.885	32204.22
698.231	32115.19
698.577	32286.71
698.923	32146.37
699.269	31982.31
699.614	31683.11
699.96	31838.36
700.306	31746.38
700.651	31682.66
700.997	31529.44
701.342	31567.63
701.688	31572.38
702.033	31377.58
702.379	31443.57
702.724	31222.78
703.069	31260.29
703.415	30977.36
703.76	31091.26
704.105	30933.97
704.45	30877.48
704.795	30769.01
705.14	30647.88
705.485	30598.62
705.83	30529.47
706.175	30467.32
706.52	30386.19
706.865	30394.33
707.209	30319.98
707.554	30135.58
707.899	30168.8
708.243	30103.71
708.588	30112.98
708.932	29923.61
709.277	29749.83
709.621	29817.17
709.966	29612.2
710.31	29725.64
710.654	29416.05
710.998	29538.98
711.342	29527.46
711.687	29428.48
712.031	29304.64
712.375	29085.89
712.719	29258.09
713.063	29232.78
713.407	29256.28
713.75	29124.08
714.094	29109.84
714.438	28917.3
714.782	28971.54
715.125	28823.52
715.469	28797.99
715.812	28753.92
716.156	28552.57
716.499	28620.14
716.843	28683.19
717.186	28540.14
717.53	28655.62
717.873	28625.56
718.216	28528.39
718.559	28410.65
718.902	28238.68
719.246	28195.29
719.589	28107.16
719.932	28092.02
720.275	28058.12
720.617	28006.14
720.96	27859.71
721.303	28003.66
721.646	27899.93
721.989	27584.01
722.331	27862.19
722.674	27658.81
723.016	27715.08
723.359	27674.63
723.701	27682.31
724.044	27454.97
724.386	27452.26
724.729	27609.54
725.071	27322.54
725.413	27354.18
725.755	27435.31
726.097	27296.1
726.439	27100.86
726.782	27126.62
727.124	27257.91
727.465	27002.1
727.807	27003.46
728.149	26915.78
728.491	26978.37
728.833	26983.12
729.175	26902.89
729.516	26793.97
729.858	26812.5
730.199	26685.27
730.541	26753.75
730.882	26638.49
731.224	26635.78
731.565	26518.95
731.906	26636.23
732.248	26680.98
732.589	26429.69
732.93	26361.44
733.271	26485.05
733.612	26385.17
733.953	26387.43
734.294	26268.79
734.635	26330.03
734.976	26388.78
735.317	26257.26
735.658	26173.87
735.999	26175.91
736.339	26147.66
736.68	26231.05
737.021	26097.04
737.361	26021.34
737.702	26075.12
738.042	25950.15
738.383	25940.66
738.723	25840.1
739.063	25745.18
739.404	25931.17
739.744	25777.05
740.084	25605.98
740.424	25555.59
740.764	25625.41
741.104	25737.5
741.444	25528.24
741.784	25488.92
742.124	25341.81
742.464	25333.22
742.804	25304.97
743.143	25279.21
743.483	25265.42
743.823	25248.93
744.162	25294.58
744.502	25236.27
744.841	25114.69
745.181	25223.39
745.52	24976.62
745.86	25022.04
746.199	25023.62
746.538	24967.8
746.877	25046.22
747.216	25031.08
747.556	24956.28
747.895	24896.17
748.234	24816.4
748.573	24617.76
748.911	24742.27
749.25	24779.56
749.589	24602.62
749.928	24537.08
750.267	24582.96
750.605	24503.18
750.944	24564.88
751.283	24440.13
751.621	24454.6
751.96	24260.48
752.298	24296.86
752.636	24342.74
752.975	24127.6
753.313	24217.77
753.651	24134.15
753.989	23972.58
754.327	23960.82
754.666	23925.57
755.004	23858.68
755.342	23881.5
755.679	23836.76
756.017	23678.12
756.355	23689.19
756.693	23633.15
