Data from hue_320_FLMS001491_33.txt Node
Date: Mon Feb 06 15:47:06 GMT 2017
User: dcchb
Spectrometer: FLMS00149
Trigger mode: 0
Integration Time (sec): 2.000000E-2
Scans to average: 10
Electric dark correction enabled: true
Nonlinearity correction enabled: false
Boxcar width: 0
XAxis mode: Wavelengths
Number of Pixels in Spectrum: 2048
>>>>>Begin Spectral Data<<<<<
341.393	-13.83
341.776	-13.83
342.16	-13.83
342.543	-83.2
342.927	-62.41
343.31	-80.72
343.693	-58.35
344.077	-53.37
344.46	-43.88
344.843	-43.66
345.226	-38.01
345.61	-35.07
345.993	-24.67
346.376	-0.72
346.759	-10.89
347.142	24.36
347.525	35.66
347.908	49.67
348.291	62.1
348.674	100.07
349.057	117.47
349.44	150.46
349.823	149.56
350.206	167.18
350.588	206.28
350.971	175.09
351.354	232.27
351.737	233.85
352.119	241.31
352.502	240.86
352.884	261.42
353.267	270.01
353.65	284.7
354.032	286.28
354.414	314.53
354.797	296.67
355.179	301.64
355.562	310.23
355.944	330.12
356.326	325.82
356.709	340.06
357.091	342.32
357.473	324.92
357.855	350.91
358.238	338.25
358.62	338.93
359.002	344.13
359.384	329.21
359.766	347.07
360.148	351.59
360.53	332.38
360.912	324.92
361.294	317.69
361.676	331.02
362.057	328.08
362.439	324.47
362.821	314.75
363.203	329.21
363.584	341.64
363.966	317.01
364.348	329.44
364.729	301.64
365.111	295.09
365.493	324.02
365.874	321.31
366.256	298.25
366.637	316.33
367.019	318.59
367.4	314.53
367.781	317.69
368.163	310.01
368.544	296.67
368.925	286.5
369.306	287.86
369.688	323.11
370.069	298.71
370.45	317.69
370.831	297.35
371.212	296.45
371.593	295.77
371.974	290.12
372.355	313.62
372.736	319.27
373.117	319.72
373.498	321.98
373.879	304.13
374.26	315.66
374.641	305.49
375.021	333.06
375.402	315.88
375.783	314.53
376.163	330.34
376.544	326.28
376.925	312.04
377.305	305.49
377.686	321.31
378.066	319.72
378.447	324.47
378.827	321.31
379.208	338.93
379.588	319.5
379.968	317.46
380.349	322.21
380.729	309.1
381.109	324.92
381.489	328.76
381.87	316.56
382.25	333.73
382.63	327.63
383.01	327.86
383.39	333.06
383.77	325.6
384.15	323.11
384.53	335.32
384.91	342.55
385.29	339.16
385.67	358.37
386.049	349.78
386.429	338.93
386.809	350.68
387.189	356.56
387.568	362.21
387.948	354.75
388.328	340.51
388.707	361.53
389.087	343.9
389.466	341.42
389.846	364.47
390.225	368.99
390.605	356.78
390.984	359.95
391.363	360.17
391.743	364.92
392.122	347.75
392.501	373.06
392.881	347.52
393.26	366.73
393.639	355.43
394.018	372.38
394.397	365.6
394.776	387.07
395.155	365.15
395.534	379.16
395.913	388.87
396.292	376.9
396.671	390.68
397.05	373.96
397.429	378.7
397.808	366.5
398.186	393.39
398.565	378.03
398.944	400.85
399.323	394.07
399.701	401.53
400.08	396.78
400.458	367.86
400.837	392.49
401.215	382.55
401.594	400.4
401.972	402.66
402.351	409.44
402.729	396.11
403.107	418.03
403.486	413.05
403.864	381.42
404.242	427.97
404.62	417.12
404.999	425.48
405.377	418.03
405.755	422.55
406.133	410.57
406.511	440.62
406.889	454.41
407.267	439.72
407.645	443.56
408.023	435.2
408.401	461.87
408.779	439.27
409.156	448.76
409.534	463.9
409.912	457.8
410.29	464.35
410.667	483.33
411.045	490.11
411.422	472.26
411.8	491.24
412.178	481.07
412.555	518.36
412.933	509.32
413.31	497.8
413.687	523.79
414.065	522.88
414.442	525.14
414.819	545.93
415.197	547.06
415.574	570.11
415.951	556.55
416.328	553.39
416.705	557.23
417.082	559.72
417.46	576.67
417.837	599.94
418.214	613.73
418.591	593.16
418.967	581.19
419.344	588.19
419.721	617.12
420.098	627.06
420.475	620.96
420.852	638.58
421.228	633.16
421.605	655.31
421.982	646.27
422.358	632.71
422.735	631.13
423.111	663.44
423.488	682.65
423.864	691.69
424.241	688.98
424.617	681.07
424.994	707.96
425.37	713.16
425.746	716.1
426.123	711.13
426.499	724.68
426.875	732.37
427.251	752.71
427.627	732.37
428.003	760.62
428.379	764.91
428.756	734.18
429.132	760.39
429.507	796.55
429.883	804
430.259	792.71
430.635	802.65
431.011	824.12
431.387	816.21
431.763	857.56
432.138	841.07
432.514	867.96
432.89	858.47
433.265	862.31
433.641	887.39
434.016	875.19
434.392	891.69
434.767	914.06
435.143	898.47
435.518	925.13
435.894	948.63
436.269	936.2
436.644	959.93
437.02	961.29
437.395	971.46
437.77	968.52
438.145	1011.23
438.52	994.96
438.895	981.4
439.271	991.8
439.646	988.86
440.021	1047.84
440.395	1015.3
440.77	1005.81
441.145	1024.56
441.52	1042.19
441.895	1062.08
442.27	1050.78
442.645	1067.95
443.019	1072.02
443.394	1056.88
443.769	1079.25
444.143	1073.6
444.518	1093.94
444.892	1081.06
445.267	1100.49
445.641	1083.32
446.016	1087.39
446.39	1122.41
446.764	1089.65
447.139	1096.65
447.513	1129.87
447.887	1140.49
448.262	1119.93
448.636	1119.93
449.01	1135.52
449.384	1125.58
449.758	1170.77
450.132	1145.01
450.506	1156.54
450.88	1152.47
451.254	1169.64
451.628	1173.03
452.002	1169.19
452.376	1196.08
452.75	1208.97
453.123	1189.98
453.497	1209.64
453.871	1232.69
454.244	1246.93
454.618	1225.91
454.992	1264.56
455.365	1258
455.739	1287.83
456.112	1296.87
456.486	1290.09
456.859	1322.86
457.232	1323.31
457.606	1319.92
457.979	1300.49
458.352	1341.84
458.725	1362.86
459.099	1350.2
459.472	1345.23
459.845	1378.23
460.218	1393.82
460.591	1389.53
460.964	1400.37
461.337	1436.3
461.71	1437.21
462.083	1465.91
462.456	1458
462.829	1439.02
463.201	1484.44
463.574	1480.37
463.947	1486.92
464.32	1536.41
464.692	1505
465.065	1531.89
465.438	1559.01
465.81	1549.3
466.183	1569.86
466.555	1592.68
466.928	1626.13
467.3	1566.47
467.672	1620.48
468.045	1636.52
468.417	1646.24
468.789	1653.25
469.161	1685.79
469.534	1675.39
469.906	1700.03
470.278	1717.43
470.65	1760.36
471.022	1778.44
471.394	1781.15
471.766	1793.58
472.138	1796.07
472.51	1831.32
472.882	1860.47
473.253	1874.03
473.625	1919.91
473.997	1910.42
474.369	1936.18
474.74	1949.96
475.112	1984.09
475.484	1974.37
475.855	1995.16
476.227	2035.16
476.598	2070.19
476.97	2082.84
477.341	2102.05
477.713	2154.25
478.084	2146.12
478.455	2186.11
478.827	2210.07
479.198	2245.1
479.569	2239.45
479.94	2301.14
480.311	2322.16
480.682	2340.69
481.053	2368.26
481.424	2439.89
481.795	2442.83
482.166	2443.06
482.537	2488.25
482.908	2519.89
483.279	2542.72
483.65	2584.52
484.021	2637.18
484.391	2621.81
484.762	2643.05
485.133	2651.64
485.503	2688.25
485.874	2728.93
486.244	2736.61
486.615	2810.73
486.985	2830.84
487.356	2865.42
487.726	2859.09
488.097	2881.92
488.467	2945.64
488.837	2978.41
489.207	3014.79
489.578	3039.65
489.948	3035.81
490.318	3074.45
490.688	3095.92
491.058	3096.6
491.428	3149.03
491.798	3163.26
492.168	3218.63
492.538	3259.53
492.908	3253.88
493.278	3318.74
493.648	3342.69
494.017	3330.94
494.387	3330.49
494.757	3425.86
495.126	3420.21
495.496	3415.01
495.866	3431.28
496.235	3448.91
496.605	3534.1
496.974	3522.12
497.344	3559.19
497.713	3565.51
498.082	3560.54
498.452	3566.87
498.821	3586.98
499.19	3648.45
499.559	3617.49
499.928	3659.97
500.298	3686.64
500.667	3699.07
501.036	3683.7
501.405	3728.45
501.774	3736.81
502.143	3775.45
502.512	3728.22
502.88	3802.34
503.249	3801.21
503.618	3827.65
503.987	3805.06
504.356	3838.73
504.724	3831.04
505.093	3884.15
505.462	3848.9
505.83	3908.33
506.199	3920.31
506.567	3953.75
506.936	3947.2
507.304	3983.81
507.672	4004.37
508.041	3992.4
508.409	4017.71
508.777	4058.83
509.145	4031.26
509.514	4046.63
509.882	4118.04
510.25	4084.37
510.618	4119.4
510.986	4133.63
511.354	4102.9
511.722	4124.59
512.09	4152.16
512.458	4168.89
512.826	4227.87
513.193	4218.15
513.561	4158.27
513.929	4200.07
514.297	4261.99
514.664	4239.39
515.032	4216.34
515.4	4263.12
515.767	4318.94
516.135	4321.65
516.502	4243.46
516.869	4325.95
517.237	4358.26
517.604	4335.66
517.972	4365.49
518.339	4407.75
518.706	4385.83
519.073	4372.95
519.44	4378.15
519.808	4440.74
520.175	4429.67
520.542	4456.79
520.909	4463.34
521.276	4429.22
521.643	4520.74
522.009	4510.35
522.376	4513.29
522.743	4579.5
523.11	4549.89
523.477	4615.2
523.843	4635.77
524.21	4605.03
524.577	4673.06
524.943	4685.71
525.31	4670.57
525.676	4819.72
526.043	4767.97
526.409	4760.28
526.776	4770.91
527.142	4790.11
527.508	4816.33
527.874	4884.57
528.241	4890.9
528.607	4918.25
528.973	4924.57
529.339	4979.26
529.705	4933.84
530.071	5014.06
530.437	5004.12
530.803	5075.53
531.169	5093.38
531.535	5034.18
531.901	5086.6
532.267	5107.62
532.632	5147.39
532.998	5176.09
533.364	5191.69
533.73	5177
534.095	5219.71
534.461	5246.15
534.826	5320.95
535.192	5282.08
535.557	5300.61
535.923	5302.19
536.288	5348.07
536.653	5369.08
537.019	5407.05
537.384	5437.78
537.749	5413.37
538.114	5482.3
538.479	5448.85
538.845	5490.21
539.21	5482.53
539.575	5540.38
539.94	5520.49
540.305	5605.46
540.67	5554.39
541.034	5637.78
541.399	5634.16
541.764	5630.32
542.129	5708.96
542.494	5708.51
542.858	5705.34
543.223	5751.67
543.587	5771.78
543.952	5823.76
544.316	5811.78
544.681	5791.22
545.045	5890.88
545.41	5935.85
545.774	5937.43
546.138	5953.02
546.503	5966.58
546.867	5967.26
547.231	6006.81
547.595	6040.25
547.959	6083.41
548.324	6104.66
548.688	6060.82
549.052	6088.16
549.416	6116.63
549.779	6139.01
550.143	6138.78
550.507	6159.57
550.871	6186.91
551.235	6226.46
551.599	6238.44
551.962	6314.37
552.326	6280.47
552.689	6292.67
553.053	6337.19
553.417	6310.53
553.78	6341.71
554.143	6367.02
554.507	6442.73
554.87	6386.68
555.234	6512.78
555.597	6440.01
555.96	6510.97
556.323	6550.07
556.686	6504.42
557.05	6535.6
557.413	6524.76
557.776	6548.94
558.139	6628.48
558.502	6647.47
558.865	6637.52
559.228	6607.69
559.59	6725.43
559.953	6717.52
560.316	6776.95
560.679	6765.43
561.041	6792.32
561.404	6810.85
561.767	6842.94
562.129	6857.63
562.492	6847.01
562.854	6880
563.217	6890.4
563.579	6870.29
563.941	6928.59
564.304	6936.5
564.666	7030.96
565.028	7016.95
565.39	6986.89
565.753	7058.98
566.115	7018.3
566.477	7139.43
566.839	7172.2
567.201	7168.13
567.563	7171.52
567.925	7236.38
568.287	7214.46
568.648	7210.39
569.01	7269.6
569.372	7334.91
569.734	7299.43
570.095	7420.1
570.457	7409.03
570.819	7444.28
571.18	7446.77
571.542	7494.68
571.903	7571.06
572.265	7644.05
572.626	7682.24
572.987	7650.6
573.349	7703.03
573.71	7751.62
574.071	7785.06
574.432	7869.81
574.794	7871.62
575.155	7973.31
575.516	7980.76
575.877	8064.38
576.238	8152.29
576.599	8229.8
576.96	8233.64
577.32	8304.6
577.681	8386.18
578.042	8425.95
578.403	8470.24
578.763	8605.16
579.124	8659.16
579.485	8805.83
579.845	8873.17
580.206	8978.03
580.566	9096.22
580.927	9251.24
581.287	9382.08
581.648	9418.69
582.008	9566.49
582.368	9707.27
582.728	9876.08
583.089	9961.96
583.449	10121.5
583.809	10389.97
584.169	10525.78
584.529	10603.52
584.889	10864.08
585.249	10996.28
585.609	11137.29
585.969	11324.18
586.329	11553.78
586.688	11849.36
587.048	11938.63
587.408	12195.57
587.768	12459.74
588.127	12665.16
588.487	12898.83
588.846	13221.08
589.206	13351.92
589.565	13587.17
589.925	13897.67
590.284	14138.57
590.643	14531.1
591.003	14689.29
591.362	15075.95
591.721	15213.12
592.08	15522.94
592.44	15844.29
592.799	16089.93
593.158	16320.88
593.517	16596.13
593.876	16934.2
594.235	17130.13
594.593	17432.04
594.952	17855.08
595.311	18070.89
595.67	18400.15
596.029	18750.43
596.387	19018.21
596.746	19436.51
597.104	19488.48
597.463	19834.46
597.822	20287.33
598.18	20397.39
598.538	20763.93
598.897	21125.96
599.255	21271.71
599.613	21969.1
599.972	21925.48
600.33	22306.72
600.688	22482.98
601.046	22785.57
601.404	23130.42
601.762	23449.74
602.12	23797.52
602.478	23937.63
602.836	24212.43
603.194	24428.02
603.552	24852.19
603.91	24872.07
604.268	25481.77
604.625	25545.5
604.983	25712.28
605.341	26011.03
605.698	26293.73
606.056	26572.82
606.413	26808.07
606.771	27152.46
607.128	27389.29
607.485	27519.46
607.843	27695.05
608.2	28149.73
608.557	28416.84
608.914	28455.71
609.272	28797.17
609.629	29101.11
609.986	29120.1
610.343	29349.24
610.7	29699.74
611.057	29967.98
611.414	30004.37
611.771	30228.09
612.127	30586.5
612.484	30623.33
612.841	30932.48
613.198	30988.97
613.554	31209.31
613.911	31552.57
614.267	31775.17
614.624	31847.71
614.98	32007.93
615.337	32309.62
615.693	32344.64
616.05	32510.06
616.406	32878.42
616.762	32804.97
617.118	33010.39
617.475	33051.29
617.831	33285.86
618.187	33404.05
618.543	33630.94
618.899	33903.7
619.255	34020.08
619.611	33929.01
619.967	34215.33
620.323	34377.13
620.678	34309.34
621.034	34496.45
621.39	34679.5
621.746	34620.52
622.101	35181.63
622.457	34803.34
622.812	35084.01
623.168	35250.33
623.523	35260.73
623.879	35376.65
624.234	35489.87
624.589	35521.06
624.945	35733.26
625.3	35740.26
625.655	35858.45
626.01	35992.68
626.365	36012.34
626.72	35973.25
627.075	36205.56
627.43	36183.19
627.785	36070.65
628.14	36324.88
628.495	36350.87
628.85	36375.5
629.205	36262.06
629.559	36562.84
629.914	36434.25
630.269	36545.89
630.623	36534.82
630.978	36472.67
631.332	36719.44
631.687	36744.53
632.041	36766.45
632.396	36796.73
632.75	36628.15
633.104	36888.03
633.459	36693
633.813	36645.77
634.167	36828.82
634.521	36796.73
634.875	36927.8
635.229	36869.5
635.583	36777.07
635.937	36804.87
636.291	36716.28
636.645	36945.65
636.999	36795.83
637.352	36948.59
637.706	36748.37
638.06	37014.58
638.413	36935.48
638.767	36855.49
639.121	36949.49
639.474	36780.91
639.828	36741.14
640.181	36834.24
640.534	36902.72
640.888	36713.57
641.241	36585.44
641.594	36718.99
641.947	36717.18
642.301	36749.05
642.654	36763.28
643.007	36807.13
643.36	36678.54
643.713	36675.6
644.066	36915.6
644.419	36648.49
644.771	36398.55
645.124	36061.83
645.477	36024.55
645.83	35732.8
646.182	35637.89
646.535	35728.28
646.888	35715.63
647.24	35445.81
647.593	35761.28
647.945	35745.01
648.298	35592.47
648.65	35537.55
649.002	35446.94
649.355	35611
649.707	35553.83
650.059	35514.96
650.411	36161.72
650.763	36198.78
651.115	36600.13
651.467	36338.44
651.819	36385.44
652.171	36471.54
652.523	36250.76
652.875	36155.39
653.227	36162.85
653.578	36445.1
653.93	36174.37
654.282	36216.63
654.633	36022.06
654.985	36207.37
655.337	36196.97
655.688	36185.67
656.039	36300.7
656.391	35901.84
656.742	36074.72
657.094	36071.78
657.445	36264.31
657.796	36044.43
658.147	36050.76
658.498	36087.6
658.849	36210.08
659.2	36178.89
659.551	35893.25
659.902	36199.91
660.253	35976.86
660.604	36116.97
660.955	36008.5
661.306	36067.71
661.656	35948.39
662.007	35990.88
662.358	35876.98
662.708	35962.85
663.059	35982.97
663.409	35841.28
663.76	36027.26
664.11	36025.68
664.461	36027.71
664.811	36102.74
665.161	35965.11
665.511	35836.3
665.862	35847.83
666.212	35957.88
666.562	36016.41
666.912	35933.7
667.262	35976.86
667.612	35956.3
667.962	35979.12
668.312	35915.4
668.662	36014.6
669.011	35841.28
669.361	35971.44
669.711	35872.01
670.06	35798.79
670.41	35730.54
670.76	35738.9
671.109	35855.74
671.459	35779.13
671.808	35772.8
672.157	35798.56
672.507	35481.96
672.856	35623.88
673.205	35554.05
673.554	35879.69
673.904	35653.71
674.253	35789.07
674.602	35770.32
674.951	35236.09
675.3	35020.51
675.649	35602.86
675.998	35505.46
676.346	35579.14
676.695	35635.18
677.044	35376.2
677.393	35439.7
677.741	35571.9
678.09	35476.54
678.438	35297.79
678.787	35488.29
679.135	35446.94
679.484	35095.53
679.832	35329.42
680.181	35035.19
680.529	35235.42
680.877	35155.19
681.225	35063.89
681.573	35278.58
681.922	34979.83
682.27	34952.71
682.618	35086.04
682.966	34773.51
683.314	35021.64
683.661	34896.67
684.009	34754.75
684.357	34801.08
684.705	34655.77
685.053	34581.42
685.4	34655.77
685.748	34450.13
686.095	34472.27
686.443	34253.52
686.79	34275.89
687.138	34245.16
687.485	34296.23
687.832	34209.23
688.18	34218.94
688.527	34029.12
688.874	34082
689.221	34030.02
689.568	33911.83
689.915	33775.79
690.262	33876.58
690.609	33647.21
690.956	33628.23
691.303	33628
691.65	33396.82
691.997	33411.96
692.344	33246.09
692.69	33168.13
693.037	33132.87
693.383	33049.03
693.73	33042.93
694.077	32965.87
694.423	32901.92
694.769	32782.15
695.116	32686.78
695.462	32633
695.808	32519.33
696.155	32639.55
696.501	32421.48
696.847	32462.83
697.193	32195.04
697.539	32197.3
697.885	32158.89
698.231	31992.56
698.577	32010.64
698.923	31901.49
699.269	31770.87
699.614	31730.87
699.96	31646.13
700.306	31568.85
700.651	31530.65
700.997	31404.33
701.342	31398.45
701.688	31237.78
702.033	31167.27
702.379	31160.27
702.724	31116.2
703.069	31110.1
703.415	30767.28
703.76	30753.27
704.105	30794.63
704.45	30664.01
704.795	30557.12
705.14	30574.07
705.485	30453.62
705.83	30303.34
706.175	30483.68
706.52	30285.49
706.865	30314.41
707.209	30122.56
707.554	29937.25
707.899	30103.12
708.243	29930.47
708.588	29940.41
708.932	29655.22
709.277	29680.08
709.621	29676.69
709.966	29544.04
710.31	29506.98
710.654	29333.2
710.998	29432.63
711.342	29310.37
711.687	29215.01
712.031	29131.17
712.375	29059.08
712.719	29078.06
713.063	28962.13
713.407	29013.21
713.75	28843.49
714.094	28921.68
714.438	28739.31
714.782	28839.88
715.125	28632.65
715.469	28690.95
715.812	28514.01
716.156	28462.49
716.499	28398.76
716.843	28512.65
717.186	28314.92
717.53	28432.2
717.873	28467.01
718.216	28268.14
718.559	28118.31
718.902	28190.85
719.246	28147.24
719.589	28055.27
719.932	27931.88
720.275	27868.6
720.617	27963.97
720.96	27888.26
721.303	27820.24
721.646	27836.29
721.989	27615.5
722.331	27626.8
722.674	27691.21
723.016	27733.01
723.359	27640.36
723.701	27489.18
724.044	27330.99
724.386	27295.96
724.729	27387.03
725.071	27370.09
725.413	27187.94
725.755	27211.22
726.097	27144.33
726.439	26997.21
726.782	26974.39
727.124	27131.22
727.465	26992.24
727.807	26872.25
728.149	26789.31
728.491	26960.83
728.833	26841.74
729.175	26937.78
729.516	26675.64
729.858	26659.6
730.199	26795.19
730.541	26764.45
730.882	26617.56
731.224	26740.05
731.565	26474.97
731.906	26483.33
732.248	26550.22
732.589	26277.91
732.93	26328.76
733.271	26255.09
733.612	26460.96
733.953	26293.96
734.294	26189.55
734.635	26100.06
734.976	26254.63
735.317	26108.2
735.658	26164.92
735.999	26079.05
736.339	25984.13
736.68	26144.58
737.021	25955.89
737.361	25762.9
737.702	26123.34
738.042	25917.69
738.383	25787.75
738.723	25817.58
739.063	25745.5
739.404	25812.16
739.744	25643.58
740.084	25637.25
740.424	25663.46
740.764	25545.5
741.104	25646.74
741.444	25452.85
741.784	25404.04
742.124	25444.03
742.464	25371.95
742.804	25362.91
743.143	25227.54
743.483	25205.4
743.823	25145.29
744.162	25125.62
744.502	25100.54
744.841	25163.82
745.181	25258.5
745.52	25053.54
745.86	25088.11
746.199	24926.99
746.538	24952.97
746.877	25093.08
747.216	24929.02
747.556	24812.19
747.895	24978.74
748.234	24796.14
748.573	24745.97
748.911	24680.44
749.25	24677.27
749.589	24561.8
749.928	24654.22
750.267	24597.73
750.605	24585.53
750.944	24488.13
751.283	24422.59
751.621	24429.37
751.96	24345.98
752.298	24298.53
752.636	24355.93
752.975	24251.98
753.313	24127.46
753.651	24297.85
753.989	24070.51
754.327	24059.44
754.666	23926.79
755.004	23989.61
755.342	23959.1
755.679	23870.97
756.017	23767.69
756.355	23865.09
756.693	23668.49
757.031	23640.24
757.368	23602.5
757.706	23479.57
758.044	23439.57
758.381	23483.86
758.719	23256.52
759.056	23344.65
759.394	23255.17
759.731	23183.75
