Data from hue_270_FLMS001491_00088.txt Node
Date: Tue Feb 07 15:57:49 GMT 2017
User: dcchb
Spectrometer: FLMS00149
Trigger mode: 0
Integration Time (sec): 2.000000E-2
Scans to average: 10
Electric dark correction enabled: true
Nonlinearity correction enabled: false
Boxcar width: 0
XAxis mode: Wavelengths
Number of Pixels in Spectrum: 2048
>>>>>Begin Spectral Data<<<<<
341.393	-4.52
341.776	-4.52
342.16	-4.52
342.543	-44.52
342.927	-80.22
343.31	-79.09
343.693	-77.96
344.077	-68.25
344.46	-68.92
344.843	-40.9
345.226	-31.19
345.61	-47.91
345.993	-29.6
346.376	8.36
346.759	36.16
347.142	32.54
347.525	38.42
347.908	67.79
348.291	74.12
348.674	91.3
349.057	95.14
349.44	107.12
349.823	141.47
350.206	148.24
350.588	162.03
350.971	216.72
351.354	198.86
351.737	207.9
352.119	239.54
352.502	249.71
352.884	240.67
353.267	268.02
353.65	271.63
354.032	281.8
354.414	310.95
354.797	308.01
355.179	311.4
355.562	311.18
355.944	328.8
356.326	319.09
356.709	312.76
357.091	340.78
357.473	312.08
357.855	309.14
358.238	326.77
358.62	338.75
359.002	335.13
359.384	347.34
359.766	328.13
360.148	311.18
360.53	332.42
360.912	320.22
361.294	321.57
361.676	329.48
362.057	316.15
362.439	307.79
362.821	321.35
363.203	330.16
363.584	332.42
363.966	308.92
364.348	312.76
364.729	308.69
365.111	309.82
365.493	322.93
365.874	309.82
366.256	297.85
366.637	314.57
367.019	309.14
367.4	312.53
367.781	308.47
368.163	289.94
368.544	309.14
368.925	281.57
369.306	317.51
369.688	305.08
370.069	314.34
370.45	313.21
370.831	300.33
371.212	305.08
371.593	295.59
371.974	298.98
372.355	294
372.736	295.36
373.117	302.14
373.498	307.34
373.879	297.62
374.26	307.11
374.641	300.78
375.021	291.74
375.402	295.81
375.783	312.08
376.163	309.37
376.544	302.14
376.925	332.87
377.305	284.06
377.686	320.44
378.066	329.93
378.447	318.86
378.827	314.34
379.208	312.08
379.588	345.98
379.968	317.73
380.349	319.99
380.729	327.45
381.109	332.42
381.489	329.93
381.87	322.48
382.25	325.42
382.63	326.77
383.01	328.35
383.39	342.59
383.77	321.8
384.15	341.69
384.53	310.95
384.91	334.91
385.29	334.45
385.67	330.39
386.049	355.02
386.429	344.17
386.809	332.19
387.189	337.39
387.568	355.02
387.948	343.95
388.328	356.83
388.707	367.67
389.087	337.62
389.466	369.93
389.846	370.16
390.225	380.55
390.605	351.86
390.984	381.01
391.363	358.41
391.743	368.8
392.122	363.83
392.501	372.65
392.881	364.28
393.26	369.26
393.639	359.76
394.018	386.43
394.397	371.29
394.776	392.08
395.155	394.11
395.534	360.67
395.913	365.19
396.292	390.95
396.671	377.39
397.05	387.79
397.429	393.66
397.808	397.28
398.186	385.3
398.565	388.24
398.944	414.45
399.323	413.1
399.701	419.88
400.08	420.55
400.458	410.38
400.837	406.54
401.215	406.77
401.594	409.48
401.972	412.87
402.351	418.52
402.729	433.66
403.107	446.32
403.486	430.27
403.864	428.69
404.242	446.77
404.62	426.66
404.999	428.01
405.377	426.66
405.755	437.05
406.133	437.05
406.511	439.54
406.889	452.42
407.267	481.34
407.645	458.97
408.023	478.63
408.401	470.27
408.779	489.03
409.156	477.95
409.534	490.61
409.912	499.42
410.29	497.16
410.667	487.22
411.045	528.57
411.422	510.27
411.8	521.57
412.178	523.83
412.555	536.94
412.933	552.3
413.31	557.5
413.687	555.24
414.065	574
414.442	581.68
414.819	585.97
415.197	593.88
415.574	587.56
415.951	599.76
416.328	592.98
416.705	617.61
417.082	599.53
417.46	616.25
417.837	659.87
418.214	646.31
418.591	637.05
418.967	628.46
419.344	670.04
419.721	645.86
420.098	669.36
420.475	666.42
420.852	687.89
421.228	713.65
421.605	720.66
421.982	721.11
422.358	709.59
422.735	731.05
423.111	734.44
423.488	736.25
423.864	749.81
424.241	759.98
424.617	802.24
424.994	793.88
425.37	812.86
425.746	802.46
426.123	833.65
426.499	841.33
426.875	848.79
427.251	835.46
427.627	887.43
428.003	862.58
428.379	894.67
428.756	890.37
429.132	914.78
429.507	918.39
429.883	934.66
430.259	935.34
430.635	948.68
431.011	953.65
431.387	964.27
431.763	1002.01
432.138	1019.86
432.514	1023.48
432.89	1002.01
433.265	1043.81
433.641	1082.01
434.016	1086.3
434.392	1113.19
434.767	1116.81
435.143	1096.69
435.518	1132.63
435.894	1158.84
436.269	1171.27
436.644	1168.78
437.02	1209.69
437.395	1183.02
437.77	1227.31
438.145	1268.67
438.52	1279.74
438.895	1293.53
439.271	1284.03
439.646	1319.29
440.021	1309.8
440.395	1338.5
440.77	1329.23
441.145	1367.2
441.52	1384.37
441.895	1361.09
442.27	1413.97
442.645	1399.51
443.019	1445.84
443.394	1450.81
443.769	1470.7
444.143	1452.62
444.518	1462.11
444.892	1469.34
445.267	1489.9
445.641	1491.49
446.016	1491.71
446.39	1480.41
446.764	1505.95
447.139	1534.65
447.513	1538.49
447.887	1543.69
448.262	1554.31
448.636	1561.77
449.01	1593.63
449.384	1602.22
449.758	1599.28
450.132	1606.96
450.506	1626.85
450.88	1645.83
451.254	1632.27
451.628	1654.42
452.002	1644.93
452.376	1712.5
452.75	1699.39
453.123	1722.89
453.497	1738.03
453.871	1742.33
454.244	1771.93
454.618	1781.2
454.992	1825.04
455.365	1795.21
455.739	1827.52
456.112	1871.82
456.486	1874.98
456.859	1884.02
457.232	1899.39
457.606	1895.09
457.979	1879.27
458.352	1964.02
458.725	1955.88
459.099	1985.48
459.472	2041.53
459.845	2011.25
460.218	2072.26
460.591	2067.52
460.964	2032.71
461.337	2082.43
461.71	2142.54
462.083	2165.37
462.456	2133.5
462.829	2181.86
463.201	2170.34
463.574	2216.21
463.947	2212.15
464.32	2275.42
464.692	2297.11
465.065	2295.98
465.438	2330.33
465.81	2374.85
466.183	2387.96
466.555	2396.32
466.928	2444.46
467.3	2424.8
467.672	2489.65
468.045	2509.54
468.417	2520.16
468.789	2529.88
469.161	2561.06
469.534	2587.28
469.906	2658.46
470.278	2676.31
470.65	2703.21
471.022	2728.97
471.394	2784.56
471.766	2729.87
472.138	2775.97
472.51	2846.7
472.882	2863.65
473.253	2895.52
473.625	2888.29
473.997	2972.13
474.369	2986.81
474.74	2988.85
475.112	3058.45
475.484	3126.92
475.855	3142.29
476.227	3156.98
476.598	3210.31
476.97	3272.68
477.341	3335.05
477.713	3340.7
478.084	3358.33
478.455	3433.13
478.827	3450.53
479.198	3563.3
479.569	3521.94
479.94	3599
480.311	3657.76
480.682	3690.52
481.053	3733.69
481.424	3786.79
481.795	3821.37
482.166	3849.84
482.537	3915.38
482.908	3971.65
483.279	4026.56
483.65	4019.78
484.021	4137.07
484.391	4164.41
484.762	4233.79
485.133	4187.23
485.503	4274.69
485.874	4331.41
486.244	4397.85
486.615	4450.96
486.985	4476.27
487.356	4537.06
487.726	4559.2
488.097	4606.21
488.467	4619.99
488.837	4708.12
489.207	4728.92
489.578	4831.29
489.948	4851.62
490.318	4932.3
490.688	4883.26
491.058	4968.68
491.428	5046.19
491.798	5046.65
492.168	5171.84
492.538	5133.88
492.908	5218.17
493.278	5259.07
493.648	5245.06
494.017	5259.52
494.387	5312.4
494.757	5374.77
495.126	5456.81
495.496	5431.27
495.866	5472.62
496.235	5531.38
496.605	5558.95
496.974	5582.45
497.344	5583.36
497.713	5603.24
498.082	5619.06
498.452	5727.31
498.821	5674.43
499.19	5718.27
499.559	5695.22
499.928	5782.67
500.298	5761.88
500.667	5876.46
501.036	5849.11
501.405	5876.91
501.774	5834.42
502.143	5923.23
502.512	5931.14
502.88	5970.92
503.249	5980.63
503.618	5995.77
503.987	5995.55
504.356	6034.64
504.724	6072.38
505.093	6098.37
505.462	6059.05
505.83	6135.43
506.199	6150.8
506.567	6213.4
506.936	6163.68
507.304	6277.12
507.672	6200.51
508.041	6244.58
508.409	6279.83
508.777	6346.5
509.145	6365.48
509.514	6370.23
509.882	6401.64
510.25	6345.14
510.618	6371.81
510.986	6370.91
511.354	6458.59
511.722	6478.02
512.09	6533.84
512.458	6495.87
512.826	6551.92
513.193	6549.21
513.561	6595.08
513.929	6593.5
514.297	6637.57
514.664	6566.38
515.032	6590.34
515.4	6650.45
515.767	6624.68
516.135	6664.68
516.502	6598.24
516.869	6672.37
517.237	6695.64
517.604	6734.74
517.972	6743.78
518.339	6802.53
518.706	6754.85
519.073	6763.21
519.44	6774.96
519.808	6843.21
520.175	6806.83
520.542	6861.06
520.909	6945.58
521.276	6888.41
521.643	6908.97
522.009	6908.74
522.376	6951.91
522.743	6958.69
523.11	6997.78
523.477	7044.11
523.843	7082.3
524.21	7090.66
524.577	7074.39
524.943	7145.35
525.31	7152.13
525.676	7217.89
526.043	7190.77
526.409	7202.75
526.776	7263.31
527.142	7278.9
527.508	7306.47
527.874	7333.82
528.241	7383.53
528.607	7358.22
528.973	7365
529.339	7293.59
529.705	7404.1
530.071	7458.11
530.437	7429.18
530.803	7482.29
531.169	7455.17
531.535	7498.11
531.901	7491.55
532.267	7534.49
532.632	7554.6
532.998	7566.13
533.364	7614.26
533.73	7590.53
534.095	7626.69
534.461	7614.26
534.826	7651.55
535.192	7608.84
535.557	7703.07
535.923	7687.03
536.288	7694.49
536.653	7662.85
537.019	7695.62
537.384	7732.23
537.749	7713.47
538.114	7682.06
538.479	7723.19
538.845	7738.1
539.21	7767.71
539.575	7760.47
539.94	7835.95
540.305	7763.64
540.67	7687.48
541.034	7748.5
541.399	7821.04
541.764	7791.66
542.129	7799.57
542.494	7797.31
542.858	7809.06
543.223	7793.92
543.587	7930.41
543.952	7827.36
544.316	7847.7
544.681	7870.53
545.045	7861.94
545.41	7909.62
545.774	7866.01
546.138	7919.34
546.503	7929.28
546.867	7905.1
547.231	7970.19
547.595	7970.64
547.959	7967.02
548.324	7927.93
548.688	7953.01
549.052	7989.62
549.416	8005.67
549.779	7972.9
550.143	7950.07
550.507	8000.02
550.871	8028.49
551.235	8049.73
551.599	8101.71
551.962	8005.44
552.326	8004.31
552.689	8091.31
553.053	8081.37
553.417	8066.23
553.78	8178.32
554.143	8066.68
554.507	8164.08
554.87	8200.69
555.234	8213.8
555.597	8169.95
555.96	8242.5
556.323	8223.74
556.686	8194.59
557.05	8185.1
557.413	8254.25
557.776	8266.9
558.139	8283.4
558.502	8238.2
558.865	8318.43
559.228	8318.65
559.59	8365.43
559.953	8389.84
560.316	8413.56
560.679	8460.79
561.041	8494.24
561.404	8492.88
561.767	8586.21
562.129	8515.26
562.492	8622.82
562.854	8580.79
563.217	8525.2
563.579	8564.75
563.941	8611.07
564.304	8655.14
564.666	8658.98
565.028	8730.62
565.39	8764.29
565.753	8777.62
566.115	8795.02
566.477	8821.69
566.839	8895.13
567.201	8926.77
567.563	8932.42
567.925	9024.85
568.287	8911.4
568.648	9005.86
569.01	9112.08
569.372	9103.26
569.734	9072.98
570.095	9101.91
570.457	9143.49
570.819	9226.88
571.18	9199.31
571.542	9273.2
571.903	9221
572.265	9311.17
572.626	9322.01
572.987	9353.2
573.349	9410.6
573.71	9398.4
574.071	9499.64
574.432	9483.14
574.794	9542.35
575.155	9607.21
575.516	9491.73
575.877	9517.04
576.238	9599.75
576.599	9673.19
576.96	9670.71
577.32	9655.11
577.681	9699.41
578.042	9714.77
578.403	9815.34
578.763	9830.93
579.124	9858.95
579.485	9873.19
579.845	9906.63
580.206	9819.18
580.566	9886.75
580.927	9976.91
581.287	9958.16
581.648	10014.65
582.008	10091.94
582.368	10039.74
582.728	10079.51
583.089	10094.2
583.449	10129.9
583.809	10209.9
584.169	10183.91
584.529	10148.21
584.889	10401.99
585.249	10244.02
585.609	10308.43
585.969	10362.44
586.329	10370.57
586.688	10381.2
587.048	10368.09
587.408	10393.4
587.768	10428.43
588.127	10433.17
588.487	10463.45
588.846	10556.33
589.206	10475.43
589.565	10571.02
589.925	10613.73
590.284	10612.38
590.643	10688.76
591.003	10688.08
591.362	10722.66
591.721	10724.92
592.08	10710
592.44	10767.4
592.799	10806.04
593.158	10778.02
593.517	10808.98
593.876	10807.17
594.235	10896.44
594.593	10835.87
594.952	10827.51
595.311	10834.74
595.67	10968.98
596.029	10959.26
596.387	10936.66
596.746	11004.91
597.104	10996.55
597.463	11014.4
597.822	11038.35
598.18	10988.19
598.538	11055.75
598.897	11089.2
599.255	11042.87
599.613	11098.92
599.972	11125.81
600.33	11137.79
600.688	11075.64
601.046	11190.89
601.404	11185.69
601.762	11181.4
602.12	11234.51
602.478	11270.44
602.836	11234.05
603.194	11211.23
603.552	11251.91
603.91	11279.48
604.268	11298.46
604.625	11240.61
604.983	11299.36
605.341	11223.21
605.698	11315.86
606.056	11366.71
606.413	11388.4
606.771	11364.45
607.128	11357.44
607.485	11383.43
607.843	11340.72
608.2	11423.43
608.557	11492.81
608.914	11412.58
609.272	11456.87
609.629	11520.6
609.986	11481.96
610.343	11443.99
610.7	11580.49
611.057	11553.37
611.414	11504.33
611.771	11499.13
612.127	11629.07
612.484	11551.79
612.841	11617.32
613.198	11566.02
613.554	11572.8
613.911	11680.14
614.267	11677.66
614.624	11579.13
614.98	11618.9
615.337	11788.16
615.693	11624.33
616.05	11662.97
616.406	11759.24
616.762	11724.44
617.118	11707.26
617.475	11757.2
617.831	11831.78
618.187	11787.03
618.543	11780.26
618.899	11773.7
619.255	11763.08
619.611	11805.79
619.967	11813.7
620.323	11848.28
620.678	11830.88
621.034	11777.09
621.39	11742.74
621.746	11784.55
622.101	11906.13
622.457	11822.51
622.812	11919.01
623.168	11852.57
623.523	11902.06
623.879	11975.5
624.234	11775.51
624.589	11850.76
624.945	11865
625.3	11824.1
625.655	11849.41
626.01	11883.76
626.365	11857.32
626.72	11833.14
627.075	11823.42
627.43	11865.22
627.785	11805.11
628.14	11810.99
628.495	11866.58
628.85	11804.89
629.205	11827.26
629.559	11815.96
629.914	11783.42
630.269	11843.98
630.623	11748.17
630.978	11695.29
631.332	11756.08
631.687	11801.27
632.041	11795.17
632.396	11721.5
632.75	11667.26
633.104	11727.83
633.459	11588.85
633.813	11626.13
634.167	11656.87
634.521	11634.04
634.875	11695.29
635.229	11662.29
635.583	11547.27
635.937	11574.61
636.291	11598.34
636.645	11575.51
636.999	11616.42
637.352	11571.22
637.706	11465.69
638.06	11610.09
638.413	11541.39
638.767	11503.43
639.121	11559.7
639.474	11519.47
639.828	11405.8
640.181	11475.18
640.534	11472.92
640.888	11355.18
641.241	11339.59
641.594	11337.1
641.947	11331.68
642.301	11377.33
642.654	11376.88
643.007	11383.66
643.36	11367.84
643.713	11305.47
644.066	11387.5
644.419	11293.94
644.771	11274.05
645.124	11194.73
645.477	11093.95
645.83	11027.51
646.182	11072.25
646.535	10972.59
646.888	11061.18
647.24	10927.4
647.593	10948.86
647.945	10937.57
648.298	10895.53
648.65	10942.99
649.002	10847.17
649.355	10949.54
649.707	10916.32
650.059	10950.45
650.411	11067.73
650.763	11182.53
651.115	11235.86
651.467	11234.51
651.819	11194.51
652.171	11180.95
652.523	11169.65
652.875	11199.48
653.227	11128.97
653.578	11244.68
653.93	11211.91
654.282	11116.77
654.633	11112.25
654.985	11128.97
655.337	11168.29
655.688	11191.8
656.039	11247.84
656.391	11126.94
656.742	11196.09
657.094	11151.12
657.445	11219.59
657.796	11214.39
658.147	11131.68
658.498	11178.01
658.849	11181.85
659.2	11183.89
659.551	11202.64
659.902	11161.06
660.253	11147.96
660.604	11190.67
660.955	11186.15
661.306	11207.84
661.656	11192.25
662.007	11145.47
662.358	11195.64
662.708	11157.45
663.059	11191.12
663.409	11082.65
663.76	11162.64
664.11	11145.24
664.461	11222.98
664.811	11168.97
665.161	11198.8
665.511	11146.6
665.862	11197.45
666.212	11219.14
666.562	11202.42
666.912	11144.79
667.262	11218.91
667.612	11130.1
667.962	11219.82
668.312	11192.7
668.662	11188.18
669.011	11191.34
669.361	11176.88
669.711	11125.13
670.06	11128.75
670.41	11158.12
670.76	11112.93
671.109	11125.13
671.459	11094.62
671.808	11108.18
672.157	11162.42
672.507	11067.28
672.856	11079.26
673.205	11135.53
673.554	11074.06
673.904	11072.25
674.253	11076.54
674.602	11043.1
674.951	10968.07
675.3	10811.92
675.649	10989.54
675.998	11017.56
676.346	10902.99
676.695	11057.34
677.044	10994.06
677.393	10938.7
677.741	10996.55
678.09	10983.44
678.438	10925.81
678.787	10905.02
679.135	10877.23
679.484	10869.54
679.832	10872.71
680.181	10930.56
680.529	10861.64
680.877	10801.75
681.225	10773.95
681.573	10859.15
681.922	10790.9
682.27	10645.82
682.618	10787.29
682.966	10667.97
683.314	10685.14
683.661	10695.09
684.009	10613.73
684.357	10642.88
684.705	10584.13
685.053	10654.64
685.4	10592.94
685.748	10564.02
686.095	10505.26
686.443	10392.27
686.79	10462.55
687.138	10478.59
687.485	10486.73
687.832	10457.13
688.18	10487.63
688.527	10367.64
688.874	10346.17
689.221	10311.82
689.568	10287.64
689.915	10274.31
690.262	10265.04
690.609	10225.27
690.956	10122.67
691.303	10172.39
691.65	10160.64
691.997	10104.37
692.344	10097.14
692.69	9992.28
693.037	10058.72
693.383	9894.2
693.73	10018.49
694.077	9857.37
694.423	9867.99
694.769	9903.47
695.116	9771.95
695.462	9709.12
695.808	9770.14
696.155	9809.23
696.501	9710.25
696.847	9649.46
697.193	9630.93
697.539	9592.97
697.885	9534.44
698.231	9524.72
698.577	9543.93
698.923	9467.77
699.269	9392.75
699.614	9383.93
699.96	9349.13
700.306	9349.58
700.651	9324.05
700.997	9345.74
701.342	9288.8
701.688	9251.96
702.033	9167.22
702.379	9173.77
702.724	9166.31
703.069	9120.89
703.415	9040.21
703.76	8996.6
704.105	9052.19
704.45	9088.57
704.795	9006.54
705.14	8968.58
705.485	8908.92
705.83	8893.33
706.175	8847.45
706.52	8897.17
706.865	8832.76
707.209	8774.91
707.554	8778.75
707.899	8727.23
708.243	8706.89
708.588	8684.74
708.932	8683.84
709.277	8647.68
709.621	8657.4
709.966	8556.39
710.31	8621.92
710.654	8478.2
710.998	8422.15
711.342	8475.48
711.687	8473
712.031	8459.44
712.375	8399.78
712.719	8438.2
713.063	8435.26
713.407	8426.67
713.75	8386.67
714.094	8350.06
714.438	8323.85
714.782	8336.73
715.125	8337.86
715.469	8293.79
715.812	8320.01
716.156	8283.17
716.499	8279.1
716.843	8266.9
717.186	8219.67
717.53	8223.06
717.873	8203.17
718.216	8216.96
718.559	8178.32
718.902	8109.17
719.246	8156.85
719.589	8142.84
719.932	8123.85
720.275	8089.28
720.617	8141.48
720.96	8092.22
721.303	8127.7
721.646	8036.17
721.989	8063.74
722.331	8085.44
722.674	8018.77
723.016	8066
723.359	7997.08
723.701	8023.74
724.044	8002.73
724.386	7980.13
724.729	7948.94
725.071	7943.75
725.413	7967.25
725.755	7981.26
726.097	7929.74
726.439	7839.34
726.782	7971.77
727.124	7959.79
727.465	7920.92
727.807	7894.26
728.149	7902.62
728.491	7856.06
728.833	7923.86
729.175	7846.12
729.516	7910.75
729.858	7896.97
730.199	7868.95
730.541	7860.13
730.882	7815.16
731.224	7908.49
731.565	7826.23
731.906	7832.34
732.248	7836.86
732.589	7805.22
732.93	7786.69
733.271	7813.35
733.612	7844.31
733.953	7853.35
734.294	7808.16
734.635	7879.79
734.976	7839.57
735.317	7827.82
735.658	7782.17
735.999	7822.39
736.339	7814.26
736.68	7808.61
737.021	7844.31
737.361	7802.96
737.702	7825.1
738.042	7774.71
738.383	7839.79
738.723	7838.21
739.063	7820.36
739.404	7895.84
739.744	7870.3
740.084	7840.02
740.424	7896.29
740.764	7870.08
741.104	7901.94
741.444	7889.28
741.784	7907.36
742.124	7951.2
742.464	7900.58
742.804	7905.1
743.143	7940.13
743.483	7969.06
743.823	7957.3
744.162	8036.17
744.502	7993.24
744.841	8007.93
745.181	8013.57
745.52	8088.83
745.86	8048.38
746.199	8127.7
746.538	8153.46
746.877	8190.52
747.216	8216.73
747.556	8230.97
747.895	8273.23
748.234	8320.91
748.573	8326.56
748.911	8430.74
749.25	8431.19
749.589	8494.69
749.928	8556.61
750.267	8667.79
750.605	8697.4
750.944	8689.26
751.283	8831.63
751.621	8903.04
751.96	8917.05
752.298	9057.84
752.636	9137.84
752.975	9139.87
753.313	9257.84
753.651	9363.14
753.989	9385.97
754.327	9480.2
754.666	9620.09
755.004	9710.71
755.342	9825.73
755.679	9991.38
756.017	10000.42
756.355	10253.52
756.693	10241.09
757.031	10462.1
757.368	10531.02
757.706	10697.8
758.044	10856.44
758.381	10976.66
758.719	11146.6
759.056	11295.97
759.394	11383.66
759.731	11463.88
760.068	11700.71
760.405	11794.04
760.743	11934.83
761.08	12167.59
761.417	12220.92
761.754	12338.21
762.091	12566.68
762.428	12684.64
762.765	12805.31
