Data from hue_240_FLMS001491_00031.txt Node
Date: Tue Feb 07 16:35:23 GMT 2017
User: dcchb
Spectrometer: FLMS00149
Trigger mode: 0
Integration Time (sec): 2.000000E-2
Scans to average: 10
Electric dark correction enabled: true
Nonlinearity correction enabled: false
Boxcar width: 0
XAxis mode: Wavelengths
Number of Pixels in Spectrum: 2048
>>>>>Begin Spectral Data<<<<<
341.393	-19.84
341.776	-19.84
342.16	-19.84
342.543	-80.18
342.927	-76.79
343.31	-73.4
343.693	-61.42
344.077	-65.27
344.46	-23.46
344.843	-42.67
345.226	-31.82
345.61	-49.45
345.993	-26.62
346.376	-20.07
346.759	17.9
347.142	38.23
347.525	42.3
347.908	44.56
348.291	67.84
348.674	93.6
349.057	89.76
349.44	106.71
349.823	127.04
350.206	151.9
350.588	171.79
350.971	195.07
351.354	226.48
351.737	226.93
352.119	221.28
352.502	245.23
352.884	265.12
353.267	280.04
353.65	288.85
354.032	314.84
354.414	280.04
354.797	296.53
355.179	315.51
355.562	322.52
355.944	310.99
356.326	307.83
356.709	341.05
357.091	322.07
357.473	338.11
357.855	315.51
358.238	328.62
358.62	317.1
359.002	331.79
359.384	343.76
359.766	331.33
360.148	319.13
360.53	334.95
360.912	325.68
361.294	337.43
361.676	325.01
362.057	336.98
362.439	322.29
362.821	321.39
363.203	320.94
363.584	306.7
363.966	309.64
364.348	295.18
364.729	330.88
365.111	316.42
365.493	327.49
365.874	298.79
366.256	319.36
366.637	308.51
367.019	321.62
367.4	307.83
367.781	296.31
368.163	282.75
368.544	310.99
368.925	280.04
369.306	308.96
369.688	304.44
370.069	294.72
370.45	312.8
370.831	297.66
371.212	305.12
371.593	296.31
371.974	286.36
372.355	298.79
372.736	298.79
373.117	308.96
373.498	320.03
373.879	283.65
374.26	301.96
374.641	311.67
375.021	320.94
375.402	314.38
375.783	308.06
376.163	335.4
376.544	305.57
376.925	325.91
377.305	319.13
377.686	323.2
378.066	311.22
378.447	329.75
378.827	325.23
379.208	313.71
379.588	309.19
379.968	311.67
380.349	325.46
380.729	324.1
381.109	327.49
381.489	315.97
381.87	330.88
382.25	332.46
382.63	326.59
383.01	347.83
383.39	317.55
383.77	326.59
384.15	310.54
384.53	325.91
384.91	348.28
385.29	322.97
385.67	329.98
386.049	326.81
386.429	353.71
386.809	325.23
387.189	341.95
387.568	348.73
387.948	364.55
388.328	360.71
388.707	341.73
389.087	328.17
389.466	363.42
389.846	347.6
390.225	366.59
390.605	345.34
390.984	360.48
391.363	351.45
391.743	371.56
392.122	341.73
392.501	383.08
392.881	367.72
393.26	347.6
393.639	379.02
394.018	388.28
394.397	392.57
394.776	389.18
395.155	381.73
395.534	402.97
395.913	372.01
396.292	401.39
396.671	397.09
397.05	354.61
397.429	383.08
397.808	377.89
398.186	388.28
398.565	372.01
398.944	397.77
399.323	390.31
399.701	416.98
400.08	401.84
400.458	422.4
400.837	409.52
401.215	411.11
401.594	408.62
401.972	409.52
402.351	407.04
402.729	408.85
403.107	398
403.486	419.24
403.864	411.33
404.242	424.89
404.62	401.61
404.999	431.22
405.377	430.09
405.755	431.44
406.133	441.39
406.511	417.88
406.889	445
407.267	440.26
407.645	460.37
408.023	452.23
408.401	469.18
408.779	468.73
409.156	468.5
409.534	475.28
409.912	487.04
410.29	497.66
410.667	487.71
411.045	482.97
411.422	507.83
411.8	492.23
412.178	520.93
412.555	525
412.933	522.06
413.31	536.53
413.687	546.24
414.065	549.63
414.442	546.69
414.819	549.63
415.197	564.1
415.574	564.32
415.951	579.01
416.328	574.04
416.705	572.68
417.082	586.02
417.46	581.72
417.837	619.01
418.214	609.07
418.591	619.91
418.967	618.11
419.344	620.59
419.721	643.42
420.098	626.92
420.475	633.25
420.852	646.81
421.228	660.82
421.605	635.28
421.982	693.81
422.358	694.26
422.735	688.61
423.111	697.2
423.488	710.08
423.864	715.05
424.241	719.57
424.617	720.02
424.994	725.67
425.37	766.35
425.746	756.18
426.123	769.06
426.499	777.88
426.875	799.8
427.251	809.06
427.627	814.26
428.003	825.78
428.379	817.42
428.756	835.27
429.132	844.54
429.507	833.47
429.883	841.83
430.259	913.01
430.635	852.9
431.011	867.82
431.387	894.71
431.763	915.72
432.138	923.63
432.514	916.85
432.89	940.58
433.265	976.97
433.641	961.6
434.016	976.29
434.392	998.89
434.767	1009.06
435.143	1023.52
435.518	1022.61
435.894	1066.46
436.269	1072.78
436.644	1124.31
437.02	1118.88
437.395	1125.66
437.77	1142.39
438.145	1141.93
438.52	1174.47
438.895	1178.32
439.271	1197.07
439.646	1210.63
440.021	1210.86
440.395	1235.04
440.77	1178.77
441.145	1224.87
441.52	1250.63
441.895	1265.55
442.27	1278.2
442.645	1291.53
443.019	1316.17
443.394	1319.56
443.769	1308.71
444.143	1323.85
444.518	1350.52
444.892	1345.54
445.267	1362.27
445.641	1393.9
446.016	1405.66
446.39	1395.26
446.764	1391.19
447.139	1424.41
447.513	1443.62
447.887	1410.63
448.262	1430.97
448.636	1442.72
449.01	1469.16
449.384	1463.96
449.758	1488.14
450.132	1507.35
450.506	1498.76
450.88	1513.9
451.254	1518.65
451.628	1541.47
452.002	1555.26
452.376	1582.37
452.75	1558.19
453.123	1589.83
453.497	1593.22
453.871	1588.7
454.244	1665.99
454.618	1640.23
454.992	1671.41
455.365	1667.12
455.739	1703.5
456.112	1731.07
456.486	1737.17
456.859	1736.04
457.232	1769.26
457.606	1781.24
457.979	1766.1
458.352	1833.44
458.725	1847.68
459.099	1852.65
459.472	1918.64
459.845	1925.64
460.218	1917.51
460.591	1948.01
460.964	1947.56
461.337	1968.13
461.71	1995.47
462.083	2029.14
462.456	2007
462.829	2065.07
463.201	2067.33
463.574	2092.42
463.947	2130.61
464.32	2174.9
464.692	2191.17
465.065	2176.71
465.438	2204.96
465.81	2231.17
466.183	2282.24
466.555	2319.08
466.928	2335.35
467.3	2322.92
467.672	2339.19
468.045	2406.08
468.417	2403.82
468.789	2455.57
469.161	2491.05
469.534	2504.38
469.906	2512.52
470.278	2551.61
470.65	2577.15
471.022	2626.87
471.394	2661.44
471.766	2677.03
472.138	2698.28
472.51	2762.46
472.882	2773.53
473.253	2811.27
473.625	2786.64
473.997	2879.74
474.369	2912.28
474.74	2946.63
475.112	2989.57
475.484	3039.06
475.855	3090.36
476.227	3098.04
476.598	3163.8
476.97	3170.81
477.341	3263.23
477.713	3310.92
478.084	3331.48
478.455	3399.73
478.827	3412.83
479.198	3477.92
479.569	3441.76
479.94	3569.21
480.311	3573.28
480.682	3743.45
481.053	3727.63
481.424	3780.73
481.795	3855.53
482.166	3924.46
482.537	3954.97
482.908	3999.94
483.279	4024.34
483.65	4095.98
484.021	4193.83
484.391	4206.03
484.762	4238.12
485.133	4256.2
485.503	4310.66
485.874	4398.8
486.244	4432.69
486.615	4512.47
486.985	4525.8
487.356	4648.96
487.726	4636.3
488.097	4712.23
488.467	4754.27
488.837	4777.09
489.207	4876.07
489.578	4898.44
489.948	4957.65
490.318	5012.11
490.688	5038.33
491.058	5152.68
491.428	5125.33
491.798	5204.88
492.168	5281.26
492.538	5305.67
492.908	5348.83
493.278	5441.71
493.648	5452.78
494.017	5507.47
494.387	5514.7
494.757	5579.33
495.126	5581.36
495.496	5603.74
495.866	5662.72
496.235	5637.63
496.605	5711.08
496.974	5715.82
497.344	5789.95
497.713	5805.99
498.082	5849.61
498.452	5889.15
498.821	5892.09
499.19	5945.42
499.559	6023.16
499.928	5958.98
500.298	6024.06
500.667	6104.74
501.036	6099.09
501.405	6132.76
501.774	6123.5
502.143	6158.98
502.512	6211.63
502.88	6224.06
503.249	6189.48
503.618	6258.41
503.987	6274.45
504.356	6304.28
504.724	6344.96
505.093	6342.7
505.462	6355.58
505.83	6400.78
506.199	6467.22
506.567	6504.05
506.936	6490.04
507.304	6544.05
507.672	6579.98
508.041	6568.91
508.409	6597.83
508.777	6653.65
509.145	6705.4
509.514	6698.4
509.882	6697.95
510.25	6681.67
510.618	6712.41
510.986	6720.54
511.354	6810.03
511.722	6846.64
512.09	6879.18
512.458	6828.34
512.826	6866.53
513.193	6876.25
513.561	6897.71
513.929	6958.73
514.297	6986.75
514.664	7057.71
515.032	7026.98
515.4	7045.28
515.767	7042.57
516.135	7031.5
516.502	7019.52
516.869	7081.89
517.237	7139.29
517.604	7050.93
517.972	7097.26
518.339	7196.46
518.706	7060.2
519.073	7144.26
519.44	7161.89
519.808	7198.05
520.175	7202.56
520.542	7265.16
520.909	7253.64
521.276	7285.95
521.643	7322.11
522.009	7334.99
522.376	7337.02
522.743	7385.61
523.11	7404.59
523.477	7414.76
523.843	7516
524.21	7499.51
524.577	7499.96
524.943	7542.44
525.31	7568.43
525.676	7642.1
526.043	7565.95
526.409	7627.19
526.776	7634.42
527.142	7677.13
527.508	7637.58
527.874	7728.2
528.241	7739.95
528.607	7674.19
528.973	7793.74
529.339	7758.71
529.705	7766.62
530.071	7809.1
530.437	7804.13
530.803	7790.8
531.169	7827.63
531.535	7831.25
531.901	7858.59
532.267	7821.31
532.632	7859.5
532.998	7825.15
533.364	7886.16
533.73	7807.07
534.095	7888.65
534.461	7830.34
534.826	7908.53
535.192	7933.39
535.557	7874.19
535.923	7903.34
536.288	7894.98
536.653	7919.83
537.019	7883.22
537.384	7819.72
537.749	7932.72
538.114	7861.53
538.479	7883
538.845	7876.22
539.21	7841.64
539.575	7882.32
539.94	7794.19
540.305	7880.97
540.67	7803
541.034	7904.47
541.399	7826.05
541.764	7806.39
542.129	7868.08
542.494	7826.05
542.858	7806.16
543.223	7824.47
543.587	7834.86
543.952	7743.34
544.316	7831.7
544.681	7806.84
545.045	7821.98
545.41	7838.71
545.774	7824.24
546.138	7780.63
546.503	7796.45
546.867	7800.52
547.231	7802.78
547.595	7737.47
547.959	7779.95
548.324	7752.15
548.688	7757.35
549.052	7722.78
549.416	7766.39
549.779	7718.03
550.143	7716.22
550.507	7778.82
550.871	7805.26
551.235	7752.83
551.599	7756
551.962	7730.46
552.326	7709.22
552.689	7733.62
553.053	7674.42
553.417	7715.32
553.78	7792.15
554.143	7734.75
554.507	7723.46
554.87	7792.61
555.234	7819.95
555.597	7692.72
555.96	7746.05
556.323	7801.42
556.686	7770.23
557.05	7803.45
557.413	7776.79
557.776	7848.42
558.139	7818.37
558.502	7827.86
558.865	7797.8
559.228	7877.8
559.59	7798.48
559.953	7840.06
560.316	7880.29
560.679	7901.98
561.041	7927.97
561.404	7878.93
561.767	7937.23
562.129	7977.46
562.492	7920.29
562.854	7996.67
563.217	7926.84
563.579	7973.17
563.941	8040.96
564.304	8024.24
564.666	8078.7
565.028	8107.85
565.39	8090
565.753	8078.02
566.115	8100.62
566.477	8081.19
566.839	8166.61
567.201	8181.3
567.563	8238.92
567.925	8198.02
568.287	8227.4
568.648	8176.55
569.01	8270.79
569.372	8294.51
569.734	8290.45
570.095	8395.53
570.457	8348.98
570.819	8437.56
571.18	8402.08
571.542	8430.1
571.903	8388.97
572.265	8409.54
572.626	8446.6
572.987	8523.21
573.349	8506.71
573.71	8568.63
574.071	8511.91
574.432	8621.06
574.794	8570.66
575.155	8612.02
575.516	8563.88
575.877	8676.65
576.238	8671.9
576.599	8740.6
576.96	8675.07
577.32	8672.58
577.681	8693.6
578.042	8756.42
578.403	8795.52
578.763	8802.3
579.124	8783.77
579.485	8880.94
579.845	8868.28
580.206	8809.98
580.566	8842.97
580.927	8806.59
581.287	8882.52
581.648	8821.51
582.008	8901.96
582.368	8870.77
582.728	8946.47
583.089	8838
583.449	8929.75
583.809	8949.64
584.169	8929.3
584.529	8893.82
584.889	9030.99
585.249	8950.99
585.609	9006.81
585.969	9050.65
586.329	8991.9
586.688	9022.4
587.048	9037.32
587.408	9014.95
587.768	9041.61
588.127	9072.8
588.487	9017.66
588.846	9113.25
589.206	9037.32
589.565	9067.15
589.925	9090.88
590.284	9062.4
590.643	9119.58
591.003	9132.68
591.362	9143.98
591.721	9112.12
592.08	9129.75
592.44	9168.84
592.799	9173.59
593.158	9129.75
593.517	9212
593.876	9210.42
594.235	9213.13
594.593	9218.56
594.952	9211.78
595.311	9131.1
595.67	9196.41
596.029	9225.79
596.387	9276.18
596.746	9273.24
597.104	9214.94
597.463	9243.87
597.822	9285.45
598.18	9291.32
598.538	9206.58
598.897	9295.39
599.255	9207.26
599.613	9339.23
599.972	9264.66
600.33	9262.62
600.688	9301.04
601.046	9304.66
601.404	9412
601.762	9291.78
602.12	9314.37
602.478	9340.14
602.836	9329.51
603.194	9361.38
603.552	9315.96
603.91	9284.77
604.268	9317.31
604.625	9279.35
604.983	9340.81
605.341	9242.06
605.698	9359.34
606.056	9382.39
606.413	9390.76
606.771	9380.13
607.128	9382.85
607.485	9399.8
607.843	9393.69
608.2	9441.38
608.557	9503.75
608.914	9485.22
609.272	9474.82
609.629	9440.92
609.986	9502.39
610.343	9512.11
610.7	9604.99
611.057	9545.55
611.414	9486.12
611.771	9462.84
612.127	9523.63
612.484	9560.47
612.841	9565.44
613.198	9591.88
613.554	9594.82
613.911	9630.07
614.267	9554.59
614.624	9566.8
614.98	9579.45
615.337	9654.48
615.693	9639.56
616.05	9666
616.406	9637.76
616.762	9616.29
617.118	9654.48
617.475	9653.12
617.831	9697.41
618.187	9718.43
618.543	9693.8
618.899	9673.23
619.255	9687.7
619.611	9661.94
619.967	9793.01
620.323	9788.03
620.678	9730.41
621.034	9650.86
621.39	9660.35
621.746	9691.09
622.101	9750.52
622.457	9637.3
622.812	9652.67
623.168	9669.84
623.523	9746.23
623.879	9760.46
624.234	9628.26
624.589	9724.31
624.945	9702.16
625.3	9762.05
625.655	9750.07
626.01	9711.2
626.365	9692.44
626.72	9670.97
627.075	9662.61
627.43	9723.85
627.785	9659.45
628.14	9668.49
628.495	9665.1
628.85	9651.54
629.205	9656.06
629.559	9662.61
629.914	9648.38
630.269	9677.08
630.623	9621.48
630.978	9661.94
631.332	9622.84
631.687	9698.54
632.041	9642.27
632.396	9642.05
632.75	9543.75
633.104	9581.26
633.459	9559.11
633.813	9550.98
634.167	9524.76
634.521	9485.89
634.875	9519.11
635.229	9492.9
635.583	9494.26
635.937	9484.09
636.291	9472.34
636.645	9482.96
636.999	9418.78
637.352	9380.36
637.706	9408.16
638.06	9471.21
638.413	9425.33
638.767	9395.95
639.121	9332.68
639.474	9338.33
639.828	9333.81
640.181	9342.4
640.534	9443.64
640.888	9293.36
641.241	9297.65
641.594	9292.91
641.947	9333.13
642.301	9270.31
642.654	9303.07
643.007	9338.33
643.36	9252.91
643.713	9244.32
644.066	9311.21
644.419	9233.7
644.771	9227.6
645.124	9075.28
645.477	9075.28
645.83	8999.13
646.182	8973.14
646.535	9032.12
646.888	9009.75
647.24	8916.64
647.593	9029.64
647.945	8893.59
648.298	8940.82
648.65	8885.01
649.002	8834.61
649.355	8943.31
649.707	8882.52
650.059	8983.99
650.411	8985.79
650.763	9047.71
651.115	9079.8
651.467	9102.18
651.819	9092.68
652.171	9128.62
652.523	9031.22
652.875	9039.35
653.227	9086.13
653.578	9072.57
653.93	9060.6
654.282	9056.75
654.633	8989.41
654.985	9028.05
655.337	9043.65
655.688	9074.15
656.039	9072.57
656.391	8999.13
656.742	8997.09
657.094	9075.28
657.445	9069.41
657.796	9032.8
658.147	9042.52
658.498	9086.13
658.849	9044.32
659.2	9058.11
659.551	8994.83
659.902	9034.83
660.253	9065.57
660.604	9026.7
660.955	9012.23
661.306	9098.33
661.656	9033.93
662.007	9031.67
662.358	8985.57
662.708	9043.42
663.059	9083.65
663.409	8952.35
663.76	9046.81
664.11	9054.95
664.461	9054.95
664.811	9041.16
665.161	9035.96
665.511	8994.61
665.862	8986.7
666.212	9037.09
666.562	9049.52
666.912	9063.98
667.262	9025.79
667.612	9009.97
667.962	8981.28
668.312	9062.18
668.662	9095.85
669.011	9070.31
669.361	9049.3
669.711	8950.32
670.06	8984.44
670.41	8927.27
670.76	8931.78
671.109	9035.51
671.459	8954.61
671.808	8960.48
672.157	8967.49
672.507	8862.41
672.856	8901.05
673.205	8931.56
673.554	8931.56
673.904	8940.15
674.253	8947.38
674.602	8907.83
674.951	8797.1
675.3	8717.78
675.649	8887.94
675.998	8890.43
676.346	8872.13
676.695	8868.96
677.044	8787.83
677.393	8833.26
677.741	8899.24
678.09	8836.87
678.438	8831.9
678.787	8811.11
679.135	8872.8
679.484	8765.24
679.832	8820.83
680.181	8781.73
680.529	8776.53
680.877	8729.08
681.225	8736.08
681.573	8790.09
681.922	8674.16
682.27	8621.06
682.618	8693.83
682.966	8679.59
683.314	8652.47
683.661	8664
684.009	8572.7
684.357	8614.51
684.705	8580.61
685.053	8609.99
685.4	8576.54
685.748	8570.89
686.095	8510.55
686.443	8472.14
686.79	8445.24
687.138	8499.93
687.485	8485.92
687.832	8514.85
688.18	8439.59
688.527	8361.4
688.874	8354.17
689.221	8332.93
689.568	8334.96
689.915	8297
690.262	8318.47
690.609	8236.21
690.956	8226.04
691.303	8228.98
691.65	8217
691.997	8178.36
692.344	8070.11
692.69	8110.79
693.037	8070.79
693.383	8014.97
693.73	8115.08
694.077	8032.83
694.423	8004.35
694.769	8052.03
695.116	7971.58
695.462	7937.46
695.808	7862.66
696.155	7955.77
696.501	7812.94
696.847	7855.66
697.193	7818.37
697.539	7822.89
697.885	7691.59
698.231	7709.44
698.577	7659.5
698.923	7675.77
699.269	7699.5
699.614	7605.49
699.96	7581.09
700.306	7572.72
700.651	7526.17
700.997	7509.45
701.342	7454.08
701.688	7498.6
702.033	7474.87
702.379	7443.24
702.724	7439.17
703.069	7368.89
703.415	7339.96
703.76	7318.27
704.105	7310.81
704.45	7334.31
704.795	7278.5
705.14	7257.25
705.485	7273.52
705.83	7160.08
706.175	7233.52
706.52	7186.75
706.865	7114.88
707.209	7104.71
707.554	7104.26
707.899	7145.84
708.243	7078.95
708.588	7046.41
708.932	6993.53
709.277	6940.88
709.621	7049.57
709.966	6989.69
710.31	6975.9
710.654	6920.76
710.998	6937.94
711.342	6966.86
711.687	6875.57
712.031	6881.44
712.375	6870.82
712.719	6862.46
713.063	6864.27
713.407	6856.36
713.75	6807.32
714.094	6798.96
714.438	6748.34
714.782	6788.11
715.125	6757.15
715.469	6811.39
715.812	6705.85
716.156	6708.57
716.499	6710.83
716.843	6735.46
717.186	6634.44
717.53	6688.91
717.873	6726.87
718.216	6735.68
718.559	6679.41
718.902	6639.87
719.246	6652.07
719.589	6618.17
719.932	6569.14
720.275	6599.64
720.617	6585.18
720.96	6573.88
721.303	6612.75
721.646	6547.89
721.989	6534.11
722.331	6572.75
722.674	6518.06
723.016	6543.37
723.359	6518.29
723.701	6584.05
724.044	6541.11
724.386	6469.25
724.729	6541.34
725.071	6461.12
725.413	6515.13
725.755	6441.45
726.097	6451.4
726.439	6400.55
726.782	6462.7
727.124	6431.74
727.465	6422.7
727.807	6415.24
728.149	6410.27
728.491	6444.39
728.833	6402.59
729.175	6396.03
729.516	6458.18
729.858	6417.73
730.199	6404.39
730.541	6390.16
730.882	6373.89
731.224	6398.07
731.565	6404.39
731.906	6359.88
732.248	6328.24
732.589	6318.52
732.93	6358.52
733.271	6336.15
733.612	6381.57
733.953	6381.12
734.294	6351.97
734.635	6351.74
734.976	6375.02
735.317	6326.66
735.658	6347.22
735.999	6365.52
736.339	6321.23
736.68	6334.57
737.021	6347.22
737.361	6314.23
737.702	6382.02
738.042	6342.7
738.383	6353.32
738.723	6337.95
739.063	6393.32
739.404	6374.56
739.744	6367.11
740.084	6365.98
740.424	6400.78
740.764	6358.97
741.104	6356.26
741.444	6386.77
741.784	6401.23
742.124	6420.66
742.464	6423.6
742.804	6375.47
743.143	6412.53
743.483	6431.51
743.823	6434.68
744.162	6442.36
744.502	6476.48
744.841	6496.82
745.181	6511.06
745.52	6587.89
745.86	6575.91
746.199	6527.55
746.538	6587.89
746.877	6598.74
747.216	6620.66
747.556	6646.87
747.895	6677.38
748.234	6654.33
748.573	6711.96
748.911	6731.62
749.25	6813.2
749.589	6848.9
749.928	6863.36
750.267	6878.51
750.605	6927.32
750.944	6949.24
751.283	6974.32
751.621	7079.63
751.96	7092.96
752.298	7153.07
752.636	7237.82
752.975	7231.72
753.313	7273.07
753.651	7402.11
753.989	7419.06
754.327	7499.28
754.666	7498.6
755.004	7688.65
755.342	7645.49
755.679	7745.15
756.017	7828.99
756.355	7949.66
756.693	7964.35
757.031	8051.36
757.368	8133.84
757.706	8226.94
758.044	8291.12
758.381	8441.85
758.719	8424.23
759.056	8543.55
759.394	8727.95
759.731	8691.11
760.068	8707.16
760.405	8859.02
760.743	8935.63
761.08	9064.89
761.417	9197.77
761.754	9268.73
762.091	9370.42
762.428	9464.88
762.765	9590.52
763.102	9649.73
763.438	9669.17
763.775	9737.19
764.112	9861.93
764.449	10013.34
764.785	10070.96
765.122	10102.83
765.458	10175.37
765.795	10231.86
766.131	10409.49
766.467	10414.01
766.804	10473.44
767.14	10536.04
767.476	10609.48
767.812	10743.26
768.148	10804.28
768.485	10812.19
768.821	10928.79
769.157	10987.32
769.492	11082.69
