Data from hue_22_FLMS001491_00019.txt Node
Date: Tue Feb 07 17:09:41 GMT 2017
User: dcchb
Spectrometer: FLMS00149
Trigger mode: 0
Integration Time (sec): 2.000000E-2
Scans to average: 10
Electric dark correction enabled: true
Nonlinearity correction enabled: false
Boxcar width: 0
XAxis mode: Wavelengths
Number of Pixels in Spectrum: 2048
>>>>>Begin Spectral Data<<<<<
341.393	0.41
341.776	0.41
342.16	0.41
342.543	-80.49
342.927	-52.7
343.31	-74.84
343.693	-58.8
344.077	-88.4
344.46	-32.36
344.843	-73.03
345.226	-47.5
345.61	-35.07
345.993	-39.36
346.376	3.35
346.759	13.74
347.142	40.41
347.525	40.86
347.908	55.78
348.291	82.89
348.674	79.05
349.057	133.29
349.44	123.34
349.823	146.62
350.206	152.72
350.588	192.72
350.971	212.61
351.354	231.59
351.737	247.86
352.119	265.49
352.502	258.26
352.884	266.84
353.267	291.48
353.65	298.25
354.032	274.98
354.414	310.91
354.797	320.85
355.179	324.24
355.562	331.25
355.944	333.73
356.326	345.03
356.709	345.03
357.091	335.77
357.473	360.63
357.855	357.01
358.238	356.56
358.62	356.33
359.002	355.2
359.384	343.68
359.766	358.37
360.148	355.88
360.53	348.2
360.912	342.77
361.294	335.09
361.676	345.26
362.057	335.32
362.439	335.99
362.821	337.35
363.203	328.76
363.584	324.24
363.966	332.38
364.348	331.25
364.729	342.32
365.111	313.62
365.493	328.08
365.874	306.39
366.256	336.22
366.637	330.12
367.019	306.39
367.4	312.49
367.781	310.46
368.163	319.05
368.544	332.15
368.925	327.86
369.306	316.33
369.688	318.37
370.069	305.03
370.45	331.7
370.831	312.94
371.212	309.1
371.593	311.36
371.974	318.82
372.355	317.01
372.736	332.15
373.117	328.31
373.498	320.85
373.879	309.33
374.26	320.85
374.641	319.27
375.021	310.46
375.402	311.59
375.783	334.86
376.163	333.51
376.544	352.26
376.925	340.74
377.305	322.66
377.686	343.23
378.066	333.51
378.447	329.89
378.827	330.12
379.208	348.2
379.588	359.5
379.968	346.84
380.349	330.12
380.729	349.78
381.109	364.92
381.489	356.78
381.87	315.88
382.25	328.99
382.63	334.41
383.01	328.99
383.39	351.13
383.77	366.95
384.15	344.36
384.53	360.4
384.91	367.63
385.29	344.58
385.67	354.07
386.049	354.98
386.429	362.66
386.809	350
387.189	363.56
387.568	370.57
387.948	383.68
388.328	365.82
388.707	364.02
389.087	379.16
389.466	380.29
389.846	378.48
390.225	374.86
390.605	386.84
390.984	376.44
391.363	371.25
391.743	372.15
392.122	372.15
392.501	378.93
392.881	378.25
393.26	379.16
393.639	382.32
394.018	374.86
394.397	376.22
394.776	400.63
395.155	398.37
395.534	414.18
395.913	388.2
396.292	400.4
396.671	387.52
397.05	399.04
397.429	414.18
397.808	408.76
398.186	407.86
398.565	394.52
398.944	399.5
399.323	424.35
399.701	404.69
400.08	407.18
400.458	404.01
400.837	402.88
401.215	436.56
401.594	436.56
401.972	420.74
402.351	416.22
402.729	428.42
403.107	430.68
403.486	433.62
403.864	446.27
404.242	431.58
404.62	444.69
404.999	449.44
405.377	432.71
405.755	429.78
406.133	431.36
406.511	451.47
406.889	445.14
407.267	441.53
407.645	456.89
408.023	446.05
408.401	420.51
408.779	463.9
409.156	482.43
409.534	452.15
409.912	469.32
410.29	466.84
410.667	467.06
411.045	461.64
411.422	479.27
411.8	503.45
412.178	517.46
412.555	476.1
412.933	491.7
413.31	489.21
413.687	506.61
414.065	506.38
414.442	495.54
414.819	531.47
415.197	522.2
415.574	525.14
415.951	525.37
416.328	502.77
416.705	521.98
417.082	506.61
417.46	527.4
417.837	530.34
418.214	508.64
418.591	528.76
418.967	550.23
419.344	538.93
419.721	549.55
420.098	551.36
420.475	570.79
420.852	566.95
421.228	565.14
421.605	557.23
421.982	554.97
422.358	578.02
422.735	559.72
423.111	563.33
423.488	570.56
423.864	573.95
424.241	579.38
424.617	595.87
424.994	568.3
425.37	599.72
425.746	577.57
426.123	615.53
426.499	600.62
426.875	606.72
427.251	617.57
427.627	632.48
428.003	618.47
428.379	625.03
428.756	644.01
429.132	636.33
429.507	638.13
429.883	665.93
430.259	670.22
430.635	654.4
431.011	653.5
431.387	650.34
431.763	686.04
432.138	701.41
432.514	708.19
432.89	675.42
433.265	697.34
433.641	698.02
434.016	709.09
434.392	704.12
434.767	729.2
435.143	694.63
435.518	735.76
435.894	748.86
436.269	749.54
436.644	752.03
437.02	760.16
437.395	759.71
437.77	758.13
438.145	775.98
438.52	776.21
438.895	812.37
439.271	779.15
439.646	825.02
440.021	822.31
440.395	796.09
440.77	812.82
441.145	789.09
441.52	840.39
441.895	836.55
442.27	849.65
442.645	825.47
443.019	844
443.394	817.34
443.769	846.26
444.143	839.71
444.518	852.82
444.892	886.94
445.267	846.26
445.641	865.47
446.016	895.3
446.39	875.19
446.764	906.6
447.139	879.26
447.513	900.5
447.887	882.87
448.262	912.25
448.636	914.74
449.01	891.46
449.384	933.27
449.758	927.62
450.132	934.62
450.506	938.92
450.88	952.02
451.254	940.5
451.628	948.18
452.002	971.01
452.376	990.67
452.75	977.56
453.123	996.32
453.497	1011.46
453.871	1022.53
454.244	1020.5
454.618	1006.71
454.992	1051.46
455.365	1045.35
455.739	1053.72
456.112	1063.43
456.486	1078.57
456.859	1098.23
457.232	1064.11
457.606	1116.76
457.979	1119.48
458.352	1142.98
458.725	1147.05
459.099	1144.11
459.472	1149.98
459.845	1187.72
460.218	1182.53
460.591	1208.29
460.964	1206.03
461.337	1219.13
461.71	1222.3
462.083	1255.97
462.456	1261.85
462.829	1262.75
463.201	1293.26
463.574	1297.78
463.947	1315.4
464.32	1343.2
464.692	1340.49
465.065	1368.06
465.438	1363.54
465.81	1392.01
466.183	1398.11
466.555	1430.88
466.928	1416.64
467.3	1451.67
467.672	1457.55
468.045	1497.09
468.417	1500.71
468.789	1495.29
469.161	1514.95
469.534	1541.84
469.906	1558.11
470.278	1581.38
470.65	1612.57
471.022	1626.58
471.394	1690.31
471.766	1654.6
472.138	1707.48
472.51	1729.63
472.882	1759.91
473.253	1759.46
473.625	1799.91
473.997	1858.67
474.369	1810.53
474.74	1902.51
475.112	1904.99
475.484	1913.58
475.855	2002.84
476.227	1996.97
476.598	2036.97
476.97	2079
477.341	2121.48
477.713	2146.12
478.084	2192.22
478.455	2250.52
478.827	2236.73
479.198	2325.32
479.569	2311.54
479.94	2429.05
480.311	2420.46
480.682	2475.6
481.053	2525.77
481.424	2559.66
481.795	2626.78
482.166	2704.97
482.537	2687.12
482.908	2752.65
483.279	2837.4
483.65	2844.85
484.021	2942.03
484.391	2946.32
484.762	2976.38
485.133	3007.34
485.503	3090.5
485.874	3097.73
486.244	3164.17
486.615	3232.87
486.985	3267.67
487.356	3302.47
487.726	3392.64
488.097	3427.21
488.467	3486.87
488.837	3532.75
489.207	3591.5
489.578	3685.96
489.948	3683.02
490.318	3725.96
490.688	3768.22
491.058	3854.77
491.428	3869.01
491.798	3935.45
492.168	3992.4
492.538	4010.02
492.908	4048.89
493.278	4131.37
493.648	4164.59
494.017	4218.15
494.387	4216.57
494.757	4278.49
495.126	4363.46
495.496	4312.39
495.866	4412.95
496.235	4439.84
496.605	4517.13
496.974	4564.58
497.344	4496.56
497.713	4624.02
498.082	4625.82
498.452	4662.89
498.821	4716.9
499.19	4732.26
499.559	4793.96
499.928	4804.58
500.298	4848.64
500.667	4910.34
501.036	4915.31
501.405	4947.17
501.774	4949.21
502.143	4967.51
502.512	5086.83
502.88	5082.99
503.249	5111.69
503.618	5097.45
503.987	5143.78
504.356	5148.97
504.724	5222.65
505.093	5247.28
505.462	5249.54
505.83	5311.91
506.199	5326.37
506.567	5406.14
506.936	5373.38
507.304	5443.88
507.672	5442.3
508.041	5501.06
508.409	5484.11
508.777	5555.07
509.145	5586.93
509.514	5572.92
509.882	5610.43
510.25	5659.02
510.618	5688.62
510.986	5665.57
511.354	5750.99
511.722	5770.2
512.09	5833.02
512.458	5812.69
512.826	5865.34
513.193	5893.81
513.561	5914.83
513.929	5931.1
514.297	6016.3
514.664	5978.11
515.032	6056.97
515.4	6016.3
515.767	6062.4
516.135	6069.4
516.502	6098.55
516.869	6218.1
517.237	6146.01
517.604	6157.08
517.972	6237.53
518.339	6255.16
518.706	6221.04
519.073	6277.98
519.44	6350.98
519.808	6379
520.175	6407.47
520.542	6468.94
520.909	6435.49
521.276	6529.05
521.643	6550.07
522.009	6592.33
522.376	6581.71
522.743	6633.23
523.11	6682.27
523.477	6772.89
523.843	6768.14
524.21	6823.28
524.577	6852.43
524.943	6855.82
525.31	6906.44
525.676	6944.41
526.043	7039.55
526.409	7051.98
526.776	7101.69
527.142	7184.85
527.508	7194.12
527.874	7202.03
528.241	7230.5
528.607	7236.6
528.973	7322.93
529.339	7290.39
529.705	7390.05
530.071	7455.81
530.437	7433.89
530.803	7476.15
531.169	7507.33
531.535	7570.61
531.901	7558.18
532.267	7614.45
532.632	7681.79
532.998	7714.78
533.364	7700.32
533.73	7755.23
534.095	7843.82
534.461	7749.13
534.826	7889.24
535.192	7935.12
535.557	7927.88
535.923	7945.29
536.288	8032.06
536.653	8043.36
537.019	8067.54
537.384	8067.54
537.749	8102.34
538.114	8139.63
538.479	8240.64
538.845	8248.78
539.21	8153.64
539.575	8253.75
539.94	8263.7
540.305	8339.85
540.67	8341.21
541.034	8376.23
541.399	8450.13
541.764	8430.47
542.129	8526.74
542.494	8541.43
542.858	8613.97
543.223	8598.38
543.587	8660.97
543.952	8649.9
544.316	8695.32
544.681	8712.5
545.045	8818.26
545.41	8782.1
545.774	8794.75
546.138	8894.19
546.503	8868.2
546.867	8868.2
547.231	8999.27
547.595	8954.07
547.959	9034.07
548.324	9019.16
548.688	9043.34
549.052	9069.78
549.416	9122.66
549.779	9150.45
550.143	9121.75
550.507	9263.67
550.871	9266.38
551.235	9246.72
551.599	9256.66
551.962	9341.63
552.326	9300.5
552.689	9411.91
553.053	9444.68
553.417	9448.07
553.78	9564.23
554.143	9548.41
554.507	9573.94
554.87	9607.84
555.234	9665.69
555.597	9642.42
555.96	9627.5
556.323	9678.57
556.686	9734.39
557.05	9803.32
557.413	9820.04
557.776	9876.08
558.139	9892.8
558.502	9879.7
558.865	9985.68
559.228	9991.11
559.59	10023.2
559.953	10036.3
560.316	10085.34
560.679	10162.85
561.041	10162.18
561.404	10294.38
561.767	10349.74
562.129	10241.04
562.492	10424.54
562.854	10401.49
563.217	10358.56
563.579	10428.61
563.941	10523.97
564.304	10523.07
564.666	10637.42
565.028	10639.45
565.39	10650.3
565.753	10660.02
566.115	10730.3
566.477	10740.69
566.839	10824.53
567.201	10854.81
567.563	10829.96
567.925	10902.04
568.287	10997.63
568.648	10969.39
569.01	11032.89
569.372	11040.57
569.734	11136.84
570.095	11150.4
570.457	11180.91
570.819	11256.16
571.18	11271.3
571.542	11344.52
571.903	11409.15
572.265	11438.53
572.626	11491.86
572.987	11497.96
573.349	11589.26
573.71	11647.79
574.071	11719.65
574.432	11728.24
574.794	11885.97
575.155	11915.58
575.516	11898.4
575.877	12062.47
576.238	12040.54
576.599	12117.15
576.96	12189.02
577.32	12230.37
577.681	12411.83
578.042	12426.07
578.403	12559.18
578.763	12567.08
579.124	12703.35
579.485	12865.38
579.845	12921.2
580.206	13043.46
580.566	13124.36
580.927	13231.7
581.287	13438.25
581.648	13471.02
582.008	13643.89
582.368	13813.83
582.728	13948.74
583.089	14005.92
583.449	14214.27
583.809	14368.39
584.169	14624.66
584.529	14748.27
584.889	14947.59
585.249	15058.77
585.609	15200.69
585.969	15589.6
586.329	15671.86
586.688	15958.41
587.048	16144.17
587.408	16381.45
587.768	16638.62
588.127	16828.44
588.487	17029.34
588.846	17392.72
589.206	17523.56
589.565	17798.13
589.925	18106.83
590.284	18268.63
590.643	18591.79
591.003	18943.87
591.362	19248.04
591.721	19513.57
592.08	19816.61
592.44	20065.42
592.799	20404.39
593.158	20689.13
593.517	20972.29
593.876	21252.28
594.235	21545.15
594.593	21929.78
594.952	22242.31
595.311	22466.03
595.67	22927.94
596.029	23225.79
596.387	23617.42
596.746	23931.98
597.104	24175.37
597.463	24529.71
597.822	24780.55
598.18	25129.69
598.538	25495.56
598.897	25823.23
599.255	26027.52
599.613	26576.43
599.972	26755.64
600.33	27201.5
600.688	27370.76
601.046	27837.87
601.404	28295.71
601.762	28351.53
602.12	28792.19
602.478	29137.72
602.836	29466.75
603.194	29502.46
603.552	29977.02
603.91	30120.52
604.268	30588.08
604.625	30784.68
604.983	31152.36
605.341	31369.08
605.698	31660.14
606.056	32189.85
606.413	32368.15
606.771	32640.23
607.128	32929.26
607.485	33024.17
607.843	33312.75
608.2	33778.5
608.557	33971.95
608.914	34213.75
609.272	34653.28
609.629	34858.02
609.986	35180.05
610.343	35277.45
610.7	35865.23
611.057	35942.06
611.414	36030.42
611.771	36273.35
612.127	36777.97
612.484	36846.22
612.841	37072.2
613.198	37155.36
613.554	37323.04
613.911	37808.23
614.267	37899.07
614.624	38080.76
614.98	38330.48
615.337	38599.62
615.693	38544.71
616.05	38855.66
616.406	39364.12
616.762	39235.54
617.118	39571.8
617.475	39582.19
617.831	39775.41
618.187	39956.2
618.543	40318.45
618.899	40489.06
619.255	40582.17
619.611	40671.2
619.967	40935.38
620.323	41100.57
620.678	41160.46
621.034	41187.8
621.39	41284.97
621.746	41300.11
622.101	41914.34
622.457	41631.41
622.812	41838.41
623.168	42070.04
623.523	42125.86
623.879	42378.73
624.234	42233.42
624.589	42451.27
624.945	42546.64
625.3	42618.5
625.655	42699.4
626.01	42846.29
626.365	42971.26
626.72	43078.82
627.075	42973.06
627.43	43074.08
627.785	43056.9
628.14	43126.73
628.495	43296.45
628.85	43391.36
629.205	43399.72
629.559	43511.81
629.914	43489.89
630.269	43607.4
630.623	43418.25
630.978	43480.4
631.332	43727.4
631.687	43796.32
632.041	43580.73
632.396	43765.36
632.75	43603.33
633.104	43776.66
633.459	43687.17
633.813	43773.04
634.167	43870.44
634.521	43771.91
634.875	43930.1
635.229	43982.53
635.583	43722.2
635.937	43829.99
636.291	43815.53
636.645	43821.86
636.999	43758.58
637.352	43893.04
637.706	43622.54
638.06	43871.35
638.413	43823.21
638.767	43720.62
639.121	43877.67
639.474	43648.53
639.828	43670.45
640.181	43690.79
640.534	43795.19
640.888	43620.05
641.241	43572.82
641.594	43673.39
641.947	43787.73
642.301	43780.5
642.654	43656.21
643.007	43772.14
643.36	43641.07
643.713	43667.96
644.066	43778.69
644.419	43667.96
644.771	43281.31
645.124	43102.55
645.477	42894.87
645.83	42833.18
646.182	42775.78
646.535	42605.17
646.888	42689.23
647.24	42435.45
647.593	42616.46
647.945	42545.73
648.298	42533.53
648.65	42357.71
649.002	42431.16
649.355	42580.98
649.707	42469.12
650.059	42687.65
650.411	43091.03
650.763	43037.02
651.115	43539.6
651.467	43448.53
651.819	43422.09
652.171	43322.21
652.523	43276.56
652.875	43172.83
653.227	43045.15
653.578	43493.96
653.93	43163.79
654.282	43067.53
654.633	43098.03
654.985	43167.41
655.337	43143.91
655.688	43276.11
656.039	43304.81
656.391	42840.41
656.742	43097.13
657.094	43100.07
657.445	43197.47
657.796	43170.35
658.147	43017.13
658.498	43000.86
658.849	43094.64
659.2	42910.24
659.551	42864.14
659.902	42999.73
660.253	42949.79
660.604	43100.75
660.955	42788.21
661.306	43006.06
661.656	42919.73
662.007	43094.87
662.358	42987.53
662.708	43046.74
663.059	42912.95
663.409	42762
663.76	42952.27
664.11	42980.52
664.461	43002.44
664.811	43063.91
665.161	42847.87
665.511	42889.9
665.862	42938.94
666.212	42908.43
666.562	42962.44
666.912	42792.96
667.262	42764.48
667.612	42928.77
667.962	42928.09
668.312	42848.55
668.662	43060.29
669.011	42947.98
669.361	42793.41
669.711	42698.04
670.06	42822.56
670.41	42792.73
670.76	42645.16
671.109	42764.71
671.459	42828.44
671.808	42626.18
672.157	42689.23
672.507	42471.84
672.856	42511.38
673.205	42609.68
673.554	42637.93
673.904	42506.64
674.253	42844.93
674.602	42487.2
674.951	42130.38
675.3	41853.32
675.649	42438.84
675.998	42456.47
676.346	42522.46
676.695	42746.63
677.044	42386.87
677.393	42383.93
677.741	42595.45
678.09	42427.77
678.438	42168.11
678.787	42443.81
679.135	42366.53
679.484	42267.55
679.832	42339.86
680.181	42109.36
680.529	42152.3
680.877	42064.16
681.225	42109.58
681.573	42195.46
681.922	41913.88
682.27	41746.66
682.618	41903.04
682.966	41599.54
683.314	41986.42
683.661	41609.26
684.009	41481.8
684.357	41529.49
684.705	41429.6
685.053	41587.11
685.4	41453.33
685.748	41129.72
686.095	41265.31
686.443	41096.28
686.79	41012.66
687.138	41078.88
687.485	41157.97
687.832	40875.94
688.18	41040.91
688.527	40792.33
688.874	40726.12
689.221	40650.19
689.568	40647.02
689.915	40412.23
690.262	40643.63
690.609	40432.34
690.956	40365.9
691.303	40279.35
691.65	40003.88
691.997	39975.63
692.344	39784.22
692.69	39893.37
693.037	39763.88
693.383	39442.99
693.73	39589.65
694.077	39422.42
694.423	39459.94
694.769	39153.73
695.116	39178.59
695.462	39195.76
695.808	39071.25
696.155	39062.66
696.501	38713.52
696.847	38780.86
697.193	38548.55
697.539	38685.04
697.885	38343.36
698.231	38395.56
698.577	38377.71
698.923	38177.71
699.269	38128.45
699.614	37894.1
699.96	37884.61
700.306	37777.5
700.651	37816.82
700.997	37600.55
701.342	37573.43
701.688	37450.72
702.033	37511.74
702.379	37367.56
702.724	37114.46
703.069	37176.38
703.415	36993.79
703.76	36992.43
704.105	36914.47
704.45	36823.85
704.795	36703.17
705.14	36692.1
705.485	36620.24
705.83	36340.7
706.175	36416.4
706.52	36356.97
706.865	36184.54
707.209	36119.46
707.554	35998.11
707.899	36116.52
708.243	35860.03
708.588	35882.4
708.932	35630.21
709.277	35653.48
709.621	35650.55
709.966	35423.21
710.31	35630.43
710.654	35200.61
710.998	35206.04
711.342	35347.5
711.687	35159.26
712.031	35002.65
712.375	34915.42
712.719	34975.08
713.063	34851.02
713.407	35010.34
713.75	34665.49
714.094	34663.9
714.438	34637.24
714.782	34644.7
715.125	34432.72
715.469	34540.52
715.812	34341.43
716.156	34237.93
716.499	34071.6
716.843	34169.68
717.186	33958.61
717.53	34209
717.873	34160.19
718.216	33975.56
718.559	33799.75
718.902	33653.54
719.246	33809.69
719.589	33642.69
719.932	33651.73
720.275	33458.96
720.617	33511.39
720.96	33552.3
721.303	33452.41
721.646	33511.62
721.989	33409.7
722.331	33464.16
722.674	33194.11
723.016	33182.14
723.359	33213.77
723.701	33097.62
724.044	32874.12
724.386	32773.56
724.729	32956.61
725.071	32867.12
725.413	32772.66
725.755	32745.76
726.097	32644.07
726.439	32538.54
726.782	32519.55
727.124	32593
727.465	32397.07
727.807	32374.93
728.149	32350.75
728.491	32275.49
728.833	32302.84
729.175	32236.4
729.516	32093.13
729.858	32073.92
730.199	32287.02
730.541	32062.39
730.882	32049.06
731.224	32217.87
731.565	31881.61
731.906	31851.1
732.248	31850.19
732.589	31712.57
732.93	31593.48
733.271	31636.64
733.612	31727.94
733.953	31650.88
734.294	31429.64
734.635	31570.88
734.976	31536.98
735.317	31470.54
735.658	31254.96
735.999	31312.81
736.339	31289.98
736.68	31389.19
737.021	31239.81
737.361	31086.6
737.702	31264.9
738.042	31194.39
738.383	31094.96
738.723	31228.74
739.063	31012.25
739.404	31016.77
739.744	30969.99
740.084	30716.66
740.424	30787.62
740.764	30696.55
741.104	30777.23
741.444	30699.49
741.784	30675.54
742.124	30768.41
742.464	30601.86
742.804	30720.96
743.143	30385.83
743.483	30450.91
743.823	30364.81
744.162	30331.14
744.502	30418.14
744.841	30185.6
745.181	30414.3
745.52	30171.37
745.86	30307.86
746.199	30236.22
746.538	30069
746.877	30138.15
747.216	30220.18
747.556	30028.77
747.895	30079.84
748.234	29924.82
748.573	29833.52
748.911	29828.1
749.25	29695.45
749.589	29654.32
749.928	29768.89
750.267	29700.42
750.605	29682.34
750.944	29646.41
751.283	29517.15
751.621	29589.01
751.96	29324.38
752.298	29340.66
752.636	29439.41
752.975	29229.25
753.313	29186.08
753.651	29261.79
753.989	29176.59
754.327	29106.54
754.666	28986.77
755.004	28978.86
755.342	28901.12
755.679	28867.9
756.017	28739.31
756.355	28718.98
756.693	28656.83
757.031	28547.46
757.368	28479.89
757.706	28465.42
758.044	28315.37
758.381	28492.09
758.719	28354.92
759.056	28355.82
759.394	28183.62
