Data from hue_190_FLMS001491_00100.txt Node
Date: Tue Feb 07 16:46:03 GMT 2017
User: dcchb
Spectrometer: FLMS00149
Trigger mode: 0
Integration Time (sec): 2.000000E-2
Scans to average: 10
Electric dark correction enabled: true
Nonlinearity correction enabled: false
Boxcar width: 0
XAxis mode: Wavelengths
Number of Pixels in Spectrum: 2048
>>>>>Begin Spectral Data<<<<<
341.393	-11.74
341.776	-11.74
342.16	-11.74
342.543	-48.12
342.927	-68.46
343.31	-62.58
343.693	-74.11
344.077	-70.27
344.46	-57.39
344.843	-48.12
345.226	-49.93
345.61	-37.05
345.993	-17.84
346.376	-8.35
346.759	16.74
347.142	17.19
347.525	58.09
347.908	63.52
348.291	83.85
348.674	87.24
349.057	98.99
349.44	135.15
349.823	134.93
350.206	158.43
350.588	184.19
350.971	210.63
351.354	205.88
351.737	250.18
352.119	253.57
352.502	273.23
352.884	274.36
353.267	275.71
353.65	295.83
354.032	294.02
354.414	299.44
354.797	305.77
355.179	317.97
355.562	299.22
355.944	314.36
356.326	330.85
356.709	320.46
357.091	340.34
357.473	335.82
357.855	328.14
358.238	348.93
358.62	347.58
359.002	335.82
359.384	313.68
359.766	334.69
360.148	343.73
360.53	348.71
360.912	336.05
361.294	320.91
361.676	341.47
362.057	327.92
362.439	317.29
362.821	331.76
363.203	329.27
363.584	314.81
363.966	306.45
364.348	321.14
364.729	309.16
365.111	314.81
365.493	317.29
365.874	309.84
366.256	304.86
366.637	317.52
367.019	293.57
367.4	313.45
367.781	306.22
368.163	291.53
368.544	300.57
368.925	306.45
369.306	335.6
369.688	324.07
370.069	303.51
370.45	308.03
370.831	307.58
371.212	306.45
371.593	304.41
371.974	308.71
372.355	311.19
372.736	317.07
373.117	291.98
373.498	311.42
373.879	314.58
374.26	330.4
374.641	294.92
375.021	313.68
375.402	300.35
375.783	323.4
376.163	339.21
376.544	313.68
376.925	319.55
377.305	335.37
377.686	308.25
378.066	319.33
378.447	326.33
378.827	308.93
379.208	331.76
379.588	308.25
379.968	341.93
380.349	343.06
380.729	349.84
381.109	319.78
381.489	327.92
381.87	323.17
382.25	325.88
382.63	346.9
383.01	322.72
383.39	345.09
383.77	365.65
384.15	337.41
384.53	336.28
384.91	348.93
385.29	332.21
385.67	355.26
386.049	353.23
386.429	338.99
386.809	336.05
387.189	357.52
387.568	357.97
387.948	330.17
388.328	358.65
388.707	363.62
389.087	329.72
389.466	369.04
389.846	364.3
390.225	357.74
390.605	363.85
390.984	358.2
391.363	368.14
391.743	350.74
392.122	355.71
392.501	346.67
392.881	371.08
393.26	368.59
393.639	367.46
394.018	397.52
394.397	362.04
394.776	354.13
395.155	390.06
395.534	390.51
395.913	378.54
396.292	383.51
396.671	384.64
397.05	379.21
397.429	383.05
397.808	398.42
398.186	389.16
398.565	380.8
398.944	395.94
399.323	376.05
399.701	406.11
400.08	405.65
400.458	400.46
400.837	387.8
401.215	398.42
401.594	408.14
401.972	403.39
402.351	423.51
402.729	412.66
403.107	414.47
403.486	432.55
403.864	427.8
404.242	430.96
404.62	429.38
404.999	443.62
405.377	429.38
405.755	444.07
406.133	443.84
406.511	453.11
406.889	441.36
407.267	458.31
407.645	439.55
408.023	465.76
408.401	463.73
408.779	465.76
409.156	490.4
409.534	487.91
409.912	470.74
410.29	504.86
410.667	485.88
411.045	526.33
411.422	522.03
411.8	536.27
412.178	537.85
412.555	554.58
412.933	557.51
413.31	570.17
413.687	573.56
414.065	572.2
414.442	579.43
414.819	578.98
415.197	601.81
415.574	614.46
415.951	616.27
416.328	616.72
416.705	624.4
417.082	633.44
417.46	642.71
417.837	653.1
418.214	642.03
418.591	659.21
418.967	664.4
419.344	655.14
419.721	673.67
420.098	687.45
420.475	675.7
420.852	707.57
421.228	709.37
421.605	728.13
421.982	774.01
422.358	766.55
422.735	774.68
423.111	779.43
423.488	793.21
423.864	779.2
424.241	837.51
424.617	826.89
424.994	834.57
425.37	867.56
425.746	878.64
426.123	904.85
426.499	863.49
426.875	903.04
427.251	908.24
427.627	964.28
428.003	943.94
428.379	932.19
428.756	938.75
429.132	1001.34
429.507	982.59
429.883	1009.48
430.259	1023.49
430.635	1006.54
431.011	1033.89
431.387	1057.84
431.763	1065.52
432.138	1086.31
432.514	1110.04
432.89	1117.27
433.265	1149.81
433.641	1173.32
434.016	1155.69
434.392	1170.15
434.767	1187.1
435.143	1239.08
435.518	1242.92
435.894	1259.42
436.269	1267.78
436.644	1299.19
437.02	1346.87
437.395	1362.46
437.77	1377.15
438.145	1397.94
438.52	1415.34
438.895	1416.25
439.271	1464.61
439.646	1496.25
440.021	1511.39
440.395	1502.12
440.77	1532.63
441.145	1543.93
441.52	1585.51
441.895	1602.01
442.27	1580.76
442.645	1650.82
443.019	1668.67
443.394	1665.06
443.769	1678.39
444.143	1687.88
444.518	1728.33
444.892	1707.09
445.267	1727.88
445.641	1774.88
446.016	1732.4
446.39	1807.2
446.764	1787.76
447.139	1801.1
447.513	1806.97
447.887	1824.37
448.262	1860.3
448.636	1877.25
449.01	1915.9
449.384	1917.03
449.758	1934.43
450.132	1941.21
450.506	1990.92
450.88	1967.87
451.254	1974.2
451.628	2020.3
452.002	2043.58
452.376	2063.69
452.75	2056.68
453.123	2078.15
453.497	2123.8
453.871	2128.09
454.244	2174.19
454.618	2201.09
454.992	2216.45
455.365	2223.46
455.739	2259.84
456.112	2298.48
456.486	2331.48
456.859	2349.78
457.232	2388.2
457.606	2395.43
457.979	2432.94
458.352	2484.24
458.725	2479.04
459.099	2529.44
459.472	2566.05
459.845	2592.71
460.218	2608.31
460.591	2632.49
460.964	2672.03
461.337	2677.91
461.71	2739.6
462.083	2783.44
462.456	2761.52
462.829	2797.91
463.201	2855.98
463.574	2872.93
463.947	2923.55
464.32	3008.3
464.692	2977.79
465.065	3028.41
465.438	3087.39
465.81	3105.92
466.183	3168.97
466.555	3220.72
466.928	3283.32
467.3	3223.43
467.672	3296.42
468.045	3415.97
468.417	3420.49
468.789	3396.76
469.161	3507.27
469.534	3566.7
469.906	3622.29
470.278	3635.62
470.65	3667.49
471.022	3772.8
471.394	3804.21
471.766	3839.46
472.138	3900.7
472.51	3954.94
472.882	4062.05
473.253	4060.7
473.625	4188.6
473.997	4224.08
474.369	4246.91
474.74	4296.62
475.112	4424.3
475.484	4463.63
475.855	4508.37
476.227	4533.23
476.598	4674.02
476.97	4760.79
477.341	4841.69
477.713	4959.88
478.084	4947
478.455	5083.5
478.827	5139.09
479.198	5280.1
479.569	5289.14
479.94	5445.29
480.311	5487.55
480.682	5576.36
481.053	5706.53
481.424	5793.53
481.795	5907.43
482.166	5992.62
482.537	6073.3
482.908	6211.15
483.279	6208.89
483.65	6406.17
484.021	6508.77
484.391	6533.85
484.762	6592.38
485.133	6640.74
485.503	6800.29
485.874	6966.61
486.244	6929.78
486.615	7139.94
486.985	7210.22
487.356	7315.3
487.726	7377.22
488.097	7608.4
488.467	7562.98
488.837	7685.69
489.207	7785.35
489.578	7914.16
489.948	7941.05
490.318	8107.6
490.688	8093.13
491.058	8199.35
491.428	8354.6
491.798	8409.74
492.168	8571.09
492.538	8591.2
492.908	8697.41
493.278	8824.87
493.648	8768.15
494.017	8875.04
494.387	8964.3
494.757	9028.48
495.126	9124.52
495.496	9113.22
495.866	9170.17
496.235	9277.74
496.605	9387.11
496.974	9395.93
497.344	9460.56
497.713	9463.95
498.082	9561.57
498.452	9649.25
498.821	9657.84
499.19	9653.55
499.559	9765.63
499.928	9779.64
500.298	9827.55
500.667	9986.64
501.036	9855.12
501.405	9986.64
501.774	9941.9
502.143	10045.17
502.512	10039.98
502.88	10131.95
503.249	10145.51
503.618	10157.04
503.987	10206.3
504.356	10187.54
504.724	10325.39
505.093	10306.64
505.462	10345.05
505.83	10334.43
506.199	10421.89
506.567	10598.15
506.936	10523.35
507.304	10567.42
507.672	10563.8
508.041	10594.54
508.409	10659.85
508.777	10661.2
509.145	10663.01
509.514	10696.46
509.882	10706.85
510.25	10766.74
510.618	10774.19
510.986	10768.09
511.354	10835.21
511.722	10935.09
512.09	10955.21
512.458	10865.04
512.826	10954.3
513.193	10976.67
513.561	10957.92
513.929	11040.4
514.297	11009.22
514.664	11095.99
515.032	11021.87
515.4	11081.08
515.767	11088.31
516.135	11106.16
516.502	11058.25
516.869	11192.94
517.237	11124.24
517.604	11120.85
517.972	11136.22
518.339	11130.57
518.706	11209.44
519.073	11178.48
519.44	11218.7
519.808	11248.76
520.175	11147.07
520.542	11260.96
520.909	11281.98
521.276	11222.32
521.643	11193.84
522.009	11280.62
522.376	11274.52
522.743	11287.85
523.11	11348.64
523.477	11412.82
523.843	11325.59
524.21	11442.88
524.577	11455.53
524.943	11419.37
525.31	11364.01
525.676	11431.58
526.043	11388.19
526.409	11366.27
526.776	11377.12
527.142	11420.73
527.508	11319.26
527.874	11434.06
528.241	11397.23
528.607	11326.27
528.973	11386.83
529.339	11328.98
529.705	11376.44
530.071	11288.53
530.437	11331.69
530.803	11313.39
531.169	11302.77
531.535	11194.97
531.901	11211.92
532.267	11215.99
532.632	11194.3
532.998	11114.75
533.364	11182.09
533.73	11085.15
534.095	11107.29
534.461	11050.35
534.826	11061.87
535.192	11034.53
535.557	11021.87
535.923	10950.01
536.288	10828.88
536.653	10860.29
537.019	10819.62
537.384	10696
537.749	10729.9
538.114	10623.01
538.479	10591.6
538.845	10581.88
539.21	10474.31
539.575	10431.38
539.94	10441.77
540.305	10398.61
540.67	10350.93
541.034	10351.61
541.399	10296.01
541.764	10279.07
542.129	10185.51
542.494	10138.05
542.858	10099.64
543.223	10005.4
543.587	10010.37
543.952	9963.59
544.316	9863.03
544.681	9892.64
545.045	9822.58
545.41	9759.53
545.774	9767.44
546.138	9692.64
546.503	9662.36
546.867	9555.92
547.231	9593.21
547.595	9467.79
547.959	9468.01
548.324	9450.61
548.688	9363.61
549.052	9426.21
549.416	9276.83
549.779	9176.04
550.143	9188.47
550.507	9180.34
550.871	9076.61
551.235	9051.08
551.599	9131.07
551.962	9049.04
552.326	8922.94
552.689	8948.93
553.053	8804.08
553.417	8854.24
553.78	8857.41
554.143	8742.38
554.507	8750.29
554.87	8755.26
555.234	8738.99
555.597	8578.32
555.96	8564.76
556.323	8613.12
556.686	8531.77
557.05	8518.21
557.413	8491.54
557.776	8437.98
558.139	8417.19
558.502	8398.44
558.865	8349.4
559.228	8339
559.59	8350.3
559.953	8296.97
560.316	8304.43
560.679	8263.07
561.041	8300.13
561.404	8244.09
561.767	8262.4
562.129	8195.5
562.492	8241.83
562.854	8178.56
563.217	8112.8
563.579	8152.12
563.941	8172
564.304	8157.09
564.666	8195.28
565.028	8158.67
565.39	8156.86
565.753	8109.18
566.115	8130.87
566.477	8113.47
566.839	8085.45
567.201	8121.61
567.563	8078.45
567.925	8183.08
568.287	8029.63
568.648	8102.17
569.01	8144.21
569.372	8154.38
569.734	8072.12
570.095	8104.66
570.457	8163.19
570.819	8062.18
571.18	8100.82
571.542	8094.72
571.903	8094.72
572.265	8072.8
572.626	8089.74
572.987	8021.5
573.349	8063.53
573.71	8105.56
574.071	8108.73
574.432	8060.59
574.794	8076.19
575.155	8137.2
575.516	8035.96
575.877	8033.93
576.238	8065.34
576.599	8073.47
576.96	8024.44
577.32	8090.87
577.681	8112.34
578.042	8089.29
578.403	7999.8
578.763	8056.07
579.124	8025.57
579.485	8088.84
579.845	8022.18
580.206	8030.31
580.566	7976.53
580.927	8052.01
581.287	8042.74
581.648	7948.96
582.008	8039.8
582.368	8001.61
582.728	7963.42
583.089	7981.5
583.449	7955.51
583.809	7963.19
584.169	7990.54
584.529	7951.67
584.889	7947.15
585.249	7892.24
585.609	7867.15
585.969	7921.16
586.329	7865.57
586.688	7828.06
587.048	7914.61
587.408	7882.52
587.768	7912.8
588.127	7880.48
588.487	7835.74
588.846	7850.88
589.206	7755.74
589.565	7824.67
589.925	7796.65
590.284	7765.46
590.643	7799.36
591.003	7864.44
591.362	7835.51
591.721	7783.76
592.08	7754.16
592.44	7751.67
592.799	7761.17
593.158	7763.88
593.517	7632.58
593.876	7777.44
594.235	7683.2
594.593	7721.84
594.952	7756.65
595.311	7675.29
595.67	7646.82
596.029	7752.58
596.387	7672.58
596.746	7717.55
597.104	7620.38
597.463	7711
597.822	7732.92
598.18	7639.59
598.538	7622.64
598.897	7673.26
599.255	7610.44
599.613	7676.2
599.972	7618.57
600.33	7646.37
600.688	7591.9
601.046	7561.4
601.404	7645.91
601.762	7591.9
602.12	7631.9
602.478	7616.99
602.836	7626.71
603.194	7560.95
603.552	7520.49
603.91	7534.05
604.268	7584.22
604.625	7597.1
604.983	7567.27
605.341	7547.61
605.698	7541.28
606.056	7617.89
606.413	7535.18
606.771	7559.82
607.128	7619.7
607.485	7514.84
607.843	7619.93
608.2	7523.43
608.557	7557.33
608.914	7595.75
609.272	7605.92
609.629	7644.33
609.986	7578.8
610.343	7645.69
610.7	7637.1
611.057	7642.07
611.414	7615.63
611.771	7594.16
612.127	7716.87
612.484	7659.47
612.841	7633.71
613.198	7566.14
613.554	7639.59
613.911	7680.49
614.267	7677.55
614.624	7570.21
614.98	7642.53
615.337	7684.56
615.693	7683.65
616.05	7675.52
616.406	7685.46
616.762	7692.02
617.118	7663.99
617.475	7678.91
617.831	7670.32
618.187	7693.15
618.543	7682.3
618.899	7700.83
619.255	7691.11
619.611	7698.12
619.967	7729.53
620.323	7737.89
620.678	7741.28
621.034	7713.71
621.39	7676.42
621.746	7701.96
622.101	7781.96
622.457	7729.08
622.812	7680.49
623.168	7717.33
623.523	7729.3
623.879	7732.01
624.234	7748.28
624.589	7684.33
624.945	7762.52
625.3	7690.21
625.655	7730.21
626.01	7666.71
626.365	7723.2
626.72	7719.59
627.075	7716.87
627.43	7643.88
627.785	7648.63
628.14	7683.43
628.495	7725.46
628.85	7672.81
629.205	7663.77
629.559	7697.21
629.914	7592.36
630.269	7701.96
630.623	7600.27
630.978	7631.23
631.332	7588.52
631.687	7605.46
632.041	7562.3
632.396	7570.44
632.75	7626.03
633.104	7540.61
633.459	7527.95
633.813	7534.05
634.167	7576.99
634.521	7524.79
634.875	7544.9
635.229	7518.46
635.583	7512.81
635.937	7532.7
636.291	7522.08
636.645	7447.95
636.999	7447.95
637.352	7467.39
637.706	7407.05
638.06	7489.99
638.413	7415.86
638.767	7419.71
639.121	7421.06
639.474	7373.83
639.828	7402.76
640.181	7383.1
640.534	7389.65
640.888	7365.02
641.241	7348.3
641.594	7319.14
641.947	7408.63
642.301	7351.46
642.654	7385.81
643.007	7342.19
643.36	7342.19
643.713	7322.53
644.066	7395.75
644.419	7296.55
644.771	7256.32
645.124	7231.69
645.477	7193.5
645.83	7082.54
646.182	7050.45
646.535	7097.45
646.888	7174.51
647.24	7073.05
647.593	7057
647.945	7111.01
648.298	7103.33
648.65	7046.16
649.002	7033.73
649.355	7068.53
649.707	7085.48
650.059	7082.54
650.411	7224.68
650.763	7157.57
651.115	7295.64
651.467	7257.45
651.819	7257.22
652.171	7243.44
652.523	7177.68
652.875	7182.42
653.227	7219.49
653.578	7249.54
653.93	7227.62
654.282	7249.54
654.633	7200.28
654.985	7193.72
655.337	7226.49
655.688	7201.18
656.039	7343.32
656.391	7191.46
656.742	7269.65
657.094	7212.25
657.445	7281.4
657.796	7260.61
658.147	7290.22
658.498	7257.22
658.849	7266.26
659.2	7243.67
659.551	7319.14
659.902	7269.88
660.253	7315.08
660.604	7337.67
660.955	7246.15
661.306	7276.43
661.656	7262.42
662.007	7314.62
662.358	7335.64
662.708	7302.2
663.059	7307.62
663.409	7289.09
663.76	7288.64
664.11	7292.03
664.461	7273.5
664.811	7289.99
665.161	7347.39
665.511	7306.71
665.862	7367.5
666.212	7350.78
666.562	7379.71
666.912	7317.56
667.262	7323.44
667.612	7298.13
667.962	7337.45
668.312	7301.29
668.662	7321.4
669.011	7329.09
669.361	7287.51
669.711	7326.38
670.06	7238.02
670.41	7252.48
670.76	7328.63
671.109	7313.04
671.459	7300.39
671.808	7300.61
672.157	7289.31
672.507	7222.2
672.856	7252.25
673.205	7272.59
673.554	7250.9
673.904	7221.52
674.253	7329.99
674.602	7237.34
674.951	7163.67
675.3	7130.22
675.649	7233.5
675.998	7228.98
676.346	7219.26
676.695	7250.44
677.044	7179.03
677.393	7171.58
677.741	7198.47
678.09	7191.69
678.438	7200.5
678.787	7167.06
679.135	7116.89
679.484	7141.75
679.832	7162.31
680.181	7119.6
680.529	7125.02
680.877	7055.87
681.225	7069.66
681.573	7080.73
681.922	7066.72
682.27	6993.95
682.618	7013.39
682.966	7028.3
683.314	7008.64
683.661	6983.33
684.009	6955.54
684.357	6956.67
684.705	6891.58
685.053	6953.05
685.4	6924.35
685.748	6917.57
686.095	6902.66
686.443	6866.73
686.79	6840.51
687.138	6880.51
687.485	6880.29
687.832	6814.07
688.18	6784.24
688.527	6767.75
688.874	6804.81
689.221	6691.59
689.568	6784.24
689.915	6744.24
690.262	6728.65
690.609	6655.88
690.956	6660.63
691.303	6591.03
691.65	6651.82
691.997	6636
692.344	6589.9
692.69	6548.54
693.037	6517.81
693.383	6463.12
693.73	6501.99
694.077	6423.35
694.423	6421.54
694.769	6423.57
695.116	6391.94
695.462	6328.89
695.808	6301.09
696.155	6314.65
696.501	6277.82
696.847	6267.65
697.193	6222.68
697.539	6267.19
697.885	6213.41
698.231	6213.86
698.577	6128.44
698.923	6184.26
699.269	6098.61
699.614	6098.84
699.96	6116.92
700.306	6085.73
700.651	6067.65
700.997	6047.76
701.342	5986.98
701.688	5980.65
702.033	5945.39
702.379	5926.19
702.724	5894.55
703.069	5932.74
703.415	5869.01
703.76	5888.9
704.105	5860.43
704.45	5813.87
704.795	5801.44
705.14	5759.86
705.485	5752.41
705.83	5673.99
706.175	5785.4
706.52	5740.43
706.865	5671.05
707.209	5666.31
707.554	5648
707.899	5656.81
708.243	5594.22
708.588	5561.22
708.932	5561.9
709.277	5530.72
709.621	5612.07
709.966	5513.09
710.31	5500.43
710.654	5500.21
710.998	5482.81
711.342	5482.36
711.687	5479.87
712.031	5383.15
712.375	5389.7
712.719	5437.61
713.063	5398.52
713.407	5400.32
713.75	5364.39
714.094	5412.3
714.438	5383.83
714.782	5391.06
715.125	5414.11
715.469	5363.94
715.812	5330.5
716.156	5311.29
716.499	5309.03
716.843	5287.56
717.186	5285.3
717.53	5325.75
717.873	5310.38
718.216	5285.3
718.559	5230.39
718.902	5254.34
719.246	5257.05
719.589	5220.22
719.932	5233.55
720.275	5220.22
720.617	5226.32
720.96	5241.46
721.303	5182.02
721.646	5193.55
721.989	5171.86
722.331	5191.06
722.674	5229.03
723.016	5169.82
723.359	5200.56
723.701	5169.14
724.044	5133.89
724.386	5104.74
724.729	5167.34
725.071	5125.98
725.413	5156.94
725.755	5158.52
726.097	5112.87
726.439	5101.57
726.782	5145.64
727.124	5129.82
727.465	5101.12
727.807	5096.38
728.149	5077.85
728.491	5090.05
728.833	5098.64
729.175	5130.73
729.516	5129.14
729.858	5107.9
730.199	5163.72
730.541	5155.58
730.882	5118.75
731.224	5118.52
731.565	5070.62
731.906	5147.22
732.248	5166.66
732.589	5059.77
732.93	5099.99
733.271	5097.73
733.612	5130.5
733.953	5146.09
734.294	5187.22
734.635	5109.94
734.976	5125.08
735.317	5124.17
735.658	5153.55
735.999	5183.15
736.339	5106.55
736.68	5189.71
737.021	5161.91
737.361	5147.45
737.702	5166.21
738.042	5180.89
738.383	5149.94
738.723	5212.31
739.063	5182.93
739.404	5216.83
739.744	5210.72
740.084	5209.14
740.424	5252.76
740.764	5234.68
741.104	5251.4
741.444	5270.16
741.784	5237.16
742.124	5282.59
742.464	5317.39
742.804	5327.78
743.143	5339.53
743.483	5360.78
743.823	5335.24
744.162	5389.48
744.502	5458.63
744.841	5414.56
745.181	5500.66
745.52	5522.35
745.86	5503.15
746.199	5574.78
746.538	5578.62
746.877	5624.5
747.216	5719.19
747.556	5654.33
747.895	5736.81
748.234	5779.07
748.573	5856.13
748.911	5911.27
749.25	5976.35
749.589	5981.55
749.928	6044.15
750.267	6167.99
750.605	6208.44
750.944	6245.95
751.283	6309.9
751.621	6397.59
751.96	6491.14
752.298	6548.99
752.636	6615.21
752.975	6720.97
753.313	6769.33
753.651	6953.28
753.989	7037.57
754.327	7181.29
754.666	7189.88
755.004	7350.78
755.342	7441.17
755.679	7570.89
756.017	7691.56
756.355	7752.35
756.693	7972.69
757.031	8156.18
757.368	8203.41
757.706	8396.86
758.044	8533.35
758.381	8713.46
758.719	8833.91
759.056	8998.2
759.394	9178.53
759.731	9227.12
760.068	9443.38
760.405	9598.41
760.743	9687.44
761.08	9901.9
761.417	10032.74
761.754	10204.49
762.091	10410.59
762.428	10570.36
762.765	10705.95
763.102	10950.46
763.438	11049.89
763.775	11249.89
764.112	11450.79
764.449	11581.86
764.785	11766.71
765.122	11811.68
765.458	12043.99
765.795	12226.59
766.131	12409.41
766.467	12472.45
766.804	12590.19
