Data from hue_240_FLMS001491_00008.txt Node
Date: Tue Feb 07 16:34:59 GMT 2017
User: dcchb
Spectrometer: FLMS00149
Trigger mode: 0
Integration Time (sec): 2.000000E-2
Scans to average: 10
Electric dark correction enabled: true
Nonlinearity correction enabled: false
Boxcar width: 0
XAxis mode: Wavelengths
Number of Pixels in Spectrum: 2048
>>>>>Begin Spectral Data<<<<<
341.393	-15.75
341.776	-15.75
342.16	-15.75
342.543	-52.36
342.927	-68.4
343.31	-62.53
343.693	-89.19
344.077	-81.96
344.46	-50.1
344.843	-56.43
345.226	-32.47
345.61	-40.38
345.993	-6.03
346.376	0.52
346.759	8.43
347.142	22.89
347.525	34.87
347.908	67.41
348.291	52.72
348.674	114.64
349.057	117.58
349.44	98.6
349.823	147.64
350.206	145.6
350.588	188.99
350.971	199.16
351.354	233.28
351.737	226.05
352.119	224.25
352.502	248.88
352.884	268.09
353.267	265.83
353.65	289.33
354.032	284.81
354.414	292.94
354.797	283.68
355.179	316.22
355.562	313.51
355.944	299.05
356.326	321.87
356.709	327.97
357.091	320.97
357.473	320.74
357.855	325.94
358.238	328.42
358.62	322.1
359.002	312.6
359.384	328.42
359.766	336.11
360.148	328.88
360.53	312.83
360.912	306.5
361.294	325.26
361.676	304.47
362.057	335.88
362.439	332.49
362.821	319.84
363.203	307.86
363.584	321.87
363.966	325.03
364.348	318.48
364.729	299.27
365.111	303.11
365.493	314.19
365.874	287.52
366.256	302.44
366.637	305.6
367.019	315.32
367.4	301.98
367.781	308.99
368.163	299.05
368.544	302.21
368.925	287.07
369.306	300.63
369.688	289.1
370.069	304.24
370.45	311.7
370.831	306.73
371.212	304.02
371.593	299.95
371.974	301.98
372.355	310.57
372.736	310.12
373.117	294.07
373.498	286.62
373.879	313.73
374.26	308.09
374.641	330.01
375.021	319.84
375.402	299.27
375.783	308.54
376.163	325.94
376.544	295.88
376.925	330.91
377.305	336.78
377.686	340.4
378.066	323.9
378.447	299.05
378.827	329.55
379.208	312.15
379.588	323.23
379.968	328.42
380.349	332.27
380.729	330.01
381.109	318.71
381.489	331.36
381.87	323.45
382.25	313.06
382.63	350.57
383.01	342.89
383.39	319.61
383.77	328.2
384.15	335.43
384.53	333.17
384.91	333.62
385.29	357.12
385.67	352.38
386.049	347.18
386.429	337.24
386.809	353.96
387.189	343.79
387.568	359.16
387.948	343.56
388.328	335.43
388.707	336.33
389.087	356.45
389.466	374.3
389.846	359.16
390.225	344.02
390.605	356.22
390.984	350.34
391.363	345.6
391.743	364.35
392.122	344.47
392.501	373.85
392.881	373.62
393.26	382.66
393.639	372.72
394.018	366.16
394.397	374.07
394.776	359.61
395.155	376.56
395.534	379.27
395.913	360.29
396.292	379.04
396.671	381.53
397.05	381.53
397.429	391.47
397.808	393.05
398.186	365.26
398.565	386.05
398.944	389.44
399.323	401.42
399.701	391.02
400.08	409.33
400.458	405.71
400.837	406.39
401.215	408.2
401.594	394.18
401.972	414.52
402.351	406.39
402.729	411.13
403.107	415.65
403.486	418.82
403.864	407.29
404.242	421.3
404.62	419.04
404.999	451.36
405.377	432.83
405.755	431.7
406.133	438.48
406.511	445.03
406.889	451.36
407.267	454.07
407.645	451.81
408.023	455.88
408.401	469.89
408.779	478.25
409.156	480.28
409.534	481.41
409.912	489.1
410.29	507.85
410.667	476.67
411.045	493.16
411.422	490.45
411.8	507.63
412.178	513.5
412.555	526.61
412.933	533.39
413.31	525.71
413.687	549.66
414.065	547.63
414.442	545.14
414.819	539.94
415.197	572.26
415.574	592.6
415.951	572.94
416.328	568.87
416.705	601.86
417.082	602.09
417.46	611.35
417.837	619.26
418.214	610.9
418.591	616.78
418.967	630.56
419.344	620.85
419.721	664.46
420.098	652.71
420.475	646.16
420.852	636.21
421.228	677.79
421.605	676.44
421.982	683.22
422.358	668.53
422.735	708.07
423.111	734.06
423.488	740.39
423.864	739.71
424.241	732.03
424.617	754.85
424.994	739.03
425.37	779.71
425.746	764.57
426.123	766.15
426.499	791.46
426.875	802.54
427.251	814.74
427.627	837.79
428.003	849.31
428.379	836.88
428.756	844.57
429.132	833.04
429.507	860.16
429.883	874.4
430.259	888.41
430.635	892.25
431.011	864.91
431.387	894.96
431.763	933.15
432.138	924.57
432.514	959.14
432.89	960.27
433.265	974.51
433.641	969.99
434.016	1008.41
434.392	1025.35
434.767	1028.52
435.143	1043.88
435.518	1062.64
435.894	1061.29
436.269	1096.99
436.644	1114.84
437.02	1097.67
437.395	1139.7
437.77	1140.83
438.145	1180.38
438.52	1172.92
438.895	1203.88
439.271	1217.89
439.646	1215.86
440.021	1244.33
440.395	1226.48
440.77	1225.12
441.145	1255.4
441.52	1286.82
441.895	1274.39
442.27	1311.22
442.645	1279.13
443.019	1328.4
443.394	1337.44
443.769	1341.96
444.143	1351
444.518	1383.09
444.892	1373.59
445.267	1392.58
445.641	1390.32
446.016	1379.92
446.39	1404.1
446.764	1424.67
447.139	1394.84
447.513	1456.98
447.887	1449.75
448.262	1445
448.636	1482.74
449.01	1505.12
449.384	1496.98
449.758	1493.82
450.132	1514.83
450.506	1554.83
450.88	1530.2
451.254	1532.69
451.628	1526.13
452.002	1598.45
452.376	1589.86
452.75	1614.27
453.123	1615.62
453.497	1631.44
453.871	1629.18
454.244	1644.1
454.618	1679.12
454.992	1694.26
455.365	1722.29
455.739	1755.73
456.112	1743.3
456.486	1783.3
456.859	1774.26
457.232	1806.58
457.606	1802.74
457.979	1797.09
458.352	1881.15
458.725	1878.21
459.099	1887.03
459.472	1941.71
459.845	1918.21
460.218	1956.4
460.591	1947.59
460.964	1955.05
461.337	2049.06
461.71	2058.55
462.083	2124.08
462.456	2059.9
462.829	2047.02
463.201	2145.78
463.574	2130.86
463.947	2143.29
464.32	2212.89
464.692	2190.07
465.065	2233.91
465.438	2255.15
465.81	2235.27
466.183	2299.22
466.555	2352.33
466.928	2330.18
467.3	2364.08
467.672	2379.44
468.045	2470.97
468.417	2432.1
468.789	2487.46
469.161	2490.85
469.534	2532.66
469.906	2576.27
470.278	2591.87
470.65	2611.75
471.022	2643.16
471.394	2698.08
471.766	2722.03
472.138	2730.62
472.51	2788.25
472.882	2873.44
473.253	2832.54
473.625	2900.33
473.997	2948.02
474.369	2945.08
474.74	2978.75
475.112	3047.45
475.484	3071.18
475.855	3156.37
476.227	3166.09
476.598	3246.09
476.97	3262.13
477.341	3310.04
477.713	3345.52
478.084	3363.15
478.455	3472.52
478.827	3459.64
479.198	3556.36
479.569	3538.28
479.94	3617.38
480.311	3646.53
480.682	3727.43
481.053	3783.7
481.424	3879.29
481.795	3884.94
482.166	3953.64
482.537	3962.68
482.908	4032.51
483.279	4085.61
483.65	4140.3
484.021	4203.12
484.391	4259.85
484.762	4251.48
485.133	4281.77
485.503	4339.84
485.874	4399.73
486.244	4488.09
486.615	4539.61
486.985	4592.94
487.356	4677.91
487.726	4705.48
488.097	4804.24
488.467	4763.79
488.837	4864.12
489.207	4900.05
489.578	4998.58
489.948	5045.81
490.318	5087.62
490.688	5113.16
491.058	5136.21
491.428	5203.78
491.798	5275.64
492.168	5380.27
492.538	5312.02
492.908	5383.21
493.278	5474.05
493.648	5485.35
494.017	5556.31
494.387	5570.55
494.757	5625.46
495.126	5653.71
495.496	5647.15
495.866	5680.15
496.235	5708.85
496.605	5780.03
496.974	5817.09
497.344	5823.42
497.713	5932.57
498.082	5859.58
498.452	5942.74
498.821	5972.79
499.19	6010.53
499.559	6013.7
499.928	6087.59
500.298	6093.7
500.667	6126.92
501.036	6108.61
501.405	6182.96
501.774	6156.29
502.143	6219.34
502.512	6237.19
502.88	6277.65
503.249	6275.16
503.618	6296.4
503.987	6283.52
504.356	6348.15
504.724	6303.86
505.093	6373.46
505.462	6418.88
505.83	6470.86
506.199	6450.75
506.567	6508.15
506.936	6461.14
507.304	6627.47
507.672	6635.15
508.041	6608.03
508.409	6654.58
508.777	6687.8
509.145	6685.09
509.514	6677.41
509.882	6737.75
510.25	6716.96
510.618	6764.41
510.986	6773.23
511.354	6812.09
511.722	6861.13
512.09	6919.44
512.458	6797.18
512.826	6896.61
513.193	6904.97
513.561	6894.8
513.929	6926.89
514.297	7012.54
514.664	6974.8
515.032	6956.27
515.4	7034.69
515.767	7050.96
516.135	7048.25
516.502	6984.07
516.869	7153.78
517.237	7137.06
517.604	7044.86
517.972	7203.5
518.339	7155.14
518.706	7187.68
519.073	7159.2
519.44	7222.93
519.808	7259.77
520.175	7174.57
520.542	7239.43
520.909	7276.72
521.276	7326.21
521.643	7293.66
522.009	7281.46
522.376	7331.63
522.743	7296.38
523.11	7422.47
523.477	7464.96
523.843	7461.12
524.21	7462.93
524.577	7566.2
524.943	7523.04
525.31	7587.67
525.676	7534.79
526.043	7532.75
526.409	7547.67
526.776	7656.59
527.142	7648.91
527.508	7658.85
527.874	7664.5
528.241	7658.4
528.607	7681.22
528.973	7697.5
529.339	7659.08
529.705	7738.4
530.071	7758.06
530.437	7781.33
530.803	7838.73
531.169	7862.69
531.535	7710.38
531.901	7735.46
532.267	7802.35
532.632	7800.32
532.998	7802.13
533.364	7814.33
533.73	7797.38
534.095	7752.18
534.461	7833.54
534.826	7840.77
535.192	7830.6
535.557	7868.11
535.923	7829.02
536.288	7776.82
536.653	7863.37
537.019	7788.57
537.384	7822.24
537.749	7786.08
538.114	7840.09
538.479	7780.21
538.845	7842.8
539.21	7786.98
539.575	7806.65
539.94	7789.24
540.305	7838.51
540.67	7828.34
541.034	7805.06
541.399	7766.19
541.764	7776.59
542.129	7694.78
542.494	7814.55
542.858	7766.87
543.223	7716.03
543.587	7786.08
543.952	7682.35
544.316	7741.11
544.681	7655.01
545.045	7750.38
545.41	7691.17
545.774	7728
546.138	7673.32
546.503	7703.14
546.867	7718.74
547.231	7650.04
547.595	7721
547.959	7738.17
548.324	7654.78
548.688	7646.2
549.052	7648.46
549.416	7660.21
549.779	7657.27
550.143	7641.23
550.507	7616.37
550.871	7594.9
551.235	7600.55
551.599	7623.6
551.962	7703.14
552.326	7624.73
552.689	7690.94
553.053	7612.53
553.417	7600.77
553.78	7689.36
554.143	7595.8
554.507	7609.81
554.87	7621.57
555.234	7664.95
555.597	7646.42
555.96	7672.86
556.323	7688.91
556.686	7674.9
557.05	7631.96
557.413	7717.61
557.776	7624.73
558.139	7627.21
558.502	7695.91
558.865	7682.35
559.228	7727.1
559.59	7669.25
559.953	7691.62
560.316	7727.78
560.679	7742.92
561.041	7761.67
561.404	7782.69
561.767	7781.11
562.129	7782.24
562.492	7909.69
562.854	7814.78
563.217	7812.07
563.579	7840.09
563.941	7882.35
564.304	7947.66
564.666	7910.15
565.028	7938.84
565.39	7890.48
565.753	7954.44
566.115	7977.26
566.477	7981.1
566.839	8022.46
567.201	8009.13
567.563	8052.97
567.925	8102
568.287	8060.42
568.648	8103.59
569.01	8117.15
569.372	8167.54
569.734	8158.5
570.095	8200.53
570.457	8180.42
570.819	8185.17
571.18	8223.36
571.542	8297.48
571.903	8249.8
572.265	8255.45
572.626	8302.9
572.987	8288.44
573.349	8354.65
573.71	8287.54
574.071	8372.51
574.432	8374.54
574.794	8459.96
575.155	8459.96
575.516	8425.84
575.877	8455.67
576.238	8531.82
576.599	8528.89
576.96	8577.02
577.32	8543.35
577.681	8525.5
578.042	8630.35
578.403	8591.03
578.763	8617.92
579.124	8623.57
579.485	8677.13
579.845	8694.31
580.206	8630.58
580.566	8634.65
580.927	8669.67
581.287	8740.63
581.648	8654.08
582.008	8762.55
582.368	8785.6
582.728	8714.87
583.089	8690.46
583.449	8797.58
583.809	8793.51
584.169	8777.92
584.529	8786.96
584.889	8803.91
585.249	8773.63
585.609	8772.72
585.969	8791.48
586.329	8857.24
586.688	8833.28
587.048	8865.6
587.408	8836.45
587.768	8843.45
588.127	8864.92
588.487	8841.65
588.846	8936.78
589.206	8844.13
589.565	8904.47
589.925	8934.52
590.284	8914.19
590.643	8946.73
591.003	9018.59
591.362	8977.91
591.721	8979.5
592.08	8987.86
592.44	9048.42
592.799	9075.76
593.158	8947.63
593.517	9024.92
593.876	9083.67
594.235	9080.28
594.593	9053.17
594.952	9104.69
595.311	9054.07
595.67	9113.5
596.029	9109.44
596.387	9069.66
596.746	9255.42
597.104	9093.39
597.463	9105.14
597.822	9204.12
598.18	9128.64
598.538	9121.19
598.897	9169.32
599.255	9105.14
599.613	9215.2
599.972	9195.99
600.33	9155.76
600.688	9171.58
601.046	9220.39
601.404	9210
601.762	9218.36
602.12	9264.46
602.478	9209.32
602.836	9293.39
603.194	9317.57
603.552	9211.13
603.91	9180.39
604.268	9264.91
604.625	9203.67
604.983	9243.22
605.341	9182.2
605.698	9260.39
606.056	9318.47
606.413	9247.29
606.771	9320.28
607.128	9316.21
607.485	9275.53
607.843	9337.9
608.2	9298.58
608.557	9311.01
608.914	9363.21
609.272	9348.3
609.629	9346.72
609.986	9358.92
610.343	9367.06
610.7	9415.19
611.057	9406.38
611.414	9377.68
611.771	9444.57
612.127	9423.1
612.484	9379.26
612.841	9434.17
613.198	9431.91
613.554	9440.27
613.911	9534.28
614.267	9425.13
614.624	9494.96
614.98	9488.86
615.337	9465.58
615.693	9527.28
616.05	9508.3
616.406	9579.48
616.762	9479.37
617.118	9540.38
617.475	9506.49
617.831	9547.84
618.187	9547.39
618.543	9551.46
618.899	9559.82
619.255	9601.63
619.611	9573.83
619.967	9575.19
620.323	9693.83
620.678	9599.59
621.034	9622.42
621.39	9593.26
621.746	9604.34
622.101	9684.56
622.457	9514.17
622.812	9621.96
623.168	9710.1
623.523	9600.27
623.879	9640.27
624.234	9621.29
624.589	9638.46
624.945	9550.78
625.3	9582.19
625.655	9624.22
626.01	9560.05
626.365	9664.9
626.72	9590.78
627.075	9638.46
627.43	9623.77
627.785	9612.7
628.14	9619.03
628.495	9572.02
628.85	9548.29
629.205	9516.2
629.559	9638.69
629.914	9598.01
630.269	9505.13
630.623	9494.74
630.978	9515.3
631.332	9505.81
631.687	9600.27
632.041	9534.28
632.396	9553.27
632.75	9429.2
633.104	9483.21
633.459	9444.34
633.813	9414.06
634.167	9402.08
634.521	9457.68
634.875	9441.18
635.229	9440.5
635.583	9396.43
635.937	9372.71
636.291	9414.51
636.645	9451.12
636.999	9286.61
637.352	9368.41
637.706	9315.31
638.06	9331.8
638.413	9331.8
638.767	9348.75
639.121	9323.67
639.474	9223.78
639.828	9257
640.181	9292.26
640.534	9274.85
640.888	9219.94
641.241	9220.85
641.594	9257.23
641.947	9235.08
642.301	9223.78
642.654	9234.86
643.007	9162.54
643.36	9194.86
643.713	9199.83
644.066	9167.74
644.419	9177.91
644.771	9078.25
645.124	9000.29
645.477	8996.9
645.83	8946.95
646.182	8870.12
646.535	8840.74
646.888	8850.69
647.24	8819.05
647.593	8872.83
647.945	8905.15
648.298	8829.44
648.65	8820.4
649.002	8747.64
649.355	8839.84
649.707	8895.2
650.059	8912.38
650.411	8959.38
650.763	8995.99
651.115	8988.99
651.467	9071.92
651.819	9028.08
652.171	9038.93
652.523	8981.3
652.875	8980.63
653.227	8972.49
653.578	9011.81
653.93	8978.59
654.282	8916.45
654.633	8987.18
654.985	8948.76
655.337	8972.72
655.688	9011.36
656.039	9043.22
656.391	8923.9
656.742	8997.8
657.094	9001.19
657.445	9064.69
657.796	9029.89
658.147	8945.82
658.498	8945.6
658.849	9050.68
659.2	8991.7
659.551	8991.25
659.902	8949.44
660.253	8986.05
660.604	8979.5
660.955	8976.78
661.306	8967.07
661.656	8954.86
662.007	9014.3
662.358	8939.04
662.708	8993.05
663.059	9033.05
663.409	8885.71
663.76	8948.31
664.11	8951.93
664.461	8979.5
664.811	8963.68
665.161	8986.5
665.511	8876.45
665.862	8980.17
666.212	8974.3
666.562	8937.91
666.912	8941.76
667.262	8973.62
667.612	9061.3
667.962	8960.74
668.312	8908.54
668.662	9004.58
669.011	8998.93
669.361	8955.77
669.711	8904.02
670.06	8991.25
670.41	8948.99
670.76	8867.63
671.109	8935.65
671.459	8922.55
671.808	8918.25
672.157	8892.94
672.507	8903.57
672.856	8869.89
673.205	8905.83
673.554	8881.19
673.904	8867.41
674.253	8908.54
674.602	8854.3
674.951	8768.2
675.3	8668.54
675.649	8782.44
675.998	8809.1
676.346	8884.36
676.695	8888.88
677.044	8810.69
677.393	8842.78
677.741	8830.8
678.09	8858.37
678.438	8810.23
678.787	8789.22
679.135	8763.68
679.484	8658.6
679.832	8758.26
680.181	8726.85
680.529	8721.88
680.877	8770.91
681.225	8675.1
681.573	8718.94
681.922	8619.28
682.27	8674.64
682.618	8596.45
682.966	8574.08
683.314	8596.23
683.661	8567.08
684.009	8539.51
684.357	8493.41
684.705	8525.5
685.053	8574.99
685.4	8504.25
685.748	8417.93
686.095	8480.53
686.443	8394.2
686.79	8450.92
687.138	8448.66
687.485	8384.93
687.832	8317.59
688.18	8391.49
688.527	8330.93
688.874	8318.95
689.221	8293.19
689.568	8205.05
689.915	8246.41
690.262	8264.49
690.609	8179.97
690.956	8175.67
691.303	8233.75
691.65	8093.42
691.997	8121.44
692.344	8066.07
692.69	8045.96
693.037	8106.75
693.383	8046.64
693.73	8037.15
694.077	7983.14
694.423	7928.68
694.769	7887.32
695.116	7855.68
695.462	7912.4
695.808	7839.86
696.155	7872.86
696.501	7769.58
696.847	7799.64
697.193	7714.67
697.539	7747.21
697.885	7663.6
698.231	7650.49
698.577	7660.89
698.923	7611.4
699.269	7618.4
699.614	7561.68
699.96	7522.36
700.306	7521.45
700.651	7471.06
700.997	7425.19
701.342	7453.89
701.688	7410.95
702.033	7384.06
702.379	7362.14
702.724	7357.84
703.069	7387.67
703.415	7298.64
703.76	7271.07
704.105	7272.42
704.45	7280.56
704.795	7201.46
705.14	7194.46
705.485	7151.3
705.83	7163.95
706.175	7149.49
706.52	7118.98
706.865	7080.79
707.209	7052.09
707.554	7042.82
707.899	7061.58
708.243	6992.43
708.588	6982.71
708.932	6925.99
709.277	6942.94
709.621	6928.02
709.966	6941.13
710.31	6919.21
710.654	6864.75
710.998	6872.66
711.342	6922.15
711.687	6837.63
712.031	6821.36
712.375	6800.12
712.719	6837.86
713.063	6756.28
713.407	6790.63
713.75	6765.99
714.094	6789.04
714.438	6738.65
714.782	6750.63
715.125	6683.74
715.469	6732.55
715.812	6674.02
716.156	6584.53
716.499	6674.02
716.843	6678.31
717.186	6625.66
717.53	6648.03
717.873	6669.73
718.216	6592.67
718.559	6571.65
718.902	6568.94
719.246	6551.54
719.589	6575.26
719.932	6550.63
720.275	6562.61
720.617	6552.89
720.96	6470.63
721.303	6513.12
721.646	6469.05
721.989	6529.39
722.331	6519.45
722.674	6486.91
723.016	6453.69
723.359	6460.01
723.701	6483.97
724.044	6462.27
724.386	6465.44
724.729	6462.05
725.071	6447.81
725.413	6370.75
725.755	6401.94
726.097	6406
726.439	6384.31
726.782	6360.36
727.124	6387.02
727.465	6355.61
727.807	6335.72
728.149	6353.8
728.491	6338.66
728.833	6395.83
729.175	6378.66
729.516	6356.74
729.858	6339.56
730.199	6396.74
730.541	6355.16
730.882	6329.4
731.224	6392.67
731.565	6329.62
731.906	6347.25
732.248	6316.74
732.589	6347.25
732.93	6295.5
733.271	6324.2
733.612	6319.45
733.953	6357.64
734.294	6310.64
734.635	6312.9
734.976	6295.5
735.317	6265.67
735.658	6297.31
735.999	6351.09
736.339	6290.75
736.68	6321.94
737.021	6301.15
737.361	6309.51
737.702	6331.43
738.042	6331.2
738.383	6282.84
738.723	6304.31
739.063	6320.81
739.404	6327.59
739.744	6364.42
740.084	6310.64
740.424	6364.2
740.764	6372.33
741.104	6376.4
741.444	6340.24
741.784	6322.84
742.124	6389.96
742.464	6376.4
742.804	6342.5
743.143	6399
743.483	6399.22
743.823	6402.16
744.162	6382.73
744.502	6477.64
744.841	6509.73
745.181	6558.32
745.52	6494.36
745.86	6528.94
746.199	6543.85
746.538	6580.91
746.877	6566.9
747.216	6642.83
747.556	6628.14
747.895	6704.75
748.234	6647.58
748.573	6675.15
748.911	6725.54
749.25	6772.32
749.589	6779.33
749.928	6845.77
750.267	6881.7
750.605	6914.92
750.944	6907.91
751.283	7038.3
751.621	7040.11
751.96	7114.01
752.298	7125.53
752.636	7212.99
752.975	7278.3
753.313	7307.9
753.651	7401.23
753.989	7469.25
754.327	7474.9
754.666	7545.41
755.004	7676.25
755.342	7751.05
755.679	7826.31
756.017	7802.58
756.355	8008.67
756.693	8060.2
757.031	8177.03
757.368	8143.81
757.706	8261.32
758.044	8357.59
758.381	8506.51
758.719	8587.87
759.056	8665.83
759.394	8780.63
759.731	8766.62
760.068	8894.3
760.405	8984.69
760.743	9096.78
761.08	9224.69
761.417	9254.97
761.754	9362.99
762.091	9536.32
762.428	9622.64
762.765	9691.79
763.102	9823.09
763.438	9922.52
763.775	9902.41
764.112	10030.09
764.449	10157.54
764.785	10311.44
765.122	10343.98
765.458	10386.69
765.795	10562.05
766.131	10577.87
766.467	10690.19
766.804	10674.59
767.14	10746.91
767.476	10887.02
767.812	10963.85
768.148	11045.66
768.485	11046.33
768.821	11120.46
769.157	11197.74
769.492	11287.01
769.828	11320.9
