Data from hue_60_FLMS001491_89.txt Node
Date: Mon Feb 06 15:18:04 GMT 2017
User: dcchb
Spectrometer: FLMS00149
Trigger mode: 0
Integration Time (sec): 2.000000E-2
Scans to average: 10
Electric dark correction enabled: true
Nonlinearity correction enabled: false
Boxcar width: 0
XAxis mode: Wavelengths
Number of Pixels in Spectrum: 2048
>>>>>Begin Spectral Data<<<<<
341.393	-24.96
341.776	-24.96
342.16	-24.96
342.543	-51.4
342.927	-45.75
343.31	-72.41
343.693	-84.39
344.077	-80.55
344.46	-70.61
344.843	-64.96
345.226	-25.41
345.61	-16.82
345.993	-27.44
346.376	-5.07
346.759	10.52
347.142	27.92
347.525	45.32
347.908	64.98
348.291	98.43
348.674	87.13
349.057	113.34
349.44	128.26
349.823	137.52
350.206	164.19
350.588	208.26
350.971	204.64
351.354	233.57
351.737	230.4
352.119	268.14
352.502	270.85
352.884	284.87
353.267	272.21
353.65	292.55
354.032	323.28
354.414	301.59
354.797	311.53
355.179	308.59
355.562	335.71
355.944	335.71
356.326	332.1
356.709	349.5
357.091	342.49
357.473	350.4
357.855	340.01
358.238	362.83
358.62	333.45
359.002	343.17
359.384	340.23
359.766	338.42
360.148	345.43
360.53	332.1
360.912	322.15
361.294	323.06
361.676	332.77
362.057	323.28
362.439	326.45
362.821	333.23
363.203	340.46
363.584	337.97
363.966	322.15
364.348	294.13
364.729	332.77
365.111	322.6
365.493	320.12
365.874	343.85
366.256	302.94
366.637	309.72
367.019	333.9
367.4	327.8
367.781	318.31
368.163	320.12
368.544	300.68
368.925	318.31
369.306	310.18
369.688	304.98
370.069	315.83
370.45	304.53
370.831	335.71
371.212	311.98
371.593	327.35
371.974	311.76
372.355	324.86
372.736	318.99
373.117	305.88
373.498	320.12
373.879	316.28
374.26	318.54
374.641	324.86
375.021	315.6
375.402	321.02
375.783	343.62
376.163	329.61
376.544	323.06
376.925	340.46
377.305	320.57
377.686	320.12
378.066	326.67
378.447	327.58
378.827	306.79
379.208	329.16
379.588	332.1
379.968	335.71
380.349	330.51
380.729	324.86
381.109	336.16
381.489	354.47
381.87	339.78
382.25	344.07
382.63	324.64
383.01	341.14
383.39	319.89
383.77	327.58
384.15	349.27
384.53	358.54
384.91	334.81
385.29	372.09
385.67	324.19
386.049	332.55
386.429	341.14
386.809	351.08
387.189	335.26
387.568	344.75
387.948	350.85
388.328	354.02
388.707	367.58
389.087	362.6
389.466	348.59
389.846	355.37
390.225	347.69
390.605	361.93
390.984	357.63
391.363	348.59
391.743	343.39
392.122	371.87
392.501	364.86
392.881	362.38
393.26	362.6
393.639	373.68
394.018	379.78
394.397	365.77
394.776	375.94
395.155	381.36
395.534	368.03
395.913	385.2
396.292	360.12
396.671	355.6
397.05	390.4
397.429	368.03
397.808	363.51
398.186	370.74
398.565	368.93
398.944	376.39
399.323	361.25
399.701	405.09
400.08	385.2
400.458	374.13
400.837	370.74
401.215	407.8
401.594	392.21
401.972	385.88
402.351	401.7
402.729	403.73
403.107	404.64
403.486	390.4
403.864	381.13
404.242	410.29
404.62	399.66
404.999	404.86
405.377	403.51
405.755	405.77
406.133	410.74
406.511	402.15
406.889	415.48
407.267	398.08
407.645	418.2
408.023	414.58
408.401	412.55
408.779	441.02
409.156	424.52
409.534	448.93
409.912	438.99
410.29	416.16
410.667	457.29
411.045	435.14
411.422	446.9
411.8	444.86
412.178	449.83
412.555	450.51
412.933	449.15
413.31	431.98
413.687	451.64
414.065	439.66
414.442	469.72
414.819	464.75
415.197	472.66
415.574	467.01
415.951	479.89
416.328	456.61
416.705	492.77
417.082	486.67
417.46	471.98
417.837	483.05
418.214	467.69
418.591	468.59
418.967	488.93
419.344	522.37
419.721	497.74
420.098	486.22
420.475	499.77
420.852	478.76
421.228	501.58
421.605	507.46
421.982	514.69
422.358	505.88
422.735	531.86
423.111	503.62
423.488	526.67
423.864	528.93
424.241	546.78
424.617	514.69
424.994	528.47
425.37	552.43
425.746	519.44
426.123	553.11
426.499	542.94
426.875	564.41
427.251	554.69
427.627	566.89
428.003	547.23
428.379	570.96
428.756	566.44
429.132	579.09
429.507	554.69
429.883	580.45
430.259	594.24
430.635	585.65
431.011	575.48
431.387	600.56
431.763	623.39
432.138	601.92
432.514	611.41
432.89	600.11
433.265	578.64
433.641	620.45
434.016	641.24
434.392	637.17
434.767	654.57
435.143	611.86
435.518	651.18
435.894	626.1
436.269	644.63
436.644	649.6
437.02	646.89
437.395	652.54
437.77	673.1
438.145	692.09
438.52	691.41
438.895	673.33
439.271	674.91
439.646	678.98
440.021	706.78
440.395	706.32
440.77	683.5
441.145	702.26
441.52	683.27
441.895	726.89
442.27	720.11
442.645	725.76
443.019	712.2
443.394	717.4
443.769	732.31
444.143	730.96
444.518	742.03
444.892	723.95
445.267	733.22
445.641	768.24
446.016	755.36
446.39	748.58
446.764	759.88
447.139	756.94
447.513	748.13
447.887	747.9
448.262	770.73
448.636	755.14
449.01	789.71
449.384	790.16
449.758	804.63
450.132	795.13
450.506	797.17
450.88	805.98
451.254	814.79
451.628	818.18
452.002	822.93
452.376	855.02
452.75	822.93
453.123	825.64
453.497	844.4
453.871	853.44
454.244	865.87
454.618	881.01
454.992	869.48
455.365	885.75
455.739	888.24
456.112	917.39
456.486	889.82
456.859	900.67
457.232	938.63
457.606	941.12
457.979	942.25
458.352	966.88
458.725	996.94
459.099	1004.85
459.472	995.13
459.845	1005.07
460.218	1026.77
460.591	1022.02
460.964	1021.34
461.337	1046.43
461.71	1052.53
462.083	1070.61
462.456	1069.93
462.829	1078.52
463.201	1079.19
463.574	1102.92
463.947	1108.8
464.32	1157.61
464.692	1168.91
465.065	1138.85
465.438	1189.25
465.81	1215.24
466.183	1196.03
466.555	1249.13
466.928	1231.06
467.3	1248.23
467.672	1277.61
468.045	1323.03
468.417	1315.57
468.789	1347.21
469.161	1357.38
469.534	1367.55
469.906	1404.16
470.278	1407.1
470.65	1440.09
471.022	1485.51
471.394	1546.75
471.766	1557.6
472.138	1564.38
472.51	1603.47
472.882	1653.42
473.253	1654.55
473.625	1700.87
473.997	1734.09
474.369	1758.05
474.74	1788.33
475.112	1856.35
475.484	1937.48
475.855	1924.6
476.227	1980.87
476.598	2063.35
476.97	2069.23
477.341	2150.58
477.713	2219.28
478.084	2272.16
478.455	2310.57
478.827	2388.99
479.198	2453.4
479.569	2489.1
479.94	2591.7
480.311	2652.03
480.682	2753.28
481.053	2835.76
481.424	2900.62
481.795	2973.38
482.166	3082.31
482.537	3153.94
482.908	3260.38
483.279	3359.36
483.65	3435.52
484.021	3533.82
484.391	3654.95
484.762	3738.11
485.133	3849.97
485.503	3912.57
485.874	4072.79
486.244	4181.26
486.615	4304.19
486.985	4432.33
487.356	4549.16
487.726	4666.67
488.097	4837.74
488.467	4869.83
488.837	5072.76
489.207	5198.63
489.578	5380.78
489.948	5484.73
490.318	5639.53
490.688	5699.19
491.058	5930.82
491.428	6046.97
491.798	6253.07
492.168	6376.91
492.538	6520.63
492.908	6642.89
493.278	6811.93
493.648	6932.37
494.017	7132.37
494.387	7233.38
494.757	7453.26
495.126	7554.5
495.496	7718.34
495.866	7903.2
496.235	8053.7
496.605	8234.26
496.974	8353.58
497.344	8510.86
497.713	8636.96
498.082	8787.92
498.452	8912.66
498.821	9062.26
499.19	9209.83
499.559	9433.33
499.928	9499.76
500.298	9683.94
500.667	9890.49
501.036	9877.16
501.405	10129.8
501.774	10198.28
502.143	10405.28
502.512	10519.85
502.88	10746.29
503.249	10778.6
503.618	10941.31
503.987	11134.52
504.356	11280.06
504.724	11319.83
505.093	11486.6
505.462	11658.35
505.83	11787.84
506.199	11862.41
506.567	12224.44
506.936	12219.47
507.304	12383.3
507.672	12531.78
508.041	12700.36
508.409	12802.95
508.777	13024.64
509.145	13144.64
509.514	13120.46
509.882	13414.92
510.25	13481.58
510.618	13669.82
510.986	13683.16
511.354	13912.08
511.722	14034.79
512.09	14194.56
512.458	14292.41
512.826	14481.78
513.193	14567.88
513.561	14697.59
513.929	14845.61
514.297	15032.73
514.664	15150.24
515.032	15194.3
515.4	15422.77
515.767	15596.55
516.135	15669.32
516.502	15621.19
516.869	15972.36
517.237	16014.17
517.604	16060.04
517.972	16304.11
518.339	16361.5
518.706	16471.33
519.073	16591.56
519.44	16742.06
519.808	16968.95
520.175	16975.73
520.542	17277.19
520.909	17333
521.276	17409.39
521.643	17712.43
522.009	17724.86
522.376	17926.21
522.743	18007.11
523.11	18289.59
523.477	18418.63
523.843	18602.8
524.21	18696.13
524.577	18840.76
524.943	19015.9
525.31	19011.6
525.676	19304.93
526.043	19456.34
526.409	19604.81
526.776	19793.5
527.142	19857.68
527.508	19989.21
527.874	20176.32
528.241	20299.71
528.607	20354.85
528.973	20530.89
529.339	20501.06
529.705	20743.08
530.071	20855.62
530.437	21120.25
530.803	21133.58
531.169	21273.47
531.535	21265.33
531.901	21370.86
532.267	21433.91
532.632	21604.08
532.998	21658.77
533.364	21958.87
533.73	22069.15
534.095	22162.93
534.461	22252.88
534.826	22365.64
535.192	22356.15
535.557	22559.76
535.923	22560.44
536.288	22763.37
536.653	22780.55
537.019	22735.12
537.384	22871.16
537.749	23040.43
538.114	23032.97
538.479	23130.37
538.845	23346.86
539.21	23272.96
539.575	23475.22
539.94	23528.55
540.305	23681.31
540.67	23709.11
541.034	23765.38
541.399	23781.42
541.764	23886.96
542.129	23953.62
542.494	24057.57
542.858	24109.32
543.223	24157.01
543.587	24274.29
543.952	24274.74
544.316	24430.67
544.681	24481.52
545.045	24623.89
545.41	24694.39
545.774	24762.41
546.138	24736.2
546.503	24984.55
546.867	24800.38
547.231	25203.08
547.595	25128.05
547.959	25261.38
548.324	25293.25
548.688	25239.01
549.052	25455.73
549.416	25502.51
549.779	25629.51
550.143	25606.91
550.507	25750.86
550.871	25881.93
551.235	25869.73
551.599	26067.92
551.962	26203.73
552.326	26201.7
552.689	26236.5
553.053	26365.31
553.417	26418.19
553.78	26704.28
554.143	26589.48
554.507	26816.6
554.87	26889.36
555.234	27107.66
555.597	26966.42
555.96	27019.08
556.323	27114.67
556.686	27269.24
557.05	27363.48
557.413	27463.36
557.776	27689.79
558.139	27781.32
558.502	27884.37
558.865	27987.41
559.228	28094.08
559.59	28196.22
559.953	28305.37
560.316	28547.4
560.679	28512.82
561.041	28721.86
561.404	28874.4
561.767	29021.28
562.129	29029.87
562.492	29203.65
562.854	29286.81
563.217	29362.74
563.579	29572.91
563.941	29672.12
564.304	29753.7
564.666	30011.54
565.028	30030.98
565.39	30189.39
565.753	30386.45
566.115	30305.54
566.477	30528.36
566.839	30567.23
567.201	30829.6
567.563	30810.16
567.925	31098.29
568.287	31017.62
568.648	31168.35
569.01	31332.41
569.372	31482.01
569.734	31295.58
570.095	31702.12
570.457	31873.41
570.819	31863.47
571.18	31877.48
571.542	32098.72
571.903	32154.08
572.265	32205.83
572.626	32291.93
572.987	32443.57
573.349	32545.71
573.71	32654.86
574.071	32759.72
574.432	32838.13
574.794	33061.86
575.155	33041.74
575.516	32999.26
575.877	32993.61
576.238	33180.72
576.599	33389.76
576.96	33291.91
577.32	33482.86
577.681	33514.5
578.042	33487.61
578.403	33573.48
578.763	33639.69
579.124	33838.33
579.485	33851.67
579.845	33877.2
580.206	33810.54
580.566	33840.82
580.927	33848.05
581.287	34008.27
581.648	33921.04
582.008	34128.72
582.368	34217.53
582.728	34159.45
583.089	34202.17
583.449	34206.91
583.809	34288.94
584.169	34295.95
584.529	34303.41
584.889	34521.25
585.249	34373.23
585.609	34194.03
585.969	34476.06
586.329	34232.22
586.688	34415.04
587.048	34403.29
587.408	34435.15
587.768	34299.56
588.127	34363.74
588.487	34358.55
588.846	34554.47
589.206	34470.41
589.565	34485.77
589.925	34526.68
590.284	34370.75
590.643	34582.04
591.003	34665.2
591.362	34890.28
591.721	34751.98
592.08	34672.89
592.44	34685.54
592.799	34766.22
593.158	34815.93
593.517	34712.43
593.876	34963.28
594.235	34900.9
594.593	34812.77
594.952	34909.94
595.311	34904.07
595.67	35031.75
596.029	35111.29
596.387	35088.24
596.746	35079.43
597.104	35071.3
597.463	35088.7
597.822	35347.22
598.18	35022.26
598.538	35151.75
598.897	35231.97
599.255	35121.24
599.613	35595.12
599.972	35393.09
600.33	35408.46
600.688	35231.52
601.046	35380.67
601.404	35701.11
601.762	35510.61
602.12	35652.97
602.478	35663.82
602.836	35791.73
603.194	35589.7
603.552	35741.33
603.91	35633.77
604.268	35807.77
604.625	35700.66
604.983	35868.34
605.341	35745.63
605.698	36024.72
606.056	36110.14
606.413	35963.25
606.771	36276.69
607.128	36145.17
607.485	36064.72
607.843	36131.38
608.2	36338.38
608.557	36397.59
608.914	36293.64
609.272	36593.29
609.629	36638.94
609.986	36793.51
610.343	36509.68
610.7	36975.43
611.057	36985.37
611.414	36950.34
611.771	36784.02
612.127	37005.03
612.484	37064.92
612.841	37166.61
613.198	37154.18
613.554	37046.38
613.911	37416.54
614.267	37339.03
614.624	37259.94
614.98	37478.69
615.337	37588.07
615.693	37513.04
616.05	37297.9
616.406	37785.57
616.762	37682.3
617.118	37435.98
617.475	37699.47
617.831	37861.28
618.187	37856.76
618.543	37936.98
618.899	38021.95
619.255	38057.43
619.611	38009.3
619.967	38233.02
620.323	38208.16
620.678	38105.57
621.034	38170.87
621.39	38228.73
621.746	38089.52
622.101	38691.54
622.457	38196.86
622.812	38402.96
623.168	38610.64
623.523	38566.34
623.879	38606.12
624.234	38387.37
624.589	38684.08
624.945	38453.13
625.3	38513.24
625.655	38654.93
626.01	38660.35
626.365	38615.83
626.72	38517.76
627.075	38615.16
627.43	38714.14
627.785	38580.81
628.14	38601.82
628.495	38793.68
628.85	38693.12
629.205	38456.74
629.559	38846.79
629.914	38578.55
630.269	38633.46
630.623	38704.42
630.978	38529.74
631.332	38698.54
631.687	38806.11
632.041	38664.42
632.396	38685.89
632.75	38571.99
633.104	38603.18
633.459	38465.33
633.813	38643.86
634.167	38482.73
634.521	38506.01
634.875	38564.08
635.229	38471.21
635.583	38314.37
635.937	38262.85
636.291	38313.24
636.645	38243.87
636.999	38317.76
637.352	38372.68
637.706	38111.89
638.06	38249.52
638.413	38213.81
638.767	38182.17
639.121	38343.07
639.474	37908.73
639.828	38116.64
640.181	38057.43
640.534	38118.9
640.888	38093.81
641.241	37893.82
641.594	37995.96
641.947	37971.33
642.301	37966.59
642.654	37964.1
643.007	38002.97
643.36	37876.65
643.713	37698.8
644.066	37904.89
644.419	37785.35
644.771	37517.56
645.124	37117.57
645.477	37058.14
645.83	36944.69
646.182	36838.71
646.535	36684.59
646.888	36722.78
647.24	36476.91
647.593	36753.96
647.945	36646.85
648.298	36575.89
648.65	36415.21
649.002	36383.35
649.355	36362.11
649.707	36390.13
650.059	36784.7
650.411	36932.26
650.763	37053.62
651.115	37402.53
651.467	37409.31
651.819	37341.52
652.171	37206.83
652.523	37280.95
652.875	37028.31
653.227	37099.26
653.578	37342.2
653.93	37267.85
654.282	37183.1
654.633	36942.88
654.985	37046.61
655.337	36940.4
655.688	37078.02
656.039	37068.98
656.391	36971.13
656.742	36860.17
657.094	36882.32
657.445	36978.82
657.796	36926.61
658.147	36771.82
658.498	36874.64
658.849	36875.54
659.2	36740.18
659.551	36795.54
659.902	36993.5
660.253	36852.94
660.604	36894.98
660.955	36686.62
661.306	36788.09
661.656	36752.61
662.007	36809.78
662.358	36799.84
662.708	36685.04
663.059	36753.96
663.409	36587.19
663.76	36736.56
664.11	36732.27
664.461	36702.44
664.811	36758.03
665.161	36690.69
665.511	36630.58
665.862	36582.89
666.212	36694.08
666.562	36756.22
666.912	36568.66
667.262	36556.91
667.612	36661.31
667.962	36521.88
668.312	36573.18
668.662	36576.79
669.011	36534.08
669.361	36494.08
669.711	36569.34
670.06	36528.43
670.41	36508.77
670.76	36491.6
671.109	36529.56
671.459	36393.29
671.808	36359.4
672.157	36593.06
672.507	36207.76
672.856	36320.98
673.205	36317.82
673.554	36510.13
673.904	36324.82
674.253	36606.62
674.602	36305.39
674.951	35910.82
675.3	35601
675.649	36315.33
675.998	36197.59
676.346	36175
676.695	36278.95
677.044	35995.56
677.393	36040.99
677.741	36245.28
678.09	36088.44
678.438	35858.17
678.787	36110.59
679.135	36022
679.484	35727.78
679.832	35846.64
680.181	35791.5
680.529	35806.64
680.877	35764.16
681.225	35662.01
681.573	35912.63
681.922	35695.91
682.27	35497.95
682.618	35652.97
682.966	35401.23
683.314	35531.4
683.661	35431.29
684.009	35300.89
684.357	35173.21
684.705	35147.68
685.053	35204.85
685.4	35263.61
685.748	35118.98
686.095	35034.91
686.443	34918.98
686.79	34925.76
687.138	34916.5
687.485	34982.26
687.832	34668.59
688.18	34916.95
688.527	34622.27
688.874	34522.84
689.221	34572.1
689.568	34513.12
689.915	34269.96
690.262	34292.33
690.609	34146.57
690.956	34098.21
691.303	34201.94
691.65	33974.38
691.997	34026.13
692.344	33785.23
692.69	33805.11
693.037	33812.57
693.383	33453.94
693.73	33507.04
694.077	33413.71
694.423	33397.44
694.769	33174.85
695.116	33269.31
695.462	33299.59
695.808	33115.64
696.155	33124.91
696.501	32828.42
696.847	32915.87
697.193	32698.25
697.539	32778.7
697.885	32455.32
698.231	32404.25
698.577	32539.38
698.923	32443.57
699.269	32162.45
699.614	32036.57
699.96	32038.15
700.306	32155.44
700.651	31956.57
700.997	31902.57
701.342	31755
701.688	31829.12
702.033	31652.18
702.379	31601.1
702.724	31468.9
703.069	31522.24
703.415	31186.2
703.76	31300.77
704.105	31235.24
704.45	31211.51
704.795	30971.97
705.14	30955.25
705.485	30922.7
705.83	30711.86
706.175	30731.3
706.52	30607.68
706.865	30546.22
707.209	30525.2
707.554	30318.88
707.899	30454.69
708.243	30366.79
708.588	30364.98
708.932	30184.19
709.277	30124.98
709.621	30074.82
709.966	29919.11
710.31	30007.47
710.654	29664.66
710.998	29757.99
711.342	29800.93
711.687	29697.88
712.031	29587.15
712.375	29487.94
712.719	29407.94
713.063	29397.77
713.407	29551.21
713.75	29354.61
714.094	29361.61
714.438	29263.76
714.782	29258.57
715.125	29073.26
715.469	29143.99
715.812	28998.46
716.156	28779.48
716.499	28824.91
716.843	28949.42
717.186	28663.33
717.53	28774.74
717.873	28772.7
718.216	28685.7
718.559	28574.52
718.902	28407.06
719.246	28645.48
719.589	28431.92
719.932	28288.87
720.275	28239.61
720.617	28220.85
720.96	28213.17
721.303	28189.22
721.646	28254.75
721.989	28047.3
722.331	28084.59
722.674	27967.75
723.016	28003.01
723.359	27914.2
723.701	27885.04
724.044	27726.86
724.386	27669.68
724.729	27683.47
725.071	27692.96
725.413	27612.06
725.755	27613.64
726.097	27567.31
726.439	27340.88
726.782	27369.35
727.124	27542.68
727.465	27390.82
727.807	27285.29
728.149	27364.83
728.491	27102.47
728.833	27284.61
729.175	27140.2
729.516	27057.49
729.858	27139.07
730.199	27096.36
730.541	26965.29
730.882	26939.98
731.224	27089.58
731.565	26788.12
731.906	26803.49
732.248	26812.98
732.589	26627.68
732.93	26607.56
733.271	26614.34
733.612	26651.18
733.953	26634.91
734.294	26528.02
734.635	26541.12
734.976	26650.5
735.317	26319.44
735.658	26417.74
735.999	26332.99
736.339	26288.48
736.68	26375.03
737.021	26202.15
737.361	26103.4
737.702	26313.56
738.042	26122.83
738.383	26123.06
738.723	26277.4
739.063	25944.76
739.404	26015.26
739.744	25977.75
740.084	25869.73
740.424	25969.39
740.764	25840.13
741.104	25975.04
741.444	25731.2
741.784	25672.22
742.124	25719
742.464	25721.26
742.804	25620.47
743.143	25586.8
743.483	25594.71
743.823	25494.37
744.162	25355.17
744.502	25471.77
744.841	25391.78
745.181	25453.02
745.52	25356.07
745.86	25314.04
746.199	25182.29
746.538	25151.1
746.877	25262.97
747.216	25265
747.556	25109.07
747.895	25068.62
748.234	25033.37
748.573	24938.68
748.911	24893.48
749.25	24845.35
749.589	24814.16
749.928	24872.24
750.267	24747.27
750.605	24811.45
750.944	24791.34
751.283	24619.59
751.621	24622.53
751.96	24577.56
752.298	24450.11
752.636	24587.28
752.975	24352.93
753.313	24234.97
753.651	24385.93
753.989	24285.36
754.327	24266.61
754.666	24098.93
755.004	24081.3
755.342	23994.52
755.679	24135.76
756.017	24046.95
756.355	24040.4
