Data from hue_240_FLMS001491_00055.txt Node
Date: Tue Feb 07 16:35:40 GMT 2017
User: dcchb
Spectrometer: FLMS00149
Trigger mode: 0
Integration Time (sec): 2.000000E-2
Scans to average: 10
Electric dark correction enabled: true
Nonlinearity correction enabled: false
Boxcar width: 0
XAxis mode: Wavelengths
Number of Pixels in Spectrum: 2048
>>>>>Begin Spectral Data<<<<<
341.393	-18.62
341.776	-18.62
342.16	-18.62
342.543	-55.9
342.927	-62.91
343.31	-90.7
343.693	-75.79
344.077	-83.25
344.46	-43.47
344.843	-36.92
345.226	-40.54
345.61	-27.43
345.993	-30.37
346.376	-2.57
346.759	10.54
347.142	44.89
347.525	31.78
347.908	80.82
348.291	67.71
348.674	93.92
349.057	101.38
349.44	111.1
349.823	127.14
350.206	155.62
350.588	175.05
350.971	189.51
351.354	198.1
351.737	233.13
352.119	246.24
352.502	233.13
352.884	262.28
353.267	271.55
353.65	293.92
354.032	301.6
354.414	283.98
354.797	297.31
355.179	302.73
355.562	302.51
355.944	313.58
356.326	305.67
356.709	312.9
357.091	305.67
357.473	337.76
357.855	324.88
358.238	341.83
358.62	327.59
359.002	319.68
359.384	317.2
359.766	317.65
360.148	309.29
360.53	333.69
360.912	329.17
361.294	313.81
361.676	328.49
362.057	319.23
362.439	318.55
362.821	332.34
363.203	333.24
363.584	314.71
363.966	306.8
364.348	301.38
364.729	329.62
365.111	314.03
365.493	307.93
365.874	297.31
366.256	288.5
366.637	298.66
367.019	297.99
367.4	311.55
367.781	316.97
368.163	299.57
368.544	302.28
368.925	305.22
369.306	330.53
369.688	298.66
370.069	318.78
370.45	301.83
370.831	291.66
371.212	289.4
371.593	304.09
371.974	308.83
372.355	297.08
372.736	323.75
373.117	307.25
373.498	278.33
373.879	293.47
374.26	293.01
374.641	310.19
375.021	302.51
375.402	313.35
375.783	298.21
376.163	298.44
376.544	321.49
376.925	319.68
377.305	315.39
377.686	304.77
378.066	314.03
378.447	313.13
378.827	305.67
379.208	318.32
379.588	329.85
379.968	328.95
380.349	328.04
380.729	334.37
381.109	309.74
381.489	335.05
381.87	344.99
382.25	309.96
382.63	331.88
383.01	330.08
383.39	337.08
383.77	331.21
384.15	330.08
384.53	341.15
384.91	330.3
385.29	316.52
385.67	337.31
386.049	369.17
386.429	340.47
386.809	350.19
387.189	366.01
387.568	341.38
387.948	343.86
388.328	352.67
388.707	339.12
389.087	356.97
389.466	354.03
389.846	367.59
390.225	351.77
390.605	354.48
390.984	368.27
391.363	369.17
391.743	349.28
392.122	363.97
392.501	365.1
392.881	358.78
393.26	387.25
393.639	374.14
394.018	382.5
394.397	379.11
394.776	349.74
395.155	370.75
395.534	380.47
395.913	349.28
396.292	371.88
396.671	386.12
397.05	372.79
397.429	397.19
397.808	380.02
398.186	386.8
398.565	368.95
398.944	374.59
399.323	384.31
399.701	392.45
400.08	392
400.458	390.19
400.837	392.67
401.215	424.76
401.594	371.66
401.972	407.14
402.351	396.51
402.729	447.36
403.107	413.92
403.486	420.24
403.864	420.24
404.242	405.78
404.62	413.24
404.999	415.05
405.377	422.95
405.755	430.64
406.133	417.76
406.511	428.38
406.889	425.44
407.267	441.03
407.645	437.19
408.023	469.51
408.401	474.25
408.779	450.98
409.156	476.06
409.534	472.45
409.912	493.91
410.29	472.22
410.667	470.64
411.045	471.99
411.422	469.51
411.8	502.27
412.178	501.15
412.555	524.2
412.933	518.09
413.31	528.94
413.687	532.33
414.065	538.43
414.442	523.74
414.819	562.16
415.197	576.85
415.574	568.26
415.951	564.19
416.328	557.87
416.705	550.64
417.082	575.49
417.46	575.95
417.837	600.13
418.214	582.95
418.591	594.48
418.967	607.81
419.344	615.72
419.721	579.34
420.098	615.04
420.475	617.07
420.852	640.35
421.228	637.64
421.605	663.17
421.982	668.82
422.358	669.73
422.735	682.61
423.111	680.58
423.488	707.24
423.864	684.87
424.241	692.55
424.617	706.79
424.994	737.07
425.37	721.25
425.746	745.66
426.123	762.61
426.499	770.74
426.875	770.97
427.251	775.04
427.627	765.32
428.003	778.43
428.379	805.77
428.756	800.8
429.132	816.16
429.507	802.61
429.883	835.15
430.259	833.34
430.635	840.57
431.011	860.01
431.387	890.74
431.763	873.56
432.138	893.9
432.514	886.9
432.89	907.01
433.265	941.13
433.641	956.5
434.016	924.64
434.392	971.42
434.767	1000.79
435.143	983.39
435.518	979.1
435.894	1022.71
436.269	1013
436.644	1058.42
437.02	1056.38
437.395	1049.15
437.77	1089.15
438.145	1104.97
438.52	1137.51
438.895	1137.06
439.271	1158.75
439.646	1161.47
440.021	1186.32
440.395	1172.77
440.77	1200.56
441.145	1211.63
441.52	1231.75
441.895	1243.72
442.27	1238.75
442.645	1263.61
443.019	1245.08
443.394	1269.49
443.769	1265.42
444.143	1309.94
444.518	1310.39
444.892	1282.82
445.267	1319.88
445.641	1334.12
446.016	1338.64
446.39	1352.42
446.764	1349.26
447.139	1357.17
447.513	1365.76
447.887	1372.53
448.262	1396.94
448.636	1414.12
449.01	1414.79
449.384	1440.33
449.758	1439.65
450.132	1458.63
450.506	1461.57
450.88	1456.37
451.254	1478.29
451.628	1486.88
452.002	1474.23
452.376	1502.93
452.75	1542.7
453.123	1512.87
453.497	1544.28
453.871	1577.05
454.244	1566.65
454.618	1590.38
454.992	1601.91
455.365	1626.54
455.739	1666.99
456.112	1663.37
456.486	1658.18
456.859	1705.63
457.232	1725.29
457.606	1737.27
457.979	1745.63
458.352	1801.9
458.725	1791.51
459.099	1798.74
459.472	1840.09
459.845	1853.88
460.218	1865.4
460.591	1884.39
460.964	1846.42
461.337	1907.89
461.71	1937.27
462.083	1964.61
462.456	1976.36
462.829	1980.43
463.201	1988.56
463.574	2032.18
463.947	2029.47
464.32	2103.36
464.692	2081.22
465.065	2100.88
465.438	2155.34
465.81	2140.42
466.183	2195.34
466.555	2210.7
466.928	2240.31
467.3	2251.38
467.672	2278.05
468.045	2328.89
468.417	2312.4
468.789	2343.36
469.161	2354.43
469.534	2394.88
469.906	2451.38
470.278	2432.62
470.65	2506.29
471.022	2498.61
471.394	2538.61
471.766	2587.64
472.138	2607.08
472.51	2643.01
472.882	2678.49
473.253	2725.72
473.625	2713.06
473.997	2770.01
474.369	2789.9
474.74	2803.68
475.112	2866.28
475.484	2916
475.855	2911.03
476.227	2963
476.598	3061.53
476.97	3054.98
477.341	3115.99
477.713	3136.33
478.084	3184.01
478.455	3242.77
478.827	3284.12
479.198	3364.57
479.569	3359.15
479.94	3427.17
480.311	3512.14
480.682	3489.54
481.053	3574.96
481.424	3655.64
481.795	3681.63
482.166	3712.13
482.537	3718.24
482.908	3816.09
483.279	3866.03
483.65	3909.87
484.021	3981.96
484.391	4022.41
484.762	4037.78
485.133	4047.94
485.503	4085.46
485.874	4220.14
486.244	4220.6
486.615	4301.5
486.985	4356.41
487.356	4451.1
487.726	4430.31
488.097	4530.64
488.467	4505.79
488.837	4612.45
489.207	4669.62
489.578	4710.98
489.948	4702.16
490.318	4809.05
490.688	4757.08
491.058	4898.54
491.428	4915.72
491.798	4929.5
492.168	5046.56
492.538	5010.86
492.908	5098.09
493.278	5197.07
493.648	5153
494.017	5278.65
494.387	5235.48
494.757	5263.96
495.126	5320.68
495.496	5352.54
495.866	5376.05
496.235	5440.45
496.605	5420.34
496.974	5446.55
497.344	5502.37
497.713	5578.07
498.082	5628.02
498.452	5679.09
498.821	5657.62
499.19	5614.91
499.559	5717.28
499.928	5717.51
500.298	5771.29
500.667	5835.02
501.036	5752.08
501.405	5854.68
501.774	5890.61
502.143	5862.13
502.512	5913.88
502.88	5947.1
503.249	5937.39
503.618	5964.96
503.987	5962.24
504.356	5980.77
504.724	6021.9
505.093	6006.54
505.462	6047.21
505.83	6079.76
506.199	6090.38
506.567	6116.82
506.936	6132.18
507.304	6224.38
507.672	6211.05
508.041	6269.81
508.409	6252.86
508.777	6330.37
509.145	6304.61
509.514	6329.01
509.882	6362.69
510.25	6387.32
510.618	6369.01
510.986	6369.01
511.354	6409.92
511.722	6478.39
512.09	6503.02
512.458	6461.67
512.826	6557.03
513.193	6571.04
513.561	6495.11
513.929	6575.56
514.297	6620.98
514.664	6594.09
515.032	6601.32
515.4	6647.65
515.767	6684.26
516.135	6655.79
516.502	6617.59
516.869	6686.75
517.237	6734.2
517.604	6703.24
517.972	6762
518.339	6803.8
518.706	6806.29
519.073	6784.82
519.44	6812.39
519.808	6878.83
520.175	6829.34
520.542	6862.79
520.909	6850.81
521.276	6873.63
521.643	6919.96
522.009	6981.43
522.376	6984.36
522.743	6943.01
523.11	7005.83
523.477	7076.79
523.843	7045.38
524.21	7095.55
524.577	7124.02
524.943	7104.59
525.31	7143.91
525.676	7085.6
526.043	7148.88
526.409	7241.31
526.776	7266.62
527.142	7236.11
527.508	7228.65
527.874	7204.92
528.241	7272.27
528.607	7269.55
528.973	7315.43
529.339	7295.54
529.705	7360.4
530.071	7364.24
530.437	7314.07
530.803	7382.32
531.169	7449.21
531.535	7318.37
531.901	7366.73
532.267	7355.88
532.632	7401.53
532.998	7358.82
533.364	7418.93
533.73	7377.35
534.095	7390.91
534.461	7405.6
534.826	7445.37
535.192	7426.16
535.557	7402.21
535.923	7418.25
536.288	7406.27
536.653	7437.23
537.019	7373.51
537.384	7412.38
537.749	7411.7
538.114	7399.04
538.479	7417.57
538.845	7443.56
539.21	7417.57
539.575	7359.04
539.94	7394.75
540.305	7374.41
540.67	7369.21
541.034	7341.42
541.399	7303.9
541.764	7434.07
542.129	7390.46
542.494	7405.6
542.858	7434.97
543.223	7349.33
543.587	7402.88
543.952	7321.76
544.316	7333.96
544.681	7336.45
545.045	7354.75
545.41	7338.71
545.774	7368.99
546.138	7358.59
546.503	7353.62
546.867	7288.54
547.231	7400.4
547.595	7272.72
547.959	7383.22
548.324	7316.11
548.688	7333.73
549.052	7304.13
549.416	7360.17
549.779	7267.75
550.143	7297.58
550.507	7299.16
550.871	7367.41
551.235	7300.06
551.599	7359.72
551.962	7348.65
552.326	7301.87
552.689	7280.63
553.053	7258.48
553.417	7300.29
553.78	7424.8
554.143	7300.74
554.507	7314.98
554.87	7338.48
555.234	7407.4
555.597	7312.72
555.96	7372.6
556.323	7377.57
556.686	7339.84
557.05	7337.58
557.413	7355.43
557.776	7345.26
558.139	7471.58
558.502	7427.06
558.865	7398.82
559.228	7452.15
559.59	7410.34
559.953	7415.99
560.316	7555.87
560.679	7533.28
561.041	7500.06
561.404	7562.43
561.767	7565.82
562.129	7516.33
562.492	7597.68
562.854	7536.44
563.217	7573.05
563.579	7638.13
563.941	7559.72
564.304	7632.71
564.666	7673.84
565.028	7688.07
565.39	7738.02
565.753	7705.48
566.115	7749.09
566.477	7739.6
566.839	7797.45
567.201	7790.9
567.563	7818.47
567.925	7852.36
568.287	7895.53
568.648	7896.66
569.01	7848.3
569.372	7950.21
569.734	7866.83
570.095	8008.29
570.457	8039.48
570.819	8007.39
571.18	8016.65
571.542	8032.92
571.903	8064.56
572.265	8061.17
572.626	8146.14
572.987	8095.97
573.349	8198.12
573.71	8181.85
574.071	8115.41
574.432	8181.62
574.794	8206.03
575.155	8205.12
575.516	8209.19
575.877	8264.33
576.238	8245.35
576.599	8279.92
576.96	8292.13
577.32	8345.46
577.681	8348.17
578.042	8357.21
578.403	8340.71
578.763	8450.77
579.124	8376.87
579.485	8441.5
579.845	8455.51
580.206	8405.8
580.566	8416.19
580.927	8464.55
581.287	8473.36
581.648	8448.51
582.008	8552.91
582.368	8559.01
582.728	8548.62
583.089	8540.93
583.449	8541.61
583.809	8540.26
584.169	8510.43
584.529	8636.75
584.889	8609.18
585.249	8547.71
585.609	8572.8
585.969	8643.3
586.329	8570.31
586.688	8663.19
587.048	8658.9
587.408	8679.46
587.768	8634.94
588.127	8670.87
588.487	8585
588.846	8727.37
589.206	8666.58
589.565	8732.57
589.925	8746.13
590.284	8755.62
590.643	8700.03
591.003	8752.45
591.362	8802.17
591.721	8749.29
592.08	8748.39
592.44	8800.36
592.799	8787.25
593.158	8761.94
593.517	8752.45
593.876	8862.28
594.235	8731.44
594.593	8783.41
594.952	8765.56
595.311	8838.33
595.67	8843.3
596.029	8850.08
596.387	8872.45
596.746	8869.06
597.104	8823.86
597.463	8860.02
597.822	8901.15
598.18	8842.62
598.538	8886.46
598.897	8919.91
599.255	8810.98
599.613	8945.67
599.972	8931.66
600.33	8939.79
600.688	8901.83
601.046	8952.45
601.404	8980.02
601.762	8947.02
602.12	9006.91
602.478	8970.75
602.836	9067.7
603.194	8913.35
603.552	8947.25
603.91	8971.88
604.268	8934.6
604.625	8957.87
604.983	9005.78
605.341	8993.35
605.698	9032.9
606.056	9053.91
606.413	9013.69
606.771	9061.6
607.128	9063.63
607.485	9087.13
607.843	9067.25
608.2	9072.22
608.557	9083.52
608.914	9105.21
609.272	9114.25
609.629	9124.2
609.986	9156.06
610.343	9126.68
610.7	9184.31
611.057	9121.03
611.414	9143.18
611.771	9197.41
612.127	9134.59
612.484	9196.28
612.841	9224.08
613.198	9112.44
613.554	9182.5
613.911	9189.96
614.267	9227.7
614.624	9194.48
614.98	9297.98
615.337	9277.19
615.693	9249.62
616.05	9221.82
616.406	9313.12
616.762	9287.35
617.118	9248.03
617.475	9289.16
617.831	9255.49
618.187	9311.08
618.543	9283.74
618.899	9357.64
619.255	9294.36
619.611	9359.67
619.967	9341.14
620.323	9396.5
620.678	9299.56
621.034	9341.14
621.39	9358.09
621.746	9352.21
622.101	9407.13
622.457	9305.66
622.812	9374.58
623.168	9434.92
623.523	9368.71
623.879	9396.5
624.234	9355.38
624.589	9376.17
624.945	9344.75
625.3	9376.39
625.655	9384.75
626.01	9280.35
626.365	9404.87
626.72	9334.36
627.075	9389.5
627.43	9285.09
627.785	9283.51
628.14	9321.25
628.495	9348.82
628.85	9280.12
629.205	9355.15
629.559	9320.57
629.914	9288.26
630.269	9263.4
630.623	9220.69
630.978	9249.16
631.332	9326.9
631.687	9311.08
632.041	9225.89
632.396	9257.3
632.75	9213.91
633.104	9277.64
633.459	9275.15
633.813	9243.29
634.167	9178.43
634.521	9120.35
634.875	9200.35
635.229	9181.59
635.583	9153.35
635.937	9161.71
636.291	9144.08
636.645	9096.85
636.999	9116.51
637.352	9171.43
637.706	9069.51
638.06	9092.11
638.413	9083.97
638.767	9086.46
639.121	9037.19
639.474	9059.11
639.828	8995.61
640.181	9003.52
640.534	9050.98
640.888	9007.81
641.241	8980.7
641.594	9014.37
641.947	9045.33
642.301	9039.45
642.654	9002.62
643.007	8938.89
643.36	8916.74
643.713	8935.05
644.066	8965.56
644.419	8934.37
644.771	8810.53
645.124	8733.92
645.477	8715.39
645.83	8639.24
646.182	8624.1
646.535	8645.34
646.888	8625
647.24	8541.61
647.593	8653.25
647.945	8625
648.298	8561.05
648.65	8538.9
649.002	8609.18
649.355	8569.18
649.707	8576.41
650.059	8570.09
650.411	8723.3
650.763	8733.47
651.115	8815.73
651.467	8757.43
651.819	8757.65
652.171	8801.04
652.523	8770.53
652.875	8780.02
653.227	8771.44
653.578	8802.85
653.93	8743.64
654.282	8725.11
654.633	8644.89
654.985	8706.8
655.337	8739.35
655.688	8650.54
656.039	8834.03
656.391	8697.09
656.742	8714.71
657.094	8748.16
657.445	8763.98
657.796	8694.15
658.147	8728.27
658.498	8710.42
658.849	8772.34
659.2	8699.57
659.551	8707.26
659.902	8665.22
660.253	8708.84
660.604	8720.36
660.955	8731.66
661.306	8720.36
661.656	8752
662.007	8752
662.358	8772.79
662.708	8770.53
663.059	8681.04
663.409	8674.72
663.76	8768.27
664.11	8786.35
664.461	8676.3
664.811	8735.5
665.161	8689.4
665.511	8719.01
665.862	8677.65
666.212	8762.85
666.562	8763.07
666.912	8737.09
667.262	8652.34
667.612	8702.06
667.962	8684.66
668.312	8698.9
668.662	8747.26
669.011	8715.39
669.361	8603.98
669.711	8678.11
670.06	8623.42
670.41	8635.17
670.76	8659.12
671.109	8718.33
671.459	8648.73
671.808	8612.12
672.157	8694.6
672.507	8592.91
672.856	8563.53
673.205	8594.72
673.554	8620.71
673.904	8624.55
674.253	8687.37
674.602	8605.11
674.951	8496.64
675.3	8449.41
675.649	8603.98
675.998	8549.29
676.346	8627.49
676.695	8614.83
677.044	8488.73
677.393	8548.39
677.741	8527.37
678.09	8519.01
678.438	8476.08
678.787	8551.55
679.135	8504.1
679.484	8467.49
679.832	8487.15
680.181	8427.04
680.529	8441.5
680.877	8327.83
681.225	8403.54
681.573	8503.65
681.922	8432.24
682.27	8312.24
682.618	8378.45
682.966	8289.64
683.314	8407.15
683.661	8308.17
684.009	8299.36
684.357	8264.56
684.705	8256.87
685.053	8326.02
685.4	8227.27
685.748	8201.28
686.095	8214.39
686.443	8164.9
686.79	8125.35
687.138	8160.6
687.485	8195.63
687.832	8154.96
688.18	8149.08
688.527	8088.97
688.874	8059.36
689.221	8021.17
689.568	8000.16
689.915	7999.25
690.262	8003.32
690.609	8009.42
690.956	7939.59
691.303	7924.45
691.65	7902.31
691.997	7949.31
692.344	7836.77
692.69	7875.87
693.037	7859.82
693.383	7801.29
693.73	7737.56
694.077	7715.87
694.423	7670.67
694.769	7656.66
695.116	7677
695.462	7650.11
695.808	7589.55
696.155	7659.83
696.501	7584.57
696.847	7539.6
697.193	7500.06
697.539	7568.53
697.885	7524.01
698.231	7435.88
698.577	7465.93
698.923	7436.78
699.269	7346.16
699.614	7358.59
699.96	7347.52
700.306	7350.46
700.651	7353.85
700.997	7250.57
701.342	7305.94
701.688	7274.98
702.033	7198.82
702.379	7152.72
702.724	7186.17
703.069	7196.79
703.415	7090.58
703.76	7085.83
704.105	7066.85
704.45	7055.32
704.795	7045.38
705.14	7007.87
705.485	7030.01
705.83	6943.01
706.175	6945.27
706.52	6984.59
706.865	6926.06
707.209	6930.58
707.554	6866.4
707.899	6942.78
708.243	6887.64
708.588	6879.96
708.932	6842.45
709.277	6782.79
709.621	6778.27
709.966	6767.65
710.31	6741.66
710.654	6760.19
710.998	6769.68
711.342	6695.78
711.687	6731.72
712.031	6613.98
712.375	6590.7
712.719	6649.01
713.063	6640.19
713.407	6671.6
713.75	6616.46
714.094	6610.59
714.438	6597.03
714.782	6613.75
715.125	6574.88
715.469	6577.37
715.812	6510.48
716.156	6535.34
716.499	6541.66
716.843	6516.35
717.186	6469.35
717.53	6480.42
717.873	6507.31
718.216	6501.44
718.559	6445.17
718.902	6423.93
719.246	6425.51
719.589	6398.17
719.932	6425.28
720.275	6338.28
720.617	6376.24
720.96	6397.04
721.303	6400.65
721.646	6352.52
721.989	6377.15
722.331	6342.8
722.674	6327.88
723.016	6369.69
723.359	6318.17
723.701	6366.98
724.044	6263.71
724.386	6284.5
724.729	6304.83
725.071	6264.84
725.413	6333.31
725.755	6275
726.097	6235.23
726.439	6249.02
726.782	6223.48
727.124	6290.82
727.465	6225.29
727.807	6233.42
728.149	6255.8
728.491	6238.62
728.833	6213.54
729.175	6227.77
729.516	6210.37
729.858	6219.86
730.199	6207.89
730.541	6205.63
730.882	6190.26
731.224	6215.12
731.565	6101.22
731.906	6130.15
732.248	6184.39
732.589	6200.2
732.93	6182.35
733.271	6141.67
733.612	6141.45
733.953	6159.53
734.294	6147.55
734.635	6127.21
734.976	6177.61
735.317	6207.66
735.658	6103.03
735.999	6142.8
736.339	6181
736.68	6222.58
737.021	6202.46
737.361	6157.04
737.702	6176.93
738.042	6131.05
738.383	6124.73
738.723	6170.15
739.063	6151.17
739.404	6181
739.744	6169.7
740.084	6168.79
740.424	6209.7
740.764	6206.98
741.104	6166.08
741.444	6159.98
741.784	6208.11
742.124	6210.6
742.464	6238.85
742.804	6232.52
743.143	6211.5
743.483	6228.45
743.823	6222.58
744.162	6257.15
744.502	6265.51
744.841	6300.31
745.181	6288.56
745.52	6270.48
745.86	6297.83
746.199	6316.59
746.538	6309.58
746.877	6404.04
747.216	6367.21
747.556	6444.49
747.895	6478.16
748.234	6464.15
748.573	6539.86
748.911	6529.91
749.25	6576.24
749.589	6615.11
749.928	6586.18
750.267	6663.69
750.605	6719.29
750.944	6670.02
751.283	6805.61
751.621	6838.61
751.96	6782.11
752.298	6908.21
752.636	6971.26
752.975	6964.7
753.313	7031.82
753.651	7080.86
753.989	7148.88
754.327	7199.73
754.666	7280.63
755.004	7333.73
755.342	7428.42
755.679	7463.9
756.017	7455.54
756.355	7602.2
756.693	7660.73
757.031	7770.33
757.368	7802.87
757.706	7899.14
758.044	8008.52
758.381	8076.31
758.719	8082.87
759.056	8244.67
759.394	8340.94
759.731	8392.46
760.068	8543.19
760.405	8593.59
760.743	8639.01
761.08	8758.33
761.417	8842.85
761.754	8954.03
762.091	9013.01
762.428	9095.27
762.765	9171.2
763.102	9284.87
763.438	9325.55
763.775	9457.07
764.112	9550.62
764.449	9686.67
764.785	9704.52
765.122	9763.95
765.458	9909.26
765.795	9973.44
766.131	10050.5
766.467	10043.27
766.804	10114.23
767.14	10255.46
767.476	10301.34
767.812	10302.47
768.148	10431.51
768.485	10493.65
768.821	10515.12
769.157	10546.53
769.492	10649.35
