Data from hue_270_FLMS001491_00005.txt Node
Date: Tue Feb 07 15:56:41 GMT 2017
User: dcchb
Spectrometer: FLMS00149
Trigger mode: 0
Integration Time (sec): 2.000000E-2
Scans to average: 10
Electric dark correction enabled: true
Nonlinearity correction enabled: false
Boxcar width: 0
XAxis mode: Wavelengths
Number of Pixels in Spectrum: 2048
>>>>>Begin Spectral Data<<<<<
341.393	-13.09
341.776	-13.09
342.16	-13.09
342.543	-46.76
342.927	-48.12
343.31	-75.92
343.693	-75.01
344.077	-67.55
344.46	-66.2
344.843	-60.78
345.226	-36.82
345.61	-22.81
345.993	-15.58
346.376	-0.66
346.759	4.08
347.142	31.2
347.525	41.82
347.908	51.99
348.291	85.44
348.674	105.1
349.057	101.71
349.44	126.11
349.823	147.81
350.206	169.95
350.588	199.78
350.971	197.07
351.354	223.74
351.737	236.84
352.119	236.84
352.502	261.48
352.884	263.96
353.267	280.23
353.65	298.54
354.032	296.28
354.414	316.16
354.797	301.25
355.179	314.13
355.562	311.87
355.944	329.72
356.326	340.57
356.709	361.81
357.091	334.24
357.473	342.38
357.855	333.79
358.238	348.48
358.62	328.37
359.002	348.25
359.384	348.25
359.766	328.82
360.148	332.43
360.53	341.02
360.912	317.75
361.294	323.4
361.676	341.47
362.057	359.1
362.439	317.75
362.821	347.58
363.203	342.83
363.584	323.62
363.966	332.66
364.348	310.74
364.729	322.27
365.111	315.49
365.493	317.97
365.874	328.82
366.256	315.26
366.637	300.12
367.019	304.86
367.4	309.84
367.781	320.91
368.163	329.27
368.544	309.84
368.925	319.33
369.306	341.7
369.688	317.52
370.069	324.3
370.45	323.17
370.831	298.31
371.212	300.57
371.593	303.96
371.974	299.44
372.355	313
372.736	310.74
373.117	325.66
373.498	325.2
373.879	318.88
374.26	320.46
374.641	305.09
375.021	311.87
375.402	341.02
375.783	307.58
376.163	317.52
376.544	343.73
376.925	321.14
377.305	337.18
377.686	305.54
378.066	324.75
378.447	341.93
378.827	321.59
379.208	340.34
379.588	322.72
379.968	315.03
380.349	348.03
380.729	333.11
381.109	345.09
381.489	340.12
381.87	336.5
382.25	349.61
382.63	353
383.01	347.58
383.39	356.16
383.77	340.34
384.15	340.34
384.53	342.15
384.91	360
385.29	356.84
385.67	356.16
386.049	372.89
386.429	352.77
386.809	354.81
387.189	370.63
387.568	366.56
387.948	367.91
388.328	377.86
388.707	376.28
389.087	359.55
389.466	368.82
389.846	360.23
390.225	362.04
390.605	375.37
390.984	366.56
391.363	356.61
391.743	370.17
392.122	387.12
392.501	375.82
392.881	363.62
393.26	372.89
393.639	368.82
394.018	366.78
394.397	384.18
394.776	391.19
395.155	388.03
395.534	386.22
395.913	387.8
396.292	395.71
396.671	388.48
397.05	402.72
397.429	409.49
397.808	386.67
398.186	406.33
398.565	408.59
398.944	392.32
399.323	412.43
399.701	418.76
400.08	416.73
400.458	440.23
400.837	424.41
401.215	417.18
401.594	437.97
401.972	414.01
402.351	434.13
402.729	437.29
403.107	429.38
403.486	452.66
403.864	420.79
404.242	429.38
404.62	435.48
404.999	444.97
405.377	446.78
405.755	471.87
406.133	468.93
406.511	457.18
406.889	471.19
407.267	490.85
407.645	485.43
408.023	481.81
408.401	520
408.779	491.3
409.156	502.15
409.534	487.91
409.912	485.65
410.29	527.23
410.667	541.92
411.045	543.73
411.422	529.94
411.8	539.89
412.178	556.84
412.555	545.31
412.933	562.49
413.31	568.59
413.687	572.2
414.065	572.2
414.442	578.3
414.819	584.18
415.197	611.07
415.574	611.07
415.951	607
416.328	620.11
416.705	601.58
417.082	614.46
417.46	628.47
417.837	641.58
418.214	667.57
418.591	656.27
418.967	644.52
419.344	662.14
419.721	658.3
420.098	685.65
420.475	689.04
420.852	699.43
421.228	686.78
421.605	712.99
421.982	715.93
422.358	741.69
422.735	735.36
423.111	767.9
423.488	771.29
423.864	796.83
424.241	771.97
424.617	788.92
424.994	800.22
425.37	803.61
425.746	828.47
426.123	837.96
426.499	844.29
426.875	827.56
427.251	847.45
427.627	850.39
428.003	891.74
428.379	894.68
428.756	881.8
429.132	896.04
429.507	936.49
429.883	935.36
430.259	924.74
430.635	948.24
431.011	962.7
431.387	988.69
431.763	973.55
432.138	1014
432.514	987.78
432.89	1015.35
433.265	1056.71
433.641	1058.29
434.016	1052.19
434.392	1089.25
434.767	1103.49
435.143	1118.4
435.518	1146.42
435.894	1145.75
436.269	1167.67
436.644	1173.32
437.02	1195.91
437.395	1175.58
437.77	1245.63
438.145	1232.52
438.52	1261
438.895	1268.91
439.271	1256.03
439.646	1304.39
440.021	1322.69
440.395	1346.42
440.77	1330.83
441.145	1357.27
441.52	1409.24
441.895	1367.44
442.27	1429.13
442.645	1394.55
443.019	1396.81
443.394	1411.05
443.769	1455.34
444.143	1450.82
444.518	1459.18
444.892	1442.24
445.267	1456.47
445.641	1478.39
446.016	1481.33
446.39	1519.75
446.764	1514.32
447.139	1511.39
447.513	1561.33
447.887	1543.7
448.262	1554.55
448.636	1579.86
449.01	1556.58
449.384	1584.61
449.758	1593.42
450.132	1601.55
450.506	1602.46
450.88	1641.1
451.254	1602.01
451.628	1662.57
452.002	1628.45
452.376	1663.25
452.75	1697.14
453.123	1730.36
453.497	1714.32
453.871	1744.15
454.244	1774.43
454.618	1774.2
454.992	1792.06
455.365	1789.35
455.739	1828.44
456.112	1846.97
456.486	1860.3
456.859	1864.15
457.232	1895.11
457.606	1899.17
457.979	1931.04
458.352	1890.13
458.725	1960.64
459.099	1986.4
459.472	2039.96
459.845	2059.85
460.218	2029.57
460.591	2051.49
460.964	2057.36
461.337	2100.3
461.71	2129
462.083	2171.03
462.456	2147.75
462.829	2152.27
463.201	2198.6
463.574	2219.39
463.947	2239.28
464.32	2267.07
464.692	2288.09
465.065	2292.61
465.438	2328.09
465.81	2332.83
466.183	2382.55
466.555	2415.09
466.928	2449.89
467.3	2413.51
467.672	2445.15
468.045	2534.18
468.417	2486.28
468.789	2531.47
469.161	2551.81
469.534	2578.48
469.906	2644.46
470.278	2672.94
470.65	2680.4
471.022	2700.96
471.394	2708.42
471.766	2761.07
472.138	2792.26
472.51	2844.23
472.882	2877.9
473.253	2907.73
473.625	2936.66
473.997	3024.79
474.369	2999.48
474.74	3033.61
475.112	3086.71
475.484	3117.67
475.855	3168.29
476.227	3189.08
476.598	3202.87
476.97	3274.73
477.341	3338.91
477.713	3350.21
478.084	3322.64
478.455	3434.73
478.827	3483.76
479.198	3546.81
479.569	3537.55
479.94	3632.46
480.311	3653.93
480.682	3733.7
481.053	3763.98
481.424	3828.61
481.795	3873.81
482.166	3899.8
482.537	3910.19
482.908	3964.2
483.279	4024.54
483.65	4073.58
484.021	4178.66
484.391	4235.83
484.762	4229.51
485.133	4206.46
485.503	4305.89
485.874	4406.9
486.244	4393.34
486.615	4468.82
486.985	4532.32
487.356	4562.38
487.726	4594.24
488.097	4672.21
488.467	4659.1
488.837	4736.84
489.207	4807.8
489.578	4889.83
489.948	4887.8
490.318	4952.2
490.688	4963.05
491.058	4959.66
491.428	5058.19
491.798	5125.3
492.168	5212.53
492.538	5211.63
492.908	5225.41
493.278	5302.02
493.648	5332.98
494.017	5393.77
494.387	5362.58
494.757	5404.17
495.126	5510.38
495.496	5539.08
495.866	5558.74
496.235	5575.46
496.605	5633.99
496.974	5703.37
497.344	5693.65
497.713	5716.02
498.082	5735.68
498.452	5746.3
498.821	5816.58
499.19	5820.65
499.559	5856.58
499.928	5873.53
500.298	5858.84
500.667	5960.54
501.036	5899.07
501.405	5939.52
501.774	5976.35
502.143	6001.66
502.512	6058.39
502.88	6069.91
503.249	6007.77
503.618	6107.42
503.987	6138.38
504.356	6115.33
504.724	6136.12
505.093	6215.67
505.462	6195.56
505.83	6260.19
506.199	6276.91
506.567	6337.47
506.936	6318.49
507.304	6333.18
507.672	6346.29
508.041	6332.28
508.409	6431.03
508.777	6446.17
509.145	6488.88
509.514	6431.94
509.882	6506.74
510.25	6463.8
510.618	6536.57
510.986	6504.93
511.354	6554.42
511.722	6593.74
512.09	6632.61
512.458	6675.77
512.826	6680.97
513.193	6667.64
513.561	6684.13
513.929	6671.93
514.297	6780.85
514.664	6757.58
515.032	6784.24
515.4	6788.54
515.767	6819.72
516.135	6806.16
516.502	6770.01
516.869	6928.42
517.237	6862.66
517.604	6882.77
517.972	6900.4
518.339	6905.6
518.706	6949.89
519.073	6955.09
519.44	6924.58
519.808	6997.8
520.175	6982.43
520.542	7040.73
520.909	7018.36
521.276	7011.81
521.643	7102.65
522.009	7080.28
522.376	7153.72
522.743	7140.62
523.11	7218.81
523.477	7276.88
523.843	7262.65
524.21	7338.58
524.577	7327.96
524.943	7334.51
525.31	7377.67
525.676	7420.84
526.043	7499.25
526.409	7425.13
526.776	7481.85
527.142	7512.36
527.508	7539.48
527.874	7588.29
528.241	7602.98
528.607	7631.23
528.973	7616.99
529.339	7654.73
529.705	7696.76
530.071	7694.95
530.437	7649.3
530.803	7746.93
531.169	7767.95
531.535	7772.92
531.901	7710.77
532.267	7809.3
532.632	7823.31
532.998	7832.35
533.364	7887.72
533.73	7850.2
534.095	7911.22
534.461	7896.08
534.826	7976.08
535.192	7908.28
535.557	7992.35
535.923	7953.25
536.288	7973.14
536.653	7956.19
537.019	7932.01
537.384	7979.47
537.749	8010.88
538.114	7987.6
538.479	7999.13
538.845	8020.82
539.21	8044.1
539.575	8051.78
539.94	7997.32
540.305	8083.87
540.67	8034.61
541.034	8073.7
541.399	8090.65
541.764	8122.74
542.129	8143.98
542.494	8113.7
542.858	8157.99
543.223	8157.99
543.587	8196.63
543.952	8156.18
544.316	8205.9
544.681	8185.79
545.045	8188.5
545.41	8207.93
545.774	8268.5
546.138	8191.66
546.503	8259.23
546.867	8229.18
547.231	8284.77
547.595	8317.54
547.959	8339.46
548.324	8259.01
548.688	8362.51
549.052	8294.26
549.416	8331.32
549.779	8327.25
550.143	8345.56
550.507	8314.15
550.871	8319.12
551.235	8345.33
551.599	8368.61
551.962	8381.04
552.326	8403.18
552.689	8443.41
553.053	8416.06
553.417	8497.42
553.78	8540.13
554.143	8454.26
554.507	8482.5
554.87	8489.51
555.234	8578.09
555.597	8505.33
555.96	8537.42
556.323	8602.95
556.686	8552.56
557.05	8597.98
557.413	8577.19
557.776	8606.57
558.139	8620.8
558.502	8679.33
558.865	8676.62
559.228	8749.61
559.59	8800.69
559.953	8758.88
560.316	8814.47
560.679	8787.58
561.041	8874.36
561.404	8908.71
561.767	8911.64
562.129	8891.98
562.492	9030.06
562.854	9017.4
563.217	8978.54
563.579	9035.26
563.941	9090.62
564.304	9097.85
564.666	9061.47
565.028	9113.67
565.39	9202.71
565.753	9152.32
566.115	9235.48
566.477	9259.66
566.839	9247.45
567.201	9359.99
567.563	9321.35
567.925	9398.86
568.287	9422.59
568.648	9390.73
569.01	9417.62
569.372	9580.33
569.734	9481.35
570.095	9568.35
570.457	9610.16
570.819	9571.51
571.18	9643.15
571.542	9626.88
571.903	9711.62
572.265	9720.21
572.626	9746.42
572.987	9752.3
573.349	9798.4
573.71	9844.05
574.071	9868.23
574.432	9896.93
574.794	9950.94
575.155	10019.64
575.516	9959.98
575.877	9993.2
576.238	10006.53
576.599	10124.95
576.96	10072.52
577.32	10120.65
577.681	10173.31
578.042	10161.1
578.403	10238.61
578.763	10223.02
579.124	10267.31
579.485	10338.5
579.845	10385.05
580.206	10363.13
580.566	10411.94
580.927	10385.05
581.287	10451.04
581.648	10444.26
582.008	10560.64
582.368	10491.72
582.728	10500.08
583.089	10538.72
583.449	10562.9
583.809	10554.31
584.169	10602.9
584.529	10668.43
584.889	10745.95
585.249	10717.92
585.609	10672.95
585.969	10790.01
586.329	10806.28
586.688	10781.88
587.048	10807.19
587.408	10796.34
587.768	10772.16
588.127	10851.48
588.487	10931.7
588.846	11013.74
589.206	10922.21
589.565	10963.79
589.925	10960.18
590.284	10924.7
590.643	11028.42
591.003	11063.68
591.362	11176.22
591.721	11168.31
592.08	11106.84
592.44	11157.69
592.799	11161.08
593.158	11224.13
593.517	11196.33
593.876	11240.4
594.235	11274.75
594.593	11263.22
594.952	11331.92
595.311	11337.8
595.67	11336.21
596.029	11403.78
596.387	11373.73
596.746	11415.76
597.104	11387.29
597.463	11340.51
597.822	11456.89
598.18	11455.08
598.538	11520.84
598.897	11476.55
599.255	11436.1
599.613	11592.48
599.972	11516.1
600.33	11578.69
600.688	11463.89
601.046	11542.31
601.404	11623.21
601.762	11650.78
602.12	11653.72
602.478	11602.19
602.836	11650.33
603.194	11604.23
603.552	11686.49
603.91	11573.27
604.268	11663.44
604.625	11638.8
604.983	11582.99
605.341	11647.62
605.698	11644.23
606.056	11739.59
606.413	11693.94
606.771	11828.86
607.128	11749.08
607.485	11732.59
607.843	11732.59
608.2	11851.45
608.557	11863.21
608.914	11857.1
609.272	11835.18
609.629	11924.22
609.986	11909.31
610.343	11885.35
610.7	11919.93
611.057	11868.63
611.414	11945.46
611.771	11962.19
612.127	11971
612.484	11964.9
612.841	11968.51
613.198	11972.35
613.554	12033.37
613.911	12016.42
614.267	11999.25
614.624	11990.21
614.98	12049.64
615.337	12009.64
615.693	12067.72
616.05	12128.96
616.406	12128.73
616.762	12033.6
617.118	12134.61
617.475	12076.31
617.831	12160.15
618.187	12136.42
618.543	12136.64
618.899	12167.15
619.255	12159.02
619.611	12191.78
619.967	12200.82
620.323	12176.64
620.678	12176.64
621.034	12181.16
621.39	12139.81
621.746	12187.49
622.101	12268.17
622.457	12260.03
622.812	12227.49
623.168	12224.1
623.523	12243.76
623.879	12237.88
624.234	12214.83
624.589	12199.47
624.945	12227.04
625.3	12138.23
625.655	12258.9
626.01	12281.95
626.365	12255.96
626.72	12184.55
627.075	12257.54
627.43	12230.43
627.785	12169.64
628.14	12191.11
628.495	12164.21
628.85	12169.19
629.205	12161.5
629.559	12211.44
629.914	12109.98
630.269	12153.14
630.623	12180.03
630.978	12170.09
631.332	12142.75
631.687	12217.77
632.041	12088.28
632.396	12189.75
632.75	12075.4
633.104	12069.75
633.459	11955.41
633.813	12035.86
634.167	12067.95
634.521	11995.63
634.875	11957.89
635.229	11937.78
635.583	11866.14
635.937	11995.4
636.291	11910.21
636.645	11963.32
636.999	11885.35
637.352	11950.89
637.706	11726.03
638.06	11910.66
638.413	11822.53
638.767	11822.3
639.121	11863.43
639.474	11738.91
639.828	11778.91
640.181	11773.94
640.534	11901.85
640.888	11716.09
641.241	11679.71
641.594	11709.08
641.947	11721.97
642.301	11648.3
642.654	11722.19
643.007	11726.03
643.36	11737.56
643.713	11622.08
644.066	11725.58
644.419	11620.73
644.771	11496.21
645.124	11463.89
645.477	11451.24
645.83	11426.38
646.182	11331.02
646.535	11339.6
646.888	11365.59
647.24	11203.11
647.593	11293.5
647.945	11279.04
648.298	11180.29
648.65	11238.36
649.002	11225.93
649.355	11271.58
649.707	11278.59
650.059	11322.2
650.411	11493.72
650.763	11465.25
651.115	11519.26
651.467	11531.46
651.819	11541.18
652.171	11513.38
652.523	11476.32
652.875	11507.73
653.227	11384.35
653.578	11559.03
653.93	11468.87
654.282	11416.89
654.633	11456.89
654.985	11377.12
655.337	11421.86
655.688	11438.81
656.039	11493.5
656.391	11398.36
656.742	11421.63
657.094	11347.74
657.445	11468.87
657.796	11399.71
658.147	11446.94
658.498	11371.69
658.849	11385.25
659.2	11429.32
659.551	11359.49
659.902	11366.27
660.253	11427.28
660.604	11443.1
660.955	11395.42
661.306	11432.71
661.656	11430.45
662.007	11458.47
662.358	11551.57
662.708	11486.49
663.059	11450.79
663.409	11332.37
663.76	11456.89
664.11	11475.19
664.461	11499.15
664.811	11432.48
665.161	11412.37
665.511	11393.16
665.862	11396.78
666.212	11451.24
666.562	11527.17
666.912	11412.37
667.262	11467.96
667.612	11502.76
667.962	11443.33
668.312	11456.66
668.662	11446.94
669.011	11421.86
669.361	11363.11
669.711	11372.37
670.06	11426.38
670.41	11348.64
670.76	11331.47
671.109	11376.66
671.459	11377.79
671.808	11359.04
672.157	11382.54
672.507	11279.04
672.856	11326.5
673.205	11307.29
673.554	11392.03
673.904	11336.44
674.253	11443.78
674.602	11288.3
674.951	11159.72
675.3	11065.71
675.649	11222.77
675.998	11269.55
676.346	11273.84
676.695	11252.15
677.044	11186.84
677.393	11126.28
677.741	11187.74
678.09	11282.2
678.438	11142.77
678.787	11123.56
679.135	11159.04
679.484	11056.67
679.832	11119.04
680.181	11007.63
680.529	11067.07
680.877	11052.83
681.225	11060.29
681.573	11060.29
681.922	10964.47
682.27	10927.64
682.618	10958.6
682.966	10899.16
683.314	10958.6
683.661	10923.79
684.009	10841.76
684.357	10861.88
684.705	10884.02
685.053	10860.75
685.4	10872.95
685.748	10808.54
686.095	10771.26
686.443	10741.65
686.79	10670.02
687.138	10670.02
687.485	10710.92
687.832	10594.31
688.18	10629.11
688.527	10661.43
688.874	10620.3
689.221	10566.74
689.568	10471.6
689.915	10427.76
690.262	10477.7
690.609	10439.51
690.956	10383.92
691.303	10358.84
691.65	10304.15
691.997	10308.22
692.344	10240.42
692.69	10213.3
693.037	10258.73
693.383	10116.58
693.73	10212.85
694.077	10074.33
694.423	10048.56
694.769	10045.17
695.116	10020.32
695.462	10026.42
695.808	9935.57
696.155	9975.8
696.501	9912.52
696.847	9860.77
697.193	9835.01
697.539	9763.6
697.885	9802.02
698.231	9767.67
698.577	9727.89
698.923	9772.19
699.269	9672.08
699.614	9556.82
699.96	9538.07
700.306	9534.45
700.651	9484.96
700.997	9495.58
701.342	9458.97
701.688	9454.45
702.033	9407.22
702.379	9382.14
702.724	9349.82
703.069	9381.24
703.415	9295.14
703.76	9259.88
704.105	9303.05
704.45	9204.29
704.795	9151.41
705.14	9079.55
705.485	9130.85
705.83	9029.16
706.175	9104.63
706.52	9067.12
706.865	8995.03
707.209	8963.85
707.554	8906.67
707.899	8924.53
708.243	8927.91
708.588	8864.64
708.932	8833
709.277	8851.76
709.621	8838.2
709.966	8792.78
710.31	8826.9
710.654	8648.83
710.998	8683.18
711.342	8712.78
711.687	8716.4
712.031	8713.68
712.375	8579
712.719	8601.82
713.063	8611.77
713.407	8666.45
713.75	8563.4
714.094	8639.11
714.438	8562.95
714.782	8556.17
715.125	8535.61
715.469	8554.14
715.812	8505.55
716.156	8454.71
716.499	8493.35
716.843	8416.97
717.186	8424.65
717.53	8396.86
717.873	8430.75
718.216	8427.14
718.559	8373.13
718.902	8293.13
719.246	8327.48
719.589	8332.9
719.932	8301.94
720.275	8309.85
720.617	8332.9
720.96	8249.74
721.303	8235.05
721.646	8339.23
721.989	8251.77
722.331	8273.92
722.674	8192.57
723.016	8240.7
723.359	8215.17
723.701	8202.96
724.044	8145.34
724.386	8174.94
724.729	8195.96
725.071	8164.77
725.413	8124.55
725.755	8167.48
726.097	8083.42
726.439	8107.37
726.782	8109.63
727.124	8123.87
727.465	8101.5
727.807	8100.37
728.149	8066.47
728.491	8093.81
728.833	8075.73
729.175	7995.51
729.516	8014.27
729.858	8033.02
730.199	8060.82
730.541	8025.11
730.882	7997.32
731.224	8028.5
731.565	8047.03
731.906	8004.1
732.248	8051.33
732.589	7997.32
732.93	8013.36
733.271	8004.55
733.612	8009.52
733.953	8009.97
734.294	7969.3
734.635	7967.26
734.976	8043.87
735.317	7959.13
735.658	7953.03
735.999	7940.82
736.339	7921.61
736.68	8000.93
737.021	7956.19
737.361	7955.06
737.702	7996.64
738.042	7995.51
738.383	7997.77
738.723	7982.63
739.063	7967.71
739.404	8027.6
739.744	7985.79
740.084	7999.58
740.424	7962.29
740.764	7962.29
741.104	8037.54
741.444	7951.44
741.784	8011.78
742.124	8020.59
742.464	8059.24
742.804	8023.76
743.143	8038.22
743.483	8080.93
743.823	8012.23
744.162	8086.36
744.502	8067.37
744.841	8087.71
745.181	8150.31
745.52	8152.79
745.86	8148.5
746.199	8203.87
746.538	8269.18
746.877	8349.4
747.216	8355.27
747.556	8402.96
747.895	8391.21
748.234	8319.12
748.573	8459.68
748.911	8478.66
749.25	8510.07
749.589	8571.09
749.928	8623.97
750.267	8709.84
750.605	8739.9
750.944	8749.84
751.283	8858.54
751.621	8977.41
751.96	9016.5
752.298	9027.8
752.636	9165.42
752.975	9198.64
753.313	9236.38
753.651	9425.3
753.989	9422.14
754.327	9625.07
754.666	9601.34
755.004	9735.13
755.342	9867.78
755.679	9956.59
756.017	10053.54
756.355	10137.15
756.693	10198.62
757.031	10360.42
757.368	10454.43
757.706	10553.63
758.044	10719.28
758.381	10858.49
758.719	11001.98
759.056	11131.02
759.394	11275.42
759.731	11352.94
760.068	11525.36
760.405	11741.4
760.743	11784.56
761.08	11852.58
761.417	12077.44
761.754	12181.16
762.091	12311.55
762.428	12498.22
762.765	12631.32
