Data from hue_34_FLMS001491_00067.txt Node
Date: Tue Feb 07 17:25:58 GMT 2017
User: dcchb
Spectrometer: FLMS00149
Trigger mode: 0
Integration Time (sec): 2.000000E-2
Scans to average: 10
Electric dark correction enabled: true
Nonlinearity correction enabled: false
Boxcar width: 0
XAxis mode: Wavelengths
Number of Pixels in Spectrum: 2048
>>>>>Begin Spectral Data<<<<<
341.393	-6.31
341.776	-6.31
342.16	-6.31
342.543	-76.59
342.927	-77.27
343.31	-61.68
343.693	-78.4
344.077	-43.6
344.46	-72.07
344.843	-47.44
345.226	-42.92
345.61	-22.81
345.993	-12.19
346.376	-7.22
346.759	4.76
347.142	25.1
347.525	42.27
347.908	64.42
348.291	62.61
348.674	82.05
349.057	107.13
349.44	137.19
349.823	140.35
350.206	166.34
350.588	208.14
350.971	211.99
351.354	227.8
351.737	237.07
352.119	280.46
352.502	260.8
352.884	269.16
353.267	287.46
353.65	272.1
354.032	308.48
354.414	313
354.797	310.29
355.179	330.17
355.562	321.36
355.944	306.9
356.326	312.55
356.709	324.3
357.091	326.56
357.473	342.15
357.855	350.06
358.238	339.67
358.62	349.61
359.002	331.08
359.384	333.11
359.766	329.72
360.148	335.15
360.53	331.76
360.912	341.93
361.294	352.32
361.676	359.33
362.057	335.15
362.439	355.49
362.821	337.18
363.203	314.58
363.584	317.97
363.966	334.92
364.348	321.81
364.729	314.36
365.111	307.8
365.493	347.58
365.874	311.87
366.256	328.82
366.637	318.88
367.019	324.07
367.4	336.95
367.781	326.33
368.163	313.45
368.544	317.52
368.925	312.55
369.306	306.22
369.688	314.81
370.069	317.97
370.45	315.71
370.831	316.16
371.212	324.75
371.593	321.36
371.974	311.64
372.355	328.37
372.736	329.27
373.117	300.35
373.498	300.35
373.879	301.25
374.26	312.77
374.641	303.28
375.021	294.7
375.402	296.73
375.783	335.6
376.163	311.42
376.544	334.47
376.925	353.23
377.305	320.01
377.686	316.16
378.066	306.67
378.447	323.85
378.827	332.43
379.208	347.8
379.588	355.03
379.968	340.34
380.349	330.63
380.729	323.85
381.109	340.34
381.489	331.53
381.87	341.93
382.25	341.93
382.63	344.41
383.01	350.29
383.39	339.89
383.77	339.89
384.15	381.02
384.53	335.15
384.91	349.38
385.29	354.13
385.67	347.8
386.049	342.15
386.429	332.43
386.809	358.42
387.189	362.26
387.568	361.36
387.948	336.05
388.328	365.65
388.707	346.45
389.087	377.18
389.466	360.91
389.846	370.85
390.225	364.07
390.605	366.56
390.984	373.79
391.363	354.81
391.743	362.49
392.122	368.14
392.501	387.57
392.881	378.31
393.26	374.02
393.639	359.33
394.018	373.56
394.397	369.5
394.776	377.18
395.155	367.01
395.534	385.54
395.913	380.8
396.292	392.77
396.671	395.48
397.05	395.26
397.429	399.78
397.808	374.24
398.186	396.61
398.565	374.02
398.944	390.51
399.323	400.46
399.701	398.65
400.08	390.74
400.458	388.25
400.837	409.95
401.215	400.23
401.594	397.97
401.972	396.39
402.351	396.39
402.729	415.14
403.107	406.33
403.486	409.49
403.864	418.99
404.242	430.06
404.62	404.3
404.999	414.69
405.377	402.49
405.755	447.01
406.133	416.5
406.511	414.69
406.889	429.16
407.267	440.45
407.645	418.08
408.023	451.08
408.401	421.7
408.779	435.48
409.156	469.83
409.534	454.92
409.912	450.62
410.29	440.45
410.667	443.39
411.045	471.19
411.422	444.07
411.8	463.96
412.178	467.8
412.555	469.15
412.933	448.36
413.31	482.26
413.687	484.3
414.065	465.54
414.442	485.2
414.819	507.35
415.197	483.62
415.574	520
415.951	482.71
416.328	512.99
416.705	501.24
417.082	510.28
417.46	517.97
417.837	496.72
418.214	511.64
418.591	534.46
418.967	497.18
419.344	531.07
419.721	527.23
420.098	524.29
420.475	535.14
420.852	525.2
421.228	537.4
421.605	520.45
421.982	538.31
422.358	535.82
422.735	525.2
423.111	562.94
423.488	573.78
423.864	571.52
424.241	555.03
424.617	572.88
424.994	564.07
425.37	554.35
425.746	567.46
426.123	578.76
426.499	580.11
426.875	577.17
427.251	589.6
427.627	581.92
428.003	590.06
428.379	622.6
428.756	614.46
429.132	596.16
429.507	629.83
429.883	627.79
430.259	600.9
430.635	637.29
431.011	607
431.387	657.17
431.763	631.64
432.138	655.36
432.514	674.35
432.89	651.97
433.265	662.6
433.641	677.51
434.016	675.48
434.392	682.03
434.767	689.94
435.143	694.23
435.518	689.49
435.894	677.74
436.269	728.13
436.644	709.37
437.02	717.51
437.395	705.08
437.77	726.55
438.145	739.88
438.52	748.02
438.895	727.23
439.271	747.34
439.646	745.76
440.021	753.89
440.395	774.91
440.77	746.89
441.145	781.69
441.52	785.76
441.895	782.59
442.27	789.37
442.645	789.37
443.019	798.64
443.394	789.15
443.769	815.36
444.143	798.86
444.518	825.53
444.892	812.42
445.267	814.68
445.641	813.33
446.016	845.42
446.39	822.14
446.764	819.65
447.139	812.2
447.513	852.87
447.887	845.87
448.262	844.06
448.636	840.44
449.01	858.3
449.384	858.3
449.758	872.08
450.132	883.83
450.506	900.1
450.88	860.33
451.254	871.4
451.628	888.13
452.002	898.97
452.376	910.72
452.75	925.19
453.123	926.54
453.497	955.7
453.871	943.49
454.244	965.64
454.618	942.81
454.992	979.2
455.365	981.68
455.739	992.76
456.112	1016.26
456.486	1010.61
456.859	1031.85
457.232	1022.36
457.606	1021.46
457.979	1084.05
458.352	1037.73
458.725	1061.68
459.099	1065.52
459.472	1095.58
459.845	1099.19
460.218	1101
460.591	1113.88
460.964	1107.1
461.337	1131.96
461.71	1161.57
462.083	1158.85
462.456	1187.78
462.829	1195.91
463.201	1180.77
463.574	1220.32
463.947	1208.12
464.32	1255.35
464.692	1251.73
465.065	1292.64
465.438	1282.24
465.81	1334.89
466.183	1317.04
466.555	1347.55
466.928	1364.27
467.3	1391.39
467.672	1393.2
468.045	1423.03
468.417	1408.34
468.789	1436.36
469.161	1451.73
469.534	1484.27
469.906	1525.85
470.278	1539.41
470.65	1543.02
471.022	1574.89
471.394	1595.9
471.766	1584.38
472.138	1645.39
472.51	1673.87
472.882	1708.9
473.253	1735.79
473.625	1772.62
473.997	1801.77
474.369	1837.03
474.74	1853.07
475.112	1901.21
475.484	1983.69
475.855	1955.89
476.227	2024.14
476.598	2045.16
476.97	2096.23
477.341	2125.61
477.713	2166.96
478.084	2199.05
478.455	2281.31
478.827	2334.64
479.198	2391.82
479.569	2433.62
479.94	2465.49
480.311	2519.95
480.682	2617.8
481.053	2699.15
481.424	2764.91
481.795	2778.7
482.166	2868.19
482.537	2864.8
482.908	2993.16
483.279	3012.59
483.65	3113.6
484.021	3223.43
484.391	3259.82
484.762	3333.49
485.133	3401.51
485.503	3472.47
485.874	3566.93
486.244	3637.43
486.615	3716.98
486.985	3804.43
487.356	3903.19
487.726	3967.14
488.097	4075.84
488.467	4093.01
488.837	4229.96
489.207	4315.15
489.578	4379.79
489.948	4524.41
490.318	4573.23
490.688	4602.6
491.058	4721.7
491.428	4837.85
491.798	4922.37
492.168	5005.53
492.538	5103.38
492.908	5220.22
493.278	5310.83
493.648	5324.62
494.017	5443.03
494.387	5531.39
494.757	5632.63
495.126	5672.63
495.496	5717.6
495.866	5842.57
496.235	5912.18
496.605	5993.3
496.974	6044.6
497.344	6165.28
497.713	6177.48
498.082	6287.31
498.452	6403.69
498.821	6435.33
499.19	6493.4
499.559	6555.77
499.928	6607.3
500.298	6717.35
500.667	6818.82
501.036	6803.68
501.405	6930
501.774	7014.97
502.143	7073.5
502.512	7093.39
502.88	7135.19
503.249	7262.87
503.618	7238.47
503.987	7346.26
504.356	7425.13
504.724	7513.71
505.093	7525.01
505.462	7558.46
505.83	7632.81
506.199	7719.36
506.567	7852.01
506.936	7848.4
507.304	7988.73
507.672	7962.29
508.041	8061.27
508.409	8071.21
508.777	8125.22
509.145	8209.52
509.514	8291.32
509.882	8301.94
510.25	8354.37
510.618	8416.52
510.986	8407.7
511.354	8511.2
511.722	8639.11
512.09	8663.52
512.458	8753
512.826	8767.92
513.193	8833.23
513.561	8806.34
513.929	8873.45
514.297	9007.01
514.664	9025.77
515.032	9065.76
515.4	9148.47
515.767	9206.78
516.135	9243.39
516.502	9181.24
516.869	9399.99
517.237	9436.38
517.604	9409.71
517.972	9469.37
518.339	9496.26
518.706	9528.13
519.073	9619.42
519.44	9656.03
519.808	9785.52
520.175	9677.27
520.542	9797.5
520.909	9893.31
521.276	9889.02
521.643	10013.99
522.009	10107.32
522.376	10115.91
522.743	10155.23
523.11	10268.22
523.477	10250.82
523.843	10370.36
524.21	10457.37
524.577	10576.01
524.943	10587.76
525.31	10652.62
525.676	10724.7
526.043	10825.04
526.409	10806.06
526.776	10883.12
527.142	10949.1
527.508	10961.99
527.874	11093.06
528.241	11198.59
528.607	11218.93
528.973	11339.38
529.339	11358.36
529.705	11373.05
530.071	11500.73
530.437	11613.95
530.803	11638.13
531.169	11613.04
531.535	11658.92
531.901	11726.03
532.267	11765.13
532.632	11848.74
532.998	11858.46
533.364	11950.66
533.73	11988.63
534.095	12144.1
534.461	12123.99
534.826	12203.54
535.192	12204.89
535.557	12335.28
535.923	12287.6
536.288	12377.32
536.653	12416.41
537.019	12389.07
537.384	12490.53
537.749	12615.05
538.114	12565.79
538.479	12684.43
538.845	12675.39
539.21	12697.08
539.575	12763.97
539.94	12821.82
540.305	12956.06
540.67	12829.28
541.034	12965.77
541.399	13145.88
541.764	13078.99
542.129	13231.98
542.494	13176.16
542.858	13217.75
543.223	13173.45
543.587	13271.53
543.952	13329.61
544.316	13378.65
544.681	13433.33
545.045	13491.18
545.41	13608.7
545.774	13591.07
546.138	13573.22
546.503	13688.02
546.867	13735.25
547.231	13835.13
547.595	13870.16
547.959	13969.59
548.324	13916.71
548.688	13916.03
549.052	14020.44
549.416	14092.98
549.779	14112.19
550.143	14267.89
550.507	14236.25
550.871	14262.46
551.235	14358.96
551.599	14394.89
551.962	14419.97
552.326	14434.21
552.689	14544.04
553.053	14500.88
553.417	14588.33
553.78	14690.02
554.143	14669.46
554.507	14698.84
554.87	14699.51
555.234	14917.59
555.597	14877.14
555.96	14853.86
556.323	14993.97
556.686	15066.74
557.05	15121.42
557.413	15029.9
557.776	15142.44
558.139	15308.99
558.502	15219.73
558.865	15239.84
559.228	15484.8
559.59	15464.24
559.953	15472.6
560.316	15703.56
560.679	15574.07
561.041	15753.05
561.404	15846.15
561.767	15861.07
562.129	15916.21
562.492	15991.91
562.854	16004.79
563.217	15937.45
563.579	16074.62
563.941	16268.96
564.304	16232.58
564.666	16457.89
565.028	16350.54
565.39	16428.06
565.753	16531.56
566.115	16506.02
566.477	16581.5
566.839	16743.98
567.201	16808.84
567.563	16748.27
567.925	16849.51
568.287	16970.19
568.648	16960.7
569.01	17004.31
569.372	17148.94
569.734	17058.32
570.095	17218.77
570.457	17246.57
570.819	17392.78
571.18	17410.4
571.542	17498.09
571.903	17573.34
572.265	17659.44
572.626	17783.28
572.987	17825.08
573.349	17910.05
573.71	17945.08
574.071	18026.88
574.432	18122.48
574.794	18272.3
575.155	18279.99
575.516	18397.5
575.877	18521.11
576.238	18557.04
576.599	18759.07
576.96	18795
577.32	18868.67
577.681	19113.41
578.042	19220.75
578.403	19266.63
578.763	19353.86
579.124	19470.01
579.485	19686.73
579.845	19806.5
580.206	20035.87
580.566	20030
580.927	20155.64
581.287	20434.28
581.648	20480.15
582.008	20810.77
582.368	20771.67
582.728	21068.61
583.089	21093.47
583.449	21350.87
583.809	21579.11
584.169	21750.63
584.529	21891.19
584.889	22261.35
585.249	22323.04
585.609	22352.65
585.969	22731.85
586.329	22892.07
586.688	23224.94
587.048	23310.14
587.408	23499.51
587.768	23738.15
588.127	23886.17
588.487	24135.42
588.846	24515.98
589.206	24622.19
589.565	24891.34
589.925	25267.6
590.284	25384.66
590.643	25506.91
591.003	25843.4
591.362	26156.61
591.721	26314.35
592.08	26583.5
592.44	26971.06
592.799	27070.94
593.158	27316.36
593.517	27597.71
593.876	27826.4
594.235	28016.23
594.593	28337.12
594.952	28597.68
595.311	28728.52
595.67	28985.92
596.029	29392.24
596.387	29617.09
596.746	29925.78
597.104	30111.76
597.463	30298.88
597.822	30582.94
598.18	30695.03
598.538	30992.87
598.897	31306.54
599.255	31241
599.613	31979.74
599.972	31887.99
600.33	32230.35
600.688	32209.56
601.046	32600.74
601.404	32859.72
601.762	33001.63
602.12	33434.16
602.478	33549.19
602.836	33639.81
603.194	33721.39
603.552	34103.52
603.91	34085.22
604.268	34418.77
604.625	34402.73
604.983	34831.41
605.341	34801.36
605.698	35208.81
606.056	35405.18
606.413	35547.1
606.771	35794.55
607.128	35972.63
607.485	35911.39
607.843	36126.97
608.2	36484.25
608.557	36746.62
608.914	36704.36
609.272	36995.65
609.629	37140.28
609.986	37418.01
610.343	37408.75
610.7	37814.39
611.057	37815.97
611.414	37895.51
611.771	38014.38
612.127	38360.81
612.484	38406.46
612.841	38659.11
613.198	38662.5
613.554	38629.96
613.911	38904.75
614.267	39006.22
614.624	38985.43
614.98	39218.42
615.337	39458.64
615.693	39436.72
616.05	39549.03
616.406	39811.62
616.762	39822.24
617.118	39890.94
617.475	40035.35
617.831	40146.53
618.187	40429.91
618.543	40283.25
618.899	40712.16
619.255	40725.05
619.611	40635.33
619.967	40937.24
620.323	41053.85
620.678	41050.23
621.034	40995.09
621.39	41052.49
621.746	41062.44
622.101	41581.75
622.457	41419.94
622.812	41584.68
623.168	41601.86
623.523	41585.36
623.879	41803.66
624.234	41562.09
624.589	41816.99
624.945	41902.19
625.3	42085.91
625.655	42085.69
626.01	41975.41
626.365	42150.32
626.72	42061.28
627.075	42146.48
627.43	42166.82
627.785	42128.4
628.14	42228.96
628.495	42292.46
628.85	42170.88
629.205	42086.37
629.559	42398.22
629.914	42376.08
630.269	42382.4
630.623	42311.22
630.978	42193.25
631.332	42480.03
631.687	42473.93
632.041	42367.49
632.396	42422.4
632.75	42268.96
633.104	42386.02
633.459	42074.84
633.813	42255.4
634.167	42350.99
634.521	42232.35
634.875	42283.65
635.229	42388.96
635.583	42165.23
635.937	42247.04
636.291	42125.23
636.645	42172.24
636.999	42130.43
637.352	42332.23
637.706	42159.13
638.06	42283.42
638.413	42245.68
638.767	42127.27
639.121	42254.04
639.474	41900.61
639.828	42113.71
640.181	42055.41
640.534	42276.87
640.888	41996.42
641.241	41956.65
641.594	41938.57
641.947	42051.34
642.301	41885.47
642.654	42012.02
643.007	41896.99
643.36	41947.39
643.713	41810.21
644.066	42010.21
644.419	41697
644.771	41599.15
645.124	41232.15
645.477	41035.09
645.83	40823.35
646.182	40864.02
646.535	40653.41
646.888	40793.29
647.24	40511.04
647.593	40717.36
647.945	40768.21
648.298	40599.17
648.65	40402.57
649.002	40450.48
649.355	40643.01
649.707	40405.28
650.059	40520.08
650.411	41146.05
650.763	41287.52
651.115	41383.11
651.467	41155.54
651.819	41400.51
652.171	41261.98
652.523	41294.07
652.875	41234.64
653.227	41032.16
653.578	41287.97
653.93	41241.87
654.282	41047.97
654.633	41048.88
654.985	41199.61
655.337	41198.03
655.688	41214.75
656.039	41258.36
656.391	40913.74
656.742	41001.65
657.094	41087.07
657.445	41210.46
657.796	41045.49
658.147	40946.06
658.498	40963.68
658.849	41019.05
659.2	40934.31
659.551	40827.64
659.902	41082.55
660.253	40949.45
660.604	41014.75
660.955	40869
661.306	41009.56
661.656	40753.07
662.007	40919.39
662.358	40969.56
662.708	40973.85
663.059	40970.46
663.409	40501.32
663.76	40993.06
664.11	40876
664.461	40951.71
664.811	40791.48
665.161	40897.02
665.511	40595.78
665.862	40758.04
666.212	40829.45
666.562	40794.42
666.912	40768.89
667.262	40631.04
667.612	40640.3
667.962	40667.87
668.312	40668.1
668.662	40825.61
669.011	40726.85
669.361	40636.91
669.711	40697.25
670.06	40598.27
670.41	40582
670.76	40573.18
671.109	40730.47
671.459	40605.05
671.808	40476.92
672.157	40660.19
672.507	40283.02
672.856	40427.88
673.205	40494.77
673.554	40556.01
673.904	40454.09
674.253	40690.47
674.602	40346.75
674.951	39869.47
675.3	39770.04
675.649	40342
675.998	40321.44
676.346	40292.51
676.695	40473.07
677.044	40160.09
677.393	40298.84
677.741	40373.19
678.09	40264.27
678.438	40169.81
678.787	40204.61
679.135	40167.32
679.484	39876.25
679.832	40055.91
680.181	39844.84
680.529	39751.29
680.877	39874.45
681.225	39828.8
681.573	40044.38
681.922	39767.33
682.27	39585.64
682.618	39761.68
682.966	39508.58
683.314	39642.81
683.661	39584.74
684.009	39336.15
684.357	39342.93
684.705	39236.27
685.053	39323.95
685.4	39255.25
685.748	39087.35
686.095	39095.03
686.443	38948.82
686.79	38802.61
687.138	38935.94
687.485	38932.55
687.832	38730.75
688.18	38817.98
688.527	38672.9
688.874	38636.74
689.221	38497.53
689.568	38464.77
689.915	38388.38
690.262	38349.74
690.609	38191.55
690.956	38144.55
691.303	38151.33
691.65	37937.1
691.997	37839.02
692.344	37788.63
692.69	37700.49
693.037	37613.26
693.383	37282.65
693.73	37556.09
694.077	37284.23
694.423	37285.14
694.769	37131.47
695.116	37137.34
695.462	37074.52
695.808	36971.92
696.155	37040.85
696.501	36784.36
696.847	36871.14
697.193	36457.36
697.539	36626.4
697.885	36435.89
698.231	36395.89
698.577	36412.62
698.923	36142.57
699.269	36039.52
699.614	35901.22
699.96	35808.34
700.306	35831.39
700.651	35666.87
700.997	35665.97
701.342	35497.84
701.688	35525.63
702.033	35390.72
702.379	35214
702.724	35244.96
703.069	35364.73
703.415	34949.38
703.76	34874.13
704.105	34849.49
704.45	34867.57
704.795	34611.31
705.14	34577.64
705.485	34551.2
705.83	34298.55
706.175	34416.51
706.52	34369.51
706.865	34205.67
707.209	34099.46
707.554	34075.95
707.899	34141.04
708.243	33960.7
708.588	33988.5
708.932	33713.25
709.277	33816.53
709.621	33734.04
709.966	33547.83
710.31	33525.23
710.654	33313.94
710.998	33289.53
711.342	33280.49
711.687	33234.17
712.031	33154.17
712.375	33066.26
712.719	33064.91
713.063	32973.84
713.407	32977
713.75	32802.77
714.094	32896.1
714.438	32743.56
714.782	32626.95
715.125	32621.08
715.469	32682.77
715.812	32527.75
716.156	32339.95
716.499	32233.29
716.843	32244.36
717.186	32148.55
717.53	32259.73
717.873	32226.96
718.216	32123.46
718.559	32014.54
718.902	31769.12
719.246	31761.44
719.589	31781.78
719.932	31654.1
720.275	31734.32
720.617	31556.02
720.96	31627.21
721.303	31514.89
721.646	31636.02
721.989	31346.99
722.331	31433.09
722.674	31307.21
723.016	31435.57
723.359	31325.29
723.701	31316.93
724.044	31151.74
724.386	30915.59
724.729	31095.24
725.071	31247.55
725.413	30984.51
725.755	31063.6
726.097	30846.21
726.439	30667
726.782	30646.21
727.124	30779.09
727.465	30643.73
727.807	30693.22
728.149	30557.4
728.491	30515.82
728.833	30579.55
729.175	30423.85
729.516	30309.5
729.858	30377.75
730.199	30306.56
730.541	30302.27
730.882	30288.48
731.224	30387.01
731.565	30043.29
731.906	30087.81
732.248	30156.06
732.589	29958.77
732.93	29841.04
733.271	29870.64
733.612	29899.57
733.953	29827.93
734.294	29744.77
734.635	29608.28
734.976	29781.83
735.317	29609.41
735.658	29711.32
735.999	29624.32
736.339	29511.1
736.68	29588.39
737.021	29389.52
737.361	29275.18
737.702	29524.21
738.042	29392.91
738.383	29245.8
738.723	29354.04
739.063	29152.47
739.404	29227.95
739.744	29194.95
740.084	28971.23
740.424	29218
740.764	28993.15
741.104	29023.66
741.444	28894.4
741.784	28894.62
742.124	28932.13
742.464	28840.61
742.804	28856.2
743.143	28822.53
743.483	28813.72
743.823	28680.39
744.162	28655.31
744.502	28770.33
744.841	28580.73
745.181	28644.46
745.52	28344.13
745.86	28493.05
746.199	28481.07
746.538	28435.2
746.877	28392.94
747.216	28336.67
747.556	28389.55
747.895	28246.28
748.234	28108.2
748.573	28088.09
748.911	28059.62
749.25	28107.98
749.589	27992.95
749.928	28041.54
750.267	28070.46
750.605	27871.37
750.944	27805.38
751.283	27716.12
751.621	27850.81
751.96	27609.01
752.298	27627.76
752.636	27558.84
752.975	27425.06
753.313	27511.83
753.651	27537.82
753.989	27388.67
754.327	27327.66
754.666	27122.01
755.004	27309.8
755.342	27295.12
755.679	27078.62
756.017	26979.42
756.355	27084.73
756.693	26981.9
757.031	26937.16
757.368	26722.25
757.706	26657.17
758.044	26710.5
