Data from hue_300_FLMS001491_00070.txt Node
Date: Tue Feb 07 15:51:04 GMT 2017
User: dcchb
Spectrometer: FLMS00149
Trigger mode: 0
Integration Time (sec): 2.000000E-2
Scans to average: 10
Electric dark correction enabled: true
Nonlinearity correction enabled: false
Boxcar width: 0
XAxis mode: Wavelengths
Number of Pixels in Spectrum: 2048
>>>>>Begin Spectral Data<<<<<
341.393	-14.18
341.776	-14.18
342.16	-14.18
342.543	-70
342.927	-53.95
343.31	-76.55
343.693	-67.29
344.077	-71.13
344.46	-55.08
344.843	-47.85
345.226	-37.91
345.61	-27.51
345.993	-24.58
346.376	-8.08
346.759	21.98
347.142	28.53
347.525	33.73
347.908	64.24
348.291	64.24
348.674	102.65
349.057	100.62
349.44	95.87
349.823	148.3
350.206	134.06
350.588	179.71
350.971	177.68
351.354	217.23
351.737	219.49
352.119	261.52
352.502	253.84
352.884	250.9
353.267	280.95
353.65	275.76
354.032	289.09
354.414	310.1
354.797	311.23
355.179	313.72
355.562	314.62
355.944	321.86
356.326	320.5
356.709	334.28
357.091	339.93
357.473	331.35
357.855	326.6
358.238	332.03
358.62	334.74
359.002	350.78
359.384	335.19
359.766	322.99
360.148	330.22
360.53	318.24
360.912	329.77
361.294	312.82
361.676	331.12
362.057	324.12
362.439	318.24
362.821	322.31
363.203	308.75
363.584	302.87
363.966	322.08
364.348	325.92
364.729	318.92
365.111	307.39
365.493	317.56
365.874	306.26
366.256	308.07
366.637	326.83
367.019	315.08
367.4	291.57
367.781	330.22
368.163	308.07
368.544	311.91
368.925	293.83
369.306	326.6
369.688	312.82
370.069	303.78
370.45	315.08
370.831	303.1
371.212	293.38
371.593	313.95
371.974	299.94
372.355	310.56
372.736	328.86
373.117	308.3
373.498	321.4
373.879	306.04
374.26	310.78
374.641	290.67
375.021	314.62
375.402	297.45
375.783	317.79
376.163	335.41
376.544	316.88
376.925	312.59
377.305	322.31
377.686	308.52
378.066	320.27
378.447	318.01
378.827	316.88
379.208	325.02
379.588	327.96
379.968	344
380.349	340.16
380.729	333.38
381.109	337
381.489	319.14
381.87	326.15
382.25	337.22
382.63	334.51
383.01	355.98
383.39	333.38
383.77	329.99
384.15	327.05
384.53	363.21
384.91	356.43
385.29	352.14
385.67	336.09
386.049	343.1
386.429	357.34
386.809	356.21
387.189	348.07
387.568	350.78
387.948	345.13
388.328	363.21
388.707	353.49
389.087	356.88
389.466	371.12
389.846	344.45
390.225	355.98
390.605	386.49
390.984	365.02
391.363	371.8
391.743	380.16
392.122	360.05
392.501	368.18
392.881	392.59
393.26	377.9
393.639	387.84
394.018	389.42
394.397	394.17
394.776	376.09
395.155	384.68
395.534	366.83
395.913	397.79
396.292	389.2
396.671	376.54
397.05	408.86
397.429	407.96
397.808	389.2
398.186	410.67
398.565	408.86
398.944	413.83
399.323	384.68
399.701	407.96
400.08	400.72
400.458	412.02
400.837	442.76
401.215	416.32
401.594	435.75
401.972	435.75
402.351	415.19
402.729	437.33
403.107	439.59
403.486	433.49
403.864	456.54
404.242	412.93
404.62	435.53
404.999	456.99
405.377	456.99
405.755	450.21
406.133	465.35
406.511	476.65
406.889	466.71
407.267	473.72
407.645	475.52
408.023	482.08
408.401	477.11
408.779	491.79
409.156	496.54
409.534	518.46
409.912	506.26
410.29	519.82
410.667	519.36
411.045	516.65
411.422	546.48
411.8	528.4
412.178	537.9
412.555	535.41
412.933	577.67
413.31	566.6
413.687	605.24
414.065	602.07
414.442	617.89
414.819	636.88
415.197	629.19
415.574	642.3
415.951	658.57
416.328	649.3
416.705	651.34
417.082	680.49
417.46	659.7
417.837	665.35
418.214	693.15
418.591	696.08
418.967	715.74
419.344	694.05
419.721	730.66
420.098	723.43
420.475	743.31
420.852	754.84
421.228	758.68
421.605	767.49
421.982	773.82
422.358	803.88
422.735	804.1
423.111	827.38
423.488	821.5
423.864	799.36
424.241	835.06
424.617	833.03
424.994	848.17
425.37	847.94
425.746	845.01
426.123	858.11
426.499	870.77
426.875	890.88
427.251	903.99
427.627	934.95
428.003	921.61
428.379	919.13
428.756	929.98
429.132	953.25
429.507	970.2
429.883	959.58
430.259	1009.52
430.635	993.7
431.011	1003.65
431.387	1002.52
431.763	1045.23
432.138	1060.82
432.514	1059.69
432.89	1056.75
433.265	1092.23
433.641	1097.43
434.016	1100.14
434.392	1148.73
434.767	1120.03
435.143	1148.5
435.518	1191.44
435.894	1174.04
436.269	1177.65
436.644	1244.32
437.02	1197.99
437.395	1198.9
437.77	1212
438.145	1219.91
438.52	1251.1
438.895	1245.9
439.271	1271.89
439.646	1288.61
440.021	1314.15
440.395	1331.09
440.77	1296.75
441.145	1296.75
441.52	1317.08
441.895	1336.52
442.27	1329.97
442.645	1324.09
443.019	1338.55
443.394	1358.44
443.769	1345.56
444.143	1341.49
444.518	1382.17
444.892	1362.96
445.267	1395.05
445.641	1417.19
446.016	1421.94
446.39	1411.54
446.764	1435.05
447.139	1415.84
447.513	1429.4
447.887	1434.82
448.262	1409.06
448.636	1448.38
449.01	1423.97
449.384	1461.71
449.758	1450.64
450.132	1456.06
450.506	1474.82
450.88	1473.46
451.254	1469.85
451.628	1496.29
452.002	1482.96
452.376	1507.81
452.75	1518.66
453.123	1538.1
453.497	1542.61
453.871	1555.72
454.244	1571.54
454.618	1588.72
454.992	1599.11
455.365	1586
455.739	1604.08
456.112	1618.09
456.486	1646.79
456.859	1673.46
457.232	1660.35
457.606	1674.14
457.979	1659.9
458.352	1692.89
458.725	1696.51
459.099	1743.29
459.472	1722.95
459.845	1748.71
460.218	1739.45
460.591	1745.77
460.964	1789.84
461.337	1839.78
461.71	1817.64
462.083	1802.72
462.456	1826.68
462.829	1833
463.201	1855.15
463.574	1892.66
463.947	1858.31
464.32	1929.27
464.692	1952.1
465.065	1948.93
465.438	2007.24
465.81	1974.24
466.183	1990.74
466.555	2061.7
466.928	2030.29
467.3	2029.38
467.672	2057.86
468.045	2084.97
468.417	2103.96
468.789	2118.87
469.161	2112.32
469.534	2121.36
469.906	2175.14
470.278	2176.27
470.65	2190.06
471.022	2242.03
471.394	2261.01
471.766	2219.89
472.138	2269.6
472.51	2317.96
472.882	2334.46
473.253	2342.59
473.625	2352.99
473.997	2433.66
474.369	2457.39
474.74	2473.21
475.112	2500.1
475.484	2503.95
475.855	2557.28
476.227	2557.5
476.598	2609.03
476.97	2604.51
477.341	2710.04
477.713	2694.67
478.084	2672.98
478.455	2736.71
478.827	2708.01
479.198	2814.67
479.569	2832.98
479.94	2881.11
480.311	2880.66
480.682	2969.24
481.053	2970.37
481.424	3038.17
481.795	3021.45
482.166	3063.93
482.537	3082.24
482.908	3160.43
483.279	3169.01
483.65	3179.86
484.021	3212.85
484.391	3253.98
484.762	3247.43
485.133	3321.1
485.503	3341.89
485.874	3391.15
486.244	3383.47
486.615	3448.33
486.985	3460.3
487.356	3541.21
487.726	3517.93
488.097	3636.8
488.467	3594.31
488.837	3665.95
489.207	3650.58
489.578	3724.7
489.948	3721.99
490.318	3817.58
490.688	3814.65
491.058	3813.74
491.428	3879.28
491.798	3903.46
492.168	3946.39
492.538	3983
492.908	4008.54
493.278	4071.36
493.648	4050.12
494.017	4121.3
494.387	4133.96
494.757	4125.15
495.126	4168.76
495.496	4193.17
495.866	4189.1
496.235	4240.85
496.605	4262.09
496.974	4302.32
497.344	4255.31
497.713	4300.51
498.082	4307.97
498.452	4410.79
498.821	4376.21
499.19	4380.28
499.559	4453.27
499.928	4437.91
500.298	4486.27
500.667	4439.71
501.036	4462.76
501.405	4577.11
501.774	4515.64
502.143	4585.7
502.512	4547.73
502.88	4625.7
503.249	4575.98
503.618	4631.12
503.987	4618.24
504.356	4685.58
504.724	4701.85
505.093	4651.69
505.462	4725.58
505.83	4756.77
506.199	4761.51
506.567	4795.18
506.936	4777.33
507.304	4804.68
507.672	4861.62
508.041	4859.59
508.409	4850.1
508.777	4919.48
509.145	4938.91
509.514	4918.12
509.882	4932.13
510.25	4959.25
510.618	4996.76
510.986	4955.41
511.354	5050.77
511.722	5043.09
512.09	5052.13
512.458	5046.7
512.826	5088.74
513.193	5116.98
513.561	5134.84
513.929	5177.77
514.297	5162.18
514.664	5192.91
515.032	5186.36
515.4	5243.76
515.767	5253.03
516.135	5264.32
516.502	5194.04
516.869	5238.11
517.237	5339.58
517.604	5281.27
517.972	5352.01
518.339	5351.1
518.706	5381.84
519.073	5392.91
519.44	5384.32
519.808	5444.89
520.175	5457.31
520.542	5408.95
520.909	5493.02
521.276	5454.83
521.643	5451.44
522.009	5522.4
522.376	5494.38
522.743	5594.03
523.11	5622.73
523.477	5658.21
523.843	5659.79
524.21	5733.24
524.577	5755.61
524.943	5776.4
525.31	5698.89
525.676	5823.41
526.043	5885.78
526.409	5857.98
526.776	5922.61
527.142	5927.13
527.508	5983.18
527.874	6010.75
528.241	6003.97
528.607	6014.81
528.973	6054.13
529.339	6096.62
529.705	6116.73
530.071	6130.74
530.437	6211.42
530.803	6222.72
531.169	6260
531.535	6240.34
531.901	6273.34
532.267	6303.17
532.632	6323.96
532.998	6384.75
533.364	6363.05
533.73	6439.44
534.095	6483.73
534.461	6441.24
534.826	6473.56
535.192	6530.51
535.557	6546.55
535.923	6562.82
536.288	6561.47
536.653	6634.23
537.019	6594.01
537.384	6652.31
537.749	6718.07
538.114	6775.02
538.479	6773.89
538.845	6785.41
539.21	6722.82
539.575	6764.85
539.94	6854.34
540.305	6847.79
540.67	6885.07
541.034	6900.67
541.399	6919.65
541.764	6963.04
542.129	7011.62
542.494	7006.65
542.858	7061.11
543.223	6996.03
543.587	7093.43
543.952	7086.42
544.316	7159.64
544.681	7165.74
545.045	7228.12
545.41	7231.73
545.774	7226.53
546.138	7280.32
546.503	7324.84
546.867	7266.08
547.231	7362.57
547.595	7362.35
547.959	7408.68
548.324	7451.16
548.688	7413.87
549.052	7468.79
549.416	7506.98
549.779	7518.95
550.143	7519.86
550.507	7533.42
550.871	7612.29
551.235	7610.7
551.599	7611.83
551.962	7624.94
552.326	7644.83
552.689	7764.15
553.053	7650.02
553.417	7712.4
553.78	7808.66
554.143	7760.3
554.507	7836.01
554.87	7890.02
555.234	7880.75
555.597	7880.75
555.96	7890.02
556.323	7930.92
556.686	7998.26
557.05	7990.58
557.413	8009.34
557.776	7986.74
558.139	8068.32
558.502	8092.5
558.865	8040.98
559.228	8127.53
559.59	8178.37
559.953	8161.42
560.316	8218.15
560.679	8265.83
561.041	8250.69
561.404	8308.99
561.767	8393.06
562.129	8339.95
562.492	8419.27
562.854	8441.19
563.217	8424.69
563.579	8452.04
563.941	8461.98
564.304	8505.82
564.666	8550.11
565.028	8525.93
565.39	8572.03
565.753	8564.35
566.115	8688.87
566.477	8736.78
566.839	8721.41
567.201	8769.77
567.563	8792.82
567.925	8838.69
568.287	8933.61
568.648	8899.71
569.01	8884.34
569.372	8936.09
569.734	8928.64
570.095	9012.7
570.457	9033.72
570.819	9023.55
571.18	9142.87
571.542	9168.63
571.903	9153.94
572.265	9266.71
572.626	9332.01
572.987	9274.84
573.349	9391.9
573.71	9444.78
574.071	9465.57
574.432	9552.8
574.794	9596.19
575.155	9670.08
575.516	9614.94
575.877	9733.59
576.238	9886.8
576.599	9803.19
576.96	9984.65
577.32	10084.31
577.681	10102.62
578.042	10260.35
578.403	10299.22
578.763	10378.31
579.124	10583.06
579.485	10657.4
579.845	10760
580.206	10818.53
580.566	10963.38
580.927	11088.58
581.287	11252.42
581.648	11382.81
582.008	11520.43
582.368	11656.47
582.728	11803.36
583.089	11930.14
583.449	12087.87
583.809	12281.99
584.169	12468.88
584.529	12655.99
584.889	12888.76
585.249	13012.82
585.609	13184.79
585.969	13490.55
586.329	13658.45
586.688	13885.57
587.048	14102.96
587.408	14298.44
587.768	14522.61
588.127	14771.87
588.487	14961.25
588.846	15351.74
589.206	15488.24
589.565	15741.79
589.925	16066.53
590.284	16277.82
590.643	16572.73
591.003	16891.36
591.362	17186.05
591.721	17436.66
592.08	17733.15
592.44	18021.05
592.799	18391.44
593.158	18571.77
593.517	18931.76
593.876	19154.81
594.235	19435.48
594.593	19686.77
594.952	20040.43
595.311	20312.97
595.67	20584.83
596.029	21000.41
596.387	21339.61
596.746	21748.64
597.104	21913.38
597.463	22177.33
597.822	22567.6
598.18	22624.32
598.538	22995.16
598.897	23487.12
599.255	23490.51
599.613	24095.24
599.972	24299.98
600.33	24583.36
600.688	24814.32
601.046	25044.82
601.404	25314.42
601.762	25687.74
602.12	26118.01
602.478	26304
602.836	26498.79
603.194	26592.8
603.552	27045.45
603.91	27135.84
604.268	27528.82
604.625	27591.42
604.983	28013.56
605.341	28110.5
605.698	28477.73
606.056	28804.04
606.413	28858.51
606.771	29267.08
607.128	29411.26
607.485	29571.93
607.843	29754.3
608.2	30138.25
608.557	30350.22
608.914	30547.28
609.272	30823.65
609.629	31116.53
609.986	31330.31
610.343	31361.49
610.7	31860.46
611.057	31888.94
611.414	32110.4
611.771	32335.03
612.127	32631.74
612.484	32820.66
612.841	33047.55
613.198	33112.63
613.554	33191.73
613.911	33631.94
614.267	33712.84
614.624	33767.76
614.98	33963.01
615.337	34254.07
615.693	34294.07
616.05	34475.99
616.406	34653.38
616.762	34810.89
617.118	34896.77
617.475	35113.26
617.831	35316.19
618.187	35337.66
618.543	35476.41
618.899	35748.95
619.255	35844.31
619.611	35822.17
619.967	36143.74
620.323	36261.7
620.678	36047.92
621.034	36299.89
621.39	36554.35
621.746	36527.23
622.101	36994.56
622.457	36767
622.812	36842.48
623.168	37101
623.523	37273.2
623.879	37399.53
624.234	37246.08
624.589	37594.1
624.945	37545.96
625.3	37594.1
625.655	37711.83
626.01	37634.32
626.365	37858.95
626.72	37892.85
627.075	37928.32
627.43	37860.53
627.785	37938.49
628.14	37977.81
628.495	38156.79
628.85	38035.21
629.205	37947.08
629.559	38366.96
629.914	38235.66
630.269	38297.35
630.623	38277.92
630.978	38196.11
631.332	38281.31
631.687	38477.24
632.041	38311.14
632.396	38541.19
632.75	38423.23
633.104	38413.74
633.459	38402.21
633.813	38404.02
634.167	38472.49
634.521	38309.56
634.875	38504.81
635.229	38442.89
635.583	38397.01
635.937	38483.56
636.291	38345.26
636.645	38459.84
636.999	38317.02
637.352	38522.66
637.706	38401.76
638.06	38525.82
638.413	38430.91
638.767	38394.53
639.121	38395.88
639.474	38180.52
639.828	38402.66
640.181	38410.12
640.534	38389.56
640.888	38285.83
641.241	38176.68
641.594	38298.26
641.947	38294.42
642.301	38254.19
642.654	38384.36
643.007	38347.52
643.36	38315.89
643.713	38338.71
644.066	38491.93
644.419	38132.61
644.771	37936.23
645.124	37575.11
645.477	37645.62
645.83	37384.16
646.182	37269.36
646.535	37222.35
646.888	37353.2
647.24	37024.85
647.593	37318.62
647.945	37336.48
648.298	37214.9
648.65	37109.14
649.002	37041.34
649.355	37028.01
649.707	37037.5
650.059	37364.95
650.411	37723.81
650.763	37666.41
651.115	38171.26
651.467	38058.94
651.819	38105.72
652.171	37920.87
652.523	37829.12
652.875	37832.73
653.227	37794.32
653.578	37878.38
653.93	37867.08
654.282	37745.5
654.633	37685.39
654.985	37788.22
655.337	37778.27
655.688	37788.22
656.039	37973.75
656.391	37581.89
656.742	37664.83
657.094	37791.61
657.445	37815.11
657.796	37852.39
658.147	37685.39
658.498	37667.77
658.849	37806.29
659.2	37694.88
659.551	37592.06
659.902	37813.53
660.253	37658.28
660.604	37735.34
660.955	37572.18
661.306	37795.9
661.656	37698.73
662.007	37534.66
662.358	37615.56
662.708	37688.56
663.059	37603.59
663.409	37380.32
663.76	37678.16
664.11	37576.47
664.461	37602.91
664.811	37584.83
665.161	37666.64
665.511	37468.22
665.862	37649.01
666.212	37681.1
666.562	37609.24
666.912	37547.32
667.262	37613.53
667.612	37567.2
667.962	37559.07
668.312	37537.37
668.662	37639.52
669.011	37717.03
669.361	37615.56
669.711	37604.27
670.06	37531.05
670.41	37447.21
670.76	37459.86
671.109	37535.79
671.459	37585.28
671.808	37392.29
672.157	37587.77
672.507	37203.6
672.856	37429.58
673.205	37293.31
673.554	37321.34
673.904	37286.53
674.253	37498.96
674.602	37259.42
674.951	36833.89
675.3	36698.07
675.649	37187.1
675.998	37047.22
676.346	37221.45
676.695	37208.12
677.044	36875.7
677.393	37264.39
677.741	37177.38
678.09	37084.73
678.438	36958.18
678.787	37133.09
679.135	37012.42
679.484	36844.29
679.832	37023.04
680.181	36713.22
680.529	36878.63
680.877	36910.27
681.225	36756.15
681.573	37003.38
681.922	36755.02
682.27	36464.41
682.618	36670.28
682.966	36395.26
683.314	36556.61
683.661	36402.49
684.009	36387.57
684.357	36218.77
684.705	36154.13
685.053	36169.73
685.4	36228.03
685.748	35957.53
686.095	35968.38
686.443	35864.2
686.79	35927.02
687.138	35893.12
687.485	35792.11
687.832	35738.1
688.18	35765.22
688.527	35597.31
688.874	35608.39
689.221	35381.95
689.568	35456.3
689.915	35308.51
690.262	35197.1
690.609	35105.35
690.956	35067.83
691.303	35094.27
691.65	34835.52
691.997	34910.78
692.344	34700.16
692.69	34631.24
693.037	34743.1
693.383	34375.42
693.73	34531.13
694.077	34346.95
694.423	34325.48
694.769	34224.69
695.116	34039.39
695.462	34087.97
695.808	34004.81
696.155	33907.19
696.501	33728.66
696.847	33786.96
697.193	33495.45
697.539	33580.19
697.885	33321.89
698.231	33373.64
698.577	33327.99
698.923	33273.31
699.269	33285.73
699.614	32802.36
699.96	32767.33
700.306	32839.64
700.651	32702.25
700.997	32694.79
701.342	32728.69
701.688	32659.08
702.033	32491.41
702.379	32494.8
702.724	32405.53
703.069	32417.74
703.415	32038.08
703.76	32050.74
704.105	32117.4
704.45	32126.44
704.795	31911.76
705.14	31665.66
705.485	31810.52
705.83	31656.63
706.175	31651.43
706.52	31579.79
706.865	31402.17
707.209	31354.03
707.554	31315.39
707.899	31336.86
708.243	31065.45
708.588	31176.19
708.932	30930.77
709.277	31085.79
709.621	30933.25
709.966	30679.48
710.31	30723.54
710.654	30483.1
710.998	30592.25
711.342	30594.28
711.687	30541.17
712.031	30429.99
712.375	30286.72
712.719	30305.7
713.063	30286.04
713.407	30284.91
713.75	30044.01
714.094	30064.8
714.438	30065.48
714.782	30055.99
715.125	29854.86
715.469	29918.37
715.812	29746.17
716.156	29563.8
716.499	29696.45
716.843	29642.89
717.186	29556.34
717.53	29632.95
717.873	29587.53
718.216	29524.93
718.559	29454.88
718.902	29291.26
719.246	29341.66
719.589	29143.02
719.932	29005.85
720.275	29113.64
720.617	29189.8
720.96	28908
721.303	28984.38
721.646	29093.98
721.989	28849.92
722.331	28928.56
722.674	28786.64
723.016	28765.85
723.359	28731.05
723.701	28666.65
724.044	28574.9
724.386	28504.62
724.729	28578.29
725.071	28349.59
725.413	28476.6
725.755	28332.87
726.097	28191.63
726.439	28175.13
726.782	28164.74
727.124	28236.38
727.465	28031.86
727.807	28086.1
728.149	27877.74
728.491	28046.78
728.833	28097.62
729.175	27941.24
729.516	27913.45
729.858	27868.7
730.199	27804.3
730.541	27839.55
730.882	27875.71
731.224	27928.81
731.565	27721.36
731.906	27746.9
732.248	27796.39
732.589	27533.34
732.93	27494.7
733.271	27507.81
733.612	27565.89
733.953	27507.36
734.294	27305.78
734.635	27320.24
734.976	27383.52
735.317	27343.74
735.658	27294.25
735.999	27241.6
736.339	27211.54
736.68	27256.74
737.021	27186.01
737.361	26992.79
737.702	27243.41
738.042	27063.75
738.383	27059.23
738.723	27039.8
739.063	26920.03
739.404	27014.26
739.744	26949.18
740.084	26894.04
740.424	26839.8
740.764	26720.71
741.104	26894.94
741.444	26700.6
741.784	26550.54
742.124	26686.36
742.464	26629.64
742.804	26524.78
743.143	26586.02
743.483	26562.75
743.823	26402.98
744.162	26393.26
744.502	26409.53
744.841	26359.36
745.181	26405.69
745.52	26307.61
745.86	26276.65
746.199	26277.33
746.538	26211.12
746.877	26336.09
747.216	26205.92
747.556	26185.13
747.895	26264.9
748.234	26090.67
748.573	26097.22
748.911	26082.31
749.25	26012.93
749.589	25880.51
749.928	26087.73
750.267	26122.53
750.605	25916.89
750.944	25835.99
751.283	25904.01
751.621	25938.36
751.96	25771.36
752.298	25762.99
752.636	25683.9
752.975	25591.25
753.313	25559.38
753.651	25600.97
753.989	25567.29
754.327	25521.65
754.666	25442.33
755.004	25518.48
755.342	25458.37
755.679	25437.35
756.017	25262.22
756.355	25368.65
756.693	25316.68
757.031	25342.67
757.368	25131.83
757.706	25161.43
758.044	25041.21
758.381	25140.86
758.719	25029.91
759.056	25066.06
