Data from hue_170_FLMS001491_00054.txt Node
Date: Tue Feb 07 16:48:53 GMT 2017
User: dcchb
Spectrometer: FLMS00149
Trigger mode: 0
Integration Time (sec): 2.000000E-2
Scans to average: 10
Electric dark correction enabled: true
Nonlinearity correction enabled: false
Boxcar width: 0
XAxis mode: Wavelengths
Number of Pixels in Spectrum: 2048
>>>>>Begin Spectral Data<<<<<
341.393	-34.18
341.776	-34.18
342.16	-34.18
342.543	-48.42
342.927	-70.34
343.31	-69.21
343.693	-80.51
344.077	-68.76
344.46	-54.29
344.843	-43.22
345.226	-43.67
345.61	-39.15
345.993	-17.68
346.376	-10.68
346.759	15.31
347.142	21.86
347.525	49.89
347.908	65.93
348.291	76.1
348.674	81.52
349.057	116.55
349.44	111.35
349.823	149.54
350.206	172.59
350.588	180.96
350.971	207.17
351.354	228.64
351.737	220.05
352.119	257.11
352.502	251.46
352.884	268.41
353.267	285.36
353.65	282.2
354.032	295.75
354.414	304.34
354.797	319.03
355.179	326.94
355.562	344.12
355.944	317.68
356.326	321.29
356.709	328.07
357.091	321.74
357.473	335.75
357.855	335.3
358.238	345.02
358.62	355.64
359.002	322.65
359.384	345.92
359.766	352.02
360.148	344.57
360.53	357.22
360.912	312.48
361.294	351.12
361.676	332.36
362.057	334.4
362.439	329.65
362.821	326.71
363.203	326.94
363.584	338.92
363.966	337.56
364.348	332.14
364.729	296.21
365.111	319.71
365.493	314.06
365.874	309.99
366.256	325.36
366.637	321.07
367.019	321.74
367.4	305.92
367.781	325.81
368.163	314.96
368.544	306.6
368.925	305.02
369.306	326.94
369.688	312.93
370.069	330.78
370.45	314.29
370.831	322.87
371.212	294.85
371.593	330.1
371.974	335.98
372.355	312.25
372.736	300.27
373.117	304.34
373.498	329.65
373.879	322.19
374.26	328.75
374.641	301.18
375.021	307.51
375.402	346.15
375.783	311.35
376.163	342.31
376.544	330.33
376.925	322.87
377.305	338.92
377.686	304.34
378.066	319.94
378.447	329.43
378.827	312.25
379.208	326.71
379.588	328.75
379.968	336.21
380.349	350.22
380.729	364.91
381.109	357.45
381.489	335.75
381.87	329.65
382.25	340.5
382.63	329.88
383.01	342.53
383.39	351.35
383.77	343.66
384.15	313.83
384.53	346.6
384.91	337.56
385.29	367.62
385.67	348.18
386.049	359.48
386.429	349.99
386.809	342.08
387.189	344.57
387.568	361.97
387.948	354.06
388.328	358.8
388.707	342.53
389.087	347.5
389.466	350.67
389.846	369.2
390.225	350.22
390.605	361.74
390.984	353.83
391.363	375.75
391.743	381.4
392.122	378.01
392.501	359.03
392.881	368.52
393.26	371.23
393.639	399.48
394.018	380.27
394.397	383.44
394.776	368.75
395.155	364.45
395.534	368.3
395.913	401.51
396.292	400.61
396.671	390.67
397.05	375.98
397.429	405.13
397.808	417.56
398.186	385.47
398.565	386.37
398.944	422.76
399.323	420.72
399.701	418.69
400.08	423.66
400.458	397.45
400.837	409.88
401.215	414.62
401.594	395.87
401.972	390.67
402.351	418.92
402.729	415.75
403.107	429.76
403.486	434.28
403.864	439.03
404.242	427.73
404.62	431.12
404.999	423.66
405.377	434.96
405.755	452.36
406.133	464.79
406.511	433.38
406.889	454.39
407.267	450.33
407.645	443.77
408.023	448.07
408.401	475.86
408.779	467.95
409.156	460.72
409.534	482.19
409.912	485.13
410.29	495.07
410.667	499.59
411.045	473.6
411.422	498.24
411.8	520.16
412.178	505.92
412.555	526.71
412.933	519.7
413.31	507.5
413.687	541.85
414.065	519.7
414.442	526.94
414.819	548.86
415.197	532.13
415.574	546.37
415.951	574.84
416.328	592.02
416.705	551.12
417.082	584.11
417.46	584.33
417.837	580.27
418.214	600.61
418.591	595.18
418.967	581.85
419.344	598.12
419.721	631.34
420.098	602.64
420.475	621.17
420.852	606.03
421.228	643.99
421.605	631.57
421.982	664.11
422.358	662.52
422.735	641.73
423.111	652.81
423.488	656.88
423.864	665.69
424.241	679.47
424.617	706.59
424.994	692.13
425.37	688.06
425.746	717.21
426.123	699.36
426.499	694.84
426.875	724.9
427.251	768.06
427.627	755.86
428.003	743.43
428.379	788.17
428.756	760.15
429.132	769.64
429.507	769.87
429.883	807.15
430.259	823.2
430.635	813.03
431.011	813.26
431.387	808.06
431.763	822.75
432.138	849.64
432.514	857.77
432.89	881.28
433.265	858.45
433.641	902.07
434.016	879.69
434.392	911.56
434.767	915.63
435.143	952.23
435.518	938.68
435.894	972.57
436.269	965.79
436.644	975.51
437.02	977.77
437.395	1011.44
437.77	999.01
438.145	1017.32
438.52	1030.65
438.895	1041.95
439.271	1051.89
439.646	1071.78
440.021	1067.26
440.395	1094.38
440.77	1097.32
441.145	1099.8
441.52	1127.37
441.895	1127.6
442.27	1121.95
442.645	1116.07
443.019	1134.38
443.394	1133.7
443.769	1155.17
444.143	1155.17
444.518	1206.69
444.892	1190.65
445.267	1190.19
445.641	1190.42
446.016	1220.25
446.39	1216.86
446.764	1229.97
447.139	1228.39
447.513	1239.46
447.887	1254.6
448.262	1258.22
448.636	1283.07
449.01	1309.06
449.384	1329.17
449.758	1312.9
450.132	1329.63
450.506	1330.53
450.88	1350.42
451.254	1358.55
451.628	1389.29
452.002	1372.79
452.376	1400.13
452.75	1421.15
453.123	1459.11
453.497	1477.64
453.871	1460.7
454.244	1477.19
454.618	1477.87
454.992	1516.97
455.365	1511.32
455.739	1525.33
456.112	1569.85
456.486	1570.98
456.859	1590.18
457.232	1649.84
457.606	1615.72
457.979	1672.22
458.352	1672.89
458.725	1727.36
459.099	1705.21
459.472	1763.96
459.845	1791.53
460.218	1780.91
460.591	1819.56
460.964	1826.56
461.337	1863.4
461.71	1855.04
462.083	1916.05
462.456	1937.07
462.829	1938.2
463.201	1943.62
463.574	1995.6
463.947	2042.83
464.32	2038.31
464.692	2096.61
465.065	2149.27
465.438	2121.02
465.81	2198.76
466.183	2220.68
466.555	2240.34
466.928	2272.43
467.3	2275.59
467.672	2324.63
468.045	2384.51
468.417	2412.31
468.789	2435.13
469.161	2459.31
469.534	2514.45
469.906	2570.05
470.278	2584.28
470.65	2650.72
471.022	2704.05
471.394	2794.9
471.766	2811.4
472.138	2848.91
472.51	2922.13
472.882	2971.84
473.253	3033.76
473.625	3041.67
473.997	3177.71
474.369	3203.93
474.74	3244.6
475.112	3318.73
475.484	3371.83
475.855	3473.52
476.227	3535.22
476.598	3626.74
476.97	3680.07
477.341	3827.41
477.713	3886.39
478.084	3933.63
478.455	3994.19
478.827	4117.58
479.198	4248.65
479.569	4302.66
479.94	4443.89
480.311	4494.97
480.682	4634.17
481.053	4741.06
481.424	4838.69
481.795	4944.67
482.166	5071.67
482.537	5175.17
482.908	5234.61
483.279	5347.6
483.65	5552.11
484.021	5668.27
484.391	5744.88
484.762	5912.56
485.133	5965.89
485.503	6072.33
485.874	6198.42
486.244	6338.76
486.615	6454.92
486.985	6630.5
487.356	6744.17
487.726	6827.56
488.097	6976.48
488.467	7098.97
488.837	7305.29
489.207	7435
489.578	7592.74
489.948	7610.14
490.318	7864.82
490.688	7849.45
491.058	8058.71
491.428	8193.4
491.798	8339.61
492.168	8500.28
492.538	8614.41
492.908	8726.72
493.278	8851.91
493.648	9003.77
494.017	9092.81
494.387	9218.23
494.757	9286.7
495.126	9497.09
495.496	9512.01
495.866	9618.45
496.235	9691.67
496.605	9902.06
496.974	9967.59
497.344	10085.33
497.713	10160.35
498.082	10257.98
498.452	10380.69
498.821	10467.01
499.19	10472.66
499.559	10609.83
499.928	10732.09
500.298	10784.74
500.667	10908.81
501.036	10922.82
501.405	11015.7
501.774	11089.14
502.143	11132.76
502.512	11251.4
502.88	11308.57
503.249	11264.05
503.618	11479.87
503.987	11519.64
504.356	11591.73
504.724	11616.36
505.093	11683.03
505.462	11682.35
505.83	11801.44
506.199	11862.91
506.567	12063.58
506.936	11954.66
507.304	12086.86
507.672	12198.04
508.041	12200.98
508.409	12281.88
508.777	12378.15
509.145	12462.89
509.514	12421.76
509.882	12474.64
510.25	12579.73
510.618	12613.17
510.986	12556.68
511.354	12722.09
511.722	12734.3
512.09	12884.12
512.458	12780.17
512.826	12893.62
513.193	13025.36
513.561	12926.84
513.929	13020.39
514.297	13182.87
514.664	13225.13
515.032	13148.98
515.4	13216.55
515.767	13264.91
516.135	13306.71
516.502	13206.15
516.869	13385.13
517.237	13404.11
517.604	13341.74
517.972	13425.81
518.339	13518.46
518.706	13527.95
519.073	13467.39
519.44	13557.1
519.808	13690.88
520.175	13650.88
520.542	13753.93
520.909	13769.75
521.276	13659.47
521.643	13776.53
522.009	13835.29
522.376	13955.06
522.743	13969.75
523.11	14066.69
523.477	14039.12
523.843	14011.78
524.21	14130.65
524.577	14127.03
524.943	14128.39
525.31	14186.92
525.676	14272.56
526.043	14212.9
526.409	14327.7
526.776	14319.57
527.142	14301.94
527.508	14364.54
527.874	14407.02
528.241	14414.48
528.607	14346.46
528.973	14502.39
529.339	14369.74
529.705	14440.24
530.071	14497.64
530.437	14482.27
530.803	14568.83
531.169	14459.22
531.535	14390.07
531.901	14421.71
532.267	14385.33
532.632	14444.54
532.998	14430.75
533.364	14516.85
533.73	14395.05
534.095	14537.87
534.461	14406.57
534.826	14430.3
535.192	14397.76
535.557	14454.48
535.923	14412.9
536.288	14328.15
536.653	14370.19
537.019	14260.36
537.384	14230.53
537.749	14258.33
538.114	14163.41
538.479	14162.28
538.845	14194.6
539.21	14092.68
539.575	14064.21
539.94	14109.63
540.305	14112.79
540.67	13971.33
541.034	13967.03
541.399	13990.54
541.764	13966.36
542.129	13953.93
542.494	13899.69
542.858	13864.89
543.223	13832.8
543.587	13808.39
543.952	13695.63
544.316	13730.2
544.681	13688.85
545.045	13624.22
545.41	13736.08
545.774	13645.01
546.138	13578.12
546.503	13507.84
546.867	13537.67
547.231	13505.8
547.595	13433.71
547.959	13345.13
548.324	13373.83
548.688	13340.84
549.052	13303.77
549.416	13321.85
549.779	13195.08
550.143	13169.31
550.507	13192.36
550.871	13159.6
551.235	13162.54
551.599	13218.58
551.962	13107.17
552.326	13076.21
552.689	13062.88
553.053	12965.48
553.417	12949.66
553.78	13075.31
554.143	12959.6
554.507	12979.04
554.87	12893.84
555.234	13019.26
555.597	12823.56
555.96	12844.35
556.323	12811.36
556.686	12779.95
557.05	12829.21
557.413	12810.91
557.776	12751.92
558.139	12754.18
558.502	12784.01
558.865	12840.51
559.228	12876.89
559.59	12756.67
559.953	12776.56
560.316	12829.44
560.679	12852.71
561.041	12835.99
561.404	12841.64
561.767	12844.58
562.129	12785.6
562.492	12874.63
562.854	12822.43
563.217	12745.82
563.579	12832.15
563.941	12860.4
564.304	12826.72
564.666	12893.39
565.028	12751.47
565.39	12856.1
565.753	12841.19
566.115	12918.93
566.477	12878.47
566.839	12899.49
567.201	12918.25
567.563	12886.61
567.925	12931.81
568.287	12875.99
568.648	12938.13
569.01	12980.17
569.372	12955.99
569.734	12878.25
570.095	13006.83
570.457	13054.06
570.819	13042.76
571.18	12962.77
571.542	13036.89
571.903	13036.44
572.265	13111.46
572.626	13100.84
572.987	13067.17
573.349	13103.33
573.71	13153.27
574.071	13079.6
574.432	13107.62
574.794	13189.65
575.155	13126.15
575.516	13121.41
575.877	13199.82
576.238	13092.71
576.599	13231.69
576.96	13090.67
577.32	13205.47
577.681	13182.65
578.042	13195.98
578.403	13194.62
578.763	13185.13
579.124	13188.07
579.485	13221.74
579.845	13236.21
580.206	13140.39
580.566	13128.86
580.927	13158.92
581.287	13199.14
581.648	13201.4
582.008	13197.56
582.368	13185.36
582.728	13174.51
583.089	13091.58
583.449	13107.62
583.809	13181.29
584.169	13115.08
584.529	13078.92
584.889	13232.82
585.249	13135.19
585.609	13090.45
585.969	13134.97
586.329	13053.16
586.688	13161.86
587.048	13058.36
587.408	13038.24
587.768	13068.53
588.127	13002.31
588.487	13011.35
588.846	13132.71
589.206	13017
589.565	12960.28
589.925	13012.71
590.284	12942.65
590.643	13014.52
591.003	12992.82
591.362	12980.85
591.721	12979.94
592.08	12946.04
592.44	13020.39
592.799	12900.85
593.158	12989.21
593.517	12872.6
593.876	12932.26
594.235	12953.05
594.593	12884.58
594.952	12887.06
595.311	12941.07
595.67	12905.59
596.029	12977.68
596.387	12960.73
596.746	12996.21
597.104	12867.63
597.463	12883.67
597.822	12947.17
598.18	12853.16
598.538	12819.95
598.897	12916.67
599.255	12844.58
599.613	12935.87
599.972	12882.09
600.33	12829.66
600.688	12800.51
601.046	12894.29
601.404	12864.69
601.762	12892.49
602.12	13006.16
602.478	12929.55
602.836	12870.11
603.194	12874.41
603.552	12835.54
603.91	12783.11
604.268	12785.37
604.625	12803.9
604.983	12797.12
605.341	12779.04
605.698	12850.91
606.056	12827.18
606.413	12885.93
606.771	12976.55
607.128	12855.2
607.485	12914.18
607.843	12862.2
608.2	12914.86
608.557	13017.23
608.914	12826.72
609.272	12971.58
609.629	12976.55
609.986	13004.57
610.343	12967.96
610.7	13004.57
611.057	12966.61
611.414	13045.02
611.771	12931.81
612.127	13013.84
612.484	13020.17
612.841	13072.59
613.198	13060.39
613.554	13054.52
613.911	12987.4
614.267	13096.32
614.624	12983.56
614.98	13082.54
615.337	13060.62
615.693	13127.28
616.05	13102.42
616.406	13190.11
616.762	13068.3
617.118	13141.97
617.475	13107.4
617.831	13165.02
618.187	13153.04
618.543	13169.77
618.899	13210.9
619.255	13151.46
619.611	13176.55
619.967	13221.97
620.323	13138.13
620.678	13202.53
621.034	13101.97
621.39	13150.78
621.746	13133.38
622.101	13314.17
622.457	13160.28
622.812	13231.46
623.168	13182.42
623.523	13257
623.879	13248.41
624.234	13215.19
624.589	13263.1
624.945	13176.32
625.3	13308.07
625.655	13337.45
626.01	13222.87
626.365	13291.35
626.72	13263.1
627.075	13226.04
627.43	13192.36
627.785	13193.95
628.14	13174.96
628.495	13201.18
628.85	13200.27
629.205	13193.27
629.559	13174.74
629.914	13165.93
630.269	13181.52
630.623	13128.64
630.978	12982.88
631.332	13143.1
631.687	13117.56
632.041	13105.36
632.396	13044.35
632.75	13021.75
633.104	13065.59
633.459	12956.21
633.813	12942.43
634.167	12996.66
634.521	13015.87
634.875	12984.91
635.229	12974.07
635.583	12881.86
635.937	12833.05
636.291	12819.27
636.645	12852.03
636.999	12833.73
637.352	12887.51
637.706	12748.53
638.06	12870.57
638.413	12779.27
638.767	12805.93
639.121	12800.06
639.474	12739.27
639.828	12753.05
640.181	12698.14
640.534	12736.78
640.888	12743.11
641.241	12591.7
641.594	12701.76
641.947	12645.71
642.301	12715.54
642.654	12712.83
643.007	12580.86
643.36	12689.55
643.713	12595.32
644.066	12707.63
644.419	12621.53
644.771	12565.26
645.124	12445.72
645.477	12428.54
645.83	12333.86
646.182	12240.75
646.535	12209.34
646.888	12310.13
647.24	12130.47
647.593	12272.16
647.945	12170.7
648.298	12139.06
648.65	12128.44
649.002	12108.78
649.355	12266.06
649.707	12245.27
650.059	12341.31
650.411	12347.42
650.763	12457.7
651.115	12553.96
651.467	12486.85
651.819	12585.6
652.171	12451.82
652.523	12426.51
652.875	12391.26
653.227	12394.65
653.578	12438.94
653.93	12480.29
654.282	12341.31
654.633	12402.1
654.985	12433.06
655.337	12395.55
655.688	12491.14
656.039	12461.08
656.391	12451.14
656.742	12405.94
657.094	12465.15
657.445	12506.51
657.796	12455.89
658.147	12488.2
658.498	12446.62
658.849	12472.16
659.2	12421.54
659.551	12377.92
659.902	12531.59
660.253	12429.22
660.604	12464.7
660.955	12468.09
661.306	12509.67
661.656	12476
662.007	12462.44
662.358	12536.34
662.708	12528.65
663.059	12549.67
663.409	12399.62
663.76	12538.82
664.11	12505.83
664.461	12548.09
664.811	12516.68
665.161	12471.25
665.511	12449.11
665.862	12502.67
666.212	12507.41
666.562	12527.98
666.912	12440.52
667.262	12458.82
667.612	12506.96
667.962	12490.01
668.312	12472.38
668.662	12519.61
669.011	12480.97
669.361	12520.74
669.711	12457.7
670.06	12453.4
670.41	12446.4
670.76	12440.75
671.109	12407.07
671.459	12429.67
671.808	12473.29
672.157	12521.87
672.507	12390.13
672.856	12360.97
673.205	12442.1
673.554	12438.03
673.904	12389.67
674.253	12418.83
674.602	12391.26
674.951	12210.92
675.3	12166.63
675.649	12323.91
675.998	12286.17
676.346	12347.64
676.695	12369.79
677.044	12197.14
677.393	12254.54
677.741	12367.53
678.09	12333.4
678.438	12209.57
678.787	12222.22
679.135	12200.3
679.484	12146.97
679.832	12130.7
680.181	12096.57
680.529	12125.5
680.877	12104.71
681.225	12158.27
681.573	12154.88
681.922	12041.43
682.27	12051.38
682.618	12007.54
682.966	11980.65
683.314	12052.96
683.661	11983.13
684.009	11950.14
684.357	11948.33
684.705	11867.2
685.053	11867.2
685.4	11916.47
685.748	11783.36
686.095	11758.96
686.443	11777.49
686.79	11713.31
687.138	11725.06
687.485	11836.69
687.832	11667.66
688.18	11622.46
688.527	11548.79
688.874	11561.9
689.221	11518.74
689.568	11482.58
689.915	11438.06
690.262	11421.56
690.609	11465.63
690.956	11381.57
691.303	11343.37
691.65	11312.41
691.997	11297.95
692.344	11250.5
692.69	11130.27
693.037	11172.76
693.383	11085.08
693.73	11069.26
694.077	11072.87
694.423	10956.94
694.769	11014.34
695.116	10944.74
695.462	10868.81
695.808	10847.12
696.155	10906.78
696.501	10805.54
696.847	10781.35
697.193	10676.95
697.539	10708.36
697.885	10657.29
698.231	10573.45
698.577	10642.83
698.923	10583.62
699.269	10575.94
699.614	10489.16
699.96	10342.5
700.306	10423.62
700.651	10364.87
700.997	10369.39
701.342	10328.26
701.688	10259.11
702.033	10260.69
702.379	10192.44
702.724	10188.38
703.069	10231.99
703.415	10016.4
703.76	10067.93
704.105	10023.63
704.45	9955.61
704.795	9995.39
705.14	9893.47
705.485	9929.4
705.83	9796.3
706.175	9876.29
706.52	9858.67
706.865	9768.5
707.209	9766.01
707.554	9704.77
707.899	9744.32
708.243	9697.77
708.588	9647.83
708.932	9619.58
709.277	9562.63
709.621	9575.96
709.966	9511.33
710.31	9467.49
710.654	9442.63
710.998	9430.43
711.342	9409.19
711.687	9358.79
712.031	9345.01
712.375	9273.6
712.719	9366.48
713.063	9308.63
713.407	9335.07
713.75	9252.58
714.094	9242.86
714.438	9184.11
714.782	9302.75
715.125	9228.4
715.469	9186.82
715.812	9249.42
716.156	9112.92
716.499	9145.47
716.843	9172.58
717.186	9128.74
717.53	9087.39
717.873	9038.12
718.216	9108.4
718.559	9029.76
718.902	8956.54
719.246	9027.73
719.589	8980.05
719.932	8991.35
720.275	8946.15
720.617	8946.83
720.96	8929.43
721.303	8933.04
721.646	8962.65
721.989	8837.23
722.331	8925.36
722.674	8888.3
723.016	8893.72
723.359	8806.49
723.701	8888.52
724.044	8804.01
724.386	8868.41
724.729	8905.47
725.071	8863.21
725.413	8802.65
725.755	8816.43
726.097	8726.72
726.439	8785.02
726.782	8691.01
727.124	8830.9
727.465	8772.14
727.807	8726.27
728.149	8775.08
728.491	8694.86
728.833	8717.45
729.175	8684.91
729.516	8754.06
729.858	8695.76
730.199	8795.87
730.541	8713.84
730.882	8743.22
731.224	8705.93
731.565	8677.46
731.906	8720.62
732.248	8658.47
732.589	8669.09
732.93	8630.45
733.271	8666.38
733.612	8678.59
733.953	8681.75
734.294	8701.41
734.635	8619.15
734.976	8700.51
735.317	8655.54
735.658	8668.42
735.999	8666.83
736.339	8710.9
736.68	8682.88
737.021	8618.93
737.361	8675.87
737.702	8704.57
738.042	8687.17
738.383	8747.28
738.723	8744.12
739.063	8724.46
739.404	8759.94
739.744	8720.62
740.084	8739.37
740.424	8742.09
740.764	8797.68
741.104	8822.76
741.444	8780.5
741.784	8794.51
742.124	8813.95
742.464	8813.95
742.804	8813.95
743.143	8862.99
743.483	8922.42
743.823	8906.15
744.162	8998.58
744.502	8990.89
744.841	8926.94
745.181	9025.69
745.52	9066.37
745.86	9103.88
746.199	9091.91
746.538	9115.86
746.877	9214.62
747.216	9192.02
747.556	9266.14
747.895	9371.22
748.234	9304.78
748.573	9439.47
748.911	9451.9
749.25	9533.25
749.589	9564.21
749.928	9678.79
750.267	9736.64
750.605	9778.44
750.944	9867.71
751.283	9949.96
751.621	10076.51
751.96	10064.09
752.298	10217.08
752.636	10387.92
752.975	10356.73
753.313	10452.32
753.651	10621.81
753.989	10656.16
754.327	10787.46
754.666	10795.82
755.004	10976.6
755.342	11155.13
755.679	11258.63
756.017	11353.09
756.355	11498.62
756.693	11668.11
757.031	11774.1
757.368	11846.41
