Data from hue_34_FLMS001491_00081.txt Node
Date: Tue Feb 07 17:26:18 GMT 2017
User: dcchb
Spectrometer: FLMS00149
Trigger mode: 0
Integration Time (sec): 2.000000E-2
Scans to average: 10
Electric dark correction enabled: true
Nonlinearity correction enabled: false
Boxcar width: 0
XAxis mode: Wavelengths
Number of Pixels in Spectrum: 2048
>>>>>Begin Spectral Data<<<<<
341.393	-9.69
341.776	-9.69
342.16	-9.69
342.543	-50.59
342.927	-75.22
343.31	-63.02
343.693	-64.83
344.077	-64.83
344.46	-58.05
344.843	-35
345.226	-30.71
345.61	-31.38
345.993	-30.03
346.376	-9.91
346.759	-10.59
347.142	15.17
347.525	31.67
347.908	67.37
348.291	92.68
348.674	91.78
349.057	99.69
349.44	134.49
349.823	150.08
350.206	175.16
350.588	223.07
350.971	204.32
351.354	215.39
351.737	233.69
352.119	251.32
352.502	261.94
352.884	269.17
353.267	289.06
353.65	299.23
354.032	290.42
354.414	298.1
354.797	321.15
355.179	330.64
355.562	333.35
355.944	351.43
356.326	324.99
356.709	344.88
357.091	329.29
357.473	333.58
357.855	338.55
358.238	342.39
358.62	346.01
359.002	348.72
359.384	357.76
359.766	343.75
360.148	348.49
360.53	349.17
360.912	343.3
361.294	347.14
361.676	337.65
362.057	343.52
362.439	349.17
362.821	312.56
363.203	328.61
363.584	352.34
363.966	336.52
364.348	322.51
364.729	313.69
365.111	319.57
365.493	307.59
365.874	304.43
366.256	314.37
366.637	328.83
367.019	322.73
367.4	312.79
367.781	302.62
368.163	307.14
368.544	308.27
368.925	311.21
369.306	330.64
369.688	326.12
370.069	331.32
370.45	324.54
370.831	323.18
371.212	326.35
371.593	334.26
371.974	329.74
372.355	329.29
372.736	316.86
373.117	316.4
373.498	317.31
373.879	322.96
374.26	326.8
374.641	318.66
375.021	317.08
375.402	319.12
375.783	330.87
376.163	327.48
376.544	339.91
376.925	341.04
377.305	337.87
377.686	325.22
378.066	337.65
378.447	338.1
378.827	348.49
379.208	329.06
379.588	327.93
379.968	343.97
380.349	353.92
380.729	335.84
381.109	348.04
381.489	339.45
381.87	340.36
382.25	334.48
382.63	339.68
383.01	347.36
383.39	340.13
383.77	359.11
384.15	331.09
384.53	358.66
384.91	349.17
385.29	355.27
385.67	343.75
386.049	354.82
386.429	369.28
386.809	351.66
387.189	362.5
387.568	360.92
387.948	378.32
388.328	369.96
388.707	361.83
389.087	368.83
389.466	363.18
389.846	389.85
390.225	380.81
390.605	363.18
390.984	366.12
391.363	365.22
391.743	381.94
392.122	379.45
392.501	365.44
392.881	375.39
393.26	381.71
393.639	400.47
394.018	350.98
394.397	397.76
394.776	404.31
395.155	372.9
395.534	392.56
395.913	391.43
396.292	371.77
396.671	402.28
397.05	386.68
397.429	369.06
397.808	393.92
398.186	387.14
398.565	391.43
398.944	409.73
399.323	384.65
399.701	370.64
400.08	390.98
400.458	395.5
400.837	387.36
401.215	409.06
401.594	407.93
401.972	418.55
402.351	408.38
402.729	410.86
403.107	405.44
403.486	436.17
403.864	412.67
404.242	440.69
404.62	414.93
404.999	428.49
405.377	433.01
405.755	420.13
406.133	409.96
406.511	437.3
406.889	437.98
407.267	434.59
407.645	440.24
408.023	453.12
408.401	433.01
408.779	434.14
409.156	432.79
409.534	451.77
409.912	444.31
410.29	444.54
410.667	436.63
411.045	456.06
411.422	462.16
411.8	461.49
412.178	466.23
412.555	461.71
412.933	462.61
413.31	471.65
413.687	476.17
414.065	481.37
414.442	479.34
414.819	487.25
415.197	483.63
415.574	488.15
415.951	498.09
416.328	493.57
416.705	517.53
417.082	504.42
417.46	493.8
417.837	519.34
418.214	504.87
418.591	521.37
418.967	515.27
419.344	518.66
419.721	523.63
420.098	502.39
420.475	516.17
420.852	525.89
421.228	519.34
421.605	541.71
421.982	558.88
422.358	546.91
422.735	539
423.111	539.22
423.488	551.2
423.864	572.22
424.241	574.25
424.617	561.6
424.994	596.85
425.37	577.41
425.746	575.38
426.123	588.26
426.499	554.82
426.875	562.5
427.251	573.8
427.627	581.71
428.003	596.85
428.379	607.02
428.756	600.69
429.132	602.72
429.507	598.43
429.883	580.35
430.259	621.25
430.635	632.55
431.011	630.29
431.387	649.95
431.763	641.82
432.138	634.14
432.514	645.44
432.89	649.28
433.265	648.6
433.641	656.96
434.016	673.91
434.392	669.16
434.767	680.91
435.143	700.57
435.518	673.23
435.894	691.54
436.269	689.95
436.644	667.13
437.02	694.02
437.395	725.66
437.77	708.03
438.145	718.43
438.52	721.59
438.895	725.43
439.271	743.96
439.646	727.24
440.021	737.18
440.395	764.3
440.77	744.64
441.145	757.97
441.52	753.68
441.895	767.92
442.27	759.78
442.645	752.1
443.019	805.2
443.394	779.44
443.769	803.4
444.143	782.38
444.518	791.42
444.892	820.8
445.267	817.18
445.641	806.56
446.016	807.24
446.39	828.26
446.764	811.08
447.139	818.09
447.513	819.89
447.887	832.55
448.262	816.5
448.636	815.15
449.01	858.31
449.384	838.65
449.758	874.13
450.132	863.28
450.506	839.55
450.88	866.9
451.254	876.84
451.628	875.94
452.002	886.78
452.376	894.92
452.75	894.92
453.123	881.36
453.497	948.03
453.871	920.68
454.244	945.31
454.618	925.65
454.992	937.63
455.365	940.34
455.739	958.65
456.112	978.08
456.486	977.18
456.859	992.54
457.232	1008.59
457.606	1009.49
457.979	989.83
458.352	1025.76
458.725	1044.29
459.099	1060.57
459.472	1042.94
459.845	1054.92
460.218	1078.64
460.591	1079.55
460.964	1091.3
461.337	1099.43
461.71	1116.38
462.083	1124.29
462.456	1134.91
462.829	1150.28
463.201	1166.55
463.574	1150.51
463.947	1185.76
464.32	1215.36
464.692	1223.5
465.065	1208.36
465.438	1260.11
465.81	1261.01
466.183	1289.71
466.555	1275.25
466.928	1307.34
467.3	1324.74
467.672	1345.3
468.045	1354.12
468.417	1360.67
468.789	1391.4
469.161	1421.01
469.534	1416.71
469.906	1468.92
470.278	1461.91
470.65	1482.02
471.022	1493.1
471.394	1548.91
471.766	1532.19
472.138	1548.01
472.51	1620.1
472.882	1639.76
473.253	1646.31
473.625	1682.02
473.997	1712.75
474.369	1743.03
474.74	1740.1
475.112	1803.82
475.484	1830.94
475.855	1898.06
476.227	1919.53
476.598	1952.52
476.97	1991.16
477.341	2069.35
477.713	2102.35
478.084	2117.03
478.455	2185.28
478.827	2220.53
479.198	2307.31
479.569	2313.64
479.94	2410.59
480.311	2423.47
480.682	2508.89
481.053	2596.8
481.424	2652.61
481.795	2638.38
482.166	2693.74
482.537	2772.16
482.908	2860.52
483.279	2907.97
483.65	2988.88
484.021	3094.64
484.391	3122.88
484.762	3183.9
485.133	3265.25
485.503	3327.85
485.874	3396.55
486.244	3481.07
486.615	3554.74
486.985	3630.67
487.356	3738.91
487.726	3796.76
488.097	3938.91
488.467	3958.12
488.837	4062.52
489.207	4133.93
489.578	4200.82
489.948	4294.15
490.318	4382.29
490.688	4440.14
491.058	4517.42
491.428	4645.1
491.798	4694.14
492.168	4800.58
492.538	4880.35
492.908	4980.69
493.278	5091.87
493.648	5180.46
494.017	5230.63
494.387	5345.42
494.757	5363.73
495.126	5480.79
495.496	5528.47
495.866	5631.97
496.235	5718.07
496.605	5772.31
496.974	5859.08
497.344	5921.23
497.713	5956.71
498.082	6063.6
498.452	6136.82
498.821	6200.09
499.19	6254.1
499.559	6359.64
499.928	6425.4
500.298	6491.16
500.667	6564.38
501.036	6581.32
501.405	6686.41
501.774	6682.11
502.143	6754.88
502.512	6781.54
502.88	6916.91
503.249	7005.95
503.618	7027.87
503.987	7068.77
504.356	7148.99
504.724	7214.3
505.093	7227.86
505.462	7302.44
505.83	7407.52
506.199	7437.12
506.567	7574.29
506.936	7588.98
507.304	7653.16
507.672	7708.98
508.041	7765.25
508.409	7800.5
508.777	7857.67
509.145	7973.83
509.514	8009.54
509.882	8097.44
510.25	8133.83
510.618	8122.3
510.986	8209.98
511.354	8251.11
511.722	8285.69
512.09	8422.63
512.458	8425.12
512.826	8499.69
513.193	8501.27
513.561	8614.04
513.929	8621.27
514.297	8659.01
514.664	8782.62
515.032	8808.38
515.4	8856.07
515.767	8853.81
516.135	8908.49
516.502	8873.24
516.869	8955.95
517.237	9082.73
517.604	9090.41
517.972	9220.12
518.339	9215.83
518.706	9268.94
519.073	9246.56
519.44	9362.49
519.808	9433.45
520.175	9427.13
520.542	9545.31
520.909	9602.04
521.276	9617.18
521.643	9615.82
522.009	9755.48
522.376	9719.77
522.743	9862.59
523.11	9875.7
523.477	9952.08
523.843	10005.19
524.21	10158.86
524.577	10254
524.943	10242.24
525.31	10239.76
525.676	10369.47
526.043	10381.22
526.409	10494.67
526.776	10595.68
527.142	10590.03
527.508	10664.61
527.874	10755.68
528.241	10801.55
528.607	10829.12
528.973	11024.6
529.339	10921.77
529.705	10962.68
530.071	11119.74
530.437	11167.42
530.803	11196.34
531.169	11277.25
531.535	11265.49
531.901	11382.33
532.267	11381.42
532.632	11436.79
532.998	11529.67
533.364	11550.68
533.73	11620.51
534.095	11684.69
534.461	11748.65
534.826	11767.85
535.192	11811.02
535.557	11907.29
535.923	11898.25
536.288	12015.31
536.653	11967.4
537.019	12012.14
537.384	12097.11
537.749	12185.02
538.114	12185.02
538.479	12209.42
538.845	12295.52
539.21	12307.95
539.575	12319.93
539.94	12406.93
540.305	12430.44
540.67	12546.37
541.034	12523.77
541.399	12534.39
541.764	12617.55
542.129	12730.77
542.494	12780.03
542.858	12801.27
543.223	12849.86
543.587	12856.41
543.952	12879.69
544.316	12985.22
544.681	12999.23
545.045	13108.16
545.41	13070.65
545.774	13184.77
546.138	13288.72
546.503	13306.35
546.867	13283.29
547.231	13379.34
547.595	13385.44
547.959	13427.92
548.324	13394.7
548.688	13477.87
549.052	13561.71
549.416	13537.07
549.779	13595.6
550.143	13667.69
550.507	13724.87
550.871	13889.38
551.235	13813
551.599	13904.97
551.962	13930.06
552.326	13946.78
552.689	14072.65
553.053	14125.31
553.417	14099.77
553.78	14240.56
554.143	14222.93
554.507	14237.39
554.87	14333.44
555.234	14391.06
555.597	14401.68
555.96	14426.09
556.323	14485.75
556.686	14521.23
557.05	14581.11
557.413	14660.66
557.776	14736.36
558.139	14777.04
558.502	14739.98
558.865	14835.57
559.228	14994.44
559.59	15015.23
559.953	15050.25
560.316	15206.18
560.679	15150.14
561.041	15329.12
561.404	15258.38
561.767	15423.35
562.129	15325.5
562.492	15428.32
562.854	15456.8
563.217	15409.11
563.579	15533.18
563.941	15580.41
564.304	15683.68
564.666	15734.76
565.028	15759.39
565.39	15815.88
565.753	15878.25
566.115	15939.95
566.477	15987.4
566.839	16026.27
567.201	16174.29
567.563	16104.69
567.925	16300.39
568.287	16303.78
568.648	16368.86
569.01	16476.21
569.372	16514.85
569.734	16512.14
570.095	16687.27
570.457	16728.4
570.819	16736.99
571.18	16738.8
571.542	16944.44
571.903	16994.38
572.265	17037.77
572.626	17184.89
572.987	17179.92
573.349	17264.21
573.71	17284.55
574.071	17411.1
574.432	17552.11
574.794	17616.74
575.155	17689.51
575.516	17703.97
575.877	17880.24
576.238	18027.58
576.599	18078.2
576.96	18099.67
577.32	18269.6
577.681	18472.99
578.042	18489.71
578.403	18692.87
578.763	18686.99
579.124	18923.15
579.485	19101.67
579.845	19207.21
580.206	19302.12
580.566	19540.98
580.927	19641.09
581.287	19826.63
581.648	19905.49
582.008	20076.79
582.368	20138.48
582.728	20401.07
583.089	20475.65
583.449	20664.57
583.809	20916.31
584.169	21098
584.529	21235.85
584.889	21544.32
585.249	21654.6
585.609	21781.15
585.969	22199.9
586.329	22282.83
586.688	22468.14
587.048	22678.08
587.408	22985.19
587.768	23112.41
588.127	23291.17
588.487	23511.05
588.846	23892.96
589.206	24053.18
589.565	24254.31
589.925	24532.49
590.284	24815.42
590.643	24995.53
591.003	25293.83
591.362	25597.32
591.721	25674.16
592.08	26017.2
592.44	26480.01
592.799	26675.03
593.158	26741.92
593.517	27067.79
593.876	27267.56
594.235	27520.43
594.593	27752.29
594.952	28051.95
595.311	28172.62
595.67	28550.69
596.029	28914.52
596.387	29170.79
596.746	29468.86
597.104	29500.04
597.463	29758.79
597.822	30124.66
598.18	30081.05
598.538	30413.92
598.897	30860.69
599.255	30656.17
599.613	31497.05
599.972	31349.26
600.33	31786.09
600.688	31715.8
601.046	32052.52
601.404	32442.57
601.762	32482.56
602.12	32784.25
602.478	32979.5
602.836	33241.19
603.194	33168.65
603.552	33396.66
603.91	33482.54
604.268	33794.85
604.625	34006.82
604.983	34353.93
605.341	34213.59
605.698	34564.77
606.056	34692
606.413	34931.09
606.771	35198.65
607.128	35238.42
607.485	35487
607.843	35588.02
608.2	35867.79
608.557	36086.54
608.914	36212.64
609.272	36390.94
609.629	36696.46
609.986	36872.51
610.343	36711.61
610.7	37214.42
611.057	37222.55
611.414	37289.67
611.771	37385.94
612.127	37771.24
612.484	37818.47
612.841	37986.15
613.198	37934.85
613.554	38132.81
613.911	38260.94
614.267	38351.56
614.624	38488.06
614.98	38749.97
615.337	38857.54
615.693	38913.36
616.05	39033.13
616.406	39293.01
616.762	39145.89
617.118	39403.29
617.475	39379.33
617.831	39733.45
618.187	39791.07
618.543	39908.36
618.899	40017.06
619.255	40203.49
619.611	40131.85
619.967	40342.24
620.323	40585.4
620.678	40411.85
621.034	40435.8
621.39	40497.04
621.746	40577.72
622.101	40966.41
622.457	40786.53
622.812	40922.57
623.168	40930.93
623.523	40983.13
623.879	41212.96
624.234	41027.65
624.589	41152.39
624.945	41223.58
625.3	41377.25
625.655	41262.45
626.01	41351.94
626.365	41511.25
626.72	41470.12
627.075	41564.13
627.43	41410.01
627.785	41490.91
628.14	41692.27
628.495	41793.28
628.85	41860.85
629.205	41565.49
629.559	41871.7
629.914	41734.75
630.269	41817.23
630.623	41600.52
630.978	41612.04
631.332	41752.38
631.687	41944.24
632.041	41818.82
632.396	41980.39
632.75	41662.21
633.104	41848.87
633.459	41642.78
633.813	41752.38
634.167	41814.97
634.521	41727.29
634.875	41754.86
635.229	41818.36
635.583	41557.13
635.937	41672.15
636.291	41623.11
636.645	41763.9
636.999	41764.81
637.352	41797.8
637.706	41621.31
638.06	41724.81
638.413	41655.66
638.767	41546.51
639.121	41659.05
639.474	41477.81
639.828	41499.95
640.181	41602.55
640.534	41529.56
640.888	41386.96
641.241	41478.49
641.594	41474.19
641.947	41558.03
642.301	41463.12
642.654	41352.61
643.007	41441.2
643.36	41465.6
643.713	41411.14
644.066	41424.25
644.419	41293.86
644.771	41008.44
645.124	40701.33
645.477	40627.21
645.83	40443.26
646.182	40246.2
646.535	40176.15
646.888	40323.04
647.24	40082.59
647.593	40414.11
647.945	40207.11
648.298	40092.08
648.65	39812.99
649.002	39792.88
649.355	39876.49
649.707	39899.09
650.059	40142.02
650.411	40536.59
650.763	40648
651.115	40891.61
651.467	40813.42
651.819	40855.45
652.171	40704.27
652.523	40688.45
652.875	40859.52
653.227	40581.79
653.578	40780.88
653.93	40866.07
654.282	40711.95
654.633	40485.07
654.985	40696.13
655.337	40563.48
655.688	40633.08
656.039	40821.33
656.391	40476.48
656.742	40597.83
657.094	40546.53
657.445	40659.75
657.796	40473.99
658.147	40634.44
658.498	40532.07
658.849	40608.23
659.2	40520.09
659.551	40376.59
659.902	40505.18
660.253	40408.01
660.604	40430.38
660.955	40323.26
661.306	40404.84
661.656	40324.39
662.007	40405.52
662.358	40389.47
662.708	40429.02
663.059	40365.97
663.409	40101.12
663.76	40399.19
664.11	40409.36
664.461	40556.93
664.811	40438.96
665.161	40321.68
665.511	40153.32
665.862	40338.4
666.212	40480.77
666.562	40442.58
666.912	40348.12
667.262	40337.72
667.612	40293.88
667.962	40178.63
668.312	40237.84
668.662	40473.99
669.011	40226.09
669.361	40352.87
669.711	40126.66
670.06	40129.37
670.41	40169.82
670.76	40204.17
671.109	40304.28
671.459	40062.93
671.808	40109.93
672.157	40068.58
672.507	39883.95
672.856	39885.31
673.205	39939.09
673.554	40072.19
673.904	39914.23
674.253	40236.94
674.602	39993.1
674.951	39365.77
675.3	39281.93
675.649	39888.92
675.998	39870.84
676.346	39857.96
676.695	40110.84
677.044	39667.69
677.393	39807.34
677.741	39814.8
678.09	39737.97
678.438	39594.02
678.787	39662.49
679.135	39787.91
679.484	39589.5
679.832	39584.07
680.181	39554.02
680.529	39493.91
680.877	39491.42
681.225	39552.43
681.573	39714.01
681.922	39262.5
682.27	39182.05
682.618	39193.12
682.966	39158.55
683.314	39173.69
683.661	39111.32
684.009	38919.68
684.357	38916.75
684.705	38884.43
685.053	38959.68
685.4	38811.44
685.748	38685.11
686.095	38685.79
686.443	38564.66
686.79	38550.88
687.138	38526.25
687.485	38444.67
687.832	38358.79
688.18	38400.83
688.527	38202.19
688.874	38293.71
689.221	38182.75
689.568	38046.03
689.915	37909.99
690.262	37974.62
690.609	37843.78
690.956	37655.54
691.303	37740.73
691.65	37581.86
691.997	37505.93
692.344	37327.18
692.69	37205.83
693.037	37377.8
693.383	36860.75
693.73	37008.55
694.077	36931.71
694.423	36927.19
694.769	36698.95
695.116	36751.15
695.462	36664.6
695.808	36490.37
696.155	36673.87
696.501	36310.26
696.847	36323.14
697.193	36137.84
697.539	36351.84
697.885	35955.24
698.231	35853.1
698.577	35818.07
698.923	35910.04
699.269	35628.92
699.614	35461.02
699.96	35492.65
700.306	35507.57
700.651	35348.7
700.997	35141.48
701.342	35127.24
701.688	35134.25
702.033	34954.82
702.379	34945.32
702.724	34982.61
703.069	34934.93
703.415	34526.13
703.76	34564.77
704.105	34648.38
704.45	34591.89
704.795	34294.95
705.14	34133.14
705.485	34233.48
705.83	33947.38
706.175	34058.57
706.52	33956.88
706.865	33820.83
707.209	33820.38
707.554	33711.68
707.899	33782.64
708.243	33538.13
708.588	33512.59
708.932	33372.71
709.277	33363.67
709.621	33356.67
709.966	33226.73
710.31	33140.4
710.654	32805.27
710.998	32900.41
711.342	33017.47
711.687	32946.73
712.031	32789.22
712.375	32639.4
712.719	32764.14
713.063	32531.38
713.407	32776.79
713.75	32417.03
714.094	32435.11
714.438	32284.6
714.782	32405.73
715.125	32181.33
715.469	32258.16
715.812	32225.62
716.156	31897.49
716.499	31919.87
716.843	31866.99
717.186	31855.24
717.53	32030.15
717.873	31895.91
718.216	31649.14
718.559	31631.06
718.902	31368.02
719.246	31407.79
719.589	31303.84
719.932	31357.85
720.275	31407.34
720.617	31296.38
720.96	31126.67
721.303	31243.27
721.646	31100.91
721.989	30988.82
722.331	31106.78
722.674	30909.95
723.016	31077.18
723.359	30933.9
723.701	31006.9
724.044	30786.56
724.386	30654.14
724.729	30834.02
725.071	30660.24
725.413	30640.35
725.755	30646.23
726.097	30430.64
726.439	30279.68
726.782	30281.04
727.124	30460.92
727.465	30280.81
727.807	30317.2
728.149	30179.12
728.491	30211.66
728.833	30161.72
729.175	30125.79
729.516	30095.28
729.858	30012.12
730.199	30053.48
730.541	29920.6
730.882	29821.17
731.224	29933.7
731.565	29655.07
731.906	29806.02
732.248	29832.92
732.589	29640.83
732.93	29487.16
733.271	29619.14
733.612	29576.88
733.953	29589.53
734.294	29386.15
734.635	29429.54
734.976	29444.68
735.317	29238.36
735.658	29264.34
735.999	29222.08
736.339	29243.33
736.68	29218.47
737.021	29084.01
737.361	29008.31
737.702	29153.84
738.042	28958.36
738.383	29072.26
738.723	29092.82
739.063	28863
739.404	28951.58
739.744	28854.64
740.084	28812.38
740.424	28784.81
740.764	28744.81
741.104	28894.64
741.444	28640.18
741.784	28613.06
742.124	28668.88
742.464	28612.61
742.804	28488.09
743.143	28433.63
743.483	28453.97
743.823	28326.74
744.162	28193.19
744.502	28444.48
744.841	28248.55
745.181	28366.97
745.52	28205.61
745.86	28312.5
746.199	28173.07
746.538	28026.18
746.877	28170.81
747.216	28055.56
747.556	28020.31
747.895	27992.74
748.234	27830.93
748.573	27880.2
748.911	27943.93
749.25	27803.14
749.589	27744.84
749.928	27792.07
750.267	27811.73
750.605	27668
750.944	27556.14
751.283	27577.83
751.621	27566.08
751.96	27421.91
752.298	27333.77
752.636	27523.82
752.975	27286.54
753.313	27174.91
753.651	27330.16
753.989	27165.19
754.327	27041.13
754.666	27012.43
755.004	27002.48
755.342	26976.72
755.679	26964.52
756.017	26910.28
756.355	26849.72
756.693	26727.46
757.031	26741.47
757.368	26546.45
