Data from hue_100_FLMS001491_00057.txt Node
Date: Tue Feb 07 17:03:22 GMT 2017
User: dcchb
Spectrometer: FLMS00149
Trigger mode: 0
Integration Time (sec): 2.000000E-2
Scans to average: 10
Electric dark correction enabled: true
Nonlinearity correction enabled: false
Boxcar width: 0
XAxis mode: Wavelengths
Number of Pixels in Spectrum: 2048
>>>>>Begin Spectral Data<<<<<
341.393	-4.08
341.776	-4.08
342.16	-4.08
342.543	-68.26
342.927	-64.65
343.31	-74.81
343.693	-79.11
344.077	-49.28
344.46	-53.35
344.843	-55.38
345.226	-31.2
345.61	-35.04
345.993	-11.54
346.376	-10.64
346.759	13.54
347.142	15.13
347.525	40.44
347.908	50.83
348.291	65.07
348.674	100.1
349.057	115.24
349.44	109.36
349.823	162.02
350.206	154.11
350.588	176.7
350.971	199.3
351.354	232.75
351.737	249.7
352.119	249.47
352.502	278.85
352.884	265.97
353.267	265.06
353.65	277.49
354.032	304.38
354.414	294.22
354.797	303.93
355.179	328.34
355.562	304.16
355.944	319.98
356.326	325.63
356.709	317.94
357.091	323.59
357.473	332.41
357.855	334.44
358.238	339.41
358.62	332.18
359.002	333.54
359.384	334.67
359.766	324.5
360.148	336.93
360.53	359.75
360.912	320.43
361.294	343.93
361.676	329.69
362.057	329.92
362.439	319.07
362.821	321.11
363.203	307.55
363.584	319.53
363.966	328.56
364.348	316.14
364.729	311.39
365.111	298.51
365.493	338.96
365.874	333.08
366.256	336.93
366.637	327.66
367.019	312.52
367.4	327.21
367.781	330.6
368.163	316.81
368.544	319.75
368.925	299.41
369.306	310.03
369.688	318.85
370.069	321.56
370.45	320.43
370.831	326.3
371.212	305.51
371.593	306.64
371.974	298.74
372.355	326.98
372.736	308.68
373.117	296.48
373.498	312.52
373.879	308.9
374.26	310.94
374.641	333.54
375.021	324.5
375.402	323.82
375.783	310.71
376.163	311.62
376.544	326.98
376.925	322.92
377.305	332.18
377.686	322.69
378.066	326.76
378.447	317.27
378.827	335.34
379.208	300.32
379.588	329.69
379.968	345.97
380.349	326.3
380.729	325.63
381.109	347.32
381.489	348.45
381.87	334.89
382.25	331.95
382.63	361.11
383.01	340.99
383.39	348.68
383.77	345.97
384.15	369.47
384.53	347.32
384.91	372.86
385.29	352.07
385.67	350.03
386.049	364.95
386.429	345.51
386.809	380.99
387.189	358.39
387.568	347.77
387.948	363.14
388.328	355.46
388.707	352.74
389.087	377.38
389.466	349.36
389.846	357.04
390.225	373.08
390.605	371.95
390.984	345.29
391.363	376.25
391.743	370.15
392.122	376.7
392.501	371.95
392.881	378.28
393.26	383.93
393.639	369.92
394.018	390.48
394.397	399.75
394.776	366.76
395.155	402.01
395.534	383.93
395.913	384.61
396.292	384.38
396.671	401.11
397.05	401.78
397.429	383.03
397.808	393.42
398.186	397.04
398.565	397.04
398.944	387.32
399.323	397.72
399.701	392.29
400.08	390.48
400.458	413.31
400.837	404.72
401.215	404.04
401.594	406.75
401.972	400.65
402.351	419.41
402.729	420.77
403.107	422.57
403.486	420.09
403.864	417.15
404.242	432.74
404.62	424.83
404.999	436.58
405.377	444.27
405.755	435.68
406.133	442.46
406.511	452.18
406.889	440.2
407.267	440.43
407.645	425.96
408.023	431.39
408.401	469.13
408.779	452.63
409.156	443.14
409.534	465.06
409.912	473.42
410.29	469.13
410.667	462.35
411.045	467.32
411.422	457.6
411.8	474.32
412.178	495.34
412.555	493.76
412.933	472.52
413.31	491.72
413.687	486.98
414.065	492.63
414.442	507.09
414.819	511.84
415.197	510.71
415.574	511.84
415.951	503.93
416.328	518.62
416.705	504.15
417.082	512.06
417.46	509.35
417.837	502.57
418.214	527.43
418.591	550.71
418.967	546.41
419.344	544.83
419.721	555.23
420.098	554.32
420.475	558.16
420.852	535.11
421.228	565.39
421.605	557.26
421.982	540.54
422.358	553.87
422.735	588.44
423.111	573.08
423.488	583.47
423.864	580.99
424.241	579.63
424.617	578.28
424.994	594.32
425.37	586.64
425.746	594.55
426.123	610.82
426.499	620.99
426.875	574.66
427.251	634.09
427.627	629.8
428.003	644.04
428.379	645.17
428.756	596.81
429.132	641.55
429.507	660.53
429.883	659.86
430.259	656.24
430.635	650.14
431.011	681.1
431.387	684.71
431.763	680.42
432.138	681.32
432.514	701.21
432.89	700.31
433.265	709.35
433.641	703.02
434.016	722.23
434.392	716.13
434.767	702.34
435.143	742.11
435.518	730.59
435.894	740.98
436.269	764.94
436.644	769.46
437.02	770.59
437.395	767.2
437.77	776.91
438.145	768.55
438.52	773.98
438.895	799.51
439.271	819.4
439.646	806.74
440.021	799.06
440.395	822.79
440.77	811.49
441.145	825.27
441.52	847.87
441.895	842
442.27	852.17
442.645	860.08
443.019	844.48
443.394	882.67
443.769	854.2
444.143	870.25
444.518	884.26
444.892	870.02
445.267	891.04
445.641	892.17
446.016	883.8
446.39	891.94
446.764	912.5
447.139	892.62
447.513	894.65
447.887	910.92
448.262	920.64
448.636	908.21
449.01	956.57
449.384	954.54
449.758	978.72
450.132	957.02
450.506	950.24
450.88	994.76
451.254	980.07
451.628	969.68
452.002	998.38
452.376	1011.94
452.75	1013.52
453.123	1005.61
453.497	1028.66
453.871	1008.55
454.244	1047.42
454.618	1078.38
454.992	1059.85
455.365	1060.07
455.739	1099.62
456.112	1093.97
456.486	1114.53
456.859	1142.1
457.232	1153.4
457.606	1152.5
457.979	1162.89
458.352	1215.77
458.725	1178.03
459.099	1201.99
459.472	1226.62
459.845	1204.93
460.218	1241.54
460.591	1265.72
460.964	1276.79
461.337	1309.78
461.71	1322.89
462.083	1337.35
462.456	1347.07
462.829	1364.47
463.201	1360.63
463.574	1378.48
463.947	1375.32
464.32	1420.74
464.692	1423.9
465.065	1459.83
465.438	1472.26
465.81	1495.54
466.183	1505.03
466.555	1550.23
466.928	1557.23
467.3	1578.93
467.672	1619.38
468.045	1634.52
468.417	1644.46
468.789	1646.27
469.161	1709.77
469.534	1697.57
469.906	1751.58
470.278	1782.99
470.65	1804.01
471.022	1840.39
471.394	1915.19
471.766	1911.12
472.138	1940.27
472.51	2011.23
472.882	2028.18
473.253	2084.9
473.625	2134.17
473.997	2150.21
474.369	2201.51
474.74	2246.93
475.112	2305.24
475.484	2322.41
475.855	2394.5
476.227	2404.89
476.598	2534.16
476.97	2568.73
477.341	2646.92
477.713	2684.44
478.084	2733.93
478.455	2806.69
478.827	2869.74
479.198	2967.82
479.569	3023.86
479.94	3138.43
480.311	3188.6
480.682	3238.09
481.053	3402.83
481.424	3476.5
481.795	3541.59
482.166	3619.78
482.537	3707.46
482.908	3866.32
483.279	3956.94
483.65	4034.91
484.021	4179.54
484.391	4248.69
484.762	4344.96
485.133	4429.47
485.503	4536.14
485.874	4710.14
486.244	4831.72
486.615	4935.22
486.985	5069.68
487.356	5215.89
487.726	5323.91
488.097	5467.64
488.467	5514.19
488.837	5720.97
489.207	5838.48
489.578	6004.35
489.948	6160.05
490.318	6241.63
490.688	6373.15
491.058	6499.02
491.428	6669.64
491.798	6787.38
492.168	6957.54
492.538	7104.21
492.908	7243.19
493.278	7409.51
493.648	7512.1
494.017	7620.58
494.387	7735.38
494.757	7872.32
495.126	8053.79
495.496	8115.48
495.866	8228.02
496.235	8429.37
496.605	8537.16
496.974	8657.61
497.344	8825.74
497.713	8879.53
498.082	8981.22
498.452	9192.96
498.821	9255.79
499.19	9319.97
499.559	9449.68
499.928	9604.03
500.298	9701.65
500.667	9828.65
501.036	9828.2
501.405	10035.88
501.774	10118.36
502.143	10215.76
502.512	10284.91
502.88	10394.29
503.249	10495.3
503.618	10581.85
503.987	10684
504.356	10702.08
504.724	10804.22
505.093	10911.56
505.462	10919.02
505.83	11067.04
506.199	11152.24
506.567	11246.47
506.936	11384.32
507.304	11442.17
507.672	11518.78
508.041	11625.67
508.409	11648.27
508.777	11740.47
509.145	11813.01
509.514	11881.03
509.882	11996.05
510.25	11966.45
510.618	12096.39
510.986	12055.04
511.354	12197.86
511.722	12315.14
512.09	12376.61
512.458	12425.2
512.826	12557.85
513.193	12554.01
513.561	12620.22
513.929	12662.48
514.297	12747
514.664	12768.69
515.032	12871.06
515.4	12841.91
515.767	12877.16
516.135	13006.65
516.502	12930.72
516.869	13070.15
517.237	13070.6
517.604	13125.52
517.972	13181.79
518.339	13250.48
518.706	13166.87
519.073	13265.4
519.44	13363.25
519.808	13406.64
520.175	13443.02
520.542	13570.7
520.909	13558.5
521.276	13557.82
521.643	13617.48
522.009	13607.54
522.376	13723.01
522.743	13773.41
523.11	13806.85
523.477	13850.92
523.843	13906.06
524.21	14077.36
524.577	14047.75
524.943	14070.12
525.31	14131.37
525.676	14200.29
526.043	14224.24
526.409	14275.32
526.776	14330.68
527.142	14215.21
527.508	14256.56
527.874	14348.76
528.241	14391.92
528.607	14389.66
528.973	14395.09
529.339	14366.16
529.705	14418.82
530.071	14413.39
530.437	14525.03
530.803	14541.98
531.169	14503.56
531.535	14517.12
531.901	14412.94
532.267	14476.67
532.632	14520.51
532.998	14538.36
533.364	14489.77
533.73	14473.5
534.095	14579.49
534.461	14494.29
534.826	14535.42
535.192	14620.62
535.557	14577.91
535.923	14447.52
536.288	14506.27
536.653	14542.65
537.019	14434.18
537.384	14379.27
537.749	14435.09
538.114	14390.34
538.479	14344.69
538.845	14364.13
539.21	14324.35
539.575	14201.87
539.94	14370
540.305	14303.11
540.67	14273.73
541.034	14218.6
541.399	14204.81
541.764	14203.45
542.129	14225.6
542.494	14134.76
542.858	14195.77
543.223	14156
543.587	14146.51
543.952	14119.61
544.316	14048.88
544.681	13996.45
545.045	14045.94
545.41	14005.49
545.774	13987.87
546.138	13913.74
546.503	13945.16
546.867	13831.94
547.231	13898.38
547.595	13817.48
547.959	13878.04
548.324	13746.07
548.688	13685.05
549.052	13686.86
549.416	13642.79
549.779	13665.84
550.143	13612.51
550.507	13622.23
550.871	13672.39
551.235	13588.33
551.599	13664.71
551.962	13537.93
552.326	13502.91
552.689	13584.26
553.053	13508.78
553.417	13413.42
553.78	13602.79
554.143	13431.27
554.507	13452.51
554.87	13386.3
555.234	13471.72
555.597	13438.5
555.96	13308.56
556.323	13423.36
556.686	13411.16
557.05	13500.2
557.413	13453.87
557.776	13407.77
558.139	13458.84
558.502	13403.25
558.865	13380.2
559.228	13443.47
559.59	13398.5
559.953	13320.99
560.316	13486.64
560.679	13431.5
561.041	13498.16
561.404	13481.21
561.767	13477.6
562.129	13499.52
562.492	13487.77
562.854	13521.89
563.217	13441.67
563.579	13479.86
563.941	13505.62
564.304	13490.25
564.666	13542.45
565.028	13541.78
565.39	13537.03
565.753	13592.62
566.115	13627.42
566.477	13669.68
566.839	13674.2
567.201	13673.75
567.563	13704.71
567.925	13774.99
568.287	13834.88
568.648	13685.5
569.01	13821.54
569.372	13745.61
569.734	13727.53
570.095	13734.31
570.457	13878.72
570.819	13861.77
571.18	13864.48
571.542	13902.67
571.903	13793.07
572.265	13946.96
572.626	13862.9
572.987	13854.08
573.349	13913.52
573.71	13944.03
574.071	14022.44
574.432	14018.37
574.794	14054.53
575.155	13979.96
575.516	13986.74
575.877	13995.1
576.238	13967.3
576.599	13998.94
576.96	14005.04
577.32	13966.85
577.681	14053.4
578.042	14014.08
578.403	14060.41
578.763	13965.72
579.124	14132.95
579.485	14123.91
579.845	14221.08
580.206	14064.93
580.566	14036.23
580.927	14013.63
581.287	14157.35
581.648	13964.59
582.008	14182.44
582.368	14062.89
582.728	14096.56
583.089	14042.55
583.449	14057.92
583.809	14018.37
584.169	14041.65
584.529	14039.39
584.889	14259.95
585.249	13958.94
585.609	14017.92
585.969	13975.66
586.329	14013.18
586.688	14009.11
587.048	13988.32
587.408	13940.18
587.768	14069.67
588.127	13937.92
588.487	13877.14
588.846	14015.89
589.206	13884.14
589.565	13898.15
589.925	13966.4
590.284	13925.5
590.643	13919.17
591.003	13937.47
591.362	13907.87
591.721	13922.33
592.08	13843.24
592.44	14029.9
592.799	13946.06
593.158	13856.34
593.517	13800.07
593.876	13895.67
594.235	13847.31
594.593	13808.66
594.952	13874.88
595.311	13810.47
595.67	13831.49
596.029	13913.52
596.387	13895.44
596.746	13845.5
597.104	13861.32
597.463	13716.46
597.822	13827.64
598.18	13795.56
598.538	13739.96
598.897	13845.5
599.255	13786.29
599.613	13949.45
599.972	13803.24
600.33	13768.21
600.688	13764.82
601.046	13825.16
601.404	13844.37
601.762	13811.83
602.12	13852.73
602.478	13801.66
602.836	13838.72
603.194	13845.72
603.552	13778.83
603.91	13732.28
604.268	13806.63
604.625	13818.38
604.983	13816.8
605.341	13785.84
605.698	13768.89
606.056	13886.4
606.413	13812.05
606.771	13831.71
607.128	13839.4
607.485	13855.67
607.843	13823.58
608.2	13883.91
608.557	13928.43
608.914	13902.67
609.272	13958.71
609.629	14029.45
609.986	13949.45
610.343	13834.42
610.7	13979.96
611.057	13946.06
611.414	13932.5
611.771	14043.23
612.127	14027.87
612.484	14108.32
612.841	14059.28
613.198	14061.54
613.554	14025.61
613.911	14129.33
614.267	14101.76
614.624	14130.24
614.98	14097.69
615.337	14168.88
615.693	14188.54
616.05	14099.73
616.406	14259.05
616.762	14183.12
617.118	14088.88
617.475	14095.66
617.831	14194.64
618.187	14120.29
618.543	14216.79
618.899	14275.54
619.255	14301.98
619.611	14250.46
619.967	14298.37
620.323	14298.82
620.678	14175.66
621.034	14187.41
621.39	14228.76
621.746	14184.47
622.101	14340.4
622.457	14245.71
622.812	14323.23
623.168	14257.46
623.523	14305.6
623.879	14349.67
624.234	14323
624.589	14241.87
624.945	14216.56
625.3	14197.8
625.655	14280.06
626.01	14212.27
626.365	14258.59
626.72	14182.21
627.075	14250.01
627.43	14158.03
627.785	14268.31
628.14	14283.45
628.495	14244.81
628.85	14275.09
629.205	14176.79
629.559	14225.37
629.914	14210.01
630.269	14214.98
630.623	14213.85
630.978	14160.29
631.332	14232.15
631.687	14152.16
632.041	14063.8
632.396	14203.91
632.75	14074.42
633.104	14134.3
633.459	14029.67
633.813	14076.68
634.167	14068.54
634.521	13998.04
634.875	13991.26
635.229	13958.26
635.583	13783.35
635.937	13945.83
636.291	13982.9
636.645	13906.06
636.999	13913.74
637.352	13908.32
637.706	13857.7
638.06	13845.72
638.413	13899.96
638.767	13770.47
639.121	13818.83
639.474	13738.61
639.828	13727.76
640.181	13734.09
640.534	13750.13
640.888	13768.21
641.241	13725.5
641.594	13678.72
641.947	13680.3
642.301	13643.47
642.654	13740.64
643.007	13710.81
643.36	13650.25
643.713	13651.38
644.066	13659.06
644.419	13697.03
644.771	13562.57
645.124	13391.27
645.477	13440.99
645.83	13326.87
646.182	13263.59
646.535	13219.53
646.888	13230.6
647.24	13117.83
647.593	13288
647.945	13239.19
648.298	13221.56
648.65	13057.5
649.002	13112.86
649.355	13230.82
649.707	13230.6
650.059	13262.69
650.411	13356.02
650.763	13332.29
651.115	13584.26
651.467	13502.68
651.819	13574.54
652.171	13478.73
652.523	13404.15
652.875	13528.44
653.227	13353.53
653.578	13522.57
653.93	13473.3
654.282	13445.96
654.633	13384.49
654.985	13424.94
655.337	13515.79
655.688	13468.11
656.039	13478.28
656.391	13464.04
656.742	13482.8
657.094	13429.46
657.445	13441.44
657.796	13477.82
658.147	13441.44
658.498	13424.72
658.849	13416.36
659.2	13372.97
659.551	13344.27
659.902	13457.49
660.253	13442.34
660.604	13438.28
660.955	13394.89
661.306	13499.74
661.656	13362.35
662.007	13554.21
662.358	13475.11
662.708	13528.67
663.059	13454.32
663.409	13420.2
663.76	13496.13
664.11	13472.4
664.461	13504.94
664.811	13555.34
665.161	13500.65
665.511	13532.74
665.862	13457.49
666.212	13506.52
666.562	13499.74
666.912	13536.13
667.262	13433.76
667.612	13492.51
667.962	13477.37
668.312	13483.47
668.662	13582.68
669.011	13543.13
669.361	13444.6
669.711	13473.3
670.06	13478.73
670.41	13383.14
670.76	13400.76
671.109	13499.97
671.459	13393.53
671.808	13375.45
672.157	13396.47
672.507	13365.06
672.856	13353.99
673.205	13477.37
673.554	13438.5
673.904	13393.08
674.253	13416.58
674.602	13379.52
674.951	13247.55
675.3	13097.04
675.649	13283.7
675.998	13393.98
676.346	13249.13
676.695	13339.07
677.044	13200.54
677.393	13337.94
677.741	13319.64
678.09	13227.66
678.438	13188.57
678.787	13231.28
679.135	13215.46
679.484	13128.23
679.832	13136.36
680.181	13157.15
680.529	13154.22
680.877	13008.91
681.225	13057.95
681.573	13100.88
681.922	12976.59
682.27	12991.06
682.618	13009.81
682.966	13011.62
683.314	13008.46
683.661	12947.89
684.009	12804.39
684.357	12817.5
684.705	12801.46
685.053	12836.94
685.4	12802.36
685.748	12749.48
686.095	12646.21
686.443	12658.41
686.79	12591.29
687.138	12664.29
687.485	12607.56
687.832	12532.99
688.18	12599.65
688.527	12471.52
688.874	12486.21
689.221	12471.97
689.568	12419.32
689.915	12342.26
690.262	12383.62
690.609	12344.75
690.956	12318.08
691.303	12267.69
691.65	12179.78
691.997	12182.04
692.344	12099.55
692.69	12064.75
693.037	12107.01
693.383	11911.54
693.73	12027.24
694.077	11928.49
694.423	11944.08
694.769	11888.03
695.116	11806.46
695.462	11863.18
695.808	11761.48
696.155	11808.04
696.501	11678.55
696.847	11659.11
697.193	11617.99
697.539	11608.95
697.885	11463.41
698.231	11521.49
698.577	11487.82
698.923	11457.09
699.269	11313.13
699.614	11308.62
699.96	11256.19
700.306	11281.72
700.651	11216.87
700.997	11188.84
701.342	11133.7
701.688	11070.88
702.033	11026.59
702.379	11028.4
702.724	10956.53
703.069	10965.12
703.415	10854.39
703.76	10884.9
704.105	10837.89
704.45	10862.75
704.795	10758.8
705.14	10786.59
705.485	10724.22
705.83	10674.28
706.175	10703.89
706.52	10597.67
706.865	10572.36
707.209	10639.03
707.554	10517
707.899	10609.2
708.243	10484.68
708.588	10542.08
708.932	10473.16
709.277	10433.61
709.621	10416.44
709.966	10304.35
710.31	10332.82
710.654	10265.48
710.998	10254.18
711.342	10291.47
711.687	10249.89
712.031	10223.67
712.375	10075.65
712.719	10123.79
713.063	10084.01
713.407	10103.22
713.75	10019.16
714.094	10096.44
714.438	10000.4
714.782	10015.77
715.125	9983.23
715.469	9972.38
715.812	9978.25
716.156	9872.49
716.499	9908.88
716.843	9917.47
717.186	9898.93
717.53	9899.61
717.873	9876.34
718.216	9943.23
718.559	9849.22
718.902	9810.12
719.246	9792.04
719.589	9749.56
719.932	9754.53
720.275	9744.36
720.617	9695.55
720.96	9692.84
721.303	9682.22
721.646	9721.54
721.989	9618.49
722.331	9717.47
722.674	9667.3
723.016	9639.05
723.359	9673.86
723.701	9609.22
724.044	9533.07
724.386	9570.13
724.729	9592.73
725.071	9554.76
725.413	9569
725.755	9510.7
726.097	9521.32
726.439	9503.24
726.782	9552.5
727.124	9578.27
727.465	9526.97
727.807	9524.03
728.149	9450.81
728.491	9490.58
728.833	9448.1
729.175	9367.65
729.516	9463.92
729.858	9469.57
730.199	9481.77
730.541	9446.29
730.882	9464.37
731.224	9452.17
731.565	9427.31
731.906	9419.63
732.248	9436.8
732.589	9357.93
732.93	9372.17
733.271	9399.74
733.612	9386.86
733.953	9368.1
734.294	9413.3
734.635	9370.59
734.976	9412.85
735.317	9386.41
735.658	9356.12
735.999	9348.67
736.339	9418.5
736.68	9420.3
737.021	9296.01
737.361	9375.78
737.702	9435.9
738.042	9364.26
738.383	9368.55
738.723	9440.87
739.063	9371.04
739.404	9423.92
739.744	9479.96
740.084	9424.6
740.424	9401.32
740.764	9486.74
741.104	9488.1
741.444	9481.32
741.784	9447.87
742.124	9519.74
742.464	9459.17
742.804	9516.35
743.143	9512.96
743.483	9622.33
743.823	9550.02
744.162	9592.05
744.502	9658.71
744.841	9646.51
745.181	9703.01
745.52	9716.79
745.86	9817.58
746.199	9777.36
746.538	9779.62
746.877	9928.09
747.216	9956.56
747.556	9915.43
747.895	10023.68
748.234	10007.41
748.573	10036.56
748.911	10170.11
749.25	10241.07
749.589	10217.57
749.928	10362.65
750.267	10398.58
750.605	10476.09
750.944	10554.28
751.283	10616.43
751.621	10674.96
751.96	10780.95
752.298	10853.71
752.636	10940.49
752.975	11068.4
753.313	11091.45
753.651	11141.16
753.989	11325.34
754.327	11424.09
754.666	11501.38
755.004	11661.83
755.342	11707.47
755.679	11990.86
756.017	11954.02
756.355	12153.79
756.693	12180.46
757.031	12416.16
757.368	12504.52
757.706	12639.88
758.044	12729.59
