Data from hue_110_FLMS001491_00047.txt Node
Date: Tue Feb 07 17:01:23 GMT 2017
User: dcchb
Spectrometer: FLMS00149
Trigger mode: 0
Integration Time (sec): 2.000000E-2
Scans to average: 10
Electric dark correction enabled: true
Nonlinearity correction enabled: false
Boxcar width: 0
XAxis mode: Wavelengths
Number of Pixels in Spectrum: 2048
>>>>>Begin Spectral Data<<<<<
341.393	-20.96
341.776	-20.96
342.16	-20.96
342.543	-48.08
342.927	-89.88
343.31	-68.87
343.693	-63.9
344.077	-46.72
344.46	-44.69
344.843	-74.29
345.226	-44.69
345.61	-46.95
345.993	-26.16
346.376	-5.37
346.759	7.06
347.142	31.02
347.525	49.32
347.908	63.11
348.291	84.57
348.674	91.58
349.057	94.97
349.44	121.18
349.823	130
350.206	167.51
350.588	186.49
350.971	211.58
351.354	229.2
351.737	243.67
352.119	247.28
352.502	262.87
352.884	275.08
353.267	278.47
353.65	295.42
354.032	300.16
354.414	305.81
354.797	331.8
355.179	328.41
355.562	321.18
355.944	311.91
356.326	325.47
356.709	332.03
357.091	355.08
357.473	338.35
357.855	335.87
358.238	334.51
358.62	332.03
359.002	340.16
359.384	358.69
359.766	326.15
360.148	352.82
360.53	337.22
360.912	326.15
361.294	339.71
361.676	320.5
362.057	344.45
362.439	314.4
362.821	325.7
363.203	312.59
363.584	342.87
363.966	342.19
364.348	322.31
364.729	314.4
365.111	311.91
365.493	310.33
365.874	325.25
366.256	344.23
366.637	318.47
367.019	311.46
367.4	318.92
367.781	318.47
368.163	334.51
368.544	316.43
368.925	322.99
369.306	303.33
369.688	307.39
370.069	317.34
370.45	309.88
370.831	309.65
371.212	303.55
371.593	315.75
371.974	300.16
372.355	323.89
372.736	322.53
373.117	321.4
373.498	318.24
373.879	344.68
374.26	315.98
374.641	314.4
375.021	345.36
375.402	327.96
375.783	320.95
376.163	311.01
376.544	337.22
376.925	318.47
377.305	316.43
377.686	329.09
378.066	344.45
378.447	353.27
378.827	335.19
379.208	352.14
379.588	341.52
379.968	351.69
380.349	333.16
380.729	344.45
381.109	358.01
381.489	346.71
381.87	354.17
382.25	346.71
382.63	352.59
383.01	357.34
383.39	330.67
383.77	358.24
384.15	332.93
384.53	363.89
384.91	384.91
385.29	343.78
385.67	369.76
386.049	368.86
386.429	388.97
386.809	350.56
387.189	335.19
387.568	349.43
387.948	375.64
388.328	378.13
388.707	357.56
389.087	365.47
389.466	369.31
389.846	378.35
390.225	359.6
390.605	395.07
390.984	355.3
391.363	393.27
391.743	374.51
392.122	398.92
392.501	359.82
392.881	379.93
393.26	390.1
393.639	391.46
394.018	409.09
394.397	391.23
394.776	395.07
395.155	376.32
395.534	387.62
395.913	393.04
396.292	413.83
396.671	385.13
397.05	389.65
397.429	419.71
397.808	388.07
398.186	399.59
398.565	405.02
398.944	426.26
399.323	415.86
399.701	415.64
400.08	412.93
400.458	409.31
400.837	435.75
401.215	416.32
401.594	438.24
401.972	428.97
402.351	408.41
402.729	440.04
403.107	431.23
403.486	441.85
403.864	426.26
404.242	427.39
404.62	431.23
404.999	452.7
405.377	434.17
405.755	451.57
406.133	456.77
406.511	484.11
406.889	445.47
407.267	445.02
407.645	469.2
408.023	464.45
408.401	480.27
408.779	478.91
409.156	477.56
409.534	474.85
409.912	466.03
410.29	474.62
410.667	486.15
411.045	510.78
411.422	490.44
411.8	499.93
412.178	512.81
412.555	507.39
412.933	522.3
413.31	502.87
413.687	504.45
414.065	534.28
414.442	510.78
414.819	513.72
415.197	525.92
415.574	538.8
415.951	547.39
416.328	533.38
416.705	538.8
417.082	541.74
417.46	560.49
417.837	562.3
418.214	557.1
418.591	578.8
418.967	559.14
419.344	558.69
419.721	563.21
420.098	585.13
420.475	598.68
420.852	569.76
421.228	581.96
421.605	593.04
421.982	599.59
422.358	619.02
422.735	618.57
423.111	599.59
423.488	607.72
423.864	600.72
424.241	623.09
424.617	605.92
424.994	619.7
425.37	632.13
425.746	658.57
426.123	645.46
426.499	629.64
426.875	671.45
427.251	663.99
427.627	645.69
428.003	674.16
428.379	676.87
428.756	663.77
429.132	674.16
429.507	709.19
429.883	689.98
430.259	688.85
430.635	720.04
431.011	712.13
431.387	731.79
431.763	730.88
432.138	732.01
432.514	756.65
432.89	740.38
433.265	760.71
433.641	774.73
434.016	752.35
434.392	793.26
434.767	805.69
435.143	766.82
435.518	788.74
435.894	784.89
436.269	824.89
436.644	854.95
437.02	820.37
437.395	844.78
437.77	858.56
438.145	861.5
438.52	845.46
438.895	828.96
439.271	868.28
439.646	883.65
440.021	878.23
440.395	903.99
440.77	904.44
441.145	904.44
441.52	896.08
441.895	910.77
442.27	925
442.645	933.37
443.019	934.5
443.394	952.8
443.769	931.11
444.143	933.37
444.518	927.72
444.892	941.27
445.267	963.87
445.641	977.66
446.016	995.74
446.39	958.68
446.764	979.24
447.139	982.86
447.513	1007.49
447.887	1014.49
448.262	1015.17
448.636	991.67
449.01	1032.35
449.384	1025.11
449.758	1036.19
450.132	1069.41
450.506	1078.22
450.88	1093.59
451.254	1084.55
451.628	1098.56
452.002	1095.62
452.376	1106.24
452.75	1117.54
453.123	1135.17
453.497	1128.39
453.871	1114.83
454.244	1164.09
454.618	1182.17
454.992	1202.96
455.365	1193.02
455.739	1227.14
456.112	1259.23
456.486	1264.43
456.859	1264.66
457.232	1281.6
457.606	1299.01
457.979	1308.72
458.352	1318.89
458.725	1357.53
459.099	1356.41
459.472	1386.91
459.845	1381.72
460.218	1397.31
460.591	1398.44
460.964	1422.84
461.337	1444.31
461.71	1480.7
462.083	1510.98
462.456	1509.62
462.829	1507.81
463.201	1565.67
463.574	1571.99
463.947	1593.46
464.32	1636.4
464.692	1627.58
465.065	1645.21
465.438	1677.98
465.81	1701.48
466.183	1728.15
466.555	1765.21
466.928	1817.18
467.3	1783.74
467.672	1808.6
468.045	1903.06
468.417	1946.45
468.789	1919.33
469.161	1936.28
469.534	2006.78
469.906	2056.5
470.278	2096.27
470.65	2093.33
471.022	2184.41
471.394	2216.5
471.766	2245.42
472.138	2302.59
472.51	2333.78
472.882	2382.37
473.253	2418.3
473.625	2445.64
473.997	2529.03
474.369	2581.91
474.74	2595.69
475.112	2706.43
475.484	2771.51
475.855	2835.24
476.227	2860.55
476.598	2987.1
476.97	3022.8
477.341	3104.83
477.713	3174.44
478.084	3208.79
478.455	3339.18
478.827	3422.57
479.198	3593.18
479.569	3593.63
479.94	3713.63
480.311	3832.05
480.682	3950.91
481.053	4046.5
481.424	4191.13
481.795	4247.4
482.166	4388.87
482.537	4472.71
482.908	4700.05
483.279	4740.04
483.65	4857.1
484.021	4977.55
484.391	5143.88
484.762	5239.24
485.133	5341.38
485.503	5482.62
485.874	5662.51
486.244	5803.52
486.615	5957.64
486.985	6076.73
487.356	6334.58
487.726	6393.11
488.097	6567.57
488.467	6678.98
488.837	6907.22
489.207	7031.06
489.578	7247.1
489.948	7365.74
490.318	7505.17
490.688	7650.48
491.058	7871.71
491.428	8101.54
491.798	8208.43
492.168	8425.6
492.538	8575.88
492.908	8740.39
493.278	8932.25
493.648	9023.77
494.017	9213.6
494.387	9373.14
494.757	9504.44
495.126	9706.69
495.496	9786.01
495.866	9933.13
496.235	10067.59
496.605	10254.25
496.974	10361.14
497.344	10504.41
497.713	10687.69
498.082	10816.72
498.452	10996.83
498.821	11152.08
499.19	11213.55
499.559	11397.5
499.928	11505.97
500.298	11674.1
500.667	11758.17
501.036	11829.35
501.405	12008.78
501.774	12077.03
502.143	12169.68
502.512	12380.07
502.88	12468.2
503.249	12566.51
503.618	12700.97
503.987	12808.53
504.356	12815.76
504.724	12957.46
505.093	13097.57
505.462	13127.62
505.83	13286.94
506.199	13461.85
506.567	13551.11
506.936	13601.73
507.304	13729.41
507.672	13761.73
508.041	13896.19
508.409	13996.07
508.777	14134.37
509.145	14234.03
509.514	14200.59
509.882	14296.4
510.25	14302.96
510.618	14404.42
510.986	14461.37
511.354	14675.83
511.722	14737.75
512.09	14862.04
512.458	14857.74
512.826	14924.64
513.193	15001.47
513.561	15005.76
513.929	15084.41
514.297	15302.25
514.664	15349.71
515.032	15407.79
515.4	15496.6
515.767	15440.55
516.135	15507.67
516.502	15572.08
516.869	15700.21
517.237	15731.85
517.604	15684.39
517.972	15836.7
518.339	15917.6
518.706	15855.91
519.073	15884.84
519.44	16051.16
519.808	16125.96
520.175	16028.79
520.542	16219.97
520.909	16304.49
521.276	16248.89
521.643	16376.35
522.009	16437.82
522.376	16510.13
522.743	16504.03
523.11	16592.39
523.477	16725.04
523.843	16720.52
524.21	16807.3
524.577	16921.65
524.943	17041.19
525.31	17035.99
525.676	17115.31
526.043	17083.45
526.409	17042.77
526.776	17243.22
527.142	17226.95
527.508	17252.71
527.874	17325.02
528.241	17275.31
528.607	17344.91
528.973	17454.06
529.339	17301.75
529.705	17468.52
530.071	17554.85
530.437	17565.7
530.803	17537.9
531.169	17594.17
531.535	17459.71
531.901	17411.12
532.267	17497.22
532.632	17530.89
532.998	17516.21
533.364	17540.84
533.73	17542.87
534.095	17584.45
534.461	17549.43
534.826	17517.34
535.192	17624.23
535.557	17626.94
535.923	17513.27
536.288	17536.77
536.653	17521.86
537.019	17441.63
537.384	17457.9
537.749	17459.26
538.114	17494.29
538.479	17381.29
538.845	17382.42
539.21	17284.12
539.575	17297
539.94	17282.54
540.305	17398.7
540.67	17287.51
541.034	17212.03
541.399	17177.68
541.764	17189.44
542.129	17119.15
542.494	17117.35
542.858	17127.97
543.223	16920.74
543.587	17098.59
543.952	16983.56
544.316	16982.43
544.681	16878.03
545.045	16932.27
545.41	16947.63
545.774	16930.46
546.138	16840.97
546.503	16837.35
546.867	16797.81
547.231	16848.88
547.595	16782.21
547.959	16738.15
548.324	16642.1
548.688	16712.84
549.052	16652.73
549.416	16527.53
549.779	16491.83
550.143	16534.09
550.507	16505.61
550.871	16506.29
551.235	16369.8
551.599	16456.8
551.962	16422.9
552.326	16367.31
552.689	16340.87
553.053	16298.16
553.417	16287.99
553.78	16507.65
554.143	16233.3
554.507	16222.45
554.87	16229.46
555.234	16352.39
555.597	16188.11
555.96	16294.77
556.323	16219.07
556.686	16104.72
557.05	16225.62
557.413	16130.03
557.776	16132.51
558.139	16231.72
558.502	16198.73
558.865	16175.45
559.228	16073.53
559.59	16192.63
559.953	16122.34
560.316	16221.32
560.679	16216.35
561.041	16186.3
561.404	16230.82
561.767	16303.36
562.129	16249.35
562.492	16290.25
562.854	16215
563.217	16220.42
563.579	16181.33
563.941	16337.03
564.304	16294.32
564.666	16228.56
565.028	16296.58
565.39	16290.25
565.753	16412.05
566.115	16433.3
566.477	16357.14
566.839	16381.09
567.201	16515.33
567.563	16344.26
567.925	16450.47
568.287	16425.84
568.648	16435.1
569.01	16492.05
569.372	16624.25
569.734	16548.55
570.095	16571.6
570.457	16586.51
570.819	16549
571.18	16536.12
571.542	16630.58
571.903	16622.44
572.265	16726.17
572.626	16622.22
572.987	16633.07
573.349	16649.56
573.71	16748.09
574.071	16676.91
574.432	16757.13
574.794	16915.54
575.155	16898.37
575.516	16771.37
575.877	16798.48
576.238	16811.82
576.599	16772.5
576.96	16765.27
577.32	16779.73
577.681	16852.95
578.042	16831.25
578.403	16761.42
578.763	16776.56
579.124	16765.04
579.485	16838.26
579.845	16925.94
580.206	16765.04
580.566	16863.57
580.927	16754.19
581.287	16876.67
581.648	16844.59
582.008	16900.86
582.368	16799.16
582.728	16793.97
583.089	16791.93
583.449	16776.79
583.809	16839.84
584.169	16811.14
584.529	16763.23
584.889	16910.57
585.249	16777.92
585.609	16710.13
585.969	16745.38
586.329	16641.2
586.688	16751.71
587.048	16714.87
587.408	16682.1
587.768	16664.25
588.127	16650.92
588.487	16726.85
588.846	16725.94
589.206	16527.98
589.565	16644.59
589.925	16676.91
590.284	16669.67
590.643	16623.35
591.003	16636.46
591.362	16669.22
591.721	16506.52
592.08	16577.93
592.44	16598.49
592.799	16480.75
593.158	16560.75
593.517	16617.7
593.876	16578.38
594.235	16492.5
594.593	16495.44
594.952	16531.37
595.311	16453.64
595.67	16504.26
596.029	16620.41
596.387	16436.23
596.746	16552.62
597.104	16482.33
597.463	16471.04
597.822	16539.06
598.18	16511.03
598.538	16426.29
598.897	16487.08
599.255	16390.59
599.613	16662.9
599.972	16483.92
600.33	16539.96
600.688	16359.85
601.046	16421.77
601.404	16539.96
601.762	16559.17
602.12	16548.77
602.478	16497.48
602.836	16511.71
603.194	16461.09
603.552	16461.77
603.91	16395.56
604.268	16537.25
604.625	16424.03
604.983	16493.41
605.341	16387.42
605.698	16501.32
606.056	16529.57
606.413	16473.75
606.771	16494.99
607.128	16574.31
607.485	16421.09
607.843	16453.41
608.2	16601.88
608.557	16599.62
608.914	16452.28
609.272	16663.12
609.629	16664.03
609.986	16521.66
610.343	16451.15
610.7	16686.62
611.057	16561.43
611.414	16631.94
611.771	16597.13
612.127	16690.92
612.484	16675.55
612.841	16817.92
613.198	16647.53
613.554	16543.35
613.911	16699.73
614.267	16658.6
614.624	16700.63
614.98	16717.81
615.337	16851.36
615.693	16801.42
616.05	16782.44
616.406	16790.12
616.762	16749.22
617.118	16832.38
617.475	16796.23
617.831	16885.71
618.187	16820.86
618.543	16840.29
618.899	16870.12
619.255	16912.15
619.611	16991.25
619.967	16899.27
620.323	16971.59
620.678	16883.45
621.034	16884.58
621.39	16793.97
621.746	16871.7
622.101	17042.55
622.457	16828.99
622.812	16868.77
623.168	16905.6
623.523	16995.77
623.879	16985.37
624.234	16927.75
624.589	17080.96
624.945	16990.12
625.3	16944.02
625.655	16904.47
626.01	16976.56
626.365	17002.77
626.72	16958.48
627.075	16917.13
627.43	16959.61
627.785	16832.83
628.14	16904.7
628.495	16944.92
628.85	16908.31
629.205	16849.33
629.559	17017.46
629.914	16779.05
630.269	16845.94
630.623	16848.65
630.978	16878.26
631.332	16828.54
631.687	16828.99
632.041	16798.26
632.396	16859.5
632.75	16709
633.104	16713.29
633.459	16601.88
633.813	16736.79
634.167	16696.11
634.521	16734.31
634.875	16603.69
635.229	16618.6
635.583	16631.48
635.937	16525.95
636.291	16524.59
636.645	16519.4
636.999	16521.88
637.352	16512.39
637.706	16359.85
638.06	16502.9
638.413	16440.98
638.767	16394.43
639.121	16401.66
639.474	16285.5
639.828	16271.72
640.181	16332.51
640.534	16379.06
640.888	16259.06
641.241	16239.18
641.594	16237.14
641.947	16259.06
642.301	16287.54
642.654	16327.08
643.007	16311.72
643.36	16233.53
643.713	16278.95
644.066	16306.52
644.419	16087.32
644.771	16112.63
645.124	15904.72
645.477	15930.94
645.83	15910.6
646.182	15768.68
646.535	15794.22
646.888	15712.19
647.24	15704.05
647.593	15663.6
647.945	15596.03
648.298	15647.55
648.65	15606.88
649.002	15494.11
649.355	15645.29
649.707	15690.94
650.059	15785.86
650.411	15938.62
650.763	15898.62
651.115	16098.39
651.467	15939.3
651.819	16089.8
652.171	15939.75
652.523	16043.02
652.875	16011.84
653.227	15959.41
653.578	16069.24
653.93	16099.97
654.282	15962.8
654.633	15886.64
654.985	15927.32
655.337	15915.12
655.688	16016.81
656.039	16112.18
656.391	15970.94
656.742	15934.78
657.094	15868.57
657.445	16004.61
657.796	16004.83
658.147	16034.89
658.498	16088.9
658.849	16061.33
659.2	16127.77
659.551	15974.33
659.902	16042.12
660.253	16011.61
660.604	16031.05
660.955	16008
661.306	16050.71
661.656	16027.66
662.007	16102.46
662.358	16025.4
662.708	16033.08
663.059	16026.08
663.409	16021.78
663.76	16141.1
664.11	16111.05
664.461	16161.21
664.811	16142
665.161	16001.22
665.511	16105.4
665.862	16073.76
666.212	16164.83
666.562	16134.77
666.912	16086.64
667.262	16124.6
667.612	16073.98
667.962	16130.25
668.312	16158.5
668.662	16186.98
669.011	16180.2
669.361	16004.83
669.711	16095.9
670.06	16092.74
670.41	16027.66
670.76	16080.99
671.109	15960.77
671.459	16064.72
671.808	15957.6
672.157	16054.1
672.507	15889.36
672.856	15928.68
673.205	15970.03
673.554	15956.25
673.904	15911.95
674.253	15983.82
674.602	15935.23
674.951	15655.24
675.3	15570.49
675.649	15835.35
675.998	15796.25
676.346	15747.89
676.695	15833.09
677.044	15668.35
677.393	15718.29
677.741	15787.44
678.09	15695.24
678.438	15711.73
678.787	15661.57
679.135	15759.19
679.484	15582.47
679.832	15683.94
680.181	15515.13
680.529	15633.54
680.877	15558.52
681.225	15559.87
681.573	15613.66
681.922	15459.76
682.27	15500.44
682.618	15425.19
682.966	15427.67
683.314	15408.46
683.661	15400.78
684.009	15237.85
684.357	15280.56
684.705	15197.4
685.053	15307.9
685.4	15264.74
685.748	15175.02
686.095	15068.81
686.443	15159.21
686.79	15052.09
687.138	15039.66
687.485	15060.68
687.832	15038.76
688.18	15026.55
688.527	14927.8
688.874	14745.88
689.221	14923.51
689.568	14857.74
689.915	14750.63
690.262	14808.71
690.609	14674.02
690.956	14632.21
691.303	14605.77
691.65	14531.2
691.997	14558.32
692.344	14457.53
692.69	14378.89
693.037	14453.01
693.383	14171.66
693.73	14217.08
694.077	14172.57
694.423	14120.82
694.769	14100.7
695.116	14143.87
695.462	14072.23
695.808	13971.21
696.155	13964.44
696.501	13928.73
696.847	13922.4
697.193	13737.1
697.539	13807.83
697.885	13652.58
698.231	13679.47
698.577	13550.89
698.923	13573.48
699.269	13494.84
699.614	13427.27
699.96	13352.93
700.306	13470.44
700.651	13347.05
700.997	13204.91
701.342	13192.48
701.688	13158.35
702.033	13174.17
702.379	13077.45
702.724	13052.59
703.069	13023.22
703.415	12900.73
703.76	12943.9
704.105	12873.62
704.45	12845.82
704.795	12836.78
705.14	12669.33
705.485	12749.55
705.83	12668.42
706.175	12714.07
706.52	12698.03
706.865	12577.58
707.209	12589.33
707.554	12587.75
707.899	12478.37
708.243	12528.31
708.588	12402.22
708.932	12279.96
709.277	12319.96
709.621	12332.84
709.966	12265.72
710.31	12279.06
710.654	12148.44
710.998	12115.44
711.342	12159.06
711.687	12102.34
712.031	12107.53
712.375	12002
712.719	11970.36
713.063	12006.97
713.407	12024.37
713.75	11894.88
714.094	11902.12
714.438	11856.02
714.782	11903.02
715.125	11802.23
715.469	11794.32
715.812	11804.94
716.156	11766.75
716.499	11617.38
716.843	11693.31
717.186	11644.72
717.53	11734.66
717.873	11676.36
718.216	11634.1
718.559	11642.01
718.902	11560.66
719.246	11599.75
719.589	11545.74
719.932	11495.57
720.275	11491.28
720.617	11504.61
720.96	11499.19
721.303	11437.04
721.646	11511.62
721.989	11397.95
722.331	11460.09
722.674	11446.99
723.016	11460.77
723.359	11399.08
723.701	11394.79
724.044	11276.37
724.386	11266.65
724.729	11295.13
725.071	11341
725.413	11264.62
725.755	11317.95
726.097	11250.83
726.439	11207.9
726.782	11239.08
727.124	11375.58
727.465	11216.94
727.807	11204.73
728.149	11244.96
728.491	11150.05
728.833	11176.71
729.175	11179.65
729.516	11099.88
729.858	11102.59
730.199	11213.32
730.541	11128.8
730.882	11167.67
731.224	11143.49
731.565	11174.45
731.906	11068.69
732.248	11112.76
732.589	11129.71
732.93	11076.6
733.271	11060.33
733.612	11185.53
733.953	11127.22
734.294	11105.53
734.635	11082.25
734.976	11181.23
735.317	11057.39
735.658	11098.97
735.999	11178.97
736.339	11110.72
736.68	11214.45
737.021	11132.87
737.361	11129.71
737.702	11135.36
738.042	11188.91
738.383	11164.96
738.723	11184.62
739.063	11137.39
739.404	11279.76
739.744	11242.25
740.084	11179.42
740.424	11246.54
740.764	11289.7
741.104	11318.4
741.444	11271.17
741.784	11311.85
742.124	11296.26
742.464	11304.84
742.804	11331.51
743.143	11359.76
743.483	11344.39
743.823	11402.24
744.162	11359.98
744.502	11434.78
744.841	11479.08
745.181	11549.13
745.52	11555.01
745.86	11642.69
746.199	11608.34
746.538	11608.34
746.877	11730.82
747.216	11882
747.556	11889.46
747.895	11958.39
748.234	11948.22
748.573	12030.7
748.911	12118.38
749.25	12180.98
749.589	12231.6
749.928	12357.02
750.267	12512.5
750.605	12529.67
750.944	12560.4
751.283	12659.38
751.621	12773.28
751.96	12816.44
752.298	12960.17
752.636	13141.63
752.975	13118.81
753.313	13198.81
753.651	13451
753.989	13524.67
754.327	13695.97
754.666	13698
755.004	13981.61
755.342	14124.2
755.679	14214.6
756.017	14311.77
