Data from hue_60_FLMS001491_84.txt Node
Date: Mon Feb 06 15:18:03 GMT 2017
User: dcchb
Spectrometer: FLMS00149
Trigger mode: 0
Integration Time (sec): 2.000000E-2
Scans to average: 10
Electric dark correction enabled: true
Nonlinearity correction enabled: false
Boxcar width: 0
XAxis mode: Wavelengths
Number of Pixels in Spectrum: 2048
>>>>>Begin Spectral Data<<<<<
341.393	-23.76
341.776	-23.76
342.16	-23.76
342.543	-47.03
342.927	-55.62
343.31	-69.63
343.693	-60.37
344.077	-63.53
344.46	-59.01
344.843	-66.02
345.226	-36.86
345.61	-25.34
345.993	-14.72
346.376	-8.39
346.759	18.5
347.142	28.45
347.525	28.9
347.908	61.67
348.291	53.08
348.674	95.34
349.057	117.93
349.44	104.15
349.823	136.92
350.206	169.91
350.588	193.64
350.971	216.46
351.354	229.57
351.737	242
352.119	263.02
352.502	264.82
352.884	259.85
353.267	283.35
353.65	265.05
354.032	308.66
354.414	303.69
354.797	310.7
355.179	329.68
355.562	288.33
355.944	326.29
356.326	321.32
356.709	334.88
357.091	331.04
357.473	352.05
357.855	359.06
358.238	348.66
358.62	338.27
359.002	357.7
359.384	346.4
359.766	336.91
360.148	333.3
360.53	354.09
360.912	336.46
361.294	343.01
361.676	331.49
362.057	350.25
362.439	319.74
362.821	339.62
363.203	307.53
363.584	318.61
363.966	320.19
364.348	319.96
364.729	319.96
365.111	305.27
365.493	313.64
365.874	322.45
366.256	309.12
366.637	289.91
367.019	293.3
367.4	307.08
367.781	299.85
368.163	301.66
368.544	317.93
368.925	323.81
369.306	320.64
369.688	330.36
370.069	317.03
370.45	306.86
370.831	313.18
371.212	307.99
371.593	304.6
371.974	321.32
372.355	318.38
372.736	325.84
373.117	312.96
373.498	298.95
373.879	325.61
374.26	312.28
374.641	319.06
375.021	317.25
375.402	317.25
375.783	321.77
376.163	331.49
376.544	328.55
376.925	326.97
377.305	326.52
377.686	303.92
378.066	314.54
378.447	332.39
378.827	344.82
379.208	324.71
379.588	317.48
379.968	336.91
380.349	344.6
380.729	317.03
381.109	322
381.489	311.38
381.87	350.47
382.25	328.1
382.63	340.75
383.01	333.07
383.39	324.03
383.77	334.65
384.15	332.39
384.53	354.31
384.91	347.31
385.29	352.05
385.67	345.95
386.049	365.61
386.429	353.41
386.809	356.35
387.189	361.54
387.568	347.53
387.948	328.32
388.328	360.19
388.707	350.02
389.087	351.83
389.466	364.93
389.846	340.3
390.225	354.54
390.605	356.12
390.984	374.43
391.363	362.45
391.743	378.49
392.122	362.45
392.501	355.67
392.881	370.81
393.26	368.55
393.639	383.69
394.018	362.9
394.397	368.32
394.776	355.89
395.155	385.27
395.534	372.17
395.913	377.14
396.292	379.4
396.671	350.47
397.05	379.62
397.429	387.98
397.808	385.95
398.186	362.9
398.565	399.28
398.944	393.18
399.323	397.25
399.701	393.18
400.08	380.53
400.458	393.63
400.837	377.14
401.215	386.18
401.594	395.89
401.972	406.51
402.351	403.12
402.729	391.37
403.107	392.28
403.486	402.22
403.864	387.76
404.242	413.29
404.62	401.09
404.999	390.7
405.377	400.41
405.755	398.38
406.133	420.75
406.511	385.27
406.889	424.14
407.267	426.85
407.645	417.81
408.023	429.79
408.401	420.98
408.779	416.91
409.156	429.79
409.534	420.75
409.912	429.56
410.29	449.45
410.667	437.93
411.045	455.33
411.422	436.12
411.8	449.9
412.178	461.65
412.555	449.23
412.933	448.77
413.31	443.35
413.687	440.19
414.065	448.55
414.442	469.56
414.819	471.82
415.197	489.22
415.574	462.78
415.951	475.21
416.328	486.29
416.705	483.8
417.082	476.12
417.46	488.32
417.837	506.63
418.214	491.03
418.591	481.32
418.967	485.61
419.344	493.29
419.721	512.05
420.098	468.21
420.475	487.42
420.852	508.66
421.228	515.21
421.605	516.57
421.982	500.52
422.358	499.39
422.735	513.63
423.111	521.31
423.488	533.07
423.864	515.89
424.241	519.73
424.617	535.1
424.994	515.66
425.37	539.84
425.746	515.21
426.123	547.3
426.499	538.49
426.875	546.85
427.251	558.6
427.627	565.15
428.003	559.73
428.379	550.01
428.756	565.61
429.132	585.72
429.507	576.91
429.883	583.01
430.259	585.49
430.635	557.47
431.011	581.2
431.387	581.88
431.763	569
432.138	605.38
432.514	592.05
432.89	600.18
433.265	611.93
433.641	620.52
434.016	618.03
434.392	619.84
434.767	635.21
435.143	620.29
435.518	642.89
435.894	638.83
436.269	651.25
436.644	661.42
437.02	659.16
437.395	659.39
437.77	644.47
438.145	698.26
438.52	691.03
438.895	677.69
439.271	694.42
439.646	702.1
440.021	688.32
440.395	687.86
440.77	701.87
441.145	668.65
441.52	694.19
441.895	714.76
442.27	695.09
442.645	698.71
443.019	736.68
443.394	695.32
443.769	719.27
444.143	731.03
444.518	731.25
444.892	718.37
445.267	750.46
445.641	755.43
446.016	740.29
446.39	734.87
446.764	741.42
447.139	746.17
447.513	776
447.887	764.7
448.262	765.6
448.636	771.93
449.01	789.1
449.384	773.28
449.758	765.83
450.132	805.83
450.506	788.2
450.88	809.22
451.254	810.35
451.628	841.08
452.002	814.87
452.376	824.36
452.75	833.85
453.123	832.27
453.497	857.12
453.871	840.18
454.244	862.77
454.618	872.27
454.992	889.21
455.365	892.83
455.739	898.25
456.112	917.91
456.486	922.21
456.859	890.57
457.232	947.97
457.606	928.99
457.979	940.96
458.352	964.69
458.725	1002.66
459.099	978.7
459.472	975.09
459.845	1008.98
460.218	1018.7
460.591	1010.34
460.964	1016.22
461.337	1026.39
461.71	1059.38
462.083	1070.9
462.456	1067.97
462.829	1060.73
463.201	1105.48
463.574	1118.13
463.947	1131.24
464.32	1144.8
464.692	1148.64
465.065	1166.27
465.438	1190.9
465.81	1202.88
466.183	1229.32
466.555	1269.77
466.928	1269.77
467.3	1243.78
467.672	1267.06
468.045	1311.35
468.417	1310.67
468.789	1363.33
469.161	1375.98
469.534	1408.97
469.906	1428.63
470.278	1431.57
470.65	1447.84
471.022	1487.62
471.394	1492.81
471.766	1519.25
472.138	1546.82
472.51	1604.22
472.882	1635.18
473.253	1633.38
473.625	1677.44
473.997	1751.56
474.369	1787.04
474.74	1812.81
475.112	1869.53
475.484	1902.52
475.855	1926.93
476.227	1974.84
476.598	2044.44
476.97	2119.01
477.341	2156.07
477.713	2220.48
478.084	2239.91
478.455	2332.34
478.827	2368.5
479.198	2456.86
479.569	2512.9
479.94	2631.99
480.311	2662.27
480.682	2759.67
481.053	2816.62
481.424	2916.05
481.795	3015.26
482.166	3059.78
482.537	3135.93
482.908	3274.91
483.279	3331.18
483.65	3520.33
484.021	3540.22
484.391	3645.3
484.762	3738.86
485.133	3840.55
485.503	3933.65
485.874	4109.69
486.244	4189.69
486.615	4318.28
486.985	4406.64
487.356	4609.34
487.726	4664.26
488.097	4853.4
488.467	4898.83
488.837	5081.65
489.207	5268.53
489.578	5333.62
489.948	5492.71
490.318	5644.34
490.688	5766.15
491.058	5905.35
491.428	6118.68
491.798	6231.22
492.168	6431.67
492.538	6510.76
492.908	6690.87
493.278	6838.66
493.648	6938.77
494.017	7120.24
494.387	7295.15
494.757	7466.67
495.126	7631.64
495.496	7694.23
495.866	7901.23
496.235	8052.19
496.605	8163.82
496.974	8289.47
497.344	8574.66
497.713	8644.04
498.082	8799.74
498.452	8950.24
498.821	9102.78
499.19	9205.83
499.559	9425.71
499.928	9558.36
500.298	9666.16
500.667	9922.87
501.036	9977.34
501.405	10112.7
501.774	10218.69
502.143	10425.69
502.512	10565.8
502.88	10747.49
503.249	10808.28
503.618	10983.86
503.987	11066.8
504.356	11282.84
504.724	11403.29
505.093	11500.46
505.462	11641.02
505.83	11782.26
506.199	11980
506.567	12161.23
506.936	12207.33
507.304	12450.72
507.672	12634.44
508.041	12707.66
508.409	12852.06
508.777	13008.22
509.145	13183.58
509.514	13208.44
509.882	13357.36
510.25	13465.61
510.618	13676
510.986	13690.23
511.354	13885.71
511.722	14045.93
512.09	14307.39
512.458	14326.6
512.826	14459.48
513.193	14576.31
513.561	14629.64
513.929	14880.48
514.297	15096.3
514.664	15121.16
515.032	15190.53
515.4	15452.22
515.767	15518.89
516.135	15650.41
516.502	15634.59
516.869	15880.91
517.237	16057.18
517.604	16012.66
517.972	16339.43
518.339	16445.42
518.706	16429.82
519.073	16575.81
519.44	16707.78
519.808	17011.05
520.175	16978.96
520.542	17309.8
520.909	17381.89
521.276	17413.07
521.643	17602.67
522.009	17781.2
522.376	17938.03
522.743	18108.87
523.11	18212.15
523.477	18417.57
523.843	18537.11
524.21	18737.11
524.577	18942.75
524.943	19032.01
525.31	19114.72
525.676	19333.25
526.043	19472.91
526.409	19535.5
526.776	19822.05
527.142	19757.87
527.508	19987.69
527.874	20152.44
528.241	20338.65
528.607	20427.68
528.973	20594.68
529.339	20567.11
529.705	20707
530.071	20999.19
530.437	21041.68
530.803	21163.94
531.169	21346.76
531.535	21223.14
531.901	21409.13
532.267	21598.05
532.632	21574.32
532.998	21670.59
533.364	21877.81
533.73	22004.59
534.095	22089.79
534.461	22194.42
534.826	22367.75
535.192	22431.92
535.557	22567.51
535.923	22681.64
536.288	22774.74
536.653	22981.97
537.019	22783.55
537.384	23029.87
537.749	23072.59
538.114	23047.73
538.479	23151.68
538.845	23321.62
539.21	23298.12
539.575	23430.77
539.94	23384.67
540.305	23572.01
540.67	23727.48
541.034	23681.16
541.399	23702.63
541.764	23857.65
542.129	23974.03
542.494	24018.78
542.858	24052.67
543.223	24207.02
543.587	24327.02
543.952	24356.85
544.316	24464.87
544.681	24355.72
545.045	24530.4
545.41	24701.7
545.774	24824.63
546.138	24770.85
546.503	24891.97
546.867	24884.06
547.231	25186.88
547.595	25173.1
547.959	25196.6
548.324	25185.07
548.688	25284.28
549.052	25597.26
549.416	25389.81
549.779	25449.92
550.143	25613.08
550.507	25790.03
550.871	25968.55
551.235	25815.79
551.599	26040.19
551.962	26152.28
552.326	26133.97
552.689	26399.28
553.053	26366.96
553.417	26456
553.78	26740.96
554.143	26594.75
554.507	26751.58
554.87	26890.56
555.234	27128.75
555.597	26982.99
555.96	27213.27
556.323	27220.72
556.686	27309.31
557.05	27501.62
557.413	27627.95
557.776	27579.36
558.139	27822.29
558.502	27833.36
558.865	27959.91
559.228	28180.93
559.59	28130.31
559.953	28235.16
560.316	28616.39
560.679	28520.8
561.041	28615.94
561.404	28893.68
561.767	29000.57
562.129	28950.4
562.492	29318.3
562.854	29288.92
563.217	29247.11
563.579	29462.93
563.941	29632.86
564.304	29779.53
564.666	30014.78
565.028	29978.62
565.39	30128.67
565.753	30263.58
566.115	30463.35
566.477	30474.2
566.839	30591.03
567.201	30775.66
567.563	30831.93
567.925	31121.19
568.287	30964.58
568.648	31086.84
569.01	31431.91
569.372	31551.68
569.734	31491.57
570.095	31668.52
570.457	31848.63
570.819	31858.34
571.18	31777.67
571.542	32153.93
571.903	32195.96
572.265	32312.12
572.626	32338.33
572.987	32435.5
573.349	32484.99
573.71	32585.78
574.071	32673.91
574.432	32805.89
574.794	33030.52
575.155	33051.53
575.516	32984.87
575.877	33173.11
576.238	33068.25
576.599	33308.7
576.96	33272.32
577.32	33378.76
577.681	33391.64
578.042	33634.79
578.403	33494.01
578.763	33633.44
579.124	33608.58
579.485	33947.1
579.845	33897.61
580.206	33819.2
580.566	33954.56
580.927	33955.01
581.287	34214.21
581.648	33929.02
582.008	34131.5
582.368	34216.25
582.728	34167.89
583.089	34120.2
583.449	34172.86
583.809	34209.24
584.169	34280.88
584.529	34191.62
584.889	34540.53
585.249	34377.6
585.609	34348
585.969	34508.67
586.329	34364.94
586.688	34453.98
587.048	34361.78
587.408	34264.83
587.768	34411.27
588.127	34304.83
588.487	34309.13
588.846	34634.32
589.206	34241.56
589.565	34381.44
589.925	34583.02
590.284	34507.54
590.643	34505.73
591.003	34569.68
591.362	34773.52
591.721	34773.75
592.08	34702.34
592.44	34720.87
592.799	34857.13
593.158	34670.02
593.517	34726.97
593.876	34936
594.235	34759.51
594.593	34812.62
594.952	34929
595.311	34925.16
595.67	35032.72
596.029	35027.07
596.387	35125.6
596.746	35177.8
597.104	35086.28
597.463	34869.34
597.822	35191.81
598.18	34897.59
598.538	34939.84
598.897	35303.9
599.255	34910.69
599.613	35546.83
599.972	35339.16
600.33	35355.43
600.688	35335.54
601.046	35367.18
601.404	35537.12
601.762	35456.21
602.12	35601.97
602.478	35673.16
602.836	35795.19
603.194	35579.6
603.552	35792.25
603.91	35652.59
604.268	35839.03
604.625	35862.31
604.983	35963.09
605.341	35703.67
605.698	35988.4
606.056	36074.96
606.413	35998.8
606.771	36328.73
607.128	36197.66
607.485	36073.83
607.843	36127.61
608.2	36321.95
608.557	36483.53
608.914	36438.56
609.272	36643.3
609.629	36633.36
609.986	36717.65
610.343	36529.86
610.7	36899.57
611.057	36831.09
611.414	36865.44
611.771	36878.55
612.127	37018.89
612.484	37063.63
612.841	37123.74
613.198	37152.44
613.554	37092.56
613.911	37311.08
614.267	37394.02
614.624	37238.09
614.98	37368.93
615.337	37657.06
615.693	37615.03
616.05	37569.38
616.406	37810.95
616.762	37598.76
617.118	37642.15
617.475	37761.24
617.831	37839.88
618.187	37860.45
618.543	37885.3
618.899	38097.73
619.255	37966.88
619.611	38039.65
619.967	38139.99
620.323	38418.85
620.678	38210.04
621.034	38083.94
621.39	38170.49
621.746	38107.44
622.101	38565.74
622.457	38292.98
622.812	38327.33
623.168	38416.81
623.523	38435.35
623.879	38680.54
624.234	38300.89
624.589	38471.5
624.945	38560.99
625.3	38646.41
625.655	38505.17
626.01	38577.71
626.365	38586.98
626.72	38567.55
627.075	38623.14
627.43	38613.65
627.785	38546.75
628.14	38724.15
628.495	38678.5
628.85	38603.02
629.205	38591.5
629.559	38777.94
629.914	38593.99
630.269	38614.78
630.623	38579.3
630.978	38604.15
631.332	38673.98
631.687	38734.77
632.041	38574.32
632.396	38756.24
632.75	38527.32
633.104	38653.42
633.459	38432.86
633.813	38367.1
634.167	38503.82
634.521	38525.74
634.875	38506.98
635.229	38581.33
635.583	38179.98
635.937	38502.01
636.291	38273.32
636.645	38315.8
636.999	38228.12
637.352	38381.56
637.706	38117.61
638.06	38188.35
638.413	38236.71
638.767	38167.1
639.121	38157.39
639.474	37857.73
639.828	38037.16
640.181	38077.84
640.534	38152.87
640.888	37958.52
641.241	37895.02
641.594	37973.66
641.947	38033.1
642.301	37929.37
642.654	37900.44
643.007	37903.61
643.36	37791.29
643.713	37922.36
644.066	37966.88
644.419	37697.96
644.771	37467.69
645.124	37151.09
645.477	37124.87
645.83	37014.37
646.182	36783.64
646.535	36570.31
646.888	36714.94
647.24	36556.3
647.593	36774.15
647.945	36588.16
648.298	36640.59
648.65	36352.69
649.002	36375.51
649.355	36488.5
649.707	36478.79
650.059	36662.28
650.411	36887.82
650.763	37171.42
651.115	37309.27
651.467	37252.33
651.819	37346.11
652.171	37286.67
652.523	37210.52
652.875	37191.99
653.227	37031.09
653.578	37249.39
653.93	37177.98
654.282	37001.71
654.633	36970.75
654.985	37071.31
655.337	37114.7
655.688	36968.94
656.039	37184.08
656.391	36849.62
656.742	36733.02
657.094	36913.35
657.445	36914.48
657.796	36939.57
658.147	36889.4
658.498	36812.56
658.849	36962.16
659.2	36876.74
659.551	36760.14
659.902	36858.44
660.253	36745.67
660.604	36860.7
660.955	36663.87
661.306	36730.08
661.656	36732.34
662.007	36774.37
662.358	36795.39
662.708	36819.12
663.059	36641.49
663.409	36592.23
663.76	36549.97
664.11	36700.93
664.461	36839.91
664.811	36739.57
665.161	36670.65
665.511	36651.89
665.862	36663.64
666.212	36638.56
666.562	36687.59
666.912	36602.63
667.262	36483.31
667.612	36550.88
667.962	36657.76
668.312	36549.07
668.662	36687.82
669.011	36724.88
669.361	36462.52
669.711	36598.33
670.06	36507.03
670.41	36450.76
670.76	36614.38
671.109	36570.31
671.459	36479.92
671.808	36485.79
672.157	36414.61
672.507	36220.49
672.856	36356.3
673.205	36346.36
673.554	36424.55
673.904	36321.5
674.253	36491.89
674.602	36403.31
674.951	35800.61
675.3	35672.25
675.649	36341.84
675.998	36198.34
676.346	36191.34
676.695	36290.54
677.044	35992.7
677.393	36039.93
677.741	36080.6
678.09	35982.08
678.438	35918.12
678.787	36066.14
679.135	35927.16
679.484	35728.3
679.832	35854.4
680.181	35729.88
680.529	35862.53
680.877	35605.59
681.225	35702.99
681.573	35841.52
681.922	35693.72
682.27	35521.98
682.618	35557
682.966	35385.26
683.314	35585.25
683.661	35520.62
684.009	35393.39
684.357	35330.57
684.705	35200.63
685.053	35261.19
685.4	35144.81
685.748	34963.12
686.095	35014.19
686.443	34900.07
686.79	34832.05
687.138	34833.18
687.485	34909.34
687.832	34743.92
688.18	34833.18
688.527	34705.95
688.874	34600.19
689.221	34442.91
689.568	34423.25
689.915	34321.33
690.262	34269.81
690.609	34167.66
690.956	34052.64
691.303	34065.97
691.65	33883.15
691.997	33905.52
692.344	33589.37
692.69	33735.58
693.037	33834.79
693.383	33379.89
693.73	33552.08
694.077	33370.39
694.423	33329.49
694.769	33302.15
695.116	33118.65
695.462	33217.86
695.808	33139.21
696.155	33085.43
696.501	33031.19
696.847	32917.07
697.193	32570.41
697.539	32760.01
697.885	32473.02
698.231	32403.64
698.577	32437.08
698.923	32382.62
699.269	32265.34
699.614	32067.83
699.96	32144.66
700.306	32018.56
700.651	32009.07
700.997	31929.08
701.342	31680.27
701.688	31760.94
702.033	31617.67
702.379	31644.11
702.724	31576.77
703.069	31486.38
703.415	31263.33
703.76	31145.37
704.105	31272.6
704.45	31166.61
704.795	31065.82
705.14	30962.1
705.485	30899.05
705.83	30800.29
706.175	30867.41
706.52	30706.28
706.865	30557.59
707.209	30612.73
707.554	30482.33
707.899	30483.46
708.243	30314.43
708.588	30219.52
708.932	30166.86
709.277	30044.61
709.621	30167.54
709.966	29919.86
710.31	29971.61
710.654	29692.75
710.998	29739.3
711.342	29783.14
711.687	29662.69
712.031	29545.64
712.375	29470.61
712.719	29498.63
713.063	29500.44
713.407	29557.16
713.75	29389.93
714.094	29280.56
714.438	29140.22
714.782	29175.7
715.125	29034.24
715.469	29119.43
715.812	28941.81
716.156	28850.29
716.499	28801.02
716.843	28745.66
717.186	28593.34
717.53	28840.34
717.873	28754.92
718.216	28608.03
718.559	28577.3
718.902	28471.77
719.246	28498.21
719.589	28315.61
719.932	28339.57
720.275	28290.08
720.617	28222.28
720.96	28284.88
721.303	28180.02
721.646	28076.97
721.989	28028.16
722.331	28191.09
722.674	27908.16
723.016	27988.16
723.359	27960.37
723.701	28003.53
724.044	27799.92
724.386	27599.02
724.729	27742.52
725.071	27669.98
725.413	27714.05
725.755	27611
726.097	27503.66
726.439	27382.3
726.782	27307.05
727.124	27518.12
727.465	27375.07
727.807	27277.9
728.149	27338.01
728.491	27200.84
728.833	27231.35
729.175	27192.48
729.516	27077.45
729.858	27019.83
730.199	26991.35
730.541	27140.5
730.882	26905.93
731.224	27011.01
731.565	26810.57
731.906	26921.3
732.248	26792.94
732.589	26643.34
732.93	26694.41
733.271	26573.51
733.612	26765.14
733.953	26728.08
734.294	26478.82
734.635	26491.7
734.976	26528.31
735.317	26452.16
735.658	26303.46
735.999	26495.55
736.339	26240.41
736.68	26331.71
737.021	26199.73
737.361	26246.29
737.702	26251.26
738.042	26197.25
738.383	26140.53
738.723	26144.37
739.063	25943.02
739.404	26084.48
739.744	26034.54
740.084	25878.39
740.424	25975.56
740.764	25842
741.104	25809.91
741.444	25699.18
741.784	25712.74
742.124	25740.99
742.464	25741.89
742.804	25552.52
743.143	25650.37
743.483	25558.17
743.823	25519.3
744.162	25426.2
744.502	25511.17
744.841	25292.64
745.181	25439.98
745.52	25339.42
745.86	25392.52
746.199	25280.66
746.538	25296.93
746.877	25382.58
747.216	25130.38
747.556	25099.65
747.895	25115.92
748.234	24978.07
748.573	24954.34
748.911	24872.99
749.25	24895.81
749.589	24680
749.928	24927.68
750.267	24863.05
750.605	24782.14
750.944	24722.49
751.283	24559.33
751.621	24688.81
751.96	24511.19
752.298	24557.07
752.636	24477.52
752.975	24373.34
753.313	24302.84
753.651	24420.12
753.989	24212.89
754.327	24184.87
754.666	24076.17
755.004	24167.92
755.342	24187.58
755.679	24098.1
756.017	23996.18
756.355	24058.1
756.693	23909.63
757.031	23933.58
