Data from hue_50_FLMS001491_9.txt Node
Date: Mon Feb 06 15:09:30 GMT 2017
User: dcchb
Spectrometer: FLMS00149
Trigger mode: 0
Integration Time (sec): 2.000000E-2
Scans to average: 10
Electric dark correction enabled: true
Nonlinearity correction enabled: false
Boxcar width: 0
XAxis mode: Wavelengths
Number of Pixels in Spectrum: 2048
>>>>>Begin Spectral Data<<<<<
341.393	-5.32
341.776	-5.32
342.16	-5.32
342.543	-61.14
342.927	-74.02
343.31	-76.74
343.693	-71.09
344.077	-55.04
344.46	-53.23
344.843	-57.07
345.226	-44.65
345.61	-35.83
345.993	-15.04
346.376	2.36
346.759	13.66
347.142	5.52
347.525	58.18
347.908	48.01
348.291	81.23
348.674	88.46
349.057	111.28
349.44	109.7
349.823	133.2
350.206	158.96
350.588	196.48
350.971	217.95
351.354	237.15
351.737	231.51
352.119	255.69
352.502	256.14
352.884	285.06
353.267	280.09
353.65	297.72
354.032	303.37
354.414	288.68
354.797	348.79
355.179	328.23
355.562	331.84
355.944	331.39
356.326	347.43
356.709	348.56
357.091	323.48
357.473	336.14
357.855	337.94
358.238	337.04
358.62	354.89
359.002	337.04
359.384	339.52
359.766	342.46
360.148	333.65
360.53	353.54
360.912	322.12
361.294	334.1
361.676	336.59
362.057	347.89
362.439	335.01
362.821	340.2
363.203	320.32
363.584	318.06
363.966	323.25
364.348	329.13
364.729	324.16
365.111	305.85
365.493	320.54
365.874	309.92
366.256	316.93
366.637	318.51
367.019	322.8
367.4	309.47
367.781	315.12
368.163	318.73
368.544	319.19
368.925	299.98
369.306	320.32
369.688	327.1
370.069	314.21
370.45	311.28
370.831	322.58
371.212	300.88
371.593	312.18
371.974	328.68
372.355	344.5
372.736	308.34
373.117	325.51
373.498	320.09
373.879	306.76
374.26	325.97
374.641	316.47
375.021	322.8
375.402	318.73
375.783	318.73
376.163	327.32
376.544	337.49
376.925	339.07
377.305	310.6
377.686	321.45
378.066	334.1
378.447	344.5
378.827	318.96
379.208	324.84
379.588	321.9
379.968	330.71
380.349	351.28
380.729	325.51
381.109	342.24
381.489	328.45
381.87	330.26
382.25	330.03
382.63	350.15
383.01	341.56
383.39	338.62
383.77	351.05
384.15	339.75
384.53	338.85
384.91	347.66
385.29	337.04
385.67	335.23
386.049	346.3
386.429	328.45
386.809	343.82
387.189	361.67
387.568	354.44
387.948	337.49
388.328	344.27
388.707	345.4
389.087	360.99
389.466	366.19
389.846	348.11
390.225	354.44
390.605	351.95
390.984	375.46
391.363	345.63
391.743	369.58
392.122	355.12
392.501	351.95
392.881	353.99
393.26	363.93
393.639	360.99
394.018	364.16
394.397	362.35
394.776	369.13
395.155	362.35
395.534	374.55
395.913	345.4
396.292	389.47
396.671	359.86
397.05	385.4
397.429	352.86
397.808	367.55
398.186	389.02
398.565	380.2
398.944	386.98
399.323	357.15
399.701	380.65
400.08	386.76
400.458	401.22
400.837	394.89
401.215	397.83
401.594	385.17
401.972	374.1
402.351	409.13
402.729	396.92
403.107	396.25
403.486	402.12
403.864	386.76
404.242	390.15
404.62	412.07
404.999	405.06
405.377	409.58
405.755	401.22
406.133	412.07
406.511	387.66
406.889	405.51
407.267	379.52
407.645	404.16
408.023	400.77
408.401	417.26
408.779	424.04
409.156	410.94
409.534	433.53
409.912	405.51
410.29	443.25
410.667	424.27
411.045	426.53
411.422	411.16
411.8	444.83
412.178	425.4
412.555	436.25
412.933	429.69
413.31	429.92
413.687	455.45
414.065	433.76
414.442	443.03
414.819	452.06
415.197	433.53
415.574	475.34
415.951	472.85
416.328	450.26
416.705	464.27
417.082	466.75
417.46	499.97
417.837	478.96
418.214	469.01
418.591	487.32
418.967	486.87
419.344	483.7
419.721	504.72
420.098	494.55
420.475	485.51
420.852	499.07
421.228	494.55
421.605	481.22
421.982	505.4
422.358	485.74
422.735	499.29
423.111	506.75
423.488	503.14
423.864	486.87
424.241	510.14
424.617	518.73
424.994	499.52
425.37	512.18
425.746	520.99
426.123	528.9
426.499	536.36
426.875	545.4
427.251	523.47
427.627	545.62
428.003	534.32
428.379	555.34
428.756	559.41
429.132	543.81
429.507	569.35
429.883	544.27
430.259	580.65
430.635	582.68
431.011	579.29
431.387	602.79
431.763	591.72
432.138	587.65
432.514	582.68
432.89	601.66
433.265	588.78
433.641	592.63
434.016	605.05
434.392	602.34
434.767	608.9
435.143	620.87
435.518	618.61
435.894	619.29
436.269	621.1
436.644	630.14
437.02	657.71
437.395	643.47
437.77	662.91
438.145	655.45
438.52	667.2
438.895	663.58
439.271	648.22
439.646	661.1
440.021	684.15
440.395	678.05
440.77	673.53
441.145	655.67
441.52	708.33
441.895	696.8
442.27	693.41
442.645	689.57
443.019	712.17
443.394	719.85
443.769	710.81
444.143	707.2
444.518	700.19
444.892	722.79
445.267	715.79
445.641	730.93
446.016	717.37
446.39	727.99
446.764	741.32
447.139	736.35
447.513	744.71
447.887	735.9
448.262	754.43
448.636	747.88
449.01	762.56
449.384	743.81
449.758	776.35
450.132	786.52
450.506	752.62
450.88	788.78
451.254	777.71
451.628	772.51
452.002	808.44
452.376	782.68
452.75	803.69
453.123	789.23
453.497	783.13
453.871	807.08
454.244	827.87
454.618	837.36
454.992	834.2
455.365	864.48
455.739	860.87
456.112	885.73
456.486	886.63
456.859	873.52
457.232	903.8
457.606	923.46
457.979	900.19
458.352	913.3
458.725	917.14
459.099	945.61
459.472	952.84
459.845	961.2
460.218	961.43
460.591	981.54
460.964	978.38
461.337	994.87
461.71	1022.22
462.083	1047.75
462.456	1001.65
462.829	1015.44
463.201	1048.43
463.574	1043.01
463.947	1086.85
464.32	1103.12
464.692	1088.21
465.065	1100.86
465.438	1139.73
465.81	1152.16
466.183	1165.04
466.555	1178.15
466.928	1156
467.3	1192.38
467.672	1196
468.045	1240.29
468.417	1260.86
468.789	1272.83
469.161	1253.17
469.534	1308.77
469.906	1353.96
470.278	1342.89
470.65	1377.46
471.022	1415.43
471.394	1409.78
471.766	1458.59
472.138	1499.04
472.51	1510.34
472.882	1513.05
473.253	1566.39
473.625	1567.74
473.997	1627.63
474.369	1620.17
474.74	1687.51
475.112	1699.94
475.484	1770.9
475.855	1810.22
476.227	1859.03
476.598	1877.56
476.97	1904.46
477.341	2009.99
477.713	1998.46
478.084	2072.81
478.455	2162.75
478.827	2183.77
479.198	2253.82
479.569	2284.11
479.94	2399.58
480.311	2435.06
480.682	2508.06
481.053	2583.99
481.424	2673.25
481.795	2707.15
482.166	2803.19
482.537	2891.1
482.908	2967.03
483.279	3057.42
483.65	3101.03
484.021	3207.7
484.391	3306.9
484.762	3381.93
485.133	3426.45
485.503	3554.58
485.874	3659.66
486.244	3723.39
486.615	3895.82
486.985	3930.17
487.356	4072.31
487.726	4183.04
488.097	4329.02
488.467	4358.63
488.837	4541.45
489.207	4638.39
489.578	4757.26
489.948	4941.89
490.318	5024.37
490.688	5075.9
491.058	5234.99
491.428	5326.96
491.798	5498.71
492.168	5618.03
492.538	5736.22
492.908	5866.61
493.278	6038.58
493.648	6084.68
494.017	6217.79
494.387	6349.08
494.757	6500.94
495.126	6568.97
495.496	6714.27
495.866	6799.47
496.235	6920.14
496.605	7090.08
496.974	7177.09
497.344	7326.01
497.713	7443.74
498.082	7527.81
498.452	7655.26
498.821	7812.1
499.19	7910.85
499.559	7995.37
499.928	8149.94
500.298	8238.98
500.667	8356.49
501.036	8475.58
501.405	8589.7
501.774	8687.1
502.143	8869.24
502.512	8911.73
502.88	9066.3
503.249	9137.71
503.618	9257.03
503.987	9390.13
504.356	9454.09
504.724	9557.81
505.093	9670.35
505.462	9693.63
505.83	9943.79
506.199	10011.36
506.567	10135.88
506.936	10172.26
507.304	10375.87
507.672	10445.47
508.041	10589.2
508.409	10685.24
508.777	10764.79
509.145	10878.46
509.514	10934.73
509.882	11093.59
510.25	11108.73
510.618	11283.87
510.986	11222.18
511.354	11505.11
511.722	11611.77
512.09	11703.75
512.458	11811.09
512.826	11900.8
513.193	12007.24
513.561	12077.75
513.929	12160.01
514.297	12286.33
514.664	12454.91
515.032	12510.96
515.4	12609.48
515.767	12644.06
516.135	12830.04
516.502	12762.7
516.869	13014.9
517.237	13006.08
517.604	13077.04
517.972	13268.9
518.339	13328.56
518.706	13405.4
519.073	13543.25
519.44	13690.81
519.808	13872.28
520.175	13805.84
520.542	13947.53
520.909	13980.3
521.276	14093.29
521.643	14265.26
522.009	14333.28
522.376	14424.58
522.743	14544.35
523.11	14643.33
523.477	14793.16
523.843	14862.98
524.21	15034.51
524.577	15207.16
524.943	15187.04
525.31	15335.74
525.676	15452.35
526.043	15562.4
526.409	15665.22
526.776	15840.59
527.142	15950.64
527.508	15951.32
527.874	16127.36
528.241	16137.3
528.607	16331.19
528.973	16370.52
529.339	16501.13
529.705	16657.51
530.071	16715.37
530.437	16855.47
530.803	16904.06
531.169	16986.54
531.535	17121
531.901	17112.64
532.267	17269.7
532.632	17331.85
532.998	17456.14
533.364	17495.23
533.73	17590.6
534.095	17761.89
534.461	17884.15
534.826	17908.1
535.192	17960.98
535.557	18110.58
535.923	18071.94
536.288	18119.17
536.653	18208.89
537.019	18212.73
537.384	18308.09
537.749	18375.89
538.114	18474.87
538.479	18485.26
538.845	18657.69
539.21	18561.64
539.575	18712.83
539.94	18774.75
540.305	18908.53
540.67	18904.91
541.034	18971.13
541.399	19077.34
541.764	19129.99
542.129	19209.09
542.494	19241.63
542.858	19323.88
543.223	19374.5
543.587	19439.36
543.952	19500.15
544.316	19537.44
544.681	19570.66
545.045	19726.59
545.41	19785.57
545.774	19816.08
546.138	19856.53
546.503	19964.55
546.867	20060.59
547.231	20106.91
547.595	20177.2
547.959	20342.84
548.324	20303.75
548.688	20434.14
549.052	20449.28
549.416	20491.76
549.779	20472.1
550.143	20596.62
550.507	20769.27
550.871	20877.97
551.235	20821.02
551.599	20948.7
551.962	20969.72
552.326	21010.17
552.689	21119.54
553.053	21082.26
553.417	21172.2
553.78	21477.27
554.143	21379.42
554.507	21409.03
554.87	21543.26
555.234	21697.83
555.597	21682.69
555.96	21794.33
556.323	21901.44
556.686	21919.97
557.05	22061.89
557.413	22113.19
557.776	22307.99
558.139	22350.02
558.502	22376.23
558.865	22388.44
559.228	22623.23
559.59	22575.55
559.953	22684.93
560.316	22900.74
560.679	22932.15
561.041	23090.34
561.404	23240.62
561.767	23241.52
562.129	23163.33
562.492	23524.68
562.854	23540.04
563.217	23490.1
563.579	23500.95
563.941	23649.19
564.304	23853.03
564.666	23930.54
565.028	24023.65
565.39	24135.96
565.753	24228.16
566.115	24228.16
566.477	24455.28
566.839	24629.28
567.201	24604.65
567.563	24596.29
567.925	24820.46
568.287	24923.96
568.648	24914.92
569.01	24967.8
569.372	25140
569.734	25153.34
570.095	25407.34
570.457	25504.06
570.819	25583.16
571.18	25599.2
571.542	25688.46
571.903	25749.03
572.265	25802.58
572.626	25895.01
572.987	25919.42
573.349	26064.27
573.71	26135
574.071	26246.64
574.432	26336.58
574.794	26536.35
575.155	26565.05
575.516	26560.08
575.877	26716.46
576.238	26801.2
576.599	26926.17
576.96	26921.2
577.32	27009.78
577.681	27192.15
578.042	27211.13
578.403	27323.22
578.763	27389.89
579.124	27490
579.485	27680.95
579.845	27861.29
580.206	27721.63
580.566	27861.29
580.927	27910.55
581.287	28120.72
581.648	28051.11
582.008	28310.54
582.368	28391.67
582.728	28516.19
583.089	28414.27
583.449	28603.64
583.809	28655.62
584.169	28797.53
584.529	28814.48
584.889	29108.26
585.249	29066
585.609	29168.15
585.969	29399.55
586.329	29302.83
586.688	29546.89
587.048	29440.45
587.408	29625.99
587.768	29587.8
588.127	29759.77
588.487	29819.2
588.846	30049.7
589.206	29953.89
589.565	30186.65
589.925	30273.43
590.284	30434.55
590.643	30537.38
591.003	30656.47
591.362	30724.04
591.721	30791.61
592.08	30981.66
592.44	31009
592.799	31190.24
593.158	31235.66
593.517	31348.88
593.876	31353.4
594.235	31408.31
594.593	31629.32
594.952	31712.26
595.311	31637.91
595.67	31935.98
596.029	32057.11
596.387	32072.02
596.746	32228.63
597.104	32191.34
597.463	32195.64
597.822	32395.86
598.18	32434.5
598.538	32499.81
598.897	32626.13
599.255	32494.61
599.613	33037.87
599.972	33013.02
600.33	32977.76
600.688	32900.25
601.046	33020.02
601.404	33308.38
601.762	33197.64
602.12	33560.57
602.478	33570.74
602.836	33566
603.194	33504.98
603.552	33648.48
603.91	33581.36
604.268	33902.48
604.625	33768.7
604.983	33924.4
605.341	33950.84
605.698	34204.17
606.056	34226.77
606.413	34278.29
606.771	34433.09
607.128	34615.01
607.485	34362.59
607.843	34429.7
608.2	34695.91
608.557	34920.76
608.914	34869.24
609.272	34974.09
609.629	35139.74
609.986	35293.41
610.343	35068.1
610.7	35509
611.057	35432.61
611.414	35477.36
611.771	35476.45
612.127	35624.02
612.484	35723.23
612.841	35803.23
613.198	35694.75
613.554	35758.71
613.911	36112.37
614.267	35981.07
614.624	36098.13
614.98	36079.83
615.337	36278.92
615.693	36267.62
616.05	36193.72
616.406	36523.21
616.762	36374.28
617.118	36507.16
617.475	36478.69
617.831	36645.01
618.187	36611.79
618.543	36713.03
618.899	37013.59
619.255	36994.83
619.611	36879.81
619.967	37006.58
620.323	37122.96
620.678	37110.31
621.034	37045.45
621.39	37085.23
621.746	37100.82
622.101	37518.21
622.457	37290.19
622.812	37392.79
623.168	37407.25
623.523	37350.3
623.879	37630.52
624.234	37261.94
624.589	37470.07
624.945	37448.15
625.3	37696.73
625.655	37550.98
626.01	37601.82
626.365	37769.5
626.72	37594.59
627.075	37572.44
627.43	37622.84
627.785	37554.37
628.14	37612.67
628.495	37873.23
628.85	37763.4
629.205	37543.52
629.559	37747.58
629.914	37584.87
630.269	37611.77
630.623	37624.19
630.978	37683.18
631.332	37743.51
631.687	37781.93
632.041	37636.62
632.396	37804.53
632.75	37658.32
633.104	37661.26
633.459	37512.56
633.813	37520.24
634.167	37549.17
634.521	37570.18
634.875	37682.05
635.229	37496.97
635.583	37340.36
635.937	37400.02
636.291	37443.86
636.645	37454.93
636.999	37363.86
637.352	37489.51
637.706	37297.88
638.06	37453.35
638.413	37434.37
638.767	37331.09
639.121	37450.87
639.474	37113.47
639.828	37240.93
640.181	37235.96
640.534	37309.4
640.888	37185.56
641.241	37057.43
641.594	37188.27
641.947	37218.78
642.301	36979.92
642.654	37169.07
643.007	37111.44
643.36	37041.38
643.713	36944.89
644.066	37157.54
644.419	36913.48
644.771	36736.99
645.124	36305.81
645.477	36257.68
645.83	35997.57
646.182	35992.6
646.535	35834.64
646.888	35937.23
647.24	35642.78
647.593	35976.1
647.945	35798.48
648.298	35613.17
648.65	35644.36
649.002	35614.3
649.355	35724.13
649.707	35579.28
650.059	35713.06
650.411	36250.9
650.763	36233.72
651.115	36654.73
651.467	36453.6
651.819	36426.03
652.171	36365.92
652.523	36331.57
652.875	36234.63
653.227	36174.29
653.578	36572.92
653.93	36304.91
654.282	36284.57
654.633	36156.89
654.985	36333.83
655.337	36174.29
655.688	36177
656.039	36248.64
656.391	36089.77
656.742	36086.83
657.094	36205.7
657.445	36229.88
657.796	36207.96
658.147	36043.44
658.498	35966.84
658.849	36025.37
659.2	36108.08
659.551	35948.08
659.902	36157.57
660.253	36010.68
660.604	36147.4
660.955	35955.99
661.306	36131.35
661.656	35950.34
662.007	36014.75
662.358	35893.39
662.708	36064.46
663.059	35832.15
663.409	35713.96
663.76	36096.78
664.11	36013.84
664.461	35986.05
664.811	35975.42
665.161	36000.28
665.511	35887.29
665.862	35981.3
666.212	35923.45
666.562	35950.11
666.912	35836.67
667.262	35732.94
667.612	35908.31
667.962	35928.65
668.312	35812.26
668.662	35987.63
669.011	35857.46
669.361	35791.02
669.711	35716.45
670.06	35687.3
670.41	35624.02
670.76	35594.87
671.109	35812.72
671.459	35661.99
671.808	35571.37
672.157	35691.59
672.507	35507.41
672.856	35497.24
673.205	35553.97
673.554	35761.19
673.904	35426.29
674.253	35683.91
674.602	35530.69
674.951	35008.9
675.3	34869.69
675.649	35430.58
675.998	35533.63
676.346	35358.27
676.695	35440.07
677.044	35207.53
677.393	35310.13
677.741	35473.97
678.09	35336.12
678.438	35314.2
678.787	35292.73
679.135	35175.45
679.484	35064.26
679.832	35118.05
680.181	34996.47
680.529	35128.44
680.877	34963.7
681.225	34940.2
681.573	35093.64
681.922	34868.79
682.27	34849.58
682.618	34794.21
682.966	34753.08
683.314	34786.98
683.661	34710.37
684.009	34589.7
684.357	34630.37
684.705	34518.97
685.053	34510.38
685.4	34379.99
685.748	34255.47
686.095	34346.09
686.443	34197.84
686.79	34110.39
687.138	34212.76
687.485	34194.45
687.832	34048.7
688.18	34099.77
688.527	33939.09
688.874	33915.14
689.221	33857.06
689.568	33714.69
689.915	33682.38
690.262	33638.08
690.609	33515.38
690.956	33389.5
691.303	33321.71
691.65	33374.14
691.997	33295.95
692.344	33125.1
692.69	32999.46
693.037	33138.44
693.383	32652.57
693.73	32878.78
694.077	32686.02
694.423	32788.16
694.769	32527.38
695.116	32608.06
695.462	32495.06
695.808	32326.71
696.155	32545.46
696.501	32289.87
696.847	32226.37
697.193	31950.9
697.539	31947.51
697.885	31770.56
698.231	31646.5
698.577	31725.14
698.923	31782.09
699.269	31455.99
699.614	31541.64
699.96	31411.02
700.306	31425.49
700.651	31292.38
700.997	31217.81
701.342	31172.84
701.688	31099.62
702.033	30860.08
702.379	30960.64
702.724	30844.94
703.069	30913.64
703.415	30674.32
703.76	30618.95
704.105	30543.25
704.45	30443.37
704.795	30450.37
705.14	30199.08
705.485	30257.38
705.83	30048.12
706.175	30228.23
706.52	30115.92
706.865	29962.7
707.209	29964.28
707.554	29802.48
707.899	29867.79
708.243	29775.14
708.588	29676.15
708.932	29409.27
709.277	29440.68
709.621	29561.36
709.966	29439.78
710.31	29472.77
710.654	29043.85
710.998	29134.7
711.342	29285.43
711.687	29070.97
712.031	29006.12
712.375	28836.63
712.719	28987.36
713.063	28845.89
713.407	28956.85
713.75	28752.34
714.094	28702.85
714.438	28615.17
714.782	28552.34
715.125	28567.48
715.469	28530.2
715.812	28223.09
716.156	28210.43
716.499	28251.56
716.843	28208.4
717.186	28137.89
717.53	28266.02
717.873	28155.52
718.216	28132.01
718.559	27989.19
718.902	27775.19
719.246	27903.77
719.589	27806.37
719.932	27745.58
720.275	27653.84
720.617	27647.73
720.96	27629.43
721.303	27605.02
721.646	27635.98
721.989	27397.12
722.331	27481.41
722.674	27377.46
723.016	27435.99
723.359	27393.73
723.701	27410.68
724.044	27155.09
724.386	27190.34
724.729	27131.59
725.071	27023.8
725.413	27116
725.755	26998.49
726.097	26998.26
726.439	26765.95
726.782	26843.91
727.124	26824.25
727.465	26745.61
727.807	26747.19
728.149	26643.69
728.491	26597.59
728.833	26635.1
729.175	26563.69
729.516	26621.55
729.858	26495.22
730.199	26553.3
730.541	26379.29
730.882	26339.52
731.224	26459.06
731.565	26217.26
731.906	26309.69
732.248	26351.5
732.589	26284.61
732.93	26120.09
733.271	26147.66
733.612	26130.94
733.953	26090.26
734.294	25992.86
734.635	25865.41
734.976	26023.6
735.317	25951.28
735.658	25844.84
735.999	25926.65
736.339	25806.65
736.68	25797.61
737.021	25670.16
737.361	25674.45
737.702	25723.94
738.042	25593.32
738.383	25579.54
738.723	25506.77
739.063	25418.64
739.404	25486.21
739.744	25403.95
740.084	25370.51
740.424	25475.59
740.764	25267.01
741.104	25432.42
741.444	25165.76
741.784	25070.17
742.124	25260
742.464	25233.33
742.804	25032.44
743.143	25052.1
743.483	25032.66
743.823	25007.12
744.162	25015.94
744.502	24959.89
744.841	24885.77
745.181	24915.83
745.52	24735.49
745.86	24843.97
746.199	24742.95
746.538	24700.92
746.877	24659.79
747.216	24764.65
747.556	24718.54
747.895	24701.37
748.234	24678.55
748.573	24529.4
748.911	24472.68
749.25	24416.63
749.589	24219.12
749.928	24356.97
750.267	24390.87
750.605	24294.83
750.944	24145.68
751.283	24168.73
751.621	24289.86
751.96	24019.58
752.298	24005.34
752.636	24128.28
752.975	23832.24
753.313	23881.96
753.651	24070.88
753.989	23786.14
754.327	23696.2
754.666	23750.66
755.004	23697.78
755.342	23667.5
755.679	23663.66
756.017	23525.36
756.355	23409.43
756.693	23372.59
757.031	23461.18
757.368	23301.41
