Data from hue_120_FLMS001491_00025.txt Node
Date: Tue Feb 07 16:59:08 GMT 2017
User: dcchb
Spectrometer: FLMS00149
Trigger mode: 0
Integration Time (sec): 2.000000E-2
Scans to average: 10
Electric dark correction enabled: true
Nonlinearity correction enabled: false
Boxcar width: 0
XAxis mode: Wavelengths
Number of Pixels in Spectrum: 2048
>>>>>Begin Spectral Data<<<<<
341.393	-5.58
341.776	-5.58
342.16	-5.58
342.543	-72.47
342.927	-54.62
343.31	-51.91
343.693	-69.98
344.077	-44.67
344.46	-64.33
344.843	-44.22
345.226	-64.56
345.61	-26.37
345.993	-43.77
346.376	-3.09
346.759	-5.35
347.142	44.82
347.525	43.91
347.908	66.96
348.291	65.38
348.674	94.76
349.057	102.44
349.44	120.07
349.823	141.31
350.206	169.78
350.588	216.34
350.971	191.93
351.354	226.28
351.737	214.75
352.119	251.36
352.502	250.23
352.884	273.96
353.267	272.83
353.65	294.98
354.032	304.47
354.414	300.85
354.797	309.44
355.179	307.86
355.562	305.37
355.944	313.96
356.326	316.22
356.709	334.53
357.091	323.68
357.473	347.18
357.855	359.16
358.238	341.08
358.62	329.33
359.002	341.53
359.384	364.13
359.766	337.01
360.148	346.28
360.53	351.25
360.912	332.04
361.294	346.5
361.676	315.99
362.057	320.74
362.439	318.25
362.821	312.6
363.203	319.84
363.584	311.47
363.966	337.01
364.348	338.37
364.729	339.04
365.111	319.16
365.493	304.7
365.874	308.76
366.256	303.79
366.637	322.77
367.019	324.13
367.4	297.24
367.781	324.81
368.163	332.94
368.544	305.6
368.925	303.34
369.306	325.26
369.688	318.71
370.069	312.6
370.45	293.62
370.831	304.24
371.212	315.54
371.593	320.29
371.974	313.06
372.355	312.15
372.736	316.67
373.117	312.6
373.498	314.64
373.879	323.68
374.26	330.68
374.641	324.81
375.021	305.83
375.402	318.03
375.783	320.51
376.163	312.38
376.544	331.36
376.925	343.11
377.305	329.55
377.686	334.75
378.066	312.15
378.447	344.92
378.827	338.37
379.208	330.23
379.588	341.3
379.968	327.97
380.349	328.65
380.729	334.98
381.109	319.84
381.489	326.62
381.87	321.87
382.25	340.4
382.63	335.66
383.01	343.56
383.39	327.29
383.77	340.63
384.15	333.62
384.53	347.63
384.91	360.74
385.29	356.9
385.67	365.03
386.049	340.4
386.429	358.93
386.809	344.24
387.189	362.77
387.568	360.51
387.948	367.74
388.328	365.48
388.707	370.23
389.087	371.36
389.466	362.77
389.846	351.7
390.225	371.36
390.605	363
390.984	351.47
391.363	379.5
391.743	359.16
392.122	358.71
392.501	383.11
392.881	378.59
393.26	363.45
393.639	387.41
394.018	380.17
394.397	391.7
394.776	377.01
395.155	397.57
395.534	374.3
395.913	383.34
396.292	386.73
396.671	412.94
397.05	403.22
397.429	396.67
397.808	397.12
398.186	404.81
398.565	383.11
398.944	391.02
399.323	395.09
399.701	418.36
400.08	400.51
400.458	419.72
400.837	410.68
401.215	426.5
401.594	391.92
401.972	408.2
402.351	431.7
402.729	419.95
403.107	425.6
403.486	407.29
403.864	427.63
404.242	422.88
404.62	422.88
404.999	439.38
405.377	433.28
405.755	456.78
406.133	410.68
406.511	441.64
406.889	435.54
407.267	456.1
407.645	442.09
408.023	450.91
408.401	456.78
408.779	457.91
409.156	465.82
409.534	440.74
409.912	467.4
410.29	460.62
410.667	473.28
411.045	462.66
411.422	460.62
411.8	468.98
412.178	492.94
412.555	454.07
412.933	483.22
413.31	479.83
413.687	476.22
414.065	504.24
414.442	503.56
414.819	501.3
415.197	500.62
415.574	490.91
415.951	511.47
416.328	511.92
416.705	533.39
417.082	535.42
417.46	510.57
417.837	512.15
418.214	536.78
418.591	517.57
418.967	516.89
419.344	538.36
419.721	562.09
420.098	550.11
420.475	545.82
420.852	553.73
421.228	547.4
421.605	538.59
421.982	553.5
422.358	549.21
422.735	547.85
423.111	565.93
423.488	574.74
423.864	583.78
424.241	578.59
424.617	583.78
424.994	622.2
425.37	595.54
425.746	601.86
426.123	600.51
426.499	582.88
426.875	599.83
427.251	603.9
427.627	610.68
428.003	648.64
428.379	628.3
428.756	643.67
429.132	654.06
429.507	625.36
429.883	654.74
430.259	669.88
430.635	674.63
431.011	663.1
431.387	656.78
431.763	697.45
432.138	659.94
432.514	680.96
432.89	699.94
433.265	682.76
433.641	710.56
434.016	736.55
434.392	704.91
434.767	729.32
435.143	736.32
435.518	712.37
435.894	734.51
436.269	778.58
436.644	760.5
437.02	746.49
437.395	746.04
437.77	771.58
438.145	776.55
438.52	792.59
438.895	787.17
439.271	792.82
439.646	812.03
440.021	804.57
440.395	802.99
440.77	817.22
441.145	813.16
441.52	826.26
441.895	833.5
442.27	841.4
442.645	818.35
443.019	846.15
443.394	856.09
443.769	863.32
444.143	858.81
444.518	872.36
444.892	872.82
445.267	898.13
445.641	882.08
446.016	876.88
446.39	918.46
446.764	895.64
447.139	920.72
447.513	904.68
447.887	911.46
448.262	916.66
448.636	928.86
449.01	934.28
449.384	922.76
449.758	946.49
450.132	954.4
450.506	943.77
450.88	972.25
451.254	981.06
451.628	979.03
452.002	979.03
452.376	1003.21
452.75	1011.8
453.123	1041.17
453.497	1045.69
453.871	1025.13
454.244	1069.2
454.618	1062.87
454.992	1085.01
455.365	1076.88
455.739	1112.36
456.112	1115.3
456.486	1119.36
456.859	1143.54
457.232	1130.44
457.606	1179.7
457.979	1174.5
458.352	1165.69
458.725	1191.9
459.099	1205.69
459.472	1244.11
459.845	1231.9
460.218	1266.25
460.591	1278
460.964	1279.58
461.337	1313.93
461.71	1327.27
462.083	1352.35
462.456	1372.92
462.829	1375.18
463.201	1376.31
463.574	1394.61
463.947	1397.1
464.32	1425.8
464.692	1457.43
465.065	1477.32
465.438	1501.95
465.81	1525.91
466.183	1558.9
466.555	1568.16
466.928	1584.89
467.3	1582.18
467.672	1623.98
468.045	1677.31
468.417	1671.21
468.789	1695.17
469.161	1732.45
469.534	1761.83
469.906	1800.93
470.278	1823.98
470.65	1853.13
471.022	1860.59
471.394	1934.71
471.766	1943.75
472.138	1980.13
472.51	2031.2
472.882	2076.63
473.253	2108.49
473.625	2169.51
473.997	2186.23
474.369	2253.12
474.74	2277.07
475.112	2336.28
475.484	2378.31
475.855	2446.11
476.227	2484.53
476.598	2587.35
476.97	2644.07
477.341	2675.93
477.713	2762.94
478.084	2832.31
478.455	2930.16
478.827	2965.19
479.198	3055.13
479.569	3110.72
479.94	3217.16
480.311	3284.96
480.682	3385.29
481.053	3527.89
481.424	3576.25
481.795	3691.5
482.166	3802
482.537	3860.08
482.908	3966.29
483.279	4116.8
483.65	4204.93
484.021	4349.11
484.391	4427.75
484.762	4536
485.133	4594.07
485.503	4780.51
485.874	4931.47
486.244	4985.25
486.615	5142.99
486.985	5293.04
487.356	5404
487.726	5540.72
488.097	5746.81
488.467	5801.5
488.837	5948.84
489.207	6103.86
489.578	6265.22
489.948	6405.78
490.318	6507.47
490.688	6685.32
491.058	6755.83
491.428	6946.33
491.798	7140
492.168	7355.13
492.538	7433.32
492.908	7545.63
493.278	7694.56
493.648	7822.69
494.017	7979.75
494.387	8114.66
494.757	8304.71
495.126	8454.76
495.496	8520.98
495.866	8687.98
496.235	8774.76
496.605	8937.24
496.974	9101.98
497.344	9158.93
497.713	9346.94
498.082	9420.16
498.452	9563.43
498.821	9700.15
499.19	9781.96
499.559	9935.4
499.928	9984.21
500.298	10177.66
500.667	10261.04
501.036	10367.26
501.405	10536.97
501.774	10566.12
502.143	10705.33
502.512	10735.16
502.88	10909.16
503.249	10923.85
503.618	11013.79
503.987	11109.61
504.356	11270.51
504.724	11304.86
505.093	11349.6
505.462	11396.16
505.83	11475.93
506.199	11704.4
506.567	11851.28
506.936	11809.03
507.304	11956.37
507.672	12081.33
508.041	12138.06
508.409	12200.88
508.777	12339.18
509.145	12362.68
509.514	12313.19
509.882	12484.49
510.25	12571.27
510.618	12590.93
510.986	12729.45
511.354	12739.62
511.722	12846.74
512.09	12941.2
512.458	12949.11
512.826	12983.46
513.193	12994.76
513.561	13174.19
513.929	13164.47
514.297	13229.33
514.664	13340.06
515.032	13408.31
515.4	13479.04
515.767	13413.28
516.135	13555.19
516.502	13408.76
516.869	13668.86
517.237	13678.58
517.604	13662.08
517.972	13704.12
518.339	13737.56
518.706	13772.36
519.073	13781.63
519.44	13915.18
519.808	13954.73
520.175	13896.65
520.542	14070.66
520.909	14042.19
521.276	14105.46
521.643	14169.87
522.009	14226.14
522.376	14109.3
522.743	14320.37
523.11	14299.36
523.477	14442.63
523.843	14494.38
524.21	14502.06
524.577	14528.95
524.943	14590.42
525.31	14551.33
525.676	14625.22
526.043	14733.47
526.409	14683.98
526.776	14784.54
527.142	14759
527.508	14798.1
527.874	14912.67
528.241	14888.27
528.607	14841.49
528.973	14989.06
529.339	14933.69
529.705	14975.95
530.071	15069.28
530.437	14966.46
530.803	15060.69
531.169	15008.72
531.535	14958.32
531.901	14968.04
532.267	14980.02
532.632	15003.29
532.998	15034.25
533.364	15011.43
533.73	14982.95
534.095	15072.22
534.461	14973.69
534.826	15021.14
535.192	14947.93
535.557	15028.38
535.923	15010.75
536.288	14971.65
536.653	14961.71
537.019	14924.2
537.384	14887.36
537.749	14907.25
538.114	14915.38
538.479	14768.04
538.845	14816.4
539.21	14823.41
539.575	14746.58
539.94	14780.47
540.305	14806.46
540.67	14683.98
541.034	14640.14
541.399	14620.7
541.764	14641.27
542.129	14567.15
542.494	14532.57
542.858	14575.51
543.223	14531.44
543.587	14499.35
543.952	14441.95
544.316	14399.69
544.681	14344.55
545.045	14361.27
545.41	14344.1
545.774	14254.61
546.138	14260.03
546.503	14231.33
546.867	14157.21
547.231	14210.77
547.595	14243.31
547.959	14129.42
548.324	14077.44
548.688	13983.88
549.052	14068.4
549.416	14046.93
549.779	13988.86
550.143	13891.23
550.507	14004.45
550.871	13878.58
551.235	13856.66
551.599	13908.41
551.962	13825.7
552.326	13828.41
552.689	13740.27
553.053	13727.17
553.417	13707.51
553.78	13775.3
554.143	13727.85
554.507	13742.08
554.87	13672.93
555.234	13786.15
555.597	13539.6
555.96	13673.84
556.323	13650.56
556.686	13570.56
557.05	13647.4
557.413	13651.69
557.776	13557.91
558.139	13649.2
558.502	13524.91
558.865	13539.38
559.228	13563.56
559.59	13541.86
559.953	13523.56
560.316	13712.7
560.679	13658.69
561.041	13609.88
561.404	13683.33
561.767	13689.65
562.129	13564.01
562.492	13698.69
562.854	13646.72
563.217	13629.77
563.579	13609.43
563.941	13599.49
564.304	13698.92
564.666	13750.67
565.028	13628.19
565.39	13741.18
565.753	13766.26
566.115	13813.27
566.477	13752.93
566.839	13705.7
567.201	13835.19
567.563	13757.9
567.925	13909.99
568.287	13812.36
568.648	13862.76
569.01	13896.88
569.372	13933.94
569.734	13865.92
570.095	13929.2
570.457	13988.18
570.819	13873.83
571.18	13851.01
571.542	14032.24
571.903	13951.34
572.265	13905.02
572.626	14112.69
572.987	14013.26
573.349	14032.7
573.71	13982.53
574.071	14037.22
574.432	14017.56
574.794	14088.06
575.155	14044.9
575.516	14033.37
575.877	14117.89
576.238	14109.08
576.599	14128.74
576.96	14258
577.32	14131.9
577.681	14128.29
578.042	14189.08
578.403	14169.87
578.763	14116.31
579.124	14129.64
579.485	14228.4
579.845	14138
580.206	14164.67
580.566	14185.69
580.927	14184.78
581.287	14169.64
581.648	14235.85
582.008	14262.07
582.368	14175.52
582.728	14207.15
583.089	14168.51
583.449	14181.17
583.809	14114.28
584.169	14171.68
584.529	14071.34
584.889	14177.1
585.249	14058.01
585.609	14060.49
585.969	14064.33
586.329	14065.46
586.688	14033.15
587.048	14072.92
587.408	14048.06
587.768	14000.38
588.127	14017.78
588.487	14005.13
588.846	14104.11
589.206	13983.66
589.565	13981.85
589.925	14028.85
590.284	14016.65
590.643	14038.57
591.003	13992.7
591.362	14060.27
591.721	13981.62
592.08	13961.96
592.44	13955.64
592.799	13940.27
593.158	13903.43
593.517	13818.69
593.876	13891.68
594.235	13913.83
594.593	13893.49
594.952	13935.75
595.311	13817.56
595.67	13831.57
596.029	13928.97
596.387	13881.97
596.746	13851.01
597.104	13822.08
597.463	13793.61
597.822	13862.3
598.18	13849.88
598.538	13865.02
598.897	13924.9
599.255	13775.08
599.613	13973.71
599.972	13882.87
600.33	13934.62
600.688	13888.52
601.046	13880.84
601.404	13878.8
601.762	13892.59
602.12	13961.96
602.478	13931.91
602.836	13929.2
603.194	13904.56
603.552	13786.15
603.91	13770.33
604.268	13805.36
604.625	13845.81
604.983	13852.36
605.341	13869.54
605.698	13859.37
606.056	13885.81
606.413	13822.31
606.771	13909.31
607.128	13953.15
607.485	13876.77
607.843	13850.33
608.2	13973.71
608.557	14001.96
608.914	13994.73
609.272	14011.91
609.629	13929.42
609.986	13977.1
610.343	14002.87
610.7	14045.58
611.057	13985.01
611.414	14009.19
611.771	13983.88
612.127	14084.67
612.484	14072.24
612.841	14045.8
613.198	14044.22
613.554	14040.15
613.911	14163.99
614.267	14040.38
614.624	14156.99
614.98	14086.25
615.337	14169.64
615.693	14140.26
616.05	14139.81
616.406	14228.17
616.762	14114.05
617.118	14167.83
617.475	14172.35
617.831	14272.01
618.187	14240.37
618.543	14241.28
618.899	14289.86
619.255	14277.89
619.611	14231.11
619.967	14267.27
620.323	14386.58
620.678	14214.16
621.034	14245.12
621.39	14276.53
621.746	14224.78
622.101	14340.94
622.457	14201.28
622.812	14384.1
623.168	14298.68
623.523	14286.93
623.879	14308.85
624.234	14203.99
624.589	14276.53
624.945	14418
625.3	14308.85
625.655	14260.94
626.01	14307.94
626.365	14277.21
626.72	14309.75
627.075	14381.84
627.43	14279.47
627.785	14274.72
628.14	14283.99
628.495	14250.54
628.85	14271.56
629.205	14188.62
629.559	14273.59
629.914	14243.99
630.269	14136.65
630.623	14124.9
630.978	14074.73
631.332	14173.71
631.687	14236.08
632.041	14161.96
632.396	14173.03
632.75	14122.64
633.104	14069.98
633.459	14053.94
633.813	14037.22
634.167	13979.14
634.521	14073.15
634.875	14052.58
635.229	14008.97
635.583	13937.33
635.937	13975.3
636.291	13957.44
636.645	13931.68
636.999	13866.15
637.352	14019.81
637.706	13814.17
638.06	13922.19
638.413	13865.24
638.767	13881.74
639.121	13835.87
639.474	13838.12
639.828	13779.82
640.181	13818.46
640.534	13816.43
640.888	13757
641.241	13716.32
641.594	13787.5
641.947	13774.85
642.301	13664.34
642.654	13725.59
643.007	13702.54
643.36	13710.9
643.713	13743.66
644.066	13718.35
644.419	13608.75
644.771	13597.45
645.124	13439.94
645.477	13404.24
645.83	13316.56
646.182	13278.59
646.535	13275.65
646.888	13252.83
647.24	13173.28
647.593	13262.09
647.945	13207.41
648.298	13143.45
648.65	13103
649.002	13069.33
649.355	13243.79
649.707	13212.38
650.059	13263.22
650.411	13371.7
650.763	13391.58
651.115	13565.59
651.467	13505.03
651.819	13594.52
652.171	13561.97
652.523	13414.86
652.875	13484.24
653.227	13405.82
653.578	13475.87
653.93	13483.33
654.282	13463.67
654.633	13376.22
654.985	13448.08
655.337	13407.85
655.688	13548.64
656.039	13424.12
656.391	13439.49
656.742	13456.44
657.094	13379.83
657.445	13444.01
657.796	13464.8
658.147	13524.46
658.498	13380.51
658.849	13486.04
659.2	13481.07
659.551	13431.36
659.902	13495.53
660.253	13450.56
660.604	13491.47
660.955	13454.18
661.306	13516.33
661.656	13481.52
662.007	13524.01
662.358	13517.91
662.708	13602.2
663.059	13515.2
663.409	13465.03
663.76	13543.9
664.11	13524.46
664.461	13574.18
664.811	13606.27
665.161	13570.56
665.511	13594.29
665.862	13559.71
666.212	13577.11
666.562	13637.45
666.912	13627.51
667.262	13457.34
667.612	13603.1
667.962	13535.53
668.312	13567.85
668.662	13556.32
669.011	13512.48
669.361	13491.47
669.711	13555.42
670.06	13518.36
670.41	13530.79
670.76	13487.63
671.109	13510
671.459	13471.58
671.808	13442.88
672.157	13512.48
672.507	13384.35
672.856	13419.6
673.205	13437.46
673.554	13406.95
673.904	13372.37
674.253	13531.47
674.602	13467.51
674.951	13228.88
675.3	13192.72
675.649	13358.82
675.998	13465.93
676.346	13397.68
676.695	13387.97
677.044	13248.31
677.393	13362.66
677.741	13367.18
678.09	13260.96
678.438	13327.86
678.787	13338.93
679.135	13255.54
679.484	13194.53
679.832	13195.2
680.181	13012.38
680.529	13174.41
680.877	13178.71
681.225	13104.13
681.573	13183
681.922	13064.36
682.27	13028.65
682.618	13046.06
682.966	12955.21
683.314	12918.6
683.661	12953.4
684.009	12841.31
684.357	12852.61
684.705	12796.12
685.053	12813.74
685.4	12890.81
685.748	12771.49
686.095	12783.69
686.443	12719.28
686.79	12740.75
687.138	12705.05
687.485	12663.01
687.832	12697.82
688.18	12699.4
688.527	12488.78
688.874	12474.54
689.221	12444.72
689.568	12515.67
689.915	12449.23
690.262	12468.67
690.609	12366.75
690.956	12303.48
691.303	12300.54
691.65	12277.94
691.997	12210.6
692.344	12138.73
692.69	12051.51
693.037	12106.87
693.383	12009.7
693.73	11981.68
694.077	11935.58
694.423	11958.4
694.769	11916.82
695.116	11814.9
695.462	11771.29
695.808	11725.41
696.155	11799.53
696.501	11683.61
696.847	11691.97
697.193	11603.83
697.539	11636.15
697.885	11553.89
698.231	11529.71
698.577	11504.4
698.923	11464.85
699.269	11388.25
699.614	11344.86
699.96	11305.76
700.306	11297.63
700.651	11243.62
700.997	11128.37
701.342	11086.78
701.688	11123.62
702.033	11060.12
702.379	11016.73
702.724	10996.62
703.069	11102.83
703.415	10914.13
703.76	10846.57
704.105	10870.07
704.45	10823.51
704.795	10751.65
705.14	10677.08
705.485	10749.62
705.83	10650.86
706.175	10741.48
706.52	10614.71
706.865	10622.39
707.209	10514.37
707.554	10498.1
707.899	10531.32
708.243	10500.81
708.588	10534.93
708.932	10360.93
709.277	10298.1
709.621	10394.15
709.966	10322.29
710.31	10257.2
710.654	10237.54
710.998	10347.14
711.342	10357.09
711.687	10268.95
712.031	10188.73
712.375	10123.87
712.719	10133.36
713.063	10093.82
713.407	10174.94
713.75	10087.49
714.094	10061.73
714.438	10070.09
714.782	10044.55
715.125	9949.87
715.469	9973.59
715.812	9957.1
716.156	9847.95
716.499	9928.62
716.843	9932.01
717.186	9866.48
717.53	9875.52
717.873	9892.24
718.216	9855.63
718.559	9783.09
718.902	9735.18
719.246	9774.28
719.589	9772.02
719.932	9663.32
720.275	9745.58
720.617	9680.04
720.96	9664.22
721.303	9680.72
721.646	9680.49
721.989	9603.21
722.331	9634.39
722.674	9682.08
723.016	9653.6
723.359	9645.01
723.701	9660.38
724.044	9610.21
724.386	9484.57
724.729	9581.51
725.071	9563.21
725.413	9655.64
725.755	9631.68
726.097	9506.71
726.439	9406.83
726.782	9527.73
727.124	9490.89
727.465	9548.97
727.807	9543.77
728.149	9493.61
728.491	9491.12
728.833	9506.26
729.175	9456.77
729.516	9470.33
729.858	9426.72
730.199	9479.6
730.541	9449.31
730.882	9455.19
731.224	9423.78
731.565	9476.21
731.906	9510.56
732.248	9403.67
732.589	9366.83
732.93	9401.41
733.271	9487.5
733.612	9446.83
733.953	9457
734.294	9431.46
734.635	9397.56
734.976	9406.38
735.317	9362.99
735.658	9371.35
735.999	9427.39
736.339	9427.39
736.68	9466.49
737.021	9385.36
737.361	9419.71
737.702	9499.48
738.042	9468.75
738.383	9416.55
738.723	9442.08
739.063	9419.48
739.404	9478.69
739.744	9472.36
740.084	9417
740.424	9495.87
740.764	9396.89
741.104	9484.34
741.444	9520.05
741.784	9496.54
742.124	9515.07
742.464	9545.81
742.804	9476.43
743.143	9591
743.483	9509.88
743.823	9630.55
744.162	9598.01
744.502	9661.51
744.841	9622.64
745.181	9683.66
745.52	9742.19
745.86	9784.9
746.199	9849.53
746.538	9859.92
746.877	9892.69
747.216	10016.3
747.556	10037.32
747.895	10058.34
748.234	10079.58
748.573	10182.18
748.911	10154.38
749.25	10236.19
749.589	10262.17
749.928	10355.28
750.267	10425.11
750.605	10528.83
750.944	10566.57
751.283	10668.04
751.621	10731.09
751.96	10826
752.298	10908.26
752.636	11002.72
752.975	11137.4
753.313	11155.71
753.651	11294.01
753.989	11389.6
754.327	11552.76
754.666	11567.9
755.004	11736.71
755.342	11857.39
755.679	11989.59
756.017	12096.93
756.355	12319.29
756.693	12401.55
757.031	12636.35
757.368	12660.98
757.706	12819.85
758.044	13008.32
758.381	13194.3
758.719	13291.47
