Data from hue_230_FLMS001491_00058.txt Node
Date: Tue Feb 07 16:37:27 GMT 2017
User: dcchb
Spectrometer: FLMS00149
Trigger mode: 0
Integration Time (sec): 2.000000E-2
Scans to average: 10
Electric dark correction enabled: true
Nonlinearity correction enabled: false
Boxcar width: 0
XAxis mode: Wavelengths
Number of Pixels in Spectrum: 2048
>>>>>Begin Spectral Data<<<<<
341.393	-8.26
341.776	-8.26
342.16	-8.26
342.543	-59.33
342.927	-49.62
343.31	-78.32
343.693	-49.84
344.077	-63.18
344.46	-61.59
344.843	-23.18
345.226	-55.49
345.61	-44.65
345.993	-14.82
346.376	2.36
346.759	-1.48
347.142	22.47
347.525	37.39
347.908	65.18
348.291	74.9
348.674	88.01
349.057	102.24
349.44	121.45
349.823	149.7
350.206	179.08
350.588	191.05
350.971	209.36
351.354	223.6
351.737	252.52
352.119	247.78
352.502	269.47
352.884	272.18
353.267	281.67
353.65	292.97
354.032	281.45
354.414	316.25
354.797	303.37
355.179	319.86
355.562	312.63
355.944	324.38
356.326	320.77
356.709	323.71
357.091	330.94
357.473	333.65
357.855	332.75
358.238	318.06
358.62	330.49
359.002	324.61
359.384	329.58
359.766	331.62
360.148	337.27
360.53	323.71
360.912	360.99
361.294	352.86
361.676	334.55
362.057	336.36
362.439	328
362.821	326.64
363.203	309.24
363.584	322.35
363.966	313.31
364.348	308.57
364.729	311.5
365.111	315.34
365.493	305.85
365.874	342.91
366.256	296.59
366.637	313.54
367.019	302.46
367.4	307.89
367.781	316.25
368.163	313.54
368.544	307.44
368.925	314.21
369.306	292.52
369.688	330.26
370.069	318.28
370.45	299.07
370.831	309.7
371.212	310.37
371.593	304.72
371.974	316.25
372.355	294.55
372.736	326.19
373.117	292.97
373.498	322.58
373.879	300.2
374.26	312.63
374.641	318.51
375.021	290.71
375.402	329.81
375.783	306.98
376.163	330.49
376.544	309.92
376.925	321.45
377.305	312.18
377.686	321.22
378.066	322.58
378.447	320.99
378.827	343.82
379.208	323.48
379.588	326.64
379.968	344.27
380.349	333.88
380.729	303.82
381.109	330.26
381.489	341.11
381.87	336.81
382.25	328.9
382.63	332.52
383.01	335.01
383.39	331.39
383.77	337.72
384.15	332.97
384.53	336.36
384.91	335.46
385.29	311.5
385.67	324.84
386.049	358.51
386.429	338.85
386.809	351.95
387.189	345.85
387.568	316.47
387.948	335.68
388.328	338.62
388.707	346.76
389.087	360.09
389.466	339.52
389.846	356.25
390.225	364.84
390.605	369.81
390.984	349.02
391.363	338.17
391.743	365.06
392.122	341.56
392.501	376.36
392.881	361.67
393.26	373.42
393.639	368.22
394.018	376.81
394.397	384.27
394.776	376.36
395.155	364.38
395.534	373.87
395.913	359.64
396.292	391.5
396.671	389.24
397.05	383.82
397.429	386.53
397.808	366.64
398.186	398.28
398.565	379.52
398.944	377.04
399.323	405.51
399.701	389.24
400.08	380.43
400.458	384.95
400.837	371.84
401.215	413.42
401.594	398.96
401.972	411.39
402.351	425.62
402.729	406.42
403.107	425.4
403.486	404.83
403.864	420.88
404.242	415.91
404.62	428.11
404.999	429.92
405.377	442.35
405.755	440.77
406.133	450.26
406.511	435.79
406.889	434.21
407.267	454.32
407.645	462.01
408.023	464.04
408.401	451.84
408.779	456.36
409.156	475.34
409.534	485.96
409.912	475.11
410.29	484.38
410.667	516.24
411.045	517.37
411.422	520.76
411.8	530.71
412.178	531.61
412.555	528.9
412.933	527.32
413.31	535.23
413.687	555.34
414.065	542.46
414.442	576.81
414.819	565.73
415.197	572.97
415.574	588.56
415.951	565.96
416.328	601.21
416.705	587.43
417.082	615.45
417.46	604.83
417.837	607.31
418.214	633.53
418.591	599.41
418.967	616.58
419.344	654.77
419.721	657.48
420.098	671.72
420.475	671.04
420.852	666.75
421.228	704.49
421.605	707.42
421.982	697.26
422.358	718.05
422.735	739.06
423.111	719.63
423.488	762.34
423.864	732.28
424.241	765.95
424.617	781.32
424.994	770.93
425.37	796.24
425.746	783.81
426.123	808.67
426.499	806.41
426.875	834.88
427.251	843.69
427.627	850.7
428.003	874.43
428.379	878.27
428.756	884.6
429.132	872.62
429.507	907.42
429.883	908.32
430.259	885.73
430.635	942.45
431.011	927.53
431.387	951.26
431.763	983.58
432.138	960.98
432.514	964.82
432.89	1018.38
433.265	1016.8
433.641	1050.47
434.016	1042.11
434.392	1082.78
434.767	1097.25
435.143	1061.31
435.518	1115.32
435.894	1133.18
436.269	1132.5
436.644	1176.34
437.02	1153.97
437.395	1150.8
437.77	1192.61
438.145	1241.87
438.52	1232.16
438.895	1233.29
439.271	1279.84
439.646	1255.66
440.021	1312.15
440.395	1309.89
440.77	1306.28
441.145	1361.87
441.52	1357.13
441.895	1335.88
442.27	1350.8
442.645	1364.58
443.019	1397.8
443.394	1395.99
443.769	1427.41
444.143	1434.86
444.518	1450.68
444.892	1468.53
445.267	1477.57
445.641	1507.63
446.016	1501.08
446.39	1501.75
446.764	1520.06
447.139	1544.92
447.513	1544.01
447.887	1540.4
448.262	1553.73
448.636	1542.43
449.01	1583.33
449.384	1600.06
449.758	1600.73
450.132	1622.43
450.506	1647.74
450.88	1639.6
451.254	1628.08
451.628	1637.57
452.002	1667.85
452.376	1679.15
452.75	1665.59
453.123	1704.46
453.497	1741.75
453.871	1753.27
454.244	1757.34
454.618	1812.71
454.992	1807.28
455.365	1803.89
455.739	1855.19
456.112	1877.11
456.486	1853.84
456.859	1906.72
457.232	1920.95
457.606	1937
457.979	1948.07
458.352	1982.19
458.725	2025.13
459.099	2054.73
459.472	2047.73
459.845	2076.2
460.218	2073.49
460.591	2119.37
460.964	2089.99
461.337	2147.39
461.71	2193.26
462.083	2208.4
462.456	2206.14
462.829	2218.35
463.201	2271.45
463.574	2275.29
463.947	2310.55
464.32	2323.88
464.692	2346.48
465.065	2359.81
465.438	2405.01
465.81	2426.25
466.183	2491.11
466.555	2473.93
466.928	2523.87
467.3	2501.73
467.672	2590.31
468.045	2598
468.417	2638
468.789	2636.19
469.161	2690.88
469.534	2712.57
469.906	2767.71
470.278	2796.86
470.65	2801.38
471.022	2837.31
471.394	2889.29
471.766	2948.72
472.138	2958.21
472.51	3002.96
472.882	3005.44
473.253	3047.7
473.625	3044.76
473.997	3134.71
474.369	3166.8
474.74	3216.51
475.112	3247.47
475.484	3298.32
475.855	3334.93
476.227	3375.38
476.598	3450.18
476.97	3471.42
477.341	3515.26
477.713	3576.05
478.084	3586.45
478.455	3699.21
478.827	3734.46
479.198	3802.03
479.569	3791.86
479.94	3904.18
480.311	3933.78
480.682	4010.61
481.053	4078.86
481.424	4091.74
481.795	4160.22
482.166	4191.18
482.537	4251.96
482.908	4328.57
483.279	4365.86
483.65	4450.15
484.021	4505.29
484.391	4563.59
484.762	4637.27
485.133	4662.12
485.503	4678.17
485.874	4740.09
486.244	4773.08
486.615	4853.3
486.985	4863.47
487.356	4984.83
487.726	5068.44
488.097	5122.45
488.467	5111.15
488.837	5256.46
489.207	5301.43
489.578	5298.72
489.948	5355.89
490.318	5409.45
490.688	5475.44
491.058	5522.89
491.428	5571.7
491.798	5664.81
492.168	5707.97
492.538	5744.35
492.908	5822.32
493.278	5803.34
493.648	5859.61
494.017	5892.6
494.387	5945.93
494.757	5924.24
495.126	6022.09
495.496	6009.21
495.866	6117
496.235	6119.71
496.605	6196.32
496.974	6222.31
497.344	6284.23
497.713	6290.55
498.082	6322.19
498.452	6350.67
498.821	6387.28
499.19	6378.01
499.559	6457.33
499.928	6466.82
500.298	6519.48
500.667	6510.66
501.036	6531.68
501.405	6601.96
501.774	6560.38
502.143	6613.48
502.512	6624.33
502.88	6692.35
503.249	6734.61
503.618	6774.61
503.987	6739.13
504.356	6774.61
504.724	6766.02
505.093	6810.77
505.462	6814.38
505.83	6860.26
506.199	6872.23
506.567	6930.99
506.936	6993.36
507.304	6949.29
507.672	7023.19
508.041	7003.3
508.409	7076.97
508.777	7135.73
509.145	7125.11
509.514	7097.09
509.882	7174.6
510.25	7177.31
510.618	7157.2
510.986	7182.73
511.354	7201.27
511.722	7250.3
512.09	7302.28
512.458	7290.98
512.826	7327.36
513.193	7355.16
513.561	7345.44
513.929	7409.85
514.297	7439.9
514.664	7468.83
515.032	7467.25
515.4	7435.61
515.767	7420.92
516.135	7506.79
516.502	7456.85
516.869	7482.39
517.237	7573.91
517.604	7502.95
517.972	7574.59
518.339	7554.93
518.706	7603.97
519.073	7552.44
519.44	7612.1
519.808	7658.65
520.175	7628.15
520.542	7632.21
520.909	7691.42
521.276	7655.49
521.643	7815.26
522.009	7726.68
522.376	7743.85
522.743	7795.6
523.11	7779.33
523.477	7837.86
523.843	7879.67
524.21	7937.74
524.577	7945.65
524.943	7881.93
525.31	7953.56
525.676	7963.73
526.043	7943.84
526.409	7964.64
526.776	8071.53
527.142	8021.13
527.508	7996.05
527.874	8017.97
528.241	8048.47
528.607	8034.92
528.973	8076.04
529.339	8083.73
529.705	8074.46
530.071	8108.81
530.437	8132.99
530.803	8132.09
531.169	8150.17
531.535	8121.02
531.901	8091.64
532.267	8142.48
532.632	8171.41
532.998	8109.72
533.364	8114.24
533.73	8125.99
534.095	8084.86
534.461	8104.07
534.826	8135.7
535.192	8076.72
535.557	8107.68
535.923	8099.09
536.288	8100.45
536.653	8099.32
537.019	8086.89
537.384	8121.47
537.749	8147
538.114	8022.26
538.479	8067.23
538.845	8045.76
539.21	8072.43
539.575	7975.26
539.94	8071.98
540.305	8061.36
540.67	7998.31
541.034	8008.93
541.399	7969.38
541.764	8016.84
542.129	7955.6
542.494	7995.14
542.858	7955.82
543.223	7933.45
543.587	7977.74
543.952	7865.65
544.316	7915.6
544.681	7897.52
545.045	7905.88
545.41	7948.14
545.774	7830.63
546.138	7782.49
546.503	7866.56
546.867	7784.3
547.231	7865.65
547.595	7848.71
547.959	7789.27
548.324	7802.61
548.688	7741.36
549.052	7815.26
549.416	7829.27
549.779	7737.75
550.143	7688.48
550.507	7704.3
550.871	7778.43
551.235	7740.01
551.599	7695.04
551.962	7706.34
552.326	7724.42
552.689	7720.35
553.053	7684.87
553.417	7667.24
553.78	7764.41
554.143	7670.86
554.507	7661.14
554.87	7679.67
555.234	7720.12
555.597	7634.02
555.96	7676.28
556.323	7622.72
556.686	7691.42
557.05	7702.72
557.413	7687.13
557.776	7629.28
558.139	7696.85
558.502	7677.86
558.865	7646
559.228	7670.41
559.59	7681.48
559.953	7667.92
560.316	7676.96
560.679	7747.24
561.041	7749.27
561.404	7732.1
561.767	7695.94
562.129	7677.19
562.492	7730.29
562.854	7808.93
563.217	7710.18
563.579	7835.83
563.941	7818.42
564.304	7760.57
564.666	7816.84
565.028	7792.66
565.39	7834.7
565.753	7884.86
566.115	7900.91
566.477	7895.26
566.839	7954.24
567.201	7965.31
567.563	7924.41
567.925	7972.09
568.287	7968.93
568.648	7975.71
569.01	7935.71
569.372	7997.63
569.734	8027.23
570.095	8044.86
570.457	8069.04
570.819	8054.12
571.18	8060
571.542	8041.7
571.903	8065.88
572.265	8125.31
572.626	8053.67
572.987	8188.36
573.349	8214.12
573.71	8115.82
574.071	8174.12
574.432	8195.14
574.794	8288.92
575.155	8268.58
575.516	8226.55
575.877	8232.42
576.238	8280.11
576.599	8299.77
576.96	8311.52
577.32	8346.32
577.681	8302.25
578.042	8356.72
578.403	8356.04
578.763	8333.67
579.124	8353.55
579.485	8499.99
579.845	8494.79
580.206	8446.2
580.566	8455.7
580.927	8444.62
581.287	8515.36
581.648	8468.8
582.008	8542.02
582.368	8515.13
582.728	8582.92
583.089	8569.37
583.449	8560.55
583.809	8535.92
584.169	8558.29
584.529	8561.23
584.889	8717.16
585.249	8601.23
585.609	8639.19
585.969	8629.48
586.329	8677.16
586.688	8709.7
587.048	8651.62
587.408	8692.07
587.768	8638.29
588.127	8653.88
588.487	8668.8
588.846	8770.94
589.206	8687.78
589.565	8747.44
589.925	8770.72
590.284	8801
590.643	8866.53
591.003	8792.41
591.362	8772.07
591.721	8823.82
592.08	8833.54
592.44	8804.16
592.799	8822.47
593.158	8766.87
593.517	8837.61
593.876	8768.68
594.235	8869.02
594.593	8856.36
594.952	8892.07
595.311	8830.15
595.67	8860.88
596.029	8876.7
596.387	8913.08
596.746	8941.56
597.104	8867.21
597.463	8953.99
597.822	8937.49
598.18	8923.93
598.538	8929.36
598.897	8960.32
599.255	8884.84
599.613	8958.73
599.972	8951.73
600.33	8960.77
600.688	8941.78
601.046	8927.55
601.404	8997.38
601.762	8972.52
602.12	9033.99
602.478	9061.33
602.836	9053.42
603.194	8965.29
603.552	8963.93
603.91	8979.3
604.268	9060.88
604.625	8924.38
604.983	9030.82
605.341	9033.76
605.698	9052.52
606.056	9050.03
606.413	9032.4
606.771	9080.76
607.128	9086.19
607.485	8991.95
607.843	9039.41
608.2	9084.15
608.557	9173.42
608.914	9059.52
609.272	9087.77
609.629	9142.91
609.986	9181.55
610.343	9171.16
610.7	9197.6
611.057	9184.04
611.414	9176.13
611.771	9212.96
612.127	9257.03
612.484	9188.78
612.841	9236.92
613.198	9217.48
613.554	9168.9
613.911	9241.21
614.267	9278.5
614.624	9287.31
614.98	9191.27
615.337	9347.42
615.693	9272.85
616.05	9214.09
616.406	9309.46
616.762	9267.43
617.118	9283.02
617.475	9259.74
617.831	9336.8
618.187	9355.56
618.543	9366.18
618.899	9360.53
619.255	9427.2
619.611	9340.42
619.967	9414.77
620.323	9404.6
620.678	9382.45
621.034	9342.45
621.39	9337.71
621.746	9324.83
622.101	9420.87
622.457	9300.19
622.812	9368.67
623.168	9431.04
623.523	9406.86
623.879	9405.28
624.234	9301.55
624.589	9350.36
624.945	9371.38
625.3	9364.37
625.655	9394.88
626.01	9384.94
626.365	9333.86
626.72	9379.51
627.075	9325.73
627.43	9304.26
627.785	9281.66
628.14	9365.28
628.495	9335.9
628.85	9369.34
629.205	9288.44
629.559	9395.33
629.914	9326.63
630.269	9330.93
630.623	9339.51
630.978	9294.54
631.332	9278.95
631.687	9304.71
632.041	9267.43
632.396	9275.79
632.75	9316.01
633.104	9262.23
633.459	9224.49
633.813	9230.59
634.167	9219.52
634.521	9207.99
634.875	9200.31
635.229	9224.04
635.583	9204.15
635.937	9157.15
636.291	9115.79
636.645	9185.39
636.999	9142.91
637.352	9185.62
637.706	9103.81
638.06	9118.96
638.413	9066.3
638.767	9022.69
639.121	9079.63
639.474	9057.94
639.828	9090.03
640.181	9044.38
640.534	9052.06
640.888	9027.88
641.241	8957.83
641.594	9004.16
641.947	8999.41
642.301	9043.25
642.654	8984.72
643.007	8961.22
643.36	9041.9
643.713	8982.24
644.066	9016.58
644.419	8919.86
644.771	8889.13
645.124	8811.39
645.477	8777.95
645.83	8771.39
646.182	8737.04
646.535	8710.6
646.888	8676.48
647.24	8596.71
647.593	8675.13
647.945	8692.3
648.298	8678.29
648.65	8602.13
649.002	8602.13
649.355	8661.11
649.707	8610.49
650.059	8654.79
650.411	8782.24
650.763	8794.22
651.115	8873.09
651.467	8909.02
651.819	8792.41
652.171	8836.02
652.523	8815.23
652.875	8842.8
653.227	8781.34
653.578	8843.48
653.93	8819.53
654.282	8863.14
654.633	8771.85
654.985	8833.54
655.337	8763.94
655.688	8773.2
656.039	8873.76
656.391	8821.34
656.742	8815.01
657.094	8833.76
657.445	8838.06
657.796	8815.46
658.147	8747.44
658.498	8771.62
658.849	8817.49
659.2	8819.98
659.551	8825.18
659.902	8841.9
660.253	8763.48
660.604	8812.75
660.955	8808.45
661.306	8780.21
661.656	8859.75
662.007	8859.53
662.358	8846.65
662.708	8807.1
663.059	8858.85
663.409	8782.24
663.76	8828.34
664.11	8864.5
664.461	8853.88
664.811	8849.36
665.161	8855.01
665.511	8782.24
665.862	8802.58
666.212	8796.7
666.562	8849.36
666.912	8894.1
667.262	8834.89
667.612	8792.64
667.962	8776.82
668.312	8756.7
668.662	8863.14
669.011	8871.73
669.361	8814.78
669.711	8809.36
670.06	8772.3
670.41	8798.74
670.76	8739.08
671.109	8819.08
671.459	8814.78
671.808	8688.91
672.157	8772.98
672.507	8755.8
672.856	8716.71
673.205	8761.22
673.554	8800.55
673.904	8674.22
674.253	8797.38
674.602	8743.15
674.951	8655.46
675.3	8561.91
675.649	8704.73
675.998	8679.64
676.346	8700.44
676.695	8703.15
677.044	8707.44
677.393	8664.28
677.741	8629.48
678.09	8586.77
678.438	8631.06
678.787	8749.93
679.135	8575.01
679.484	8526.88
679.832	8634
680.181	8469.25
680.529	8621.12
680.877	8557.16
681.225	8500.21
681.573	8599.19
681.922	8527.78
682.27	8469.93
682.618	8514
682.966	8471.29
683.314	8486.66
683.661	8415.47
684.009	8369.82
684.357	8388.35
684.705	8363.49
685.053	8381.35
685.4	8325.76
685.748	8309.03
686.095	8307
686.443	8312.42
686.79	8246.66
687.138	8268.58
687.485	8207.11
687.832	8231.75
688.18	8228.81
688.527	8145.42
688.874	8165.53
689.221	8082.82
689.568	8070.85
689.915	8115.14
690.262	8076.5
690.609	8010.28
690.956	7971.41
691.303	7983.17
691.65	7964.41
691.997	7969.38
692.344	7964.64
692.69	7904.75
693.037	7941.36
693.383	7922.83
693.73	7841.47
694.077	7810.29
694.423	7801.93
694.769	7772.55
695.116	7777.07
695.462	7693.46
695.808	7711.53
696.155	7738.43
696.501	7633.12
696.847	7616.62
697.193	7531.2
697.539	7528.26
697.885	7523.52
698.231	7431.77
698.577	7540.24
698.923	7429.73
699.269	7389.96
699.614	7374.14
699.96	7359.45
700.306	7377.53
700.651	7336.4
700.997	7257.08
701.342	7290.3
701.688	7292.56
702.033	7280.13
702.379	7248.04
702.724	7209.17
703.069	7228.38
703.415	7133.02
703.76	7111.55
704.105	7092.57
704.45	7123.98
704.795	7095.28
705.14	7066.13
705.485	6992.91
705.83	6990.2
706.175	7017.09
706.52	6986.36
706.865	6939.8
707.209	6947.03
707.554	6874.72
707.899	6911.33
708.243	6841.73
708.588	6819.58
708.932	6789.52
709.277	6791.33
709.621	6802.63
709.966	6788.39
710.31	6778.45
710.654	6708.4
710.998	6712.46
711.342	6661.62
711.687	6684.44
712.031	6721.73
712.375	6654.84
712.719	6650.55
713.063	6665.69
713.407	6584.11
713.75	6603.99
714.094	6603.54
714.438	6498.23
714.782	6561.28
715.125	6536.88
715.469	6483.09
715.812	6510.66
716.156	6521.06
716.499	6481.96
716.843	6426.37
717.186	6469.76
717.53	6495.52
717.873	6503.2
718.216	6444.9
718.559	6482.19
718.902	6402.42
719.246	6420.72
719.589	6396.54
719.932	6393.6
720.275	6367.39
720.617	6421.62
720.96	6430.89
721.303	6327.62
721.646	6372.13
721.989	6292.81
722.331	6354.06
722.674	6321.06
723.016	6352.25
723.359	6327.16
723.701	6332.14
724.044	6284.91
724.386	6265.02
724.729	6308.41
725.071	6269.31
725.413	6258.47
725.755	6247.17
726.097	6235.64
726.439	6272.02
726.782	6205.81
727.124	6234.74
727.465	6212.59
727.807	6211.46
728.149	6249.65
728.491	6204.91
728.833	6258.01
729.175	6221.63
729.516	6232.48
729.858	6174.63
730.199	6192.48
730.541	6230.67
730.882	6255.08
731.224	6221.18
731.565	6174.4
731.906	6222.08
732.248	6204.46
732.589	6183.21
732.93	6185.02
733.271	6152.93
733.612	6189.09
733.953	6159.94
734.294	6174.17
734.635	6176.66
734.976	6243.78
735.317	6171.46
735.658	6190.22
735.999	6170.33
736.339	6173.95
736.68	6215.98
737.021	6126.04
737.361	6130.33
737.702	6223.89
738.042	6199.26
738.383	6164.91
738.723	6238.8
739.063	6189.09
739.404	6240.84
739.744	6248.52
740.084	6205.36
740.424	6248.07
740.764	6243.55
741.104	6271.12
741.444	6285.81
741.784	6232.7
742.124	6277.67
742.464	6243.78
742.804	6296.43
743.143	6331.23
743.483	6330.55
743.823	6317.9
744.162	6382.3
744.502	6381.85
744.841	6359.03
745.181	6457.56
745.52	6418.01
745.86	6465.69
746.199	6433.83
746.538	6491
746.877	6495.3
747.216	6572.36
747.556	6570.77
747.895	6574.84
748.234	6629.98
748.573	6652.81
748.911	6683.09
749.25	6752.01
749.589	6755.85
749.928	6843.31
750.267	6885.79
750.605	6946.58
750.944	7005.56
751.283	7013.02
751.621	7098.22
751.96	7112
752.298	7179.12
752.636	7260.25
752.975	7284.88
753.313	7350.87
753.651	7483.52
753.989	7545.89
754.327	7613.68
754.666	7700.01
755.004	7771.87
755.342	7900.91
755.679	7916.5
756.017	8008.25
756.355	8128.92
756.693	8215.02
757.031	8363.27
757.368	8379.77
757.706	8474
758.044	8598.74
758.381	8760.09
758.719	8706.54
759.056	8909.02
759.394	8952.86
759.731	9118.28
760.068	9265.62
760.405	9319.85
760.743	9403.24
761.08	9584.03
761.417	9647.53
761.754	9823.8
762.091	9941.98
762.428	9986.73
762.765	10087.29
763.102	10314.4
763.438	10357.79
763.775	10433.04
764.112	10535.19
764.449	10646.82
764.785	10764.56
765.122	10798.01
765.458	10926.82
765.795	10983.99
766.131	11195.06
766.467	11182.86
766.804	11355.51
767.14	11439.8
767.476	11509.4
767.812	11615.16
768.148	11750.98
768.485	11777.64
768.821	11831.2
769.157	11950.75
