Data from hue_110_FLMS001491_00032.txt Node
Date: Tue Feb 07 17:01:13 GMT 2017
User: dcchb
Spectrometer: FLMS00149
Trigger mode: 0
Integration Time (sec): 2.000000E-2
Scans to average: 10
Electric dark correction enabled: true
Nonlinearity correction enabled: false
Boxcar width: 0
XAxis mode: Wavelengths
Number of Pixels in Spectrum: 2048
>>>>>Begin Spectral Data<<<<<
341.393	-1.19
341.776	-1.19
342.16	-1.19
342.543	-61.52
342.927	-54.07
343.31	-51.58
343.693	-92.48
344.077	-57.46
344.46	-88.42
344.843	-54.07
345.226	-19.72
345.61	-14.75
345.993	-20.17
346.376	-0.73
346.759	18.47
347.142	12.82
347.525	32.26
347.908	41.52
348.291	78.36
348.674	98.7
349.057	117.23
349.44	99.15
349.823	144.35
350.206	152.71
350.588	170.33
350.971	204.46
351.354	239.26
351.737	228.19
352.119	227.51
352.502	268.19
352.884	280.39
353.267	277.9
353.65	294.4
354.032	312.7
354.414	287.85
354.797	303.21
355.179	321.97
355.562	308.18
355.944	305.92
356.326	324.45
356.709	345.7
357.091	344.79
357.473	346.83
357.855	328.52
358.238	341.18
358.62	343.66
359.002	349.09
359.384	336.21
359.766	363.1
360.148	328.97
360.53	347.96
360.912	328.97
361.294	345.47
361.676	338.69
362.057	325.36
362.439	312.03
362.821	320.84
363.203	325.13
363.584	330.1
363.966	338.01
364.348	324
364.729	308.86
365.111	319.94
365.493	329.88
365.874	299.37
366.256	307.73
366.637	305.92
367.019	336.21
367.4	316.09
367.781	310.9
368.163	320.84
368.544	325.13
368.925	314.51
369.306	322.87
369.688	304.34
370.069	326.94
370.45	311.8
370.831	325.36
371.212	323.78
371.593	303.89
371.974	314.06
372.355	309.54
372.736	310.67
373.117	328.07
373.498	300.05
373.879	306.83
374.26	314.06
374.641	318.58
375.021	320.84
375.402	326.04
375.783	313.38
376.163	318.13
376.544	335.3
376.925	332.14
377.305	328.07
377.686	326.94
378.066	337.11
378.447	325.58
378.827	315.64
379.208	342.76
379.588	328.97
379.968	337.34
380.349	338.01
380.729	334.17
381.109	342.53
381.489	321.29
381.87	310.44
382.25	323.32
382.63	346.6
383.01	355.64
383.39	353.38
383.77	342.76
384.15	340.5
384.53	352.93
384.91	345.92
385.29	332.36
385.67	350.67
386.049	362.65
386.429	339.82
386.809	362.65
387.189	337.56
387.568	337.79
387.948	364
388.328	373.27
388.707	357.67
389.087	355.41
389.466	359.48
389.846	370.56
390.225	384.79
390.605	377.11
390.984	372.36
391.363	366.04
391.743	389.76
392.122	369.43
392.501	374.85
392.881	375.07
393.26	381.85
393.639	380.95
394.018	377.79
394.397	394.06
394.776	386.6
395.155	384.79
395.534	389.76
395.913	401.06
396.292	395.41
396.671	376.88
397.05	394.06
397.429	394.06
397.808	394.28
398.186	403.32
398.565	386.83
398.944	404.45
399.323	403.55
399.701	411.91
400.08	415.75
400.458	424.57
400.837	404.68
401.215	411.46
401.594	396.09
401.972	406.49
402.351	407.16
402.729	421.18
403.107	401.06
403.486	426.37
403.864	429.08
404.242	438.8
404.62	443.1
404.999	434.96
405.377	426.37
405.755	446.94
406.133	435.86
406.511	444.45
406.889	431.12
407.267	453.04
407.645	430.44
408.023	438.12
408.401	437.45
408.779	450.78
409.156	449.65
409.534	469.76
409.912	455.07
410.29	447.39
410.667	470.21
411.045	480.61
411.422	473.15
411.8	481.96
412.178	486.48
412.555	462.08
412.933	494.39
413.31	492.59
413.687	501.4
414.065	491
414.442	504.79
414.819	502.53
415.197	506.14
415.574	506.6
415.951	522.42
416.328	517.67
416.705	526.71
417.082	509.76
417.46	527.16
417.837	519.03
418.214	545.24
418.591	530.55
418.967	534.62
419.344	549.31
419.721	552.7
420.098	571.23
420.475	561.28
420.852	542.98
421.228	566.03
421.605	563.77
421.982	573.94
422.358	565.58
422.735	573.04
423.111	581.85
423.488	591.79
423.864	557.67
424.241	596.54
424.617	575.97
424.994	572.36
425.37	591.57
425.746	606.93
426.123	631.34
426.499	621.62
426.875	608.52
427.251	603.09
427.627	615.97
428.003	631.34
428.379	648.06
428.756	630.21
429.132	657.78
429.507	658.23
429.883	643.77
430.259	657.33
430.635	668.4
431.011	650.1
431.387	695.74
431.763	674.73
432.138	695.07
432.514	707.04
432.89	682.41
433.265	694.39
433.641	709.98
434.016	721.51
434.392	707.95
434.767	711.56
435.143	740.04
435.518	745.46
435.894	755.4
436.269	754.5
436.644	766.25
437.02	776.19
437.395	772.58
437.77	791.56
438.145	791.79
438.52	775.06
438.895	793.37
439.271	790.88
439.646	807.15
440.021	827.04
440.395	836.31
440.77	826.14
441.145	825.68
441.52	857.55
441.895	836.76
442.27	838.57
442.645	858.68
443.019	862.52
443.394	877.21
443.769	883.54
444.143	876.3
444.518	907.94
444.892	862.29
445.267	913.37
445.641	902.52
446.016	901.61
446.39	898.22
446.764	903.2
447.139	916.08
447.513	925.12
447.887	916.98
448.262	921.28
448.636	919.47
449.01	950.43
449.384	953.59
449.758	983.87
450.132	999.47
450.506	967.38
450.88	975.51
451.254	987.04
451.628	998.11
452.002	1006.47
452.376	1047.37
452.75	1044.44
453.123	1039.92
453.497	1053.93
453.871	1048.05
454.244	1069.75
454.618	1078.11
454.992	1078.56
455.365	1113.59
455.739	1142.74
456.112	1138.22
456.486	1139.12
456.859	1159.91
457.232	1171.44
457.606	1150.42
457.979	1184.77
458.352	1219.12
458.725	1263.87
459.099	1242.62
459.472	1270.19
459.845	1277.65
460.218	1300.02
460.591	1290.98
460.964	1312.23
461.337	1334.15
461.71	1317.65
462.083	1370.3
462.456	1343.19
462.829	1374.14
463.201	1412.56
463.574	1413.69
463.947	1443.07
464.32	1468.83
464.692	1484.42
465.065	1488.72
465.438	1549.96
465.81	1525.78
466.183	1552.45
466.555	1609.62
466.928	1633.35
467.3	1621.14
467.672	1665.89
468.045	1708.6
468.417	1734.14
468.789	1712.44
469.161	1729.39
469.534	1785.43
469.906	1853
470.278	1884.87
470.65	1913.11
471.022	1922.6
471.394	1982.49
471.766	1999.89
472.138	2019.1
472.51	2086.44
472.882	2120.79
473.253	2162.6
473.625	2191.75
473.997	2255.93
474.369	2307.68
474.74	2357.4
475.112	2390.84
475.484	2423.83
475.855	2488.69
476.227	2538.41
476.598	2623.6
476.97	2698.18
477.341	2740.21
477.713	2815.01
478.084	2897.49
478.455	2966.65
478.827	3049.58
479.198	3192.63
479.569	3165.51
479.94	3299.29
480.311	3384.04
480.682	3524.37
481.053	3608.66
481.424	3654.76
481.795	3804.59
482.166	3894.08
482.537	3932.5
482.908	4100.85
483.279	4166.39
483.65	4299.49
484.021	4438.02
484.391	4515.76
484.762	4645.7
485.133	4710.55
485.503	4847.5
485.874	5047.27
486.244	5121.62
486.615	5294.72
486.985	5382.85
487.356	5561.83
487.726	5654.03
488.097	5829.62
488.467	5909.62
488.837	6094.25
489.207	6260.34
489.578	6389.83
489.948	6516.38
490.318	6658.98
490.688	6791.86
491.058	6962.25
491.428	7192.75
491.798	7289.7
492.168	7498.5
492.538	7597.48
492.908	7818.95
493.278	7943.24
493.648	8055.32
494.017	8166.28
494.387	8232.72
494.757	8461.42
495.126	8583.45
495.496	8704.8
495.866	8840.39
496.235	9013.72
496.605	9204
496.974	9317.21
497.344	9435.18
497.713	9512.24
498.082	9718.56
498.452	9819.35
498.821	9904.99
499.19	10027.93
499.559	10165.1
499.928	10222.27
500.298	10369.61
500.667	10533.68
501.036	10515.37
501.405	10753.56
501.774	10744.07
502.143	10892.99
502.512	10971.63
502.88	11171.4
503.249	11130.95
503.618	11250.95
503.987	11324.17
504.356	11502.92
504.724	11663.14
505.093	11604.16
505.462	11794.66
505.83	11820.2
506.199	11887.99
506.567	12086.41
506.936	12080.08
507.304	12244.82
507.672	12353.52
508.041	12297.93
508.409	12504.93
508.777	12588.77
509.145	12712.6
509.514	12751.02
509.882	12775.88
510.25	12851.81
510.618	12903.33
510.986	12989.21
511.354	13080.5
511.722	13057.23
512.09	13271.01
512.458	13238.92
512.826	13347.39
513.193	13418.12
513.561	13428.97
513.929	13575.41
514.297	13608.17
514.664	13712.35
515.032	13719.36
515.4	13854.72
515.767	13881.61
516.135	13872.12
516.502	13756.19
516.869	13995.73
517.237	13986.69
517.604	13948.73
517.972	14145.56
518.339	14107.14
518.706	14128.84
519.073	14180.36
519.44	14215.61
519.808	14358.21
520.175	14334.71
520.542	14406.57
520.909	14546.45
521.276	14396.18
521.643	14554.82
522.009	14639.78
522.376	14716.17
522.743	14709.61
523.11	14813.34
523.477	14817.86
523.843	14831.42
524.21	15044.97
524.577	14975.82
524.943	15075.48
525.31	15078.64
525.676	15212.65
526.043	15253.1
526.409	15180.79
526.776	15367
527.142	15308.92
527.508	15339.65
527.874	15341.24
528.241	15365.64
528.607	15366.55
528.973	15396.83
529.339	15414.23
529.705	15500.55
530.071	15571.74
530.437	15556.14
530.803	15499.87
531.169	15598.63
531.535	15501.91
531.901	15424.4
532.267	15498.97
532.632	15554.11
532.998	15559.31
533.364	15555.47
533.73	15453.55
534.095	15611.28
534.461	15517.28
534.826	15642.24
535.192	15558.63
535.557	15648.12
535.923	15623.94
536.288	15619.19
536.653	15556.82
537.019	15502.81
537.384	15418.52
537.749	15456.94
538.114	15433.66
538.479	15473.43
538.845	15384.17
539.21	15344.85
539.575	15365.42
539.94	15361.35
540.305	15408.13
540.67	15237.28
541.034	15310.05
541.399	15302.14
541.764	15297.39
542.129	15265.53
542.494	15108.92
542.858	15169.04
543.223	15077.29
543.587	15258.98
543.952	15137.4
544.316	15096.5
544.681	15070.73
545.045	15054.01
545.41	15001.13
545.774	14985.31
546.138	14922.94
546.503	14877.52
546.867	14847.01
547.231	14886.56
547.595	14835.71
547.959	14826.45
548.324	14772.44
548.688	14726.56
549.052	14798.42
549.416	14709.84
549.779	14673
550.143	14650.63
550.507	14698.54
550.871	14606.57
551.235	14568.83
551.599	14693.79
551.962	14588.03
552.326	14567.92
552.689	14637.98
553.053	14463.52
553.417	14480.01
553.78	14590.75
554.143	14407.7
554.507	14461.26
554.87	14494.03
555.234	14544.87
555.597	14413.35
555.96	14404.31
556.323	14383.52
556.686	14362.28
557.05	14420.36
557.413	14415.16
557.776	14416.06
558.139	14376.51
558.502	14317.31
558.865	14289.29
559.228	14419.9
559.59	14376.29
559.953	14345.78
560.316	14372.45
560.679	14320.24
561.041	14448.15
561.404	14439.56
561.767	14437.76
562.129	14405.21
562.492	14426.46
562.854	14458.32
563.217	14468.49
563.579	14456.51
563.941	14496.06
564.304	14553.23
564.666	14505.32
565.028	14589.62
565.39	14614.7
565.753	14633.68
566.115	14592.1
566.477	14575.61
566.839	14674.13
567.201	14669.84
567.563	14647.47
567.925	14731.31
568.287	14636.39
568.648	14647.24
569.01	14752.78
569.372	14730.63
569.734	14686.11
570.095	14797.29
570.457	14769.72
570.819	14882.49
571.18	14861.02
571.542	14851.3
571.903	14869.38
572.265	14821.93
572.626	14950.51
572.987	14932.88
573.349	14927.46
573.71	14929.27
574.071	14995.93
574.432	14898.31
574.794	15016.27
575.155	14972.66
575.516	14951.87
575.877	14992.77
576.238	14990.74
576.599	14990.96
576.96	15010.85
577.32	15015.37
577.681	15049.49
578.042	15098.98
578.403	15039.77
578.763	15107.57
579.124	15037.74
579.485	15023.96
579.845	15225.31
580.206	15078.64
580.566	15121.13
580.927	15104.86
581.287	15108.02
581.648	15046.78
582.008	15151.86
582.368	15078.64
582.728	15099.89
583.089	15114.35
583.449	15015.37
583.809	14985.31
584.169	15034.58
584.529	14986.89
584.889	15096.5
585.249	14999.1
585.609	14889.27
585.969	15027.8
586.329	14903.51
586.688	14981.02
587.048	15021.7
587.408	14966.78
587.768	14996.39
588.127	14908.25
588.487	14861.02
588.846	15024.41
589.206	14872.77
589.565	14849.04
589.925	14988.93
590.284	14872.77
590.643	14870.29
591.003	14941.02
591.362	14969.49
591.721	14785.77
592.08	14895.15
592.44	14894.92
592.799	14887.69
593.158	14819.67
593.517	14804.98
593.876	14836.62
594.235	14758.2
594.593	14801.81
594.952	14864.41
595.311	14777.41
595.67	14839.33
596.029	14893.56
596.387	14838.42
596.746	14896.73
597.104	14702.61
597.463	14727.01
597.822	14848.59
598.18	14685.66
598.538	14765.2
598.897	14777.86
599.255	14707.81
599.613	14902.6
599.972	14640.69
600.33	14751.19
600.688	14769.95
601.046	14774.7
601.404	14842.94
601.762	14790.52
602.12	14802.27
602.478	14899.89
602.836	14850.4
603.194	14800.23
603.552	14778.31
603.91	14689.5
604.268	14814.92
604.625	14776.96
604.983	14822.38
605.341	14783.96
605.698	14763.62
606.056	14777.63
606.413	14785.32
606.771	14857.63
607.128	14826.67
607.485	14724.98
607.843	14818.76
608.2	14844.3
608.557	14863.96
608.914	14884.75
609.272	14907.12
609.629	14891.98
609.986	14988.02
610.343	14834.81
610.7	15001.36
611.057	14964.3
611.414	14950.51
611.771	14947.35
612.127	14984.63
612.484	15049.94
612.841	15064.41
613.198	15019.89
613.554	14909.61
613.911	15105.54
614.267	14975.82
614.624	15051.75
614.98	15109.38
615.337	15160.45
615.693	15070.73
616.05	15044.07
616.406	15129.72
616.762	15071.64
617.118	15114.57
617.475	15103.73
617.831	15207.45
618.187	15200.45
618.543	15170.17
618.899	15321.35
619.255	15212.65
619.611	15243.61
619.967	15316.6
620.323	15264.63
620.678	15165.19
621.034	15149.83
621.39	15289.71
621.746	15115.48
622.101	15352.53
622.457	15234.12
622.812	15237.28
623.168	15249.03
623.523	15208.58
623.879	15313.67
624.234	15167
624.589	15255.59
624.945	15229.37
625.3	15337.17
625.655	15301.01
626.01	15320.22
626.365	15336.49
626.72	15282.25
627.075	15256.94
627.43	15294.23
627.785	15210.62
628.14	15284.06
628.495	15355.7
628.85	15172.43
629.205	15202.03
629.559	15258.3
629.914	15130.62
630.269	15204.97
630.623	15142.37
630.978	15072.99
631.332	15154.57
631.687	15235.25
632.041	15171.3
632.396	15068.47
632.75	15080.9
633.104	15061.02
633.459	15051.53
633.813	14935.6
634.167	14977.85
634.521	14959.78
634.875	15098.3
635.229	14947.57
635.583	14881.13
635.937	14907.12
636.291	14945.09
636.645	14885.2
636.999	14932.21
637.352	14897.4
637.706	14793
638.06	14928.14
638.413	14786.67
638.767	14758.65
639.121	14858.08
639.474	14727.01
639.828	14727.47
640.181	14600.92
640.534	14780.8
640.888	14767.92
641.241	14694.92
641.594	14722.95
641.947	14726.79
642.301	14595.27
642.654	14646.79
643.007	14814.92
643.36	14624.19
643.713	14603.85
644.066	14722.49
644.419	14565.44
644.771	14503.74
645.124	14449.06
645.477	14354.37
645.83	14304.65
646.182	14257.2
646.535	14163.19
646.888	14206.12
647.24	14151.44
647.593	14266.24
647.945	14094.04
648.298	14154.15
648.65	14060.82
649.002	14047.94
649.355	14092.68
649.707	14095.84
650.059	14252
650.411	14372.22
650.763	14325.44
651.115	14543.29
651.467	14452.44
651.819	14452.67
652.171	14508.94
652.523	14370.41
652.875	14414.93
653.227	14409.06
653.578	14520.92
653.93	14467.59
654.282	14413.12
654.633	14362.05
654.985	14452.9
655.337	14474.59
655.688	14405.44
656.039	14447.93
656.391	14444.54
656.742	14352.11
657.094	14436.17
657.445	14559.79
657.796	14419.23
658.147	14370.41
658.498	14439.34
658.849	14465.78
659.2	14512.78
659.551	14458.55
659.902	14418.1
660.253	14422.84
660.604	14528.15
660.955	14371.09
661.306	14451.99
661.656	14428.26
662.007	14375.16
662.358	14438.66
662.708	14491.99
663.059	14472.78
663.409	14389.62
663.76	14513.46
664.11	14529.96
664.461	14442.05
664.811	14494.03
665.161	14511.65
665.511	14538.54
665.862	14524.99
666.212	14462.16
666.562	14521.6
666.912	14431.2
667.262	14543.06
667.612	14489.28
667.962	14529.73
668.312	14421.26
668.662	14433.91
669.011	14472.56
669.361	14488.15
669.711	14351.2
670.06	14490.64
670.41	14519.79
670.76	14401.82
671.109	14522.27
671.459	14431.88
671.808	14445.89
672.157	14488.15
672.507	14333.58
672.856	14334.26
673.205	14351.43
673.554	14376.74
673.904	14315.27
674.253	14368.15
674.602	14320.24
674.951	14089.97
675.3	14183.3
675.649	14215.16
675.998	14243.86
676.346	14272.79
676.695	14297.65
677.044	14217.87
677.393	14298.78
677.741	14279.34
678.09	14256.74
678.438	14187.14
678.787	14209.29
679.135	14279.12
679.484	14110.98
679.832	14090.65
680.181	13941.5
680.529	14037.54
680.877	14035.96
681.225	13947.83
681.573	14081.83
681.922	13953.93
682.27	13967.49
682.618	13866.92
682.966	13814.27
683.314	13959.58
683.661	13799.58
684.009	13771.78
684.357	13782.86
684.705	13723.65
685.053	13758.45
685.4	13673.03
685.748	13652.92
686.095	13691.33
686.443	13603.2
686.79	13617.44
687.138	13701.5
687.485	13705.57
687.832	13521.4
688.18	13533.82
688.527	13493.83
688.874	13468.52
689.221	13338.8
689.568	13358.01
689.915	13339.93
690.262	13311.46
690.609	13258.8
690.956	13169.54
691.303	13140.84
691.65	13127.73
691.997	13079.83
692.344	12912.15
692.69	12970.68
693.037	12984.91
693.383	12911.02
693.73	12928.64
694.077	12846.39
694.423	12814.3
694.769	12725.71
695.116	12739.27
695.462	12700.4
695.808	12641.87
696.155	12713.51
696.501	12606.17
696.847	12475.77
697.193	12451.82
697.539	12508.32
697.885	12331.6
698.231	12333.4
698.577	12310.58
698.923	12370.47
699.269	12251.82
699.614	12193.75
699.96	12166.86
700.306	12113.75
700.651	12045.28
700.997	11961.89
701.342	11911.04
701.688	11956.47
702.033	11877.15
702.379	11936.35
702.724	11887.99
703.069	11771.84
703.415	11693.87
703.76	11633.54
704.105	11659.52
704.45	11698.84
704.795	11635.8
705.14	11490.49
705.485	11465.4
705.83	11453.65
706.175	11479.64
706.52	11431.51
706.865	11377.05
707.209	11355.8
707.554	11315.58
707.899	11355.8
708.243	11217.5
708.588	11229.7
708.932	11134.34
709.277	11145.64
709.621	11139.31
709.966	11035.59
710.31	11043.95
710.654	11054.12
710.998	10986.55
711.342	10983.61
711.687	10904.74
712.031	10928.02
712.375	10856.61
712.719	10946.55
713.063	10883.95
713.407	10885.08
713.75	10719.21
714.094	10851.64
714.438	10737.97
714.782	10706.1
715.125	10648.48
715.469	10741.81
715.812	10621.59
716.156	10594.02
716.499	10640.12
716.843	10654.13
717.186	10547.46
717.53	10672.43
717.873	10562.83
718.216	10542.27
718.559	10551.3
718.902	10454.13
719.246	10481.7
719.589	10487.13
719.932	10440.8
720.275	10401.7
720.617	10326.23
720.96	10364.42
721.303	10370.29
721.646	10404.87
721.989	10296.85
722.331	10325.1
722.674	10327.58
723.016	10345.21
723.359	10251.43
723.701	10303.18
724.044	10328.26
724.386	10246.91
724.729	10272.22
725.071	10223.18
725.413	10135.72
725.755	10278.77
726.097	10224.76
726.439	10208.26
726.782	10214.82
727.124	10254.59
727.465	10203.29
727.807	10137.53
728.149	10194.03
728.491	10176.4
728.833	10130.52
729.175	10060.24
729.516	10150.41
729.858	10136.63
730.199	10078.32
730.541	10115.84
730.882	10039.45
731.224	10077.87
731.565	10125.55
731.906	10082.39
732.248	10171.2
732.589	10102.05
732.93	10090.98
733.271	10091.66
733.612	10064.09
733.953	10041.94
734.294	10112.45
734.635	10098.66
734.976	10090.98
735.317	10002.84
735.658	10115.38
735.999	10040.58
736.339	10072.67
736.68	10109.96
737.021	10141.82
737.361	10089.85
737.702	10067.93
738.042	10051.43
738.383	10142.05
738.723	10115.84
739.063	10132.33
739.404	10176.4
739.744	10145.89
740.084	10172.78
740.424	10238.32
740.764	10109.96
741.104	10304.31
741.444	10269.73
741.784	10152.44
742.124	10211.88
742.464	10257.53
742.804	10294.14
743.143	10248.26
743.483	10300.01
743.823	10291.88
744.162	10383.4
744.502	10366.68
744.841	10385.66
745.181	10428.6
745.52	10463.4
745.86	10460.46
746.199	10515.83
746.538	10563.73
746.877	10654.58
747.216	10726.22
747.556	10746.55
747.895	10801.92
748.234	10756.5
748.573	10883.27
748.911	10934.57
749.25	10904.97
749.589	11005.98
749.928	11141.8
750.267	11218.86
750.605	11250.04
750.944	11266.09
751.283	11367.33
751.621	11524.16
751.96	11573.65
752.298	11686.64
752.636	11718.96
752.975	11808.9
753.313	11923.02
753.651	12035.33
753.989	12200.75
754.327	12251.6
754.666	12323.91
755.004	12574.3
755.342	12612.95
755.679	12769.33
756.017	12868.98
756.355	13077.79
