Data from hue_160_FLMS001491_00072.txt Node
Date: Tue Feb 07 16:51:39 GMT 2017
User: dcchb
Spectrometer: FLMS00149
Trigger mode: 0
Integration Time (sec): 2.000000E-2
Scans to average: 10
Electric dark correction enabled: true
Nonlinearity correction enabled: false
Boxcar width: 0
XAxis mode: Wavelengths
Number of Pixels in Spectrum: 2048
>>>>>Begin Spectral Data<<<<<
341.393	-3.22
341.776	-3.22
342.16	-3.22
342.543	-57.68
342.927	-67.4
343.31	-78.47
343.693	-61.52
344.077	-53.61
344.46	-74.86
344.843	-64.01
345.226	-62.65
345.61	-8.87
345.993	-23.78
346.376	-19.49
346.759	6.27
347.142	33.61
347.525	59.83
347.908	71.81
348.291	83.11
348.674	105.48
349.057	87.17
349.44	131.92
349.823	150
350.206	181.63
350.588	209.43
350.971	207.62
351.354	234.74
351.737	247.39
352.119	246.94
352.502	255.98
352.884	281.52
353.267	267.73
353.65	307.28
354.032	314.51
354.414	293.72
354.797	271.35
355.179	309.31
355.562	333.04
355.944	324.23
356.326	351.12
356.709	340.5
357.091	325.36
357.473	341.63
357.855	340.27
358.238	368.97
358.62	335.75
359.002	332.82
359.384	340.5
359.766	337.34
360.148	347.05
360.53	353.38
360.912	342.99
361.294	334.62
361.676	346.6
362.057	308.41
362.439	326.71
362.821	326.04
363.203	311.12
363.584	331.46
363.966	328.97
364.348	319.48
364.729	332.36
365.111	328.75
365.493	341.86
365.874	311.8
366.256	332.36
366.637	341.4
367.019	291.01
367.4	341.4
367.781	328.97
368.163	331.46
368.544	303.44
368.925	299.82
369.306	321.07
369.688	311.57
370.069	317.68
370.45	319.71
370.831	287.62
371.212	313.83
371.593	319.03
371.974	325.58
372.355	313.38
372.736	335.08
373.117	315.42
373.498	325.58
373.879	329.2
374.26	313.83
374.641	302.31
375.021	308.18
375.402	309.99
375.783	327.62
376.163	335.98
376.544	315.19
376.925	323.55
377.305	320.16
377.686	314.96
378.066	334.85
378.447	347.28
378.827	320.84
379.208	319.94
379.588	336.43
379.968	333.27
380.349	350.67
380.729	328.07
381.109	340.5
381.489	340.5
381.87	350.67
382.25	332.14
382.63	352.7
383.01	330.1
383.39	338.24
383.77	336.88
384.15	359.26
384.53	323.32
384.91	336.88
385.29	345.7
385.67	362.87
386.049	358.13
386.429	369.65
386.809	370.56
387.189	371.01
387.568	363.78
387.948	377.33
388.328	337.79
388.707	377.79
389.087	363.1
389.466	368.3
389.846	374.85
390.225	371.91
390.605	348.18
390.984	387.28
391.363	369.43
391.743	365.36
392.122	374.62
392.501	374.85
392.881	364.68
393.26	389.54
393.639	368.3
394.018	392.02
394.397	386.83
394.776	392.7
395.155	379.59
395.534	380.72
395.913	357.9
396.292	383.21
396.671	380.27
397.05	405.36
397.429	380.72
397.808	373.49
398.186	392.02
398.565	408.75
398.944	392.02
399.323	390.22
399.701	407.84
400.08	373.72
400.458	411.68
400.837	401.74
401.215	421.4
401.594	392.25
401.972	418.69
402.351	405.13
402.729	391.35
403.107	427.5
403.486	429.08
403.864	424.57
404.242	409.42
404.62	429.31
404.999	428.41
405.377	435.64
405.755	434.96
406.133	446.49
406.511	425.02
406.889	434.28
407.267	447.84
407.645	446.94
408.023	449.65
408.401	448.07
408.779	455.75
409.156	443.1
409.534	458.91
409.912	451.01
410.29	468.86
410.667	460.95
411.045	482.64
411.422	448.97
411.8	472.25
412.178	496.43
412.555	473.15
412.933	475.64
413.31	504.56
413.687	502.08
414.065	494.17
414.442	493.04
414.819	518.12
415.197	481.06
415.574	505.24
415.951	519.93
416.328	509.76
416.705	513.15
417.082	518.57
417.46	539.82
417.837	535.97
418.214	520.83
418.591	534.17
418.967	514.96
419.344	539.14
419.721	531.45
420.098	547.73
420.475	544.34
420.852	549.31
421.228	572.36
421.605	586.14
421.982	559.02
422.358	549.53
422.735	573.26
423.111	566.03
423.488	571.68
423.864	580.27
424.241	574.84
424.617	591.79
424.994	586.37
425.37	591.11
425.746	589.08
426.123	608.52
426.499	601.51
426.875	594.96
427.251	649.64
427.627	616.2
428.003	628.63
428.379	640.6
428.756	642.41
429.132	639.7
429.507	660.04
429.883	660.49
430.259	665.46
430.635	668.63
431.011	660.94
431.387	670.89
431.763	699.13
432.138	683.54
432.514	695.74
432.89	723.77
433.265	729.64
433.641	726.7
434.016	716.76
434.392	691.45
434.767	731.68
435.143	741.62
435.518	738
435.894	771.67
436.269	750.88
436.644	780.49
437.02	763.77
437.395	782.07
437.77	793.59
438.145	776.87
438.52	799.47
438.895	810.32
439.271	789.98
439.646	832.92
440.021	841.73
440.395	852.8
440.77	844.67
441.145	857.55
441.52	837.44
441.895	873.82
442.27	886.02
442.645	873.82
443.019	870.88
443.394	867.72
443.769	874.04
444.143	880.6
444.518	899.13
444.892	922.86
445.267	916.3
445.641	928.73
446.016	916.53
446.39	931.9
446.764	906.81
447.139	925.12
447.513	965.34
447.887	940.94
448.262	957.88
448.636	945
449.01	976.19
449.384	974.38
449.758	985.23
450.132	1003.53
450.506	1008.73
450.88	1013.02
451.254	1031.1
451.628	1006.7
452.002	1029.75
452.376	1044.21
452.75	1077.66
453.123	1057.54
453.497	1063.87
453.871	1103.42
454.244	1112.23
454.618	1102.97
454.992	1112.91
455.365	1120.37
455.739	1152.91
456.112	1116.98
456.486	1172.57
456.859	1183.64
457.232	1189.52
457.606	1176.18
457.979	1217.99
458.352	1243.98
458.725	1254.15
459.099	1268.84
459.472	1277.2
459.845	1281.94
460.218	1309.29
460.591	1331.43
460.964	1347.7
461.337	1374.14
461.71	1391.77
462.083	1385.67
462.456	1406.01
462.829	1408.04
463.201	1431.77
463.574	1439.91
463.947	1488.49
464.32	1520.81
464.692	1512.9
465.065	1537.08
465.438	1576.17
465.81	1589.51
466.183	1619.34
466.555	1676.06
466.928	1674.7
467.3	1666.57
467.672	1678.77
468.045	1769.61
468.417	1746.11
468.789	1774.81
469.161	1825.66
469.534	1852.32
469.906	1866.34
470.278	1907.24
470.65	1968.93
471.022	1965.09
471.394	1995.37
471.766	2055.93
472.138	2063.17
472.51	2150.4
472.882	2165.99
473.253	2196.72
473.625	2265.87
473.997	2316.94
474.369	2353.78
474.74	2364.63
475.112	2504.06
475.484	2512.19
475.855	2589.25
476.227	2626.77
476.598	2667.9
476.97	2751.28
477.341	2823.82
477.713	2846.87
478.084	2967.32
478.455	3064.5
478.827	3072.86
479.198	3200.54
479.569	3247.32
479.94	3360.99
480.311	3400.08
480.682	3505.39
481.053	3595.1
481.424	3724.37
481.795	3788.09
482.166	3916.22
482.537	3953.96
482.908	4063.79
483.279	4203.22
483.65	4356.67
484.021	4431.92
484.391	4533.84
484.762	4569.99
485.133	4679.37
485.503	4793.49
485.874	4927.72
486.244	5061.05
486.615	5152.58
486.985	5299.69
487.356	5461.04
487.726	5536.75
488.097	5690.42
488.467	5798.89
488.837	5929.73
489.207	6054.47
489.578	6195.71
489.948	6318.2
490.318	6437.51
490.688	6572.88
491.058	6761.8
491.428	6834.11
491.798	7029.82
492.168	7166.99
492.538	7216.7
492.908	7374.21
493.278	7484.27
493.648	7621.66
494.017	7788.89
494.387	7808.78
494.757	8019.39
495.126	8141.2
495.496	8248.31
495.866	8386.62
496.235	8516.56
496.605	8568.08
496.974	8687.4
497.344	8749.77
497.713	8866.6
498.082	9000.61
498.452	9154.28
498.821	9157.89
499.19	9255.52
499.559	9462.07
499.928	9510.2
500.298	9561.05
500.667	9716.07
501.036	9770.08
501.405	9822.51
501.774	9904.77
502.143	10007.59
502.512	10147.02
502.88	10219.79
503.249	10283.29
503.618	10301.37
503.987	10383.17
504.356	10461.82
504.724	10589.72
505.093	10632.66
505.462	10702.49
505.83	10693.67
506.199	10872.43
506.567	10961.46
506.936	10977.51
507.304	11073.55
507.672	11154.45
508.041	11199.88
508.409	11255.24
508.777	11358.74
509.145	11404.39
509.514	11398.29
509.882	11555.57
510.25	11546.53
510.618	11617.27
510.986	11643.48
511.354	11723.48
511.722	11757.6
512.09	11895
512.458	11846.41
512.826	11934.54
513.193	12014.54
513.561	11954.21
513.929	12085.95
514.297	12127.31
514.664	12268.1
515.032	12182.67
515.4	12269.45
515.767	12325.5
516.135	12341.31
516.502	12273.97
516.869	12519.39
517.237	12552.61
517.604	12419.28
517.972	12495.21
518.339	12556.22
518.706	12496.56
519.073	12520.52
519.44	12630.8
519.808	12697.24
520.175	12611.36
520.542	12830.34
520.909	12792.6
521.276	12751.02
521.643	12811.13
522.009	13000.28
522.376	12952.6
522.743	13013.61
523.11	13050
523.477	13098.58
523.843	13062.2
524.21	13227.62
524.577	13282.31
524.943	13195.08
525.31	13177.68
525.676	13282.98
526.043	13404.56
526.409	13357.78
526.776	13384.45
527.142	13391.68
527.508	13428.29
527.874	13514.62
528.241	13441.4
528.607	13381.96
528.973	13492.92
529.339	13430.55
529.705	13474.17
530.071	13484.56
530.437	13551.68
530.803	13575.18
531.169	13633.48
531.535	13480.27
531.901	13471
532.267	13466.71
532.632	13504.45
532.998	13516.42
533.364	13476.88
533.73	13479.59
534.095	13492.24
534.461	13534.73
534.826	13474.62
535.192	13435.3
535.557	13509.19
535.923	13416.09
536.288	13392.59
536.653	13451.57
537.019	13286.83
537.384	13355.52
537.749	13298.12
538.114	13295.19
538.479	13260.16
538.845	13292.02
539.21	13174.51
539.575	13270.56
539.94	13140.16
540.305	13198.24
540.67	13168.64
541.034	13148.3
541.399	13001.86
541.764	13087.96
542.129	13002.77
542.494	13039.15
542.858	12959.6
543.223	12888.64
543.587	12948.98
543.952	12915.08
544.316	12861.3
544.681	12782.66
545.045	12740.4
545.41	12796.44
545.774	12747.4
546.138	12702.66
546.503	12701.08
546.867	12591.02
547.231	12646.39
547.595	12590.8
547.959	12552.83
548.324	12608.65
548.688	12418.37
549.052	12499.5
549.416	12382.67
549.779	12413.4
550.143	12434.42
550.507	12348.77
550.871	12375.21
551.235	12282.33
551.599	12327.08
551.962	12202.79
552.326	12233.07
552.689	12262.67
553.053	12185.61
553.417	12144.03
553.78	12193.07
554.143	12118.72
554.507	12144.26
554.87	12137.48
555.234	12156.23
555.597	12052.51
555.96	12018.38
556.323	12117.37
556.686	11955.56
557.05	12021.77
557.413	12032.17
557.776	12031.27
558.139	12019.06
558.502	11966.63
558.865	11961.89
559.228	12053.64
559.59	12071.04
559.953	11954.66
560.316	12088.21
560.679	11977.26
561.041	12066.07
561.404	12045.73
561.767	12103.13
562.129	12035.79
562.492	12064.49
562.854	12030.36
563.217	11988.78
563.579	11978.84
563.941	12022.9
564.304	12087.31
564.666	12086.63
565.028	11997.14
565.39	12016.12
565.753	12122.79
566.115	12081.89
566.477	12184.93
566.839	12105.16
567.201	12142.22
567.563	12132.96
567.925	12157.36
568.287	12050.47
568.648	12172.96
569.01	12140.42
569.372	12193.97
569.734	12123.24
570.095	12263.58
570.457	12285.95
570.819	12312.39
571.18	12280.75
571.542	12321.65
571.903	12332.5
572.265	12286.63
572.626	12287.3
572.987	12233.29
573.349	12347.87
573.71	12355.78
574.071	12365.04
574.432	12418.37
574.794	12393.29
575.155	12432.84
575.516	12333.18
575.877	12400.75
576.238	12465.15
576.599	12358.26
576.96	12387.64
577.32	12447.3
577.681	12432.61
578.042	12491.14
578.403	12371.37
578.763	12428.32
579.124	12461.08
579.485	12432.16
579.845	12441.88
580.206	12478.71
580.566	12413.18
580.927	12501.99
581.287	12523.68
581.648	12322.56
582.008	12526.39
582.368	12403.69
582.728	12410.46
583.089	12468.77
583.449	12411.14
583.809	12359.17
584.169	12461.76
584.529	12352.84
584.889	12433.97
585.249	12312.16
585.609	12388.09
585.969	12349
586.329	12319.62
586.688	12356
587.048	12264.71
587.408	12251.15
587.768	12316
588.127	12296.57
588.487	12292.5
588.846	12322.78
589.206	12216.8
589.565	12235.78
589.925	12284.37
590.284	12243.92
590.643	12302.67
591.003	12265.61
591.362	12204.59
591.721	12244.82
592.08	12278.26
592.44	12283.46
592.799	12314.42
593.158	12285.27
593.517	12194.88
593.876	12237.36
594.235	12186.97
594.593	12232.39
594.952	12218.15
595.311	12153.52
595.67	12197.36
596.029	12244.37
596.387	12225.84
596.746	12258.6
597.104	12093.41
597.463	12175.22
597.822	12172.73
598.18	12144.26
598.538	12057.48
598.897	12172.05
599.255	12029.46
599.613	12218.83
599.972	12200.3
600.33	12178.38
600.688	12118.04
601.046	12187.42
601.404	12239.17
601.762	12163.01
602.12	12216.35
602.478	12175.89
602.836	12183.35
603.194	12189.91
603.552	12113.75
603.91	12127.08
604.268	12117.14
604.625	12118.27
604.983	12158.27
605.341	12058.38
605.698	12118.49
606.056	12185.16
606.413	12182
606.771	12169.34
607.128	12118.49
607.485	12146.06
607.843	12089.8
608.2	12177.48
608.557	12275.78
608.914	12126.4
609.272	12244.37
609.629	12209.57
609.986	12269.9
610.343	12170.92
610.7	12267.64
611.057	12275.1
611.414	12256.57
611.771	12351.03
612.127	12338.15
612.484	12292.95
612.841	12318.26
613.198	12305.16
613.554	12319.85
613.911	12365.95
614.267	12341.09
614.624	12322.56
614.98	12414.31
615.337	12312.16
615.693	12349
616.05	12359.62
616.406	12453.4
616.762	12288.43
617.118	12415.89
617.475	12365.49
617.831	12423.35
618.187	12400.3
618.543	12414.31
618.899	12481.2
619.255	12529.11
619.611	12459.5
619.967	12514.19
620.323	12553.51
620.678	12512.38
621.034	12466.06
621.39	12496.11
621.746	12353.74
622.101	12530.46
622.457	12487.75
622.812	12421.31
623.168	12565.49
623.523	12530.91
623.879	12551.93
624.234	12473.51
624.589	12545.15
624.945	12512.38
625.3	12511.93
625.655	12534.08
626.01	12499.28
626.365	12524.81
626.72	12447.98
627.075	12394.19
627.43	12479.16
627.785	12427.19
628.14	12390.13
628.495	12418.15
628.85	12400.75
629.205	12416.79
629.559	12464.25
629.914	12310.81
630.269	12384.02
630.623	12424.7
630.978	12382.22
631.332	12331.6
631.687	12372.05
632.041	12387.64
632.396	12307.64
632.75	12257.02
633.104	12301.99
633.459	12363.23
633.813	12329.11
634.167	12261.99
634.521	12293.18
634.875	12310.35
635.229	12219.74
635.583	12181.32
635.937	12119.85
636.291	12124.37
636.645	12183.35
636.999	12123.01
637.352	12073.75
637.706	12122.56
638.06	12191.04
638.413	12109.68
638.767	12107.2
639.121	12089.12
639.474	12072.62
639.828	12019.97
640.181	11977.48
640.534	12045.05
640.888	11970.02
641.241	11926.86
641.594	12031.04
641.947	12045.95
642.301	11999.18
642.654	11949.23
643.007	11984.94
643.36	11948.78
643.713	11945.17
644.066	11985.17
644.419	11942.45
644.771	11763.25
645.124	11732.06
645.477	11743.14
645.83	11724.16
646.182	11618.85
646.535	11548.11
646.888	11519.87
647.24	11529.58
647.593	11556.7
647.945	11577.04
648.298	11465.86
648.65	11447.55
649.002	11441.9
649.355	11469.02
649.707	11598.28
650.059	11643.03
650.411	11759.18
650.763	11735.68
651.115	11762.12
651.467	11789.92
651.819	11761.67
652.171	11790.82
652.523	11753.53
652.875	11767.77
653.227	11619.98
653.578	11773.87
653.93	11719.18
654.282	11718.73
654.633	11671.95
654.985	11694.33
655.337	11760.09
655.688	11679.86
656.039	11787.2
656.391	11729.13
656.742	11717.6
657.094	11738.39
657.445	11772.97
657.796	11734.78
658.147	11768.22
658.498	11732.97
658.849	11744.49
659.2	11781.78
659.551	11791.95
659.902	11723.7
660.253	11838.5
660.604	11795.57
660.955	11686.87
661.306	11792.63
661.656	11829.46
662.007	11772.06
662.358	11851.16
662.708	11811.16
663.059	11813.19
663.409	11700.65
663.76	11832.63
664.11	11770.26
664.461	11809.58
664.811	11859.52
665.161	11760.54
665.511	11854.1
665.862	11756.47
666.212	11857.94
666.562	11843.93
666.912	11822.46
667.262	11824.94
667.612	11747.43
667.962	11798.73
668.312	11804.83
668.662	11774.32
669.011	11829.46
669.361	11774.1
669.711	11751.72
670.06	11710.6
670.41	11758.96
670.76	11769.58
671.109	11779.07
671.459	11735.91
671.808	11737.94
672.157	11765.06
672.507	11702.46
672.856	11627.89
673.205	11769.8
673.554	11789.92
673.904	11687.09
674.253	11763.48
674.602	11689.58
674.951	11497.49
675.3	11494.1
675.649	11629.24
675.998	11672.18
676.346	11605.74
676.695	11583.37
677.044	11625.85
677.393	11617.72
677.741	11553.09
678.09	11588.57
678.438	11612.52
678.787	11606.64
679.135	11592.86
679.484	11449.13
679.832	11554.89
680.181	11482.13
680.529	11449.36
680.877	11410.49
681.225	11380.21
681.573	11508.79
681.922	11399.87
682.27	11387.67
682.618	11304.28
682.966	11303.15
683.314	11386.99
683.661	11329.14
684.009	11296.82
684.357	11221.12
684.705	11226.54
685.053	11236.03
685.4	11147.67
685.748	11106.32
686.095	11086.88
686.443	10971.63
686.79	11007.34
687.138	11079.65
687.485	11106.32
687.832	11004.4
688.18	11093.21
688.527	10923.72
688.874	10935.02
689.221	10882.14
689.568	10872.65
689.915	10882.14
690.262	10878.08
690.609	10748.14
690.956	10715.82
691.303	10737.74
691.65	10740.9
691.997	10752.66
692.344	10643.28
692.69	10641.7
693.037	10592.89
693.383	10501.81
693.73	10528.93
694.077	10396.28
694.423	10442.15
694.769	10385.21
695.116	10334.14
695.462	10368.71
695.808	10290.75
696.155	10400.12
696.501	10197.87
696.847	10181.37
697.193	10112.67
697.539	10152.9
697.885	10081.94
698.231	10064.09
698.577	10041.71
698.923	9993.13
699.269	9919.68
699.614	9934.37
699.96	9898.89
700.306	9866.12
700.651	9773.47
700.997	9753.36
701.342	9721.5
701.688	9704.55
702.033	9640.37
702.379	9686.92
702.724	9659.12
703.069	9669.07
703.415	9506.59
703.76	9566.7
704.105	9498.45
704.45	9517.43
704.795	9425.23
705.14	9391.11
705.485	9342.52
705.83	9311.11
706.175	9320.83
706.52	9339.58
706.865	9264.56
707.209	9243.77
707.554	9211.68
707.899	9171.91
708.243	9198.8
708.588	9132.81
708.932	9150.44
709.277	9108.18
709.621	9067.28
709.966	8964
710.31	9039.48
710.654	8960.84
710.998	8922.65
711.342	8978.92
711.687	8956.32
712.031	8892.82
712.375	8817.79
712.719	8904.79
713.063	8763.55
713.407	8807.17
713.75	8813.95
714.094	8804.46
714.438	8736.44
714.782	8773.72
715.125	8745.93
715.469	8747.28
715.812	8658.02
716.156	8641.3
716.499	8660.73
716.843	8672.48
717.186	8622.54
717.53	8589.77
717.873	8680.85
718.216	8604.24
718.559	8612.82
718.902	8481.53
719.246	8521.75
719.589	8523.11
719.932	8479.04
720.275	8505.93
720.617	8479.72
720.96	8493.51
721.303	8523.11
721.646	8516.1
721.989	8381.87
722.331	8516.78
722.674	8423.9
723.016	8430.91
723.359	8493.73
723.701	8434.3
724.044	8381.42
724.386	8334.19
724.729	8408.08
725.071	8354.98
725.413	8341.19
725.755	8395.43
726.097	8321.08
726.439	8300.29
726.782	8319.95
727.124	8357.01
727.465	8320.85
727.807	8350.01
728.149	8302.55
728.491	8304.81
728.833	8316.56
729.175	8225.04
729.516	8277.69
729.858	8235.66
730.199	8269.56
730.541	8254.87
730.882	8210.35
731.224	8288.54
731.565	8189.33
731.906	8246.96
732.248	8261.42
732.589	8174.87
732.93	8207.41
733.271	8258.26
733.612	8199.05
733.953	8219.16
734.294	8263.23
734.635	8194.3
734.976	8269.78
735.317	8180.29
735.658	8179.39
735.999	8105.72
736.339	8207.19
736.68	8283.79
737.021	8274.08
737.361	8207.64
737.702	8295.09
738.042	8180.75
738.383	8295.77
738.723	8323.34
739.063	8214.42
739.404	8302.1
739.744	8237.02
740.084	8304.36
740.424	8254.42
740.764	8356.33
741.104	8333.51
741.444	8324.24
741.784	8351.36
742.124	8429.78
742.464	8378.48
742.804	8413.96
743.143	8298.48
743.483	8411.47
743.823	8402.21
744.162	8489.66
744.502	8467.74
744.841	8482.43
745.181	8493.28
745.52	8522.88
745.86	8576.44
746.199	8556.33
746.538	8599.27
746.877	8735.98
747.216	8786.61
747.556	8799.71
747.895	8807.62
748.234	8859.37
748.573	8913.83
748.911	8967.17
749.25	8955.64
749.589	9072.7
749.928	9136.88
750.267	9194.05
750.605	9308.4
750.944	9292.35
751.283	9329.87
751.621	9488.51
751.96	9496.42
752.298	9673.14
752.636	9733.02
752.975	9782.74
753.313	9830.19
753.651	10022.5
753.989	10113.12
754.327	10163.29
754.666	10245.78
755.004	10374.59
755.342	10531.42
755.679	10627.91
756.017	10696.84
756.355	10951.97
756.693	11013.44
757.031	11174.11
757.368	11178.18
757.706	11417.27
758.044	11464.73
758.381	11661.56
758.719	11842.57
759.056	11974.54
759.394	12141.32
