Data from hue_300_FLMS001491_00020.txt Node
Date: Tue Feb 07 15:50:23 GMT 2017
User: dcchb
Spectrometer: FLMS00149
Trigger mode: 0
Integration Time (sec): 2.000000E-2
Scans to average: 10
Electric dark correction enabled: true
Nonlinearity correction enabled: false
Boxcar width: 0
XAxis mode: Wavelengths
Number of Pixels in Spectrum: 2048
>>>>>Begin Spectral Data<<<<<
341.393	-10.27
341.776	-10.27
342.16	-10.27
342.543	-78.74
342.927	-72.64
343.31	-79.19
343.693	-52.3
344.077	-76.26
344.46	-44.62
344.843	-23.6
345.226	-51.17
345.61	-31.28
345.993	2.84
346.376	-31.06
346.759	4.19
347.142	47.36
347.525	28.6
347.908	45.32
348.291	62.05
348.674	93.68
349.057	105.44
349.44	98.2
349.823	130.07
350.206	134.36
350.588	190.18
350.971	204.64
351.354	234.25
351.737	219.1
352.119	243.51
352.502	251.87
352.884	263.4
353.267	281.48
353.65	265.2
354.032	281.02
354.414	315.83
354.797	301.36
355.179	299.1
355.562	314.02
355.944	290.74
356.326	330.51
356.709	333.9
357.091	311.08
357.473	321.02
357.855	315.15
358.238	346.11
358.62	317.41
359.002	338.88
359.384	335.94
359.766	338.65
360.148	333.23
360.53	330.51
360.912	319.21
361.294	343.62
361.676	334.58
362.057	331.19
362.439	312.44
362.821	306.56
363.203	318.31
363.584	303.85
363.966	310.63
364.348	324.41
364.729	333.45
365.111	299.33
365.493	330.51
365.874	315.15
366.256	308.14
366.637	303.17
367.019	311.53
367.4	295.94
367.781	319.89
368.163	299.78
368.544	316.73
368.925	292.1
369.306	306.11
369.688	308.82
370.069	321.47
370.45	297.29
370.831	291.19
371.212	301.14
371.593	321.7
371.974	340.91
372.355	307.46
372.736	335.26
373.117	318.54
373.498	313.34
373.879	313.57
374.26	324.86
374.641	300.91
375.021	319.44
375.402	308.37
375.783	318.76
376.163	330.06
376.544	320.57
376.925	314.24
377.305	323.96
377.686	307.92
378.066	323.06
378.447	323.28
378.827	326.22
379.208	312.44
379.588	344.07
379.968	340.46
380.349	315.6
380.729	330.51
381.109	319.67
381.489	335.26
381.87	328.71
382.25	348.59
382.63	337.29
383.01	344.75
383.39	321.93
383.77	325.32
384.15	318.99
384.53	345.2
384.91	340.46
385.29	333.23
385.67	323.51
386.049	323.28
386.429	347.46
386.809	343.85
387.189	344.3
387.568	330.74
387.948	348.14
388.328	355.6
388.707	331.42
389.087	330.06
389.466	344.52
389.846	337.97
390.225	363.51
390.605	349.95
390.984	354.69
391.363	364.64
391.743	342.72
392.122	371.87
392.501	352.66
392.881	365.54
393.26	377.29
393.639	349.72
394.018	363.51
394.397	382.04
394.776	378.65
395.155	379.78
395.534	355.15
395.913	359.44
396.292	359.67
396.671	382.04
397.05	380.91
397.429	382.49
397.808	386.78
398.186	371.87
398.565	373
398.944	379.33
399.323	371.19
399.701	378.2
400.08	368.93
400.458	394.24
400.837	412.55
401.215	386.33
401.594	383.85
401.972	402.6
402.351	395.82
402.729	391.76
403.107	385.65
403.486	413.22
403.864	405.77
404.242	409.83
404.62	412.55
404.999	410.74
405.377	422.94
405.755	427.91
406.133	438.76
406.511	438.53
406.889	426.78
407.267	444.64
407.645	450.96
408.023	453.22
408.401	445.77
408.779	448.02
409.156	490.96
409.534	464.97
409.912	480.57
410.29	480.11
410.667	482.83
411.045	504.75
411.422	509.72
411.8	499.77
412.178	529.38
412.555	551.3
412.933	545.42
413.31	526.67
413.687	536.61
414.065	553.33
414.442	562.82
414.819	556.72
415.197	583.39
415.574	585.87
415.951	576.61
416.328	593.33
416.705	593.78
417.082	603.28
417.46	607.79
417.837	626.33
418.214	635.14
418.591	637.85
418.967	649.83
419.344	644.86
419.721	662.03
420.098	682.37
420.475	684.18
420.852	684.4
421.228	681.24
421.605	726.44
421.982	710.39
422.358	751.52
422.735	731.86
423.111	728.92
423.488	762.82
423.864	738.64
424.241	771.18
424.617	771.63
424.994	771.86
425.37	751.75
425.746	776.15
426.123	787.45
426.499	834.68
426.875	811.63
427.251	821.35
427.627	840.56
428.003	818.86
428.379	869.26
428.756	863.38
429.132	874
429.507	872.19
429.883	902.48
430.259	895.7
430.635	912.87
431.011	935.7
431.387	934.34
431.763	950.61
432.138	937.96
432.514	989.71
432.89	977.5
433.265	977.05
433.641	995.36
434.016	1010.72
434.392	1029.03
434.767	1060.66
435.143	1055.69
435.518	1030.16
435.894	1060.89
436.269	1078.52
436.644	1093.88
437.02	1122.13
437.395	1108.35
437.77	1083.26
438.145	1133.88
438.52	1116.48
438.895	1098.86
439.271	1123.49
439.646	1152.87
440.021	1165.97
440.395	1177.05
440.77	1165.97
441.145	1178.18
441.52	1198.97
441.895	1197.16
442.27	1210.72
442.645	1173.43
443.019	1211.17
443.394	1221.56
443.769	1257.27
444.143	1240.55
444.518	1235.57
444.892	1214.11
445.267	1263.14
445.641	1263.82
446.016	1232.86
446.39	1247.1
446.764	1228.12
447.139	1260.88
447.513	1268.34
447.887	1293.88
448.262	1253.2
448.636	1270.38
449.01	1294.56
449.384	1293.2
449.758	1313.31
450.132	1304.5
450.506	1319.41
450.88	1316.93
451.254	1325.29
451.628	1345.63
452.002	1330.49
452.376	1346.98
452.75	1363.71
453.123	1361.22
453.497	1370.49
453.871	1350.83
454.244	1361.22
454.618	1416.36
454.992	1389.02
455.365	1387.21
455.739	1412.52
456.112	1425.4
456.486	1431.05
456.859	1433.08
457.232	1468.34
457.606	1443.93
457.979	1506.08
458.352	1512.86
458.725	1509.24
459.099	1513.76
459.472	1536.36
459.845	1532.29
460.218	1553.08
460.591	1556.24
460.964	1516.92
461.337	1575.23
461.71	1581.1
462.083	1581.33
462.456	1596.47
462.829	1592.18
463.201	1641.44
463.574	1634.66
463.947	1627.43
464.32	1642.8
464.692	1651.16
465.065	1654.55
465.438	1683.25
465.81	1707.43
466.183	1711.49
466.555	1750.36
466.928	1732.74
467.3	1759.63
467.672	1767.76
468.045	1763.24
468.417	1803.47
468.789	1790.81
469.161	1799.85
469.534	1810.25
469.906	1855.45
470.278	1863.35
470.65	1875.33
471.022	1874.65
471.394	1914.2
471.766	1928.89
472.138	1911.94
472.51	1939.06
472.882	1991.26
473.253	1982
473.625	2017.48
473.997	2041.43
474.369	2047.08
474.74	2030.58
475.112	2039.4
475.484	2087.08
475.855	2106.51
476.227	2104.25
476.598	2154.19
476.97	2162.33
477.341	2183.12
477.713	2233.29
478.084	2261.76
478.455	2285.04
478.827	2237.81
479.198	2324.81
479.569	2325.72
479.94	2370.91
480.311	2364.13
480.682	2436.22
481.053	2463.79
481.424	2428.09
481.795	2481.64
482.166	2490.46
482.537	2493.62
482.908	2542.89
483.279	2567.97
483.65	2599.15
484.021	2630.11
484.391	2653.84
484.762	2666.05
485.133	2683.67
485.503	2706.72
485.874	2710.56
486.244	2739.04
486.615	2768.64
486.985	2789.66
487.356	2826.04
487.726	2805.48
488.097	2863.1
488.467	2858.81
488.837	2909.2
489.207	2925.47
489.578	2977.9
489.948	2947.17
490.318	2969.54
490.688	3005.7
491.058	3021.29
491.428	3064.68
491.798	3057.9
492.168	3114.62
492.538	3101.51
492.908	3140.38
493.278	3203.88
493.648	3175.64
494.017	3202.98
494.387	3243.66
494.757	3224.9
495.126	3294.96
495.496	3251.34
495.866	3295.63
496.235	3264.45
496.605	3312.36
496.974	3330.89
497.344	3340.6
497.713	3378.8
498.082	3379.02
498.452	3416.31
498.821	3393.71
499.19	3382.64
499.559	3423.09
499.928	3482.75
500.298	3462.41
500.667	3458.79
501.036	3433.94
501.405	3482.75
501.774	3474.39
502.143	3478.23
502.512	3492.01
502.88	3506.48
503.249	3521.62
503.618	3508.28
503.987	3542.41
504.356	3573.59
504.724	3600.03
505.093	3571.11
505.462	3644.55
505.83	3585.12
506.199	3654.04
506.567	3645.91
506.936	3635.74
507.304	3693.59
507.672	3686.81
508.041	3698.11
508.409	3715.51
508.777	3684.1
509.145	3748.28
509.514	3726.58
509.882	3720.93
510.25	3746.02
510.618	3799.12
510.986	3750.09
511.354	3790.76
511.722	3796.19
512.09	3793.7
512.458	3805.22
512.826	3839.12
513.193	3869.18
513.561	3832.34
513.929	3858.1
514.297	3900.82
514.664	3875.73
515.032	3874.38
515.4	3887.26
515.767	3857.43
516.135	3903.3
516.502	3871.44
516.869	3910.08
517.237	3882.96
517.604	3917.99
517.972	3972.68
518.339	3961.6
518.706	3958.22
519.073	3952.34
519.44	3986.91
519.808	3993.92
520.175	3997.08
520.542	4025.78
520.909	4003.64
521.276	4037.08
521.643	4045.22
522.009	4031.21
522.376	4075.05
522.743	4144.65
523.11	4107.59
523.477	4112.56
523.843	4147.14
524.21	4200.69
524.577	4179
524.943	4188.72
525.31	4218.32
525.676	4263.07
526.043	4248.38
526.409	4258.55
526.776	4254.03
527.142	4284.31
527.508	4315.95
527.874	4368.37
528.241	4378.32
528.607	4401.82
528.973	4397.07
529.339	4366.79
529.705	4402.27
530.071	4450.18
530.437	4509.39
530.803	4509.84
531.169	4517.97
531.535	4527.47
531.901	4503.74
532.267	4543.74
532.632	4574.92
532.998	4606.11
533.364	4593
533.73	4600.23
534.095	4611.53
534.461	4625.99
534.826	4662.15
535.192	4685.43
535.557	4717.74
535.923	4714.58
536.288	4731.3
536.653	4778.31
537.019	4744.18
537.384	4778.53
537.749	4819.44
538.114	4760
538.479	4840.9
538.845	4864.18
539.21	4859.21
539.575	4867.34
539.94	4865.31
540.305	4906.21
540.67	4954.12
541.034	5002.71
541.399	4969.49
541.764	4976.72
542.129	5032.31
542.494	5035.93
542.858	5060.33
543.223	5045.19
543.587	5091.97
543.952	5098.75
544.316	5126.55
544.681	5093.78
545.045	5154.12
545.41	5159.54
545.774	5228.46
546.138	5221.68
546.503	5157.05
546.867	5240.22
547.231	5293.32
547.595	5320.44
547.959	5277.05
548.324	5320.67
548.688	5303.49
549.052	5318.86
549.416	5381.68
549.779	5358.63
550.143	5396.82
550.507	5425.97
550.871	5432.3
551.235	5446.09
551.599	5455.35
551.962	5501.9
552.326	5515.46
552.689	5477.05
553.053	5522.02
553.417	5562.92
553.78	5615.8
554.143	5557.27
554.507	5568.12
554.87	5651.05
555.234	5655.8
555.597	5649.47
555.96	5640.88
556.323	5639.53
556.686	5660.77
557.05	5711.84
557.413	5675.46
557.776	5800.65
558.139	5743.03
558.502	5751.84
558.865	5779.41
559.228	5832.74
559.59	5796.13
559.953	5836.36
560.316	5891.27
560.679	5860.31
561.041	5893.98
561.404	5879.29
561.767	5950.25
562.129	5920.42
562.492	5990.25
562.854	5946.64
563.217	5960.65
563.579	5966.07
563.941	6002.46
564.304	6033.41
564.666	6090.81
565.028	6038.84
565.39	6067.99
565.753	6099.63
566.115	6129.23
566.477	6126.07
566.839	6173.07
567.201	6213.52
567.563	6242.22
567.925	6209.68
568.287	6257.82
568.648	6289.23
569.01	6298.04
569.372	6279.06
569.734	6293.29
570.095	6395.21
570.457	6434.53
570.819	6461.43
571.18	6409.9
571.542	6480.18
571.903	6550.69
572.265	6615.55
572.626	6606.96
572.987	6641.99
573.349	6636.11
573.71	6685.38
574.071	6743
574.432	6776.22
574.794	6888.31
575.155	6914.52
575.516	6904.8
575.877	6945.48
576.238	7043.56
576.599	7158.36
576.96	7152.26
577.32	7273.61
577.681	7356.77
578.042	7447.61
578.403	7470.67
578.763	7545.24
579.124	7691.9
579.485	7754.5
579.845	7826.14
580.206	7872.46
580.566	8090.08
580.927	8119.69
581.287	8324.2
581.648	8386.12
582.008	8520.81
582.368	8607.36
582.728	8813.91
583.089	8982.72
583.449	9055.03
583.809	9247.57
584.169	9363.27
584.529	9602.59
584.889	9878.96
585.249	9956.02
585.609	10100.65
585.969	10363.47
586.329	10591.94
586.688	10787.64
587.048	11004.81
587.408	11250.9
587.768	11508.75
588.127	11678.69
588.487	11896.09
588.846	12245
589.206	12424.43
589.565	12666.46
589.925	13007.47
590.284	13176.96
590.643	13489.72
591.003	13783.72
591.362	14101.23
591.721	14329.92
592.08	14620.31
592.44	14956.8
592.799	15197.47
593.158	15516.78
593.517	15729.43
593.876	16091
594.235	16332.81
594.593	16694.83
594.952	16930.76
595.311	17161.26
595.67	17514.02
596.029	17997.85
596.387	18262.92
596.746	18547.89
597.104	18702.01
597.463	19055.67
597.822	19392.16
598.18	19660.18
598.538	19956.44
598.897	20380.83
599.255	20502.19
599.613	20997.54
599.972	21153.02
600.33	21526.34
600.688	21676.62
601.046	22003.39
601.404	22472.53
601.762	22605.18
602.12	23055.57
602.478	23256.01
602.836	23560.64
603.194	23758.6
603.552	23984.36
603.91	24118.36
604.268	24609.42
604.625	24817.33
604.983	25133.48
605.341	25234.27
605.698	25532.11
606.056	25959.67
606.413	25983.17
606.771	26379.32
607.128	26638.07
607.485	26804.62
607.843	27101.56
608.2	27304.72
608.557	27646.18
608.914	27799.85
609.272	27928.66
609.629	28306.5
609.986	28586.95
610.343	28697.9
610.7	28933.6
611.057	29157.55
611.414	29304.44
611.771	29522.51
612.127	29819.68
612.484	29970.41
612.841	30148.94
613.198	30371.08
613.554	30506.67
613.911	30769.49
614.267	30872.99
614.624	31034.57
614.98	31271.17
615.337	31551.16
615.693	31672.51
616.05	31666.19
616.406	32042.67
616.762	32053.07
617.118	32019.85
617.475	32183.69
617.831	32485.83
618.187	32549.33
618.543	32768.31
618.899	33088.3
619.255	33155.41
619.611	33175.3
619.967	33349.76
620.323	33532.58
620.678	33628.17
621.034	33576.19
621.39	33701.16
621.746	33756.08
622.101	34268.38
622.457	34044.43
622.812	34054.82
623.168	34361.94
623.523	34422.95
623.879	34622.95
624.234	34590.18
624.589	34697.97
624.945	34789.49
625.3	34882.83
625.655	34845.99
626.01	35002.82
626.365	35090.96
626.72	35092.09
627.075	35138.19
627.43	35174.12
627.785	35222.03
628.14	35377.95
628.495	35507.89
628.85	35422.47
629.205	35403.94
629.559	35483.94
629.914	35433.09
630.269	35616.14
630.623	35491.62
630.978	35632.18
631.332	35759.41
631.687	35794.89
632.041	35756.48
632.396	35814.1
632.75	35610.72
633.104	35711.5
633.459	35799.19
633.813	35698.62
634.167	35725.97
634.521	35815.91
634.875	35969.58
635.229	35796.25
635.583	35773.88
635.937	35855.68
636.291	35848.45
636.645	35880.99
636.999	35710.15
637.352	36010.03
637.706	35807.32
638.06	35845.74
638.413	35768.68
638.767	35683.93
639.121	35822.91
639.474	35779.98
639.828	35732.97
640.181	35782.24
640.534	35826.3
640.888	35632.86
641.241	35710.37
641.594	35743.14
641.947	35810.71
642.301	35694.56
642.654	35783.82
643.007	35727.32
643.36	35623.6
643.713	35742.01
644.066	35886.87
644.419	35661.11
644.771	35491.17
645.124	35127.11
645.477	35125.53
645.83	34774.81
646.182	34707.46
646.535	34619.33
646.888	34780
647.24	34699.33
647.593	34818.42
647.945	34723.28
648.298	34607.8
648.65	34561.7
649.002	34514.47
649.355	34620.69
649.707	34623.62
650.059	34843.5
650.411	35242.59
650.763	35094.12
651.115	35594.22
651.467	35466.09
651.819	35412.53
652.171	35497.95
652.523	35371.85
652.875	35385.41
653.227	35328.46
653.578	35456.37
653.93	35414.56
654.282	35300.89
654.633	35268.58
654.985	35358.29
655.337	35310.16
655.688	35280.78
656.039	35475.58
656.391	35201.46
656.742	35315.81
657.094	35318.29
657.445	35523.71
657.796	35386.77
658.147	35191.07
658.498	35207.79
658.849	35276.94
659.2	35121.69
659.551	35147
659.902	35245.75
660.253	35135.7
660.604	35262.02
660.955	35047.79
661.306	35190.16
661.656	35074.23
662.007	35145.42
662.358	35136.6
662.708	35088.24
663.059	35089.15
663.409	34956.5
663.76	35261.35
664.11	35038.53
664.461	35144.29
664.811	35183.38
665.161	35126.89
665.511	35103.84
665.862	35074.69
666.212	35222.25
666.562	35092.54
666.912	35152.88
667.262	35003.73
667.612	35005.76
667.962	35105.19
668.312	35055.25
668.662	35316.71
669.011	35057.51
669.361	35124.4
669.711	35012.09
670.06	35067.91
670.41	34994.46
670.76	34951.75
671.109	35109.03
671.459	34983.16
671.808	34865.65
672.157	34944.97
672.507	34820.68
672.856	34926.44
673.205	34806.22
673.554	34960.79
673.904	34808.25
674.253	34954.69
674.602	34789.27
674.951	34448.71
675.3	34221.6
675.649	34594.25
675.998	34808.7
676.346	34847.12
676.695	34794.92
677.044	34620.23
677.393	34702.04
677.741	34847.57
678.09	34695.49
678.438	34459.11
678.787	34685.32
679.135	34663.17
679.484	34435.15
679.832	34577.75
680.181	34344.31
680.529	34436.96
680.877	34358.55
681.225	34269.06
681.573	34541.37
681.922	34189.28
682.27	34197.87
682.618	34324.87
682.966	34260.47
683.314	34179.79
683.661	34079.91
684.009	33932.79
684.357	33912.46
684.705	33850.99
685.053	33752.91
685.4	33727.83
685.748	33660.94
686.095	33601.73
686.443	33493.03
686.79	33518.57
687.138	33509.75
687.485	33410.32
687.832	33363.54
688.18	33439.25
688.527	33140.05
688.874	33262.3
689.221	33119.26
689.568	33102.31
689.915	33015.98
690.262	32929.88
690.609	32936.44
690.956	32807.85
691.303	32726.95
691.65	32672.26
691.997	32570.34
692.344	32412.61
692.69	32569.21
693.037	32403.12
693.383	32098.49
693.73	32310.01
694.077	32060.53
694.423	32081.54
694.769	32055.1
695.116	31974.88
695.462	31851.04
695.808	31730.82
696.155	31834.32
696.501	31576.25
696.847	31533.76
697.193	31385.74
697.539	31455.57
697.885	31264.84
698.231	31047.9
698.577	31193.66
698.923	31175.8
699.269	30970.39
699.614	30853.78
699.96	30666.67
700.306	30830.5
700.651	30608.59
700.997	30667.8
701.342	30490.4
701.688	30502.83
702.033	30357.97
702.379	30415.15
702.724	30242.72
703.069	30212.67
703.415	29960.24
703.76	30159.33
704.105	29998.89
704.45	29915.27
704.795	29719.35
705.14	29654.94
705.485	29583.53
705.83	29525.45
706.175	29577.88
706.52	29525.68
706.865	29399.35
707.209	29334.05
707.554	29351.45
707.899	29297.21
708.243	29072.58
708.588	29035.52
708.932	28943.32
709.277	28868.07
709.621	28844.79
709.966	28734.96
710.31	28733.61
710.654	28598.02
710.998	28658.13
711.342	28650.9
711.687	28525.93
712.031	28393.73
712.375	28303.34
712.719	28370.91
713.063	28327.07
713.407	28435.09
713.75	28178.6
714.094	28101.08
714.438	28093.85
714.782	28061.54
715.125	27894.76
715.469	28092.5
715.812	27933.18
716.156	27711.04
716.499	27803.69
716.843	27831.49
717.186	27605.73
717.53	27782
717.873	27690.92
718.216	27550.14
718.559	27489.12
718.902	27325.06
719.246	27176.59
719.589	27240.99
719.932	27165.51
720.275	27253.2
720.617	27126.42
720.96	27132.75
721.303	27059.08
721.646	27103.6
721.989	26972.07
722.331	26976.14
722.674	26838.52
723.016	26864.96
723.359	26856.82
723.701	26810.95
724.044	26672.42
724.386	26648.47
724.729	26671.97
725.071	26622.7
725.413	26463.61
725.755	26549.94
726.097	26454.12
726.439	26304.29
726.782	26369.38
727.124	26469.04
727.465	26230.4
727.807	26204.86
728.149	26207.12
728.491	26164.64
728.833	26205.31
729.175	26046.22
729.516	26080.12
729.858	25978.88
730.199	26048.48
730.541	25952.44
730.882	25981.36
731.224	25961.93
731.565	25841.71
731.906	25855.27
732.248	25866.34
732.589	25670.86
732.93	25629.28
733.271	25698.43
733.612	25566.46
733.953	25753.35
734.294	25624.09
734.635	25527.14
734.976	25699.11
735.317	25340.93
735.658	25456.41
735.999	25448.27
736.339	25534.37
736.68	25387.03
737.021	25364.88
737.361	25201.27
737.702	25365.79
738.042	25292.34
738.383	25264.32
738.723	25310.87
739.063	25160.6
739.404	25160.14
739.744	25164.44
740.084	25088.73
740.424	25110.43
740.764	25025.68
741.104	25006.48
741.444	24909.98
741.784	24907.72
742.124	24929.19
742.464	24884.44
742.804	24831.34
743.143	24806.93
743.483	24813.94
743.823	24745.69
744.162	24702.53
744.502	24663.66
744.841	24592.47
745.181	24764.22
745.52	24614.85
745.86	24670.89
746.199	24570.1
746.538	24570.55
746.877	24558.8
747.216	24621.85
747.556	24497.11
747.895	24568.97
748.234	24469.99
748.573	24389.99
748.911	24380.28
749.25	24300.05
749.589	24372.82
749.928	24309.77
750.267	24401.75
750.605	24295.31
750.944	24211.47
751.283	24191.36
751.621	24259.83
751.96	24128.98
752.298	24091.7
752.636	24149.77
752.975	23972.83
753.313	23972.15
753.651	24119.04
753.989	23893.74
754.327	23880.63
754.666	23756.11
755.004	23851.93
755.342	23829.78
755.679	23796.11
756.017	23698.04
756.355	23828.43
756.693	23698.49
757.031	23767.64
757.368	23641.99
757.706	23572.84
758.044	23597.47
758.381	23573.07
758.719	23468.21
759.056	23485.39
759.394	23400.42
759.731	23278.39
