Data from hue_300_FLMS001491_00071.txt Node
Date: Tue Feb 07 15:51:10 GMT 2017
User: dcchb
Spectrometer: FLMS00149
Trigger mode: 0
Integration Time (sec): 2.000000E-2
Scans to average: 10
Electric dark correction enabled: true
Nonlinearity correction enabled: false
Boxcar width: 0
XAxis mode: Wavelengths
Number of Pixels in Spectrum: 2048
>>>>>Begin Spectral Data<<<<<
341.393	7.78
341.776	7.78
342.16	7.78
342.543	-47.81
342.927	-66.34
343.31	-82.61
343.693	-72.44
344.077	-65.89
344.46	-66.34
344.843	-69.28
345.226	-38.09
345.61	-24.76
345.993	-19.34
346.376	-5.32
346.759	1
347.142	33.09
347.525	46.65
347.908	76.48
348.291	76.48
348.674	86.2
349.057	124.16
349.44	123.94
349.823	133.2
350.206	173.43
350.588	188.79
350.971	168.91
351.354	205.74
351.737	241
352.119	260.88
352.502	264.27
352.884	276.93
353.267	276.93
353.65	283.03
354.032	297.27
354.414	296.14
354.797	302.92
355.179	297.72
355.562	331.62
355.944	320.77
356.326	324.84
356.709	336.59
357.091	313.31
357.473	316.02
357.855	347.43
358.238	309.47
358.62	351.5
359.002	334.1
359.384	337.49
359.766	336.81
360.148	324.61
360.53	340.88
360.912	332.75
361.294	343.59
361.676	324.61
362.057	340.88
362.439	326.64
362.821	308.79
363.203	345.63
363.584	311.73
363.966	312.86
364.348	320.54
364.729	323.03
365.111	327.1
365.493	311.5
365.874	329.13
366.256	313.99
366.637	316.47
367.019	309.7
367.4	322.8
367.781	297.72
368.163	313.31
368.544	297.27
368.925	308.34
369.306	314.44
369.688	326.19
370.069	298.62
370.45	319.41
370.831	302.01
371.212	314.44
371.593	288.45
371.974	323.03
372.355	320.77
372.736	306.98
373.117	330.71
373.498	313.76
373.879	310.37
374.26	297.49
374.641	309.02
375.021	298.62
375.402	313.08
375.783	318.73
376.163	315.57
376.544	326.64
376.925	322.35
377.305	310.6
377.686	311.05
378.066	324.38
378.447	326.42
378.827	342.01
379.208	323.25
379.588	334.33
379.968	339.98
380.349	346.3
380.729	331.62
381.109	320.32
381.489	315.34
381.87	327.77
382.25	349.47
382.63	357.6
383.01	375.23
383.39	354.21
383.77	341.78
384.15	320.54
384.53	335.91
384.91	342.46
385.29	342.91
385.67	354.21
386.049	342.24
386.429	334.1
386.809	339.75
387.189	363.48
387.568	352.18
387.948	340.43
388.328	369.81
388.707	350.15
389.087	355.57
389.466	368.45
389.846	369.35
390.225	350.37
390.605	376.59
390.984	354.89
391.363	374.1
391.743	377.49
392.122	360.54
392.501	354.21
392.881	372.07
393.26	383.37
393.639	389.69
394.018	382.46
394.397	367.55
394.776	377.49
395.155	398.96
395.534	388.56
395.913	400.77
396.292	381.56
396.671	393.99
397.05	375.23
397.429	368.9
397.808	384.5
398.186	403.7
398.565	391.05
398.944	381.78
399.323	408
399.701	400.09
400.08	399.41
400.458	417.26
400.837	397.6
401.215	410.71
401.594	410.94
401.972	433.08
402.351	416.59
402.729	426.98
403.107	423.36
403.486	422.23
403.864	411.39
404.242	446.64
404.62	447.09
404.999	450.93
405.377	430.37
405.755	450.03
406.133	445.06
406.511	456.36
406.889	462.23
407.267	484.38
407.645	472.4
408.023	486.64
408.401	466.3
408.779	494.55
409.156	493.19
409.534	511.5
409.912	511.05
410.29	494.1
410.667	512.85
411.045	537.03
411.422	530.71
411.8	520.31
412.178	553.3
412.555	582.68
412.933	541.78
413.31	568.67
413.687	575.22
414.065	563.25
414.442	563.93
414.819	615.68
415.197	612.29
415.574	637.6
415.951	628.33
416.328	637.14
416.705	627.2
417.082	660.19
417.46	664.04
417.837	659.74
418.214	674.43
418.591	699.52
418.967	696.8
419.344	683.02
419.721	706.75
420.098	711.94
420.475	714.43
420.852	719.85
421.228	738.16
421.605	748.78
421.982	769.8
422.358	772.06
422.735	786.52
423.111	763.92
423.488	807.76
423.864	781.32
424.241	819.29
424.617	814.31
424.994	815.67
425.37	834.88
425.746	842.56
426.123	849.12
426.499	866.06
426.875	862.45
427.251	882.56
427.627	869.45
428.003	901.09
428.379	912.62
428.756	944.71
429.132	955.33
429.507	964.82
429.883	969.79
430.259	978.6
430.635	959.4
431.011	989
431.387	1025.38
431.763	1033.97
432.138	1040.52
432.514	1051.82
432.89	1048.21
433.265	1070.58
433.641	1080.75
434.016	1074.42
434.392	1083.69
434.767	1141.54
435.143	1121.2
435.518	1158.71
435.894	1134.53
436.269	1170.69
436.644	1162.1
437.02	1170.69
437.395	1200.75
437.77	1203.23
438.145	1228.09
438.52	1219.5
438.895	1220.63
439.271	1228.99
439.646	1265.15
440.021	1268.09
440.395	1255.89
440.77	1280.07
441.145	1274.19
441.52	1290.01
441.895	1295.66
442.27	1319.61
442.645	1287.97
443.019	1319.84
443.394	1331.14
443.769	1320.06
444.143	1315.32
444.518	1356.45
444.892	1352.38
445.267	1370.68
445.641	1370.46
446.016	1371.59
446.39	1399.16
446.764	1395.77
447.139	1358.71
447.513	1381.53
447.887	1379.27
448.262	1392.83
448.636	1390.8
449.01	1419.95
449.384	1438.25
449.758	1420.63
450.132	1419.27
450.506	1450.46
450.88	1454.98
451.254	1427.86
451.628	1442.77
452.002	1471.02
452.376	1454.3
452.75	1481.42
453.123	1521.87
453.497	1490.23
453.871	1498.14
454.244	1510.57
454.618	1513.51
454.992	1539.27
455.365	1558.48
455.739	1571.81
456.112	1603.67
456.486	1592.37
456.859	1559.38
457.232	1594.86
457.606	1587.4
457.979	1620.17
458.352	1632.6
458.725	1659.94
459.099	1628.76
459.472	1695.2
459.845	1702.88
460.218	1722.09
460.591	1745.14
460.964	1718.02
461.337	1740.17
461.71	1768.64
462.083	1783.78
462.456	1804.57
462.829	1774.97
463.201	1819.49
463.574	1817.23
463.947	1820.84
464.32	1856.32
464.692	1847.96
465.065	1855.87
465.438	1882.54
465.81	1907.62
466.183	1903.78
466.555	1956.66
466.928	1946.26
467.3	1961.86
467.672	1985.13
468.045	2015.19
468.417	1996.88
468.789	2024
469.161	2055.64
469.534	2028.29
469.906	2107.84
470.278	2077.78
470.65	2129.31
471.022	2157.56
471.394	2174.73
471.766	2130.44
472.138	2193.49
472.51	2247.27
472.882	2239.36
473.253	2244.11
473.625	2295.41
473.997	2346.48
474.369	2334.73
474.74	2329.76
475.112	2385.12
475.484	2409.08
475.855	2428.28
476.227	2452.01
476.598	2485.01
476.97	2512.8
477.341	2531.11
477.713	2554.61
478.084	2580.82
478.455	2624.44
478.827	2583.08
479.198	2687.71
479.569	2677.54
479.94	2704.21
480.311	2760.25
480.682	2807.26
481.053	2832.34
481.424	2829.63
481.795	2873.7
482.166	2930.87
482.537	2929.29
482.908	2955.28
483.279	3007.93
483.65	3016.97
484.021	3065.1
484.391	3104.88
484.762	3108.94
485.133	3108.49
485.503	3157.76
485.874	3165.89
486.244	3190.52
486.615	3239.79
486.985	3299.67
487.356	3322.05
487.726	3316.62
488.097	3404.08
488.467	3366.79
488.837	3445.66
489.207	3439.56
489.578	3508.26
489.948	3523.85
490.318	3547.35
490.688	3572.43
491.058	3604.07
491.428	3641.13
491.798	3714.58
492.168	3776.5
492.538	3718.42
492.908	3763.62
493.278	3735.37
493.648	3766.55
494.017	3814.91
494.387	3836.83
494.757	3875.7
495.126	3919.32
495.496	3943.27
495.866	3917.51
496.235	3948.24
496.605	3956.38
496.974	3949.37
497.344	4041.12
497.713	4017.85
498.082	4057.17
498.452	4109.82
498.821	4136.26
499.19	4094
499.559	4143.72
499.928	4108.47
500.298	4136.04
500.667	4208.58
501.036	4154.57
501.405	4232.08
501.774	4197.05
502.143	4205.64
502.512	4249.03
502.88	4276.6
503.249	4267.78
503.618	4259.42
503.987	4291.51
504.356	4307.1
504.724	4338.29
505.093	4330.38
505.462	4349.82
505.83	4375.35
506.199	4424.39
506.567	4458.06
506.936	4449.47
507.304	4473.2
507.672	4476.14
508.041	4505.74
508.409	4518.62
508.777	4536.93
509.145	4522.69
509.514	4550.49
509.882	4574.89
510.25	4570.15
510.618	4580.32
510.986	4562.01
511.354	4629.58
511.722	4663.71
512.09	4693.08
512.458	4617.6
512.826	4696.47
513.193	4722.91
513.561	4719.07
513.929	4745.06
514.297	4755.91
514.664	4803.59
515.032	4784.38
515.4	4828.67
515.767	4794.32
516.135	4818.05
516.502	4804.94
516.869	4840.65
517.237	4888.56
517.604	4786.41
517.972	4887.88
518.339	4911.83
518.706	4862.57
519.073	4933.75
519.44	4947.31
519.808	5009.23
520.175	4990.48
520.542	4955
520.909	4979.4
521.276	4994.54
521.643	5021.89
522.009	4998.39
522.376	5069.57
522.743	5074.54
523.11	5090.36
523.477	5167.19
523.843	5168.78
524.21	5206.29
524.577	5205.84
524.943	5204.93
525.31	5171.26
525.676	5296
526.043	5303.91
526.409	5371.26
526.776	5372.16
527.142	5366.29
527.508	5347.3
527.874	5395.66
528.241	5486.51
528.607	5448.32
528.973	5493.51
529.339	5486.73
529.705	5597.92
530.071	5600.18
530.437	5582.55
530.803	5678.14
531.169	5644.24
531.535	5635.88
531.901	5680.85
532.267	5725.15
532.632	5709.33
532.998	5705.49
533.364	5782.09
533.73	5811.02
534.095	5858.7
534.461	5834.52
534.826	5867.06
535.192	5876.33
535.557	5964.91
535.923	5943.22
536.288	5968.08
536.653	6023.44
537.019	5962.43
537.384	6084.46
537.749	6031.35
538.114	6085.59
538.479	6081.97
538.845	6110.22
539.21	6139.6
539.575	6126.72
539.94	6189.54
540.305	6209.88
540.67	6164
541.034	6216.88
541.399	6270.44
541.764	6251.91
542.129	6268.18
542.494	6276.77
542.858	6364.45
543.223	6369.87
543.587	6423.43
543.952	6377.33
544.316	6467.95
544.681	6470.89
545.045	6464.11
545.41	6524.67
545.774	6531.45
546.138	6590.66
546.503	6570.32
546.867	6622.75
547.231	6701.39
547.595	6665.91
547.959	6694.16
548.324	6707.72
548.688	6718.57
549.052	6730.32
549.416	6771.67
549.779	6758.34
550.143	6803.99
550.507	6800.15
550.871	6834.04
551.235	6877.43
551.599	6924.66
551.962	6943.65
552.326	6916.75
552.689	6997.2
553.053	6959.24
553.417	7003.76
553.78	7060.03
554.143	6993.14
554.507	7063.64
554.87	7033.36
555.234	7153.58
555.597	7069.29
555.96	7083.53
556.323	7141.83
556.686	7128.95
557.05	7233.58
557.413	7208.5
557.776	7200.14
558.139	7288.27
558.502	7281.94
558.865	7278.55
559.228	7302.51
559.59	7369.4
559.953	7388.38
560.316	7438.77
560.679	7405.1
561.041	7443.97
561.404	7530.3
561.767	7492.56
562.129	7506.12
562.492	7577.3
562.854	7606.45
563.217	7654.36
563.579	7648.26
563.941	7614.59
564.304	7682.83
564.666	7689.16
565.028	7685.55
565.39	7785.2
565.753	7808.26
566.115	7726.68
566.477	7797.41
566.839	7829.95
567.201	7821.36
567.563	7892.32
567.925	7958.53
568.287	7883.28
568.648	7985.2
569.01	7977.06
569.372	8085.31
569.734	8014.35
570.095	8148.13
570.457	8169.6
570.819	8164.18
571.18	8204.4
571.542	8263.16
571.903	8313.78
572.265	8294.34
572.626	8373.21
572.987	8358.52
573.349	8414.34
573.71	8514.68
574.071	8533.43
574.432	8549.25
574.794	8744.95
575.155	8684.62
575.516	8734.56
575.877	8884.39
576.238	8898.17
576.599	8962.58
576.96	9017.94
577.32	9078.96
577.681	9177.26
578.042	9262.23
578.403	9339.51
578.763	9433.98
579.124	9559.17
579.485	9700.86
579.845	9771.82
580.206	9899.27
580.566	9979.5
580.927	10118.48
581.287	10261.98
581.648	10383.78
582.008	10564.11
582.368	10665.13
582.728	10903.32
583.089	10970.21
583.449	11156.19
583.809	11261.72
584.169	11541.04
584.529	11643.18
584.889	11960.46
585.249	12034.36
585.609	12298.31
585.969	12494.23
586.329	12713.89
586.688	12895.35
587.048	13125.4
587.408	13333.08
587.768	13602.91
588.127	13858.72
588.487	14035.89
588.846	14392.71
589.206	14490.11
589.565	14806.94
589.925	15157.44
590.284	15312.01
590.643	15713.58
591.003	15905.22
591.362	16278.99
591.721	16445.99
592.08	16782.26
592.44	17157.61
592.799	17419.53
593.158	17713.98
593.517	17916.92
593.876	18369.11
594.235	18483.23
594.593	18838.7
594.952	19101.97
595.311	19413.15
595.67	19719.35
596.029	20140.13
596.387	20415.61
596.746	20712.77
597.104	20883.84
597.463	21238.64
597.822	21543.26
598.18	21808.79
598.538	22091.95
598.897	22557.25
599.255	22619.17
599.613	23249.66
599.972	23405.13
600.33	23590.67
600.688	23811.22
601.046	24235.85
601.404	24704.31
601.762	24825.89
602.12	25226.78
602.478	25405.98
602.836	25656.37
603.194	25778.4
603.552	26240.76
603.91	26317.37
604.268	26642.79
604.625	26838.04
604.983	27126.62
605.341	27219.95
605.698	27722.31
606.056	27859.25
606.413	28150.09
606.771	28539.46
607.128	28739.91
607.485	28971.09
607.843	29077.53
608.2	29401.81
608.557	29710.96
608.914	29778.07
609.272	30087.22
609.629	30408.56
609.986	30733.75
610.343	30727.43
610.7	31119.73
611.057	31172.61
611.414	31406.5
611.771	31638.14
612.127	31831.13
612.484	31941.41
612.841	32259.59
613.198	32376.87
613.554	32448.96
613.911	32749.75
614.267	33038.55
614.624	33010.08
614.98	33241.71
615.337	33483.96
615.693	33516.96
616.05	33635.37
616.406	33967.79
616.762	33874.24
617.118	34146.09
617.475	34215.7
617.831	34391.96
618.187	34682.12
618.543	34844.83
618.899	35055.22
619.255	35078.5
619.611	35170.47
619.967	35292.96
620.323	35516.91
620.678	35467.41
621.034	35728.42
621.39	35660.86
621.746	35743.79
622.101	36324.79
622.457	36025.82
622.812	36191.69
623.168	36382.42
623.523	36486.82
623.879	36607.72
624.234	36364.34
624.589	36666.71
624.945	36877.55
625.3	36950.99
625.655	36781.5
626.01	36892.46
626.365	37103.08
626.72	37165.22
627.075	37197.99
627.43	37307.59
627.785	37179.91
628.14	37301.94
628.495	37351.21
628.85	37401.6
629.205	37367.7
629.559	37597.3
629.914	37414.71
630.269	37614.48
630.623	37537.42
630.978	37513.69
631.332	37690.63
631.687	37745.1
632.041	37598.43
632.396	37674.81
632.75	37746.23
633.104	37833.91
633.459	37659
633.813	37631.43
634.167	37754.59
634.521	37746.68
634.875	37851.08
635.229	37750.52
635.583	37746.45
635.937	37605.21
636.291	37731.54
636.645	37732.89
636.999	37745.55
637.352	37853.11
637.706	37691.54
638.06	37834.36
638.413	37809.73
638.767	37764.3
639.121	37757.75
639.474	37492.45
639.828	37708.49
640.181	37756.62
640.534	37705.77
640.888	37599.34
641.241	37616.96
641.594	37529.73
641.947	37693.57
642.301	37704.19
642.654	37655.38
643.007	37693.35
643.36	37654.7
643.713	37681.14
644.066	37809.5
644.419	37578.09
644.771	37247.48
645.124	36982.86
645.477	37038.67
645.83	36690.21
646.182	36655.63
646.535	36565.69
646.888	36636.42
647.24	36462.19
647.593	36717.78
647.945	36645.01
648.298	36403.89
648.65	36454.28
649.002	36304.91
649.355	36446.15
649.707	36441.63
650.059	36717.55
650.411	37028.96
650.763	36950.09
651.115	37326.58
651.467	37285.67
651.819	37430.3
652.171	37236.63
652.523	37292.68
652.875	37169.97
653.227	37049.07
653.578	37260.81
653.93	37204.77
654.282	36978.56
654.633	36948.51
654.985	37176.3
655.337	37176.07
655.688	37150.08
656.039	37272.57
656.391	36962.97
656.742	37066.24
657.094	37108.73
657.445	37232.79
657.796	37028.05
658.147	37034.15
658.498	37041.16
658.849	37101.95
659.2	37116.19
659.551	36945.57
659.902	37176.3
660.253	37036.87
660.604	37061.5
660.955	36901.95
661.306	37108.28
661.656	37014.94
662.007	36949.41
662.358	37019.01
662.708	37132.46
663.059	37009.97
663.409	36885.23
663.76	36960.26
664.11	36843.42
664.461	37014.72
664.811	36966.36
665.161	36980.14
665.511	36771.11
665.862	36789.41
666.212	37052.91
666.562	37056.3
666.912	37017.88
667.262	36903.54
667.612	36842.97
667.962	36946.47
668.312	36918.9
668.662	37121.16
669.011	36946.7
669.361	36986.02
669.711	36910.09
670.06	36771.56
670.41	36844.1
670.76	36826.02
671.109	36921.84
671.459	36759.58
671.808	36797.78
672.157	36734.95
672.507	36633.71
672.856	36638.68
673.205	36768.17
673.554	36813.59
673.904	36606.37
674.253	36818.79
674.602	36541.06
674.951	36233.27
675.3	35914.41
675.649	36427.39
675.998	36486.15
676.346	36550.55
676.695	36792.35
677.044	36360.27
677.393	36542.64
677.741	36528.4
678.09	36550.78
678.438	36400.72
678.787	36384.23
679.135	36452.7
679.484	36143.33
679.832	36285.25
680.181	36022.65
680.529	36350.1
680.877	36083.22
681.225	36138.58
681.573	36290.22
681.922	35977.23
682.27	36099.71
682.618	35915.54
682.966	35821.76
683.314	35840.51
683.661	35791.25
684.009	35648.88
684.357	35574.3
684.705	35506.96
685.053	35732.04
685.4	35562.33
685.748	35374.54
686.095	35283.01
686.443	35260.41
686.79	35258.61
687.138	35324.37
687.485	35286.18
687.832	35151.72
688.18	35166.18
688.527	34988.33
688.874	34808.68
689.221	34838.96
689.568	34740.88
689.915	34732.97
690.262	34643.93
690.609	34441.91
690.956	34450.27
691.303	34337.5
691.65	34398.74
691.997	34311.29
692.344	34091.63
692.69	34158.07
693.037	34151.52
693.383	33802.37
693.73	33897.06
694.077	33715.6
694.423	33784.97
694.769	33558.99
695.116	33563.74
695.462	33436.96
695.808	33424.53
696.155	33463.4
696.501	33172.33
696.847	33169.62
697.193	32914.04
697.539	33182.05
697.885	32875.62
698.231	32749.52
698.577	32853.92
698.923	32724.44
699.269	32621.16
699.614	32401.96
699.96	32260.27
700.306	32292.58
700.651	32115.86
700.997	32098.46
701.342	32079.26
701.688	31956.32
702.033	31964.91
702.379	31817.79
702.724	31752.26
703.069	31898.24
703.415	31429.78
703.76	31336
704.105	31432.49
704.45	31331.93
704.795	31170.8
705.14	31038.38
705.485	31102.11
705.83	30931.49
706.175	31064.82
706.52	30903.24
706.865	30818.05
707.209	30722.23
707.554	30719.97
707.899	30771.95
708.243	30556.36
708.588	30530.14
708.932	30362.01
709.277	30371.05
709.621	30298.96
709.966	30143.94
710.31	30213.54
710.654	29940.55
710.998	30028.24
711.342	30054.22
711.687	29952.31
712.031	29819.88
712.375	29754.8
712.719	29699.88
713.063	29678.87
713.407	29856.49
713.75	29581.24
714.094	29618.53
714.438	29425.54
714.782	29546.67
715.125	29342.6
715.469	29416.5
715.812	29184.19
716.156	29064.87
716.499	29208.6
716.843	29064.42
717.186	28904.2
717.53	29087.7
717.873	29084.08
718.216	28964.08
718.559	28833.47
718.902	28694.49
719.246	28726.35
719.589	28645.9
719.932	28499.69
720.275	28471.21
720.617	28496.75
720.96	28376.98
721.303	28487.49
721.646	28526.81
721.989	28272.35
722.331	28306.25
722.674	28163.88
723.016	28243.65
723.359	28192.58
723.701	28086.59
724.044	28028.06
724.386	27911
724.729	27903.09
725.071	27897.67
725.413	27870.1
725.755	27835.75
726.097	27718.69
726.439	27538.58
726.782	27701.29
727.124	27832.81
727.465	27692.25
727.807	27624.68
728.149	27704.91
728.491	27567.28
728.833	27564.8
729.175	27544.69
729.516	27432.6
729.858	27271.47
730.199	27416.55
730.541	27389.21
730.882	27321.87
731.224	27412.94
731.565	27259.72
731.906	27245.71
732.248	27223.11
732.589	27046.62
732.93	27129.33
733.271	27074.87
733.612	27064.92
733.953	27069.22
734.294	26843.23
734.635	26923.23
734.976	26918.04
735.317	26742.45
735.658	26746.74
735.999	26838.26
736.339	26743.8
736.68	26779.96
737.021	26676.69
737.361	26521.21
737.702	26645.73
738.042	26607.53
738.383	26460.42
738.723	26574.99
739.063	26536.35
739.404	26507.42
739.744	26512.62
740.084	26357.37
740.424	26322.12
740.764	26324.6
741.104	26350.14
741.444	26220.2
741.784	26130.49
742.124	26197.38
742.464	26247.09
742.804	26183.59
743.143	26053.2
743.483	25983.14
743.823	25855.46
744.162	25925.74
744.502	26014.78
744.841	25768.01
745.181	26045.29
745.52	25875.8
745.86	25972.3
746.199	25847.55
746.538	25678.97
746.877	25897.05
747.216	25782.25
747.556	25738.86
747.895	25761.91
748.234	25695.92
748.573	25675.58
748.911	25642.81
749.25	25703.83
749.589	25559.88
749.928	25630.16
750.267	25612.08
750.605	25539.09
750.944	25405.31
751.283	25345.2
751.621	25422.93
751.96	25266.55
752.298	25409.15
752.636	25283.95
752.975	25247.34
753.313	25183.84
753.651	25327.34
753.989	25129.38
754.327	25189.04
754.666	25034.02
755.004	25043.51
755.342	24990.85
755.679	25070.85
756.017	24867.92
756.355	25011.42
756.693	24846.45
757.031	24904.98
757.368	24809.62
757.706	24768.04
758.044	24681.26
758.381	24785.89
758.719	24629.06
759.056	24604.88
759.394	24608.94
759.731	24531.43
