Data from hue_28_FLMS001491_00020.txt Node
Date: Tue Feb 07 17:16:56 GMT 2017
User: dcchb
Spectrometer: FLMS00149
Trigger mode: 0
Integration Time (sec): 2.000000E-2
Scans to average: 10
Electric dark correction enabled: true
Nonlinearity correction enabled: false
Boxcar width: 0
XAxis mode: Wavelengths
Number of Pixels in Spectrum: 2048
>>>>>Begin Spectral Data<<<<<
341.393	-20.47
341.776	-20.47
342.16	-20.47
342.543	-40.8
342.927	-89.84
343.31	-57.53
343.693	-70.18
344.077	-76.06
344.46	-49.62
344.843	-69.96
345.226	-52.78
345.61	-34.93
345.993	-12.78
346.376	-9.84
346.759	-9.17
347.142	22.02
347.525	56.14
347.908	73.54
348.291	86.2
348.674	94.56
349.057	110.38
349.44	128.01
349.823	140.66
350.206	176.59
350.588	202.81
350.971	213.43
351.354	228.12
351.737	226.08
352.119	232.86
352.502	291.84
352.884	268.34
353.267	283.71
353.65	290.49
354.032	309.02
354.414	328.9
354.797	313.76
355.179	305.18
355.562	335.01
355.944	347.21
356.326	339.52
356.709	326.42
357.091	337.72
357.473	359.19
357.855	356.47
358.238	332.75
358.62	358.73
359.002	344.72
359.384	359.41
359.766	358.51
360.148	343.82
360.53	339.98
360.912	335.46
361.294	339.3
361.676	339.75
362.057	347.66
362.439	353.99
362.821	340.43
363.203	331.62
363.584	326.19
363.966	321.22
364.348	330.03
364.729	327.77
365.111	308.34
365.493	315.12
365.874	323.48
366.256	341.56
366.637	325.51
367.019	322.8
367.4	317.83
367.781	325.51
368.163	316.7
368.544	318.73
368.925	318.28
369.306	332.75
369.688	321.9
370.069	306.31
370.45	305.63
370.831	334.33
371.212	317.6
371.593	284.61
371.974	309.92
372.355	311.28
372.736	323.48
373.117	315.8
373.498	313.54
373.879	321.9
374.26	323.03
374.641	283.71
375.021	314.67
375.402	324.38
375.783	323.03
376.163	325.97
376.544	333.88
376.925	319.64
377.305	318.28
377.686	320.32
378.066	341.33
378.447	321.67
378.827	332.75
379.208	320.32
379.588	349.92
379.968	331.62
380.349	372.97
380.729	317.38
381.109	334.1
381.489	329.58
381.87	335.01
382.25	335.68
382.63	347.21
383.01	339.52
383.39	350.37
383.77	338.62
384.15	336.81
384.53	347.21
384.91	347.21
385.29	316.7
385.67	341.33
386.049	347.66
386.429	353.54
386.809	360.09
387.189	359.19
387.568	371.84
387.948	348.79
388.328	355.57
388.707	365.96
389.087	368
389.466	358.73
389.846	358.06
390.225	358.96
390.605	369.13
390.984	361.22
391.363	362.12
391.743	392.18
392.122	382.01
392.501	360.32
392.881	376.13
393.26	368
393.639	360.99
394.018	369.35
394.397	381.56
394.776	370.03
395.155	372.29
395.534	389.02
395.913	396.7
396.292	377.94
396.671	400.99
397.05	379.75
397.429	397.6
397.808	377.49
398.186	375.46
398.565	380.2
398.944	374.78
399.323	407.32
399.701	399.64
400.08	399.18
400.458	402.35
400.837	388.79
401.215	395.34
401.594	391.05
401.972	385.4
402.351	406.42
402.729	405.96
403.107	400.09
403.486	421.56
403.864	434.66
404.242	420.43
404.62	445.96
404.999	421.56
405.377	429.24
405.755	400.77
406.133	404.61
406.511	435.57
406.889	430.14
407.267	418.62
407.645	438.73
408.023	430.37
408.401	433.08
408.779	439.86
409.156	433.99
409.534	450.48
409.912	448
410.29	436.47
410.667	450.48
411.045	427.21
411.422	460.88
411.8	440.99
412.178	462.23
412.555	448.45
412.933	455.68
413.31	472.85
413.687	475.79
414.065	490.93
414.442	466.3
414.819	501.33
415.197	480.99
415.574	493.65
415.951	512.63
416.328	494.32
416.705	501.33
417.082	492.06
417.46	507.66
417.837	507.88
418.214	504.49
418.591	483.48
418.967	495.91
419.344	511.27
419.721	518.5
420.098	525.73
420.475	526.41
420.852	489.35
421.228	526.41
421.605	551.72
421.982	530.03
422.358	544.27
422.735	526.41
423.111	530.93
423.488	539.75
423.864	531.84
424.241	555.56
424.617	534.1
424.994	544.27
425.37	549.01
425.746	558.95
426.123	539.07
426.499	558.95
426.875	562.57
427.251	553.08
427.627	591.72
428.003	567.54
428.379	575.9
428.756	586.52
429.132	580.2
429.507	584.26
429.883	600.31
430.259	603.47
430.635	600.99
431.011	603.92
431.387	627.88
431.763	615.68
432.138	622
432.514	624.04
432.89	633.98
433.265	645.28
433.641	643.92
434.016	643.25
434.392	638.05
434.767	678.5
435.143	669.91
435.518	651.38
435.894	689.57
436.269	671.27
436.644	668.33
437.02	696.35
437.395	693.41
437.77	704.94
438.145	709.91
438.52	700.87
438.895	717.37
439.271	710.14
439.646	741.32
440.021	709.46
440.395	718.72
440.77	722.11
441.145	749.23
441.52	756.92
441.895	746.29
442.27	744.71
442.645	743.13
443.019	792.62
443.394	748.55
443.769	763.24
444.143	760.08
444.518	779.29
444.892	802.11
445.267	771.6
445.641	773.86
446.016	777.03
446.39	790.59
446.764	799.4
447.139	816.57
447.513	791.72
447.887	801.21
448.262	790.36
448.636	817.7
449.01	820.64
449.384	845.27
449.758	837.82
450.132	838.72
450.506	839.4
450.88	855.9
451.254	846.4
451.628	866.29
452.002	873.52
452.376	877.36
452.75	869.68
453.123	870.13
453.497	877.59
453.871	895.44
454.244	911.94
454.618	921.2
454.992	911.04
455.365	906.06
455.739	965.27
456.112	955.1
456.486	949.23
456.859	963.92
457.232	954.65
457.606	963.46
457.979	1002.78
458.352	987.64
458.725	1003.46
459.099	1015.67
459.472	1032.84
459.845	1039.85
460.218	1035.55
460.591	1047.98
460.964	1062.9
461.337	1094.53
461.71	1099.5
462.083	1134.98
462.456	1121.2
462.829	1097.25
463.201	1151.03
463.574	1136.34
463.947	1156.45
464.32	1156.9
464.692	1178.15
465.065	1177.02
465.438	1209.11
465.81	1213.4
466.183	1220.86
466.555	1241.2
466.928	1241.87
467.3	1276.22
467.672	1265.15
468.045	1308.77
468.417	1291.36
468.789	1331.82
469.161	1379.05
469.534	1361.19
469.906	1400.74
470.278	1385.15
470.65	1427.41
471.022	1438.25
471.394	1452.94
471.766	1490.91
472.138	1502.88
472.51	1521.87
472.882	1543.79
473.253	1608.87
473.625	1592.15
473.997	1617.68
474.369	1662.43
474.74	1652.03
475.112	1702.65
475.484	1711.92
475.855	1785.81
476.227	1789.43
476.598	1817.23
476.97	1841.63
477.341	1871.46
477.713	1924.34
478.084	1920.73
478.455	1999.37
478.827	2023.77
479.198	2119.37
479.569	2091.8
479.94	2125.47
480.311	2189.87
480.682	2240.72
481.053	2285.24
481.424	2306.7
481.795	2357.33
482.166	2379.47
482.537	2432.8
482.908	2518.22
483.279	2526.59
483.65	2570.2
484.021	2633.7
484.391	2688.39
484.762	2696.53
485.133	2767.71
485.503	2835.96
485.874	2880.02
486.244	2905.79
486.615	3016.06
486.985	3032.79
487.356	3109.85
487.726	3148.26
488.097	3195.5
488.467	3245.66
488.837	3308.26
489.207	3306
489.578	3414.02
489.948	3455.38
490.318	3510.74
490.688	3529.05
491.058	3614.92
491.428	3691.98
491.798	3722.94
492.168	3813.11
492.538	3849.49
492.908	3880
493.278	3920.67
493.648	3956.38
494.017	4015.81
494.387	4088.8
494.757	4108.69
495.126	4167.67
495.496	4219.42
495.866	4256.94
496.235	4291.96
496.605	4399.31
496.974	4415.8
497.344	4449.02
497.713	4472.52
498.082	4540.32
498.452	4576.25
498.821	4561.11
499.19	4624.16
499.559	4635.01
499.928	4732.63
500.298	4769.01
500.667	4758.17
501.036	4803.36
501.405	4849.69
501.774	4873.87
502.143	4933.53
502.512	4916.58
502.88	5034.99
503.249	4969.91
503.618	5047.2
503.987	5050.36
504.356	5102.34
504.724	5087.42
505.093	5127.87
505.462	5181.21
505.83	5194.09
506.199	5211.94
506.567	5305.5
506.936	5331.03
507.304	5411.71
507.672	5373.06
508.041	5456.9
508.409	5397.7
508.777	5513.4
509.145	5535.55
509.514	5509.78
509.882	5559.73
510.25	5556.56
510.618	5632.49
510.986	5613.74
511.354	5679.27
511.722	5741.42
512.09	5792.04
512.458	5753.62
512.826	5794.75
513.193	5803.11
513.561	5858.25
513.929	5880.62
514.297	5940.73
514.664	6041.52
515.032	5984.12
515.4	6011.69
515.767	6070.67
516.135	6059.37
516.502	6042.88
516.869	6080.16
517.237	6126.49
517.604	6152.25
517.972	6154.74
518.339	6193.16
518.706	6202.65
519.073	6260.5
519.44	6236.09
519.808	6305.47
520.175	6280.39
520.542	6352.7
520.909	6430.21
521.276	6361.29
521.643	6472.47
522.009	6488.97
522.376	6502.75
522.743	6542.98
523.11	6614.61
523.477	6656.2
523.843	6641.51
524.21	6743.65
524.577	6773.25
524.943	6796.3
525.31	6863.87
525.676	6864.55
526.043	6929.18
526.409	6904.55
526.776	7003.53
527.142	7018.67
527.508	6984.77
527.874	7060.93
528.241	7066.58
528.607	7121.27
528.973	7235.16
529.339	7139.8
529.705	7222.51
530.071	7330.53
530.437	7344.54
530.803	7370.75
531.169	7430.41
531.535	7409.85
531.901	7438.55
532.267	7456.85
532.632	7514.93
532.998	7550.86
533.364	7592.22
533.73	7683.96
534.095	7655.04
534.461	7682.16
534.826	7771.42
535.192	7791.53
535.557	7879.44
535.923	7821.81
536.288	7871.53
536.653	7918.08
537.019	7888.48
537.384	7999.89
537.749	8018.87
538.114	8019.32
538.479	7995.37
538.845	8054.12
539.21	8016.16
539.575	8092.77
539.94	8175.7
540.305	8217.96
540.67	8238.75
541.034	8288.47
541.399	8313.33
541.764	8267.45
542.129	8302.03
542.494	8365.98
542.858	8444.4
543.223	8368.69
543.587	8510.84
543.952	8518.07
544.316	8518.29
544.681	8525.75
545.045	8651.4
545.41	8722.13
545.774	8678.74
546.138	8687.1
546.503	8709.02
546.867	8743.82
547.231	8847.32
547.595	8810.04
547.959	8899.75
548.324	8891.84
548.688	8870.37
549.052	8918.96
549.416	8949.47
549.779	8986.76
550.143	9040.31
550.507	9059.07
550.871	9034.21
551.235	9071.72
551.599	9176.13
551.962	9161.89
552.326	9189.91
552.689	9300.19
553.053	9215.22
553.417	9330.93
553.78	9402.11
554.143	9374.32
554.507	9347.2
554.87	9409.12
555.234	9539.96
555.597	9461.32
555.96	9473.75
556.323	9493.41
556.686	9600.07
557.05	9612.73
557.413	9574.31
557.776	9676.91
558.139	9628.55
558.502	9721.2
558.865	9706.51
559.228	9845.94
559.59	9815.43
559.953	9799.84
560.316	9900.63
560.679	9927.3
561.041	10010.68
561.404	10037.35
561.767	10105.82
562.129	10040.06
562.492	10137.69
562.854	10112.6
563.217	10176.78
563.579	10228.76
563.941	10247.51
564.304	10303.56
564.666	10341.97
565.028	10394.18
565.39	10370.45
565.753	10425.14
566.115	10454.06
566.477	10527.73
566.839	10523.89
567.201	10599.59
567.563	10592.14
567.925	10682.98
568.287	10685.47
568.648	10664.9
569.01	10712.81
569.372	10742.64
569.734	10798.01
570.095	10836.42
570.457	10951.22
570.819	11006.82
571.18	11045.01
571.542	11100.6
571.903	11062.63
572.265	11177.43
572.626	11179.24
572.987	11212.69
573.349	11280.25
573.71	11399.12
574.071	11414.26
574.432	11520.25
574.794	11590.53
575.155	11634.14
575.516	11640.24
575.877	11770.64
576.238	11860.58
576.599	11922.5
576.96	12032.78
577.32	12028.48
577.681	12249.49
578.042	12237.74
578.403	12371.07
578.763	12483.84
579.124	12564.06
579.485	12755.24
579.845	12905.75
580.206	12892.87
580.566	13050.15
580.927	13153.2
581.287	13310.71
581.648	13427.32
582.008	13648.55
582.368	13752.51
582.728	13891.03
583.089	14101.2
583.449	14168.09
583.809	14426.61
584.169	14531.24
584.529	14846.94
584.889	15064.11
585.249	15123.09
585.609	15355.4
585.969	15604.43
586.329	15744.77
586.688	15960.13
587.048	16203.97
587.408	16427.69
587.768	16704.97
588.127	16933.66
588.487	17176.37
588.846	17534.78
589.206	17626.98
589.565	17926.63
589.925	18200.3
590.284	18474.42
590.643	18727.74
591.003	19187.62
591.362	19391.91
591.721	19606.81
592.08	19917.09
592.44	20276.63
592.799	20493.35
593.158	20744.64
593.517	21037.74
593.876	21202.93
594.235	21480.89
594.593	21797.94
594.952	22199.06
595.311	22438.38
595.67	22875.43
596.029	23246.72
596.387	23496.2
596.746	23865.23
597.104	23992.69
597.463	24316.75
597.822	24645.1
598.18	24882.16
598.538	25141.36
598.897	25641.68
599.255	25677.62
599.613	26362.34
599.972	26410.25
600.33	26727.31
600.688	26832.61
601.046	27268.99
601.404	27680.73
601.762	27868.74
602.12	28364.55
602.478	28544.89
602.836	28721.15
603.194	28880.92
603.552	29193.46
603.91	29317.75
604.268	29710.73
604.625	29860.56
604.983	30250.38
605.341	30446.98
605.698	30724.94
606.056	31080.86
606.413	31216.68
606.771	31549.1
607.128	31911.58
607.485	31868.87
607.843	32211.46
608.2	32481.73
608.557	32742.06
608.914	32871.1
609.272	33155.61
609.629	33496.85
609.986	33778.19
610.343	33682.38
610.7	34355.35
611.057	34314
611.414	34410.04
611.771	34655.01
612.127	34908.56
612.484	35126.41
612.841	35441.65
613.198	35378.15
613.554	35598.48
613.911	35807.74
614.267	36010.9
614.624	36126.83
614.98	36419.03
615.337	36763.43
615.693	36782.18
616.05	36979.24
616.406	37211.78
616.762	37228.27
617.118	37388.95
617.475	37460.81
617.831	37707.58
618.187	37724.53
618.543	38003.85
618.899	38294.46
619.255	38225.08
619.611	38433.44
619.967	38613.09
620.323	38687.9
620.678	38757.72
621.034	38748.91
621.39	38940.77
621.746	38944.61
622.101	39424.15
622.457	39175.11
622.812	39260.76
623.168	39633.41
623.523	39668.66
623.879	39719.51
624.234	39547.99
624.589	39745.95
624.945	39969.9
625.3	39973.74
625.655	40074.75
626.01	40264.12
626.365	40187.74
626.72	40254.63
627.075	40319.26
627.43	40395.19
627.785	40346.16
628.14	40566.72
628.495	40634.74
628.85	40711.12
629.205	40454.4
629.559	40900.94
629.914	40745.69
630.269	40804.68
630.623	40743.66
630.978	40660.27
631.332	40948.17
631.687	40995.18
632.041	40918.35
632.396	40902.07
632.75	40894.39
633.104	41055.29
633.459	40835.41
633.813	40807.61
634.167	40958.8
634.521	41047.16
634.875	41090.54
635.229	40948.17
635.583	40851.68
635.937	40955.18
636.291	40906.14
636.645	41034.73
636.999	40947.04
637.352	41060.26
637.706	40850.78
638.06	41064.78
638.413	41058.91
638.767	40924.67
639.121	40915.41
639.474	40770.33
639.828	40783.21
640.181	40831.12
640.534	40841.51
640.888	40756.99
641.241	40744.56
641.594	40742.53
641.947	40757.22
642.301	40838.12
642.654	40773.26
643.007	40926.71
643.36	40727.84
643.713	40639.71
644.066	40725.36
644.419	40757.45
644.771	40311.81
645.124	40088.54
645.477	40100.74
645.83	39825.27
646.182	39754.08
646.535	39599.28
646.888	39619.17
647.24	39308.22
647.593	39746.4
647.945	39635.89
648.298	39351.61
648.65	39385.28
649.002	39291.04
649.355	39573.75
649.707	39484.94
650.059	39676.34
650.411	40168.99
650.763	40118.37
651.115	40512.48
651.467	40399.26
651.819	40531.24
652.171	40264.58
652.523	40258.7
652.875	40257.12
653.227	40028.42
653.578	40434.06
653.93	40363.33
654.282	40092.83
654.633	40139.61
654.985	40190.45
655.337	40241.53
655.688	40204.69
656.039	40382.31
656.391	40003.57
656.742	40095.77
657.094	40133.96
657.445	40241.07
657.796	40128.99
658.147	40061.42
658.498	40071.59
658.849	40085.37
659.2	40051.7
659.551	39954.53
659.902	40113.17
660.253	40082.66
660.604	40004.7
660.955	39809.45
661.306	40073.62
661.656	40010.8
662.007	40101.42
662.358	40053.06
662.708	39915.66
663.059	40004.92
663.409	39742.33
663.76	39963.12
664.11	40020.52
664.461	40234.97
664.811	39999.27
665.161	40049.44
665.511	39971.7
665.862	39863.68
666.212	39956.56
666.562	40088.76
666.912	39818.03
667.262	39930.35
667.612	40023.68
667.962	40042.66
668.312	39740.52
668.662	40163.56
669.011	39922.21
669.361	39971.7
669.711	39957.92
670.06	39835.21
670.41	39793.63
670.76	39781.88
671.109	39982.1
671.459	39821.88
671.808	39600.64
672.157	39865.27
672.507	39482.9
672.856	39594.99
673.205	39628.21
673.554	39713.4
673.904	39721.77
674.253	39826.4
674.602	39730.13
674.951	39235.68
675.3	38820.32
675.649	39623.46
675.998	39486.97
676.346	39600.64
676.695	39700.98
677.044	39462.34
677.393	39528.55
677.741	39592.5
678.09	39417.37
678.438	39422.11
678.787	39453.07
679.135	39465.05
679.484	39239.75
679.832	39319.52
680.181	39209.92
680.529	39170.82
680.877	39238.62
681.225	39091.05
681.573	39346.18
681.922	39023.03
682.27	38929.7
682.618	38918.62
682.966	38836.14
683.314	38960.88
683.661	38889.47
684.009	38622.13
684.357	38512.31
684.705	38435.92
685.053	38577.39
685.4	38462.82
685.748	38252.88
686.095	38307.57
686.443	38197.29
686.79	38201.81
687.138	38312.54
687.485	38178.3
687.832	38159.32
688.18	38088.36
688.527	37910.51
688.874	37907.8
689.221	37733.34
689.568	37653.8
689.915	37628.94
690.262	37557.53
690.609	37523.41
690.956	37334.71
691.303	37320.02
691.65	37286.58
691.997	37246.8
692.344	37070.54
692.69	36828.06
693.037	37075.96
693.383	36708.74
693.73	36899.47
694.077	36615.86
694.423	36643.2
694.769	36499.48
695.116	36468.29
695.462	36469.65
695.808	36381.06
696.155	36341.97
696.501	36072.14
696.847	35977.68
697.193	35750.12
697.539	36059.26
697.885	35669.22
698.231	35552.84
698.577	35550.35
698.923	35599.84
699.269	35447.3
699.614	35320.53
699.96	35160.3
700.306	35210.7
700.651	35113.75
700.997	35022.68
701.342	34967.32
701.688	34751.73
702.033	34792.4
702.379	34672.63
702.724	34613.2
703.069	34640.54
703.415	34264.51
703.76	34373.21
704.105	34395.35
704.45	34260.21
704.795	34051.41
705.14	34049.15
705.485	34061.35
705.83	33796.95
706.175	33850.51
706.52	33745.88
706.865	33593.57
707.209	33521.25
707.554	33511.76
707.899	33564.64
708.243	33438.09
708.588	33377.07
708.932	33077.87
709.277	33023.86
709.621	33067.48
709.966	32890.53
710.31	32885.34
710.654	32763.98
710.998	32842.17
711.342	32722.85
711.687	32687.83
712.031	32573.48
712.375	32446.25
712.719	32573.71
713.063	32439.02
713.407	32548.85
713.75	32215.07
714.094	32306.14
714.438	32105.02
714.782	32152.7
715.125	31869.09
715.469	31968.52
715.812	31827.96
716.156	31669.77
716.499	31729.43
716.843	31752.71
717.186	31546.39
717.53	31759.49
717.873	31717.46
718.216	31604.92
718.559	31516.11
718.902	31343.23
719.246	31359.05
719.589	31292.16
719.932	31189.79
720.275	31164.25
720.617	31119.51
720.96	31035.67
721.303	31119.96
721.646	31115.66
721.989	30833.64
722.331	30939.85
722.674	30817.82
723.016	30867.08
723.359	30817.14
723.701	30797.48
724.044	30697.14
724.386	30483.14
724.729	30588.67
725.071	30517.04
725.413	30552.52
725.755	30443.37
726.097	30369.24
726.439	30136.71
726.782	30178.74
727.124	30282.47
727.465	30163.6
727.807	30119.08
728.149	29986.66
728.491	30056.71
728.833	30049.03
729.175	29941.23
729.516	29909.37
729.858	29868.92
730.199	29768.36
730.541	29753.89
730.882	29766.77
731.224	29794.57
731.565	29642.26
731.906	29608.36
732.248	29766.1
732.589	29490.17
732.93	29475.71
733.271	29483.39
733.612	29446.1
733.953	29417.63
734.294	29345.54
734.635	29333.56
734.976	29226.22
735.317	29205.66
735.658	29180.57
735.999	29168.37
736.339	29099.45
736.68	29075.72
737.021	29046.11
737.361	28919.79
737.702	29148.48
738.042	28910.53
738.383	28880.7
738.723	28793.92
739.063	28843.18
739.404	28748.04
739.744	28787.14
740.084	28630.53
740.424	28757.99
740.764	28544.21
741.104	28682.06
741.444	28469.63
741.784	28451.78
742.124	28448.62
742.464	28434.83
742.804	28333.59
743.143	28287.04
743.483	28319.35
743.823	28114.61
744.162	28071.23
744.502	28258.11
744.841	27999.59
745.181	28168.85
745.52	28000.27
745.86	28001.4
746.199	28010.44
746.538	27975.86
746.877	27990.55
747.216	27954.62
747.556	27847.73
747.895	27917.56
748.234	27779.03
748.573	27791.46
748.911	27707.39
749.25	27672.82
749.589	27622.2
749.928	27578.13
750.267	27627.62
750.605	27669.2
750.944	27523.22
751.283	27486.16
751.621	27462.2
751.96	27240.29
752.298	27294.52
752.636	27277.57
752.975	27190.57
753.313	27027.64
753.651	27307.18
753.989	26970.69
754.327	26982.89
754.666	26777.93
755.004	26879.17
755.342	26891.37
755.679	26898.15
756.017	26645.95
756.355	26807.53
756.693	26516.01
757.031	26602.56
757.368	26477.59
757.706	26451.38
758.044	26322.12
758.381	26349.46
758.719	26252.52
759.056	26398.5
759.394	26090.71
759.731	25946.99
