Data from hue_210_FLMS001491_00020.txt Node
Date: Tue Feb 07 16:40:50 GMT 2017
User: dcchb
Spectrometer: FLMS00149
Trigger mode: 0
Integration Time (sec): 2.000000E-2
Scans to average: 10
Electric dark correction enabled: true
Nonlinearity correction enabled: false
Boxcar width: 0
XAxis mode: Wavelengths
Number of Pixels in Spectrum: 2048
>>>>>Begin Spectral Data<<<<<
341.393	3.52
341.776	3.52
342.16	3.52
342.543	-54.11
342.927	-64.28
343.31	-67.22
343.693	-76.03
344.077	-65.86
344.46	-46.43
344.843	-64.96
345.226	-37.61
345.61	-32.41
345.993	-9.36
346.376	-16.14
346.759	13.01
347.142	25.89
347.525	33.8
347.908	41.26
348.291	85.77
348.674	88.49
349.057	127.81
349.44	119.45
349.823	147.47
350.206	183.17
350.588	197.64
350.971	227.47
351.354	220.69
351.737	231.08
352.119	276.73
352.502	264.53
352.884	261.59
353.267	294.81
353.65	277.18
354.032	304.53
354.414	306.33
354.797	307.92
355.179	321.47
355.562	309.5
355.944	329.61
356.326	339.55
356.709	324.64
357.091	339.78
357.473	339.1
357.855	337.29
358.238	353.56
358.62	333.68
359.002	336.16
359.384	347.01
359.766	341.59
360.148	319.89
360.53	351.08
360.912	319.44
361.294	350.4
361.676	308.14
362.057	335.26
362.439	327.58
362.821	338.65
363.203	337.52
363.584	324.64
363.966	323.96
364.348	300.91
364.729	314.92
365.111	322.38
365.493	289.39
365.874	333
366.256	314.92
366.637	316.95
367.019	324.41
367.4	300.68
367.781	329.16
368.163	312.44
368.544	295.49
368.925	306.33
369.306	322.6
369.688	316.05
370.069	312.21
370.45	314.02
370.831	312.89
371.212	298.88
371.593	294.58
371.974	306.56
372.355	299.33
372.736	320.34
373.117	313.79
373.498	323.28
373.879	311.53
374.26	307.69
374.641	305.66
375.021	328.93
375.402	320.8
375.783	332.77
376.163	336.62
376.544	344.98
376.925	323.28
377.305	339.55
377.686	333.23
378.066	320.57
378.447	318.08
378.827	310.85
379.208	331.19
379.588	337.29
379.968	333.9
380.349	333
380.729	342.49
381.109	332.55
381.489	342.04
381.87	329.84
382.25	341.36
382.63	359.89
383.01	330.29
383.39	332.32
383.77	351.98
384.15	349.72
384.53	328.93
384.91	344.52
385.29	354.69
385.67	334.13
386.049	366.45
386.429	339.78
386.809	344.98
387.189	365.32
387.568	356.73
387.948	374.81
388.328	344.3
388.707	377.29
389.087	354.47
389.466	361.93
389.846	365.99
390.225	380.91
390.605	395.6
390.984	358.99
391.363	380.91
391.743	368.7
392.122	372.09
392.501	375.03
392.881	397.4
393.26	360.34
393.639	399.44
394.018	378.87
394.397	370.74
394.776	397.63
395.155	375.48
395.534	387.46
395.913	357.63
396.292	384.52
396.671	383.39
397.05	407.8
397.429	403.05
397.808	425.65
398.186	398.08
398.565	394.69
398.944	418.65
399.323	412.77
399.701	410.74
400.08	399.66
400.458	409.83
400.837	418.87
401.215	416.84
401.594	406.22
401.972	418.42
402.351	411.64
402.729	430.17
403.107	429.27
403.486	434.47
403.864	442.38
404.242	437.18
404.62	442.38
404.999	449.61
405.377	439.21
405.755	459.1
406.133	471.08
406.511	477.85
406.889	479.21
407.267	481.02
407.645	502.26
408.023	489.61
408.401	483.05
408.779	492.77
409.156	510.17
409.534	523.73
409.912	535.93
410.29	520.57
410.667	523.96
411.045	549.04
411.422	561.24
411.8	548.36
412.178	568.02
412.555	582.26
412.933	580.45
413.31	598.3
413.687	599.89
414.065	618.19
414.442	636.49
414.819	626.1
415.197	670.39
415.574	643.05
415.951	630.84
416.328	682.82
416.705	670.39
417.082	674.23
417.46	685.31
417.837	693.67
418.214	710.16
418.591	705.42
418.967	716.04
419.344	710.84
419.721	751.07
420.098	743.38
420.475	791.74
420.852	767.11
421.228	813.89
421.605	793.55
421.982	831.07
422.358	824.96
422.735	850.27
423.111	846.88
423.488	872.87
423.864	872.42
424.241	894.11
424.617	899.09
424.994	908.58
425.37	957.62
425.746	956.49
426.123	947.9
426.499	972.76
426.875	999.42
427.251	1018.41
427.627	995.81
428.003	1021.34
428.379	1049.14
428.756	1046.2
429.132	1062.25
429.507	1066.99
429.883	1085.07
430.259	1102.47
430.635	1106.54
431.011	1128.69
431.387	1142.47
431.763	1166.88
432.138	1185.86
432.514	1219.08
432.89	1229.7
433.265	1241
433.641	1262.47
434.016	1242.81
434.392	1272.18
434.767	1331.62
435.143	1338.17
435.518	1353.99
435.894	1387.89
436.269	1390.83
436.644	1449.35
437.02	1462.69
437.395	1466.76
437.77	1520.54
438.145	1519.41
438.52	1524.83
438.895	1582.91
439.271	1578.39
439.646	1619.52
440.021	1644.83
440.395	1660.2
440.77	1691.83
441.145	1664.04
441.52	1725.05
441.895	1724.6
442.27	1781.55
442.645	1753.53
443.019	1820.87
443.394	1803.24
443.769	1862.9
444.143	1841.43
444.518	1880.76
444.892	1879.17
445.267	1918.72
445.641	1926.63
446.016	1914.2
446.39	1953.97
446.764	1955.33
447.139	1992.17
447.513	1983.35
447.887	2009.11
448.262	2010.7
448.636	2020.64
449.01	2033.29
449.384	2047.53
449.758	2118.94
450.132	2121.65
450.506	2101.54
450.88	2125.49
451.254	2153.52
451.628	2168.43
452.002	2221.76
452.376	2230.58
452.75	2215.21
453.123	2238.03
453.497	2247.07
453.871	2284.81
454.244	2341.76
454.618	2342.89
454.992	2371.14
455.365	2398.71
455.739	2441.42
456.112	2472.6
456.486	2483
456.859	2514.86
457.232	2526.16
457.606	2541.08
457.979	2583.56
458.352	2640.06
458.725	2649.1
459.099	2641.87
459.472	2730
459.845	2749.21
460.218	2761.41
460.591	2830.79
460.964	2805.03
461.337	2848.19
461.71	2923.44
462.083	3010.44
462.456	2983.1
462.829	2985.13
463.201	2986.94
463.574	3052.93
463.947	3085.02
464.32	3146.26
464.692	3129.08
465.065	3107.84
465.438	3206.82
465.81	3247.5
466.183	3305.12
466.555	3358
466.928	3368.4
467.3	3409.53
467.672	3416.76
468.045	3485.69
468.417	3511
468.789	3538.79
469.161	3592.8
469.534	3677.09
469.906	3712.35
470.278	3741.5
470.65	3780.82
471.022	3854.94
471.394	3881.83
471.766	3932.68
472.138	3929.29
472.51	4009.51
472.882	4106.69
473.253	4114.37
473.625	4150.3
473.997	4214.03
474.369	4279.34
474.74	4328.6
475.112	4404.98
475.484	4454.93
475.855	4560.23
476.227	4545.09
476.598	4607.92
476.97	4680.91
477.341	4776.27
477.713	4875.93
478.084	4819.66
478.455	4990.96
478.827	5050.84
479.198	5161.57
479.569	5150.27
479.94	5253.55
480.311	5300.78
480.682	5406.99
481.053	5519.3
481.424	5593.65
481.795	5635.23
482.166	5712.07
482.537	5770.14
482.908	5942.57
483.279	5941.67
483.65	6056.01
484.021	6149.12
484.391	6158.38
484.762	6269.79
485.133	6332.39
485.503	6456.91
485.874	6460.75
486.244	6546.62
486.615	6628.88
486.985	6728.31
487.356	6789.55
487.726	6812.6
488.097	6952.71
488.467	6997.23
488.837	7099.83
489.207	7202.42
489.578	7300.05
489.948	7309.99
490.318	7387.96
490.688	7406.94
491.058	7525.58
491.428	7559.48
491.798	7684.44
492.168	7788.17
492.538	7780.26
492.908	7873.14
493.278	7931.22
493.648	7983.19
494.017	8033.36
494.387	8128.05
494.757	8210.53
495.126	8291.66
495.496	8244.88
495.866	8240.36
496.235	8357.42
496.605	8435.16
496.974	8445.55
497.344	8512.9
497.713	8511.77
498.082	8563.74
498.452	8672.89
498.821	8670.63
499.19	8661.37
499.559	8749.28
499.928	8768.94
500.298	8843.96
500.667	8875.37
501.036	8856.84
501.405	8894.81
501.774	8872.89
502.143	8930.97
502.512	9024.07
502.88	9090.28
503.249	9068.36
503.618	9058.42
503.987	9077.18
504.356	9127.57
504.724	9166.21
505.093	9158.98
505.462	9196.04
505.83	9222.03
506.199	9288.47
506.567	9447.79
506.936	9311.97
507.304	9424.29
507.672	9455.02
508.041	9414.57
508.409	9505.64
508.777	9548.58
509.145	9629.25
509.514	9519.88
509.882	9549.71
510.25	9511.97
510.618	9637.16
510.986	9563.04
511.354	9641.23
511.722	9677.84
512.09	9785.86
512.458	9663.83
512.826	9755.35
513.193	9882.58
513.561	9763.49
513.929	9890.49
514.297	9857.95
514.664	9855.46
515.032	9868.12
515.4	9887.78
515.767	9841.45
516.135	9881.22
516.502	9812.07
516.869	9967.55
517.237	9933.65
517.604	9907.21
517.972	10007.1
518.339	10009.36
518.706	10039.64
519.073	9981.33
519.44	10008.68
519.808	10050.71
520.175	9979.3
520.542	10075.12
520.909	10055.91
521.276	10016.81
521.643	10116.02
522.009	10108.56
522.376	10097.94
522.743	10149.92
523.11	10151.72
523.477	10212.06
523.843	10184.49
524.21	10283.92
524.577	10310.82
524.943	10249.58
525.31	10240.08
525.676	10354.66
526.043	10292.29
526.409	10299.97
526.776	10401.89
527.142	10334.54
527.508	10352.4
527.874	10309.46
528.241	10359.18
528.607	10362.57
528.973	10356.01
529.339	10298.39
529.705	10411.6
530.071	10324.38
530.437	10334.32
530.803	10369.8
531.169	10350.14
531.535	10247.09
531.901	10218.62
532.267	10246.19
532.632	10290.48
532.998	10190.37
533.364	10223.81
533.73	10219.75
534.095	10236.24
534.461	10262.46
534.826	10232.63
535.192	10196.47
535.557	10212.06
535.923	10143.59
536.288	10180.65
536.653	10153.08
537.019	10044.83
537.384	10107.43
537.749	10109.69
538.114	9995.12
538.479	10032.86
538.845	10017.94
539.21	9912.86
539.575	9894.78
539.94	9935.69
540.305	9889.36
540.67	9896.14
541.034	9865.18
541.399	9838.51
541.764	9752.64
542.129	9793.32
542.494	9684.84
542.858	9781.11
543.223	9681
543.587	9671.74
543.952	9602.81
544.316	9533.66
544.681	9521.23
545.045	9502.25
545.41	9582.02
545.774	9496.6
546.138	9455.02
546.503	9440.56
546.867	9380.45
547.231	9400.78
547.595	9374.8
547.959	9304.06
548.324	9318.53
548.688	9319.43
549.052	9212.31
549.416	9232.88
549.779	9167.34
550.143	9169.83
550.507	9212.31
550.871	9171.19
551.235	9076.05
551.599	9137.29
551.962	9081.02
552.326	9043.28
552.689	9026.1
553.053	8963.96
553.417	8981.36
553.78	8933.23
554.143	8928.71
554.507	8925.32
554.87	8971.42
555.234	8991.76
555.597	8872.66
555.96	8860.69
556.323	8854.36
556.686	8885.77
557.05	8837.18
557.413	8861.82
557.776	8774.59
558.139	8826.79
558.502	8789.5
558.865	8746.11
559.228	8809.39
559.59	8782.95
559.953	8762.83
560.316	8784.53
560.679	8734.13
561.041	8754.02
561.404	8742.72
561.767	8769.61
562.129	8741.37
562.492	8788.82
562.854	8766.9
563.217	8717.64
563.579	8722.16
563.941	8799.22
564.304	8788.37
564.666	8828.6
565.028	8826.79
565.39	8836.96
565.753	8876.5
566.115	8831.31
566.477	8815.49
566.839	8913.11
567.201	8899.78
567.563	8818.88
567.925	8920.34
568.287	8909.95
568.648	8919.89
569.01	8892.55
569.372	8923.73
569.734	8831.08
570.095	8844.41
570.457	8932.55
570.819	8947.01
571.18	8933.68
571.542	8956.28
571.903	8987.46
572.265	8963.06
572.626	9030.85
572.987	8986.78
573.349	9027.23
573.71	9052.32
574.071	9012.09
574.432	9105.42
574.794	9064.07
575.155	9065.65
575.516	9114.46
575.877	9090.28
576.238	9118.98
576.599	9120.79
576.96	9024.07
577.32	9112.66
577.681	9114.92
578.042	9214.35
578.403	9105.42
578.763	9189.49
579.124	9186.78
579.485	9177.29
579.845	9195.37
580.206	9257.96
580.566	9249.83
580.927	9253.22
581.287	9234.46
581.648	9171.86
582.008	9318.53
582.368	9209.15
582.728	9200.56
583.089	9278.53
583.449	9262.48
583.809	9257.06
584.169	9284.63
584.529	9258.41
584.889	9356.27
585.249	9321.69
585.609	9273.33
585.969	9295.93
586.329	9226.78
586.688	9341.12
587.048	9199.66
587.408	9292.76
587.768	9266.1
588.127	9319.2
588.487	9314.68
588.846	9319.43
589.206	9287.79
589.565	9286.66
589.925	9371.63
590.284	9273.33
590.643	9339.99
591.003	9286.66
591.362	9427
591.721	9355.14
592.08	9351.75
592.44	9357.85
592.799	9358.07
593.158	9425.64
593.517	9332.99
593.876	9429.03
594.235	9379.99
594.593	9408.02
594.952	9425.64
595.311	9332.09
595.67	9413.44
596.029	9413.21
596.387	9419.54
596.746	9461.8
597.104	9332.76
597.463	9423.38
597.822	9418.18
598.18	9369.6
598.538	9295.02
598.897	9448.24
599.255	9347
599.613	9536.15
599.972	9395.81
600.33	9458.64
600.688	9417.73
601.046	9407.34
601.404	9469.93
601.762	9452.31
602.12	9423.83
602.478	9491.63
602.836	9426.77
603.194	9434.23
603.552	9415.25
603.91	9391.52
604.268	9469.71
604.625	9412.53
604.983	9422.03
605.341	9451.18
605.698	9480.1
606.056	9466.54
606.413	9457.28
606.771	9483.27
607.128	9506.54
607.485	9466.54
607.843	9511.06
608.2	9535.02
608.557	9539.54
608.914	9539.31
609.272	9565.3
609.629	9556.49
609.986	9539.76
610.343	9578.86
610.7	9607.11
611.057	9529.59
611.414	9562.59
611.771	9578.86
612.127	9549.25
612.484	9552.19
612.841	9672.19
613.198	9541.8
613.554	9590.84
613.911	9643.72
614.267	9554.23
614.624	9606.88
614.98	9580.89
615.337	9650.49
615.693	9677.61
616.05	9659.76
616.406	9758.97
616.762	9618.41
617.118	9658.86
617.475	9595.81
617.831	9633.09
618.187	9619.54
618.543	9691.85
618.899	9728.68
619.255	9661.12
619.611	9709.25
619.967	9714.22
620.323	9794.45
620.678	9793.32
621.034	9779.76
621.39	9687.1
621.746	9662.47
622.101	9805.52
622.457	9791.96
622.812	9785.86
623.168	9751.51
623.523	9814.56
623.879	9780.21
624.234	9640.78
624.589	9775.92
624.945	9807.55
625.3	9739.76
625.655	9734.11
626.01	9771.85
626.365	9761.23
626.72	9756.25
627.075	9745.18
627.43	9763.03
627.785	9736.59
628.14	9652.08
628.495	9779.08
628.85	9724.84
629.205	9716.03
629.559	9697.05
629.914	9766.42
630.269	9731.17
630.623	9676.03
630.978	9613.43
631.332	9629.03
631.687	9665.41
632.041	9616.37
632.396	9629.7
632.75	9571.85
633.104	9613.21
633.459	9642.81
633.813	9577.05
634.167	9537.05
634.521	9578.86
634.875	9582.47
635.229	9532.76
635.583	9488.69
635.937	9532.31
636.291	9472.87
636.645	9448.24
636.999	9475.13
637.352	9480.1
637.706	9416.6
638.06	9440.78
638.413	9434.46
638.767	9360.33
639.121	9449.14
639.474	9340.9
639.828	9339.54
640.181	9377.96
640.534	9419.31
640.888	9357.85
641.241	9338.41
641.594	9302.48
641.947	9389.26
642.301	9403.72
642.654	9325.76
643.007	9327.34
643.36	9343.16
643.713	9272.88
644.066	9325.53
644.419	9289.37
644.771	9169.6
645.124	9120.57
645.477	9101.58
645.83	9045.99
646.182	9030.62
646.535	8996.5
646.888	9049.83
647.24	9060
647.593	9050.51
647.945	8992.43
648.298	9000.57
648.65	8944.52
649.002	8947.69
649.355	9020
649.707	8946.33
650.059	9012.32
650.411	9144.29
650.763	9108.36
651.115	9154.01
651.467	9154.46
651.819	9132.77
652.171	9195.14
652.523	9190.39
652.875	9130.73
653.227	9123.96
653.578	9170.96
653.93	9202.37
654.282	9137.06
654.633	9083.73
654.985	9157.17
655.337	9171.41
655.688	9172.09
656.039	9137.97
656.391	9165.54
656.742	9191.52
657.094	9181.58
657.445	9176.61
657.796	9142.26
658.147	9119.21
658.498	9071.98
658.849	9192.2
659.2	9158.76
659.551	9172.54
659.902	9165.31
660.253	9177.29
660.604	9194.01
660.955	9123.05
661.306	9191.07
661.656	9159.21
662.007	9212.31
662.358	9209.6
662.708	9171.64
663.059	9192.43
663.409	9112.2
663.76	9173.67
664.11	9228.59
664.461	9234.46
664.811	9210.28
665.161	9212.09
665.511	9170.73
665.862	9184.29
666.212	9226.1
666.562	9195.82
666.912	9217.96
667.262	9185.87
667.612	9183.16
667.962	9248.92
668.312	9205.76
668.662	9185.42
669.011	9191.75
669.361	9177.96
669.711	9180.9
670.06	9208.7
670.41	9165.08
670.76	9162.15
671.109	9208.02
671.459	9212.09
671.808	9158.08
672.157	9110.4
672.507	9165.31
672.856	9125.31
673.205	9093
673.554	9112.2
673.904	9092.09
674.253	9117.63
674.602	9145.2
674.951	9048.25
675.3	8921.7
675.649	9034.01
675.998	9100.23
676.346	9055.48
676.695	9095.93
677.044	8979.78
677.393	9065.88
677.741	9051.19
678.09	8951.3
678.438	9002.83
678.787	9003.28
679.135	8994.92
679.484	8960.57
679.832	8940.68
680.181	8864.07
680.529	8958.08
680.877	8927.8
681.225	8846
681.573	8930.97
681.922	8846
682.27	8859.78
682.618	8769.39
682.966	8775.49
683.314	8789.73
683.661	8770.74
684.009	8736.85
684.357	8697.07
684.705	8748.82
685.053	8756.73
685.4	8662.27
685.748	8667.24
686.095	8639.9
686.443	8647.36
686.79	8567.13
687.138	8614.59
687.485	8550.86
687.832	8537.3
688.18	8620.47
688.527	8557.19
688.874	8468.38
689.221	8486.46
689.568	8486.91
689.915	8419.34
690.262	8425.22
690.609	8423.63
690.956	8399.68
691.303	8376.18
691.65	8292.34
691.997	8269.51
692.344	8259.8
692.69	8237.42
693.037	8265.9
693.383	8176.18
693.73	8163.53
694.077	8073.36
694.423	8112.91
694.769	8083.3
695.116	8033.36
695.462	8054.83
695.808	8001.05
696.155	8010.99
696.501	7894.16
696.847	7903.65
697.193	7795.63
697.539	7822.75
697.885	7775.74
698.231	7769.64
698.577	7760.38
698.923	7702.98
699.269	7666.82
699.614	7647.16
699.96	7702.98
700.306	7686.7
700.651	7588.4
700.997	7569.42
701.342	7600.38
701.688	7562.64
702.033	7559.48
702.379	7479.25
702.724	7455.75
703.069	7532.58
703.415	7352.02
703.76	7378.46
704.105	7378.01
704.45	7318.35
704.795	7302.53
705.14	7268.86
705.485	7270.67
705.83	7268.18
706.175	7256.66
706.52	7242.2
706.865	7199.03
707.209	7237
707.554	7182.54
707.899	7224.57
708.243	7125.59
708.588	7076.1
708.932	7013.05
709.277	7077.68
709.621	7058.25
709.966	7003.11
710.31	6995.2
710.654	6891.7
710.998	6924.69
711.342	6964.69
711.687	6932.15
712.031	6911.58
712.375	6869.78
712.719	6883.56
713.063	6860.06
713.407	6839.5
713.75	6818.7
714.094	6812.83
714.438	6794.75
714.782	6804.02
715.125	6798.82
715.469	6832.49
715.812	6777.35
716.156	6689.22
716.499	6734.19
716.843	6689.89
717.186	6728.09
717.53	6742.77
717.873	6743
718.216	6630.91
718.559	6648.99
718.902	6639.05
719.246	6658.48
719.589	6683.12
719.932	6607.19
720.275	6602.44
720.617	6617.58
720.96	6611.7
721.303	6593.85
721.646	6582.1
721.989	6533.97
722.331	6571.25
722.674	6535.77
723.016	6587.98
723.359	6560.63
723.701	6534.19
724.044	6540.07
724.386	6491.71
724.729	6529.45
725.071	6502.78
725.413	6528.32
725.755	6468.43
726.097	6513.85
726.439	6455.78
726.782	6477.92
727.124	6508.88
727.465	6442.44
727.807	6435.44
728.149	6446.29
728.491	6459.39
728.833	6449
729.175	6429.79
729.516	6439.05
729.858	6439.05
730.199	6423.01
730.541	6432.05
730.882	6415.78
731.224	6419.85
731.565	6405.16
731.906	6394.99
732.248	6437.02
732.589	6426.62
732.93	6362.67
733.271	6329.68
733.612	6447.42
733.953	6390.92
734.294	6422.33
734.635	6387.08
734.976	6360.64
735.317	6394.31
735.658	6398.6
735.999	6401.77
736.339	6367.19
736.68	6436.57
737.021	6419.62
737.361	6374.42
737.702	6423.69
738.042	6449.68
738.383	6484.93
738.723	6472.5
739.063	6419.85
739.404	6458.94
739.744	6504.59
740.084	6426.17
740.424	6430.69
740.764	6501.65
741.104	6529.45
741.444	6471.37
741.784	6533.51
742.124	6528.77
742.464	6568.77
742.804	6615.32
743.143	6578.49
743.483	6652.38
743.823	6636.11
744.162	6673.17
744.502	6639.5
744.841	6708.43
745.181	6734.41
745.52	6759.27
745.86	6816.22
746.199	6783.9
746.538	6861.19
746.877	6907.97
747.216	6905.48
747.556	6910
747.895	6965.82
748.234	7030
748.573	7062.54
748.911	7156.78
749.25	7183.22
749.589	7257.34
749.928	7261.86
750.267	7385.47
750.605	7430.21
750.944	7480.38
751.283	7580.27
751.621	7667.27
751.96	7688.06
752.298	7804.44
752.636	7855.29
752.975	7954.04
753.313	8031.1
753.651	8146.35
753.989	8239.91
754.327	8300.7
754.666	8376.18
755.004	8573.24
755.342	8726.45
755.679	8820.69
756.017	8911.08
756.355	9068.36
756.693	9100.68
757.031	9270.62
757.368	9443.49
757.706	9539.31
758.044	9634.68
758.381	9836.25
758.719	9932.3
759.056	10101.56
759.394	10314.43
759.731	10435.78
760.068	10585.84
760.405	10773.63
760.743	10868.09
761.08	11098.37
761.417	11199.83
761.754	11461.07
762.091	11536.09
762.428	11769.31
762.765	11938.12
763.102	12126.81
763.438	12248.39
763.775	12357.77
764.112	12510.98
764.449	12783.52
764.785	12947.81
765.122	13047.02
765.458	13195.26
765.795	13339.21
766.131	13578.08
766.467	13681.8
766.804	13762.7
767.14	13980.55
767.476	14079.76
767.812	14316.36
768.148	14448.11
