Data from hue_80_FLMS001491_86.txt Node
Date: Mon Feb 06 15:23:53 GMT 2017
User: dcchb
Spectrometer: FLMS00149
Trigger mode: 0
Integration Time (sec): 2.000000E-2
Scans to average: 10
Electric dark correction enabled: true
Nonlinearity correction enabled: false
Boxcar width: 0
XAxis mode: Wavelengths
Number of Pixels in Spectrum: 2048
>>>>>Begin Spectral Data<<<<<
341.393	-7.6
341.776	-7.6
342.16	-7.6
342.543	-65.45
342.927	-81.04
343.31	-62.74
343.693	-57.09
344.077	-77.2
344.46	-56.64
344.843	-32.91
345.226	-34.26
345.61	-31.33
345.993	-17.09
346.376	-7.15
346.759	-0.59
347.142	30.37
347.525	31.04
347.908	61.78
348.291	59.52
348.674	80.31
349.057	113.98
349.44	134.09
349.823	161.89
350.206	178.16
350.588	187.88
350.971	206.63
351.354	222.45
351.737	219.06
352.119	248.89
352.502	262
352.884	268.33
353.267	261.55
353.65	273.07
354.032	282.56
354.414	286.18
354.797	302
355.179	313.75
355.562	317.36
355.944	340.64
356.326	324.14
356.709	330.7
357.091	342.22
357.473	342.9
357.855	323.69
358.238	341.54
358.62	318.72
359.002	360.75
359.384	333.64
359.766	334.99
360.148	311.04
360.53	336.12
360.912	321.66
361.294	334.54
361.676	306.97
362.057	323.92
362.439	320.75
362.821	319.4
363.203	340.87
363.584	336.8
363.966	301.09
364.348	311.71
364.729	317.36
365.111	327.08
365.493	303.13
365.874	312.17
366.256	313.52
366.637	311.71
367.019	316.69
367.4	311.04
367.781	303.13
368.163	322.34
368.544	305.61
368.925	304.48
369.306	319.4
369.688	309.23
370.069	310.36
370.45	320.98
370.831	301.32
371.212	309.46
371.593	300.42
371.974	290.92
372.355	315.33
372.736	294.54
373.117	316.01
373.498	307.65
373.879	323.69
374.26	313.52
374.641	314.65
375.021	334.54
375.402	331.83
375.783	319.4
376.163	329.57
376.544	328.44
376.925	339.51
377.305	328.21
377.686	316.69
378.066	332.28
378.447	342.67
378.827	324.37
379.208	321.21
379.588	320.98
379.968	326.63
380.349	306.07
380.729	340.87
381.109	318.27
381.489	314.43
381.87	339.06
382.25	336.57
382.63	301.77
383.01	328.44
383.39	351.71
383.77	340.19
384.15	319.85
384.53	323.69
384.91	333.41
385.29	319.4
385.67	340.41
386.049	339.51
386.429	354.88
386.809	364.82
387.189	351.26
387.568	363.69
387.948	352.17
388.328	321.43
388.707	351.04
389.087	358.04
389.466	363.69
389.846	336.12
390.225	350.81
390.605	360.53
390.984	360.3
391.363	351.49
391.743	358.72
392.122	369.34
392.501	346.29
392.881	327.76
393.26	350.36
393.639	359.85
394.018	381.09
394.397	362.34
394.776	345.61
395.155	361.66
395.534	361.21
395.913	359.62
396.292	360.3
396.671	375.67
397.05	370.7
397.429	367.98
397.808	365.05
398.186	382.45
398.565	366.63
398.944	382.45
399.323	374.54
399.701	384.93
400.08	389.68
400.458	381.09
400.837	408.89
401.215	384.03
401.594	372.5
401.972	385.61
402.351	396.91
402.729	371.83
403.107	394.88
403.486	382
403.864	385.84
404.242	404.14
404.62	384.71
404.999	386.06
405.377	375.44
405.755	419.06
406.133	398.49
406.511	396.01
406.889	418.15
407.267	398.49
407.645	419.73
408.023	419.28
408.401	420.41
408.779	423.8
409.156	413.18
409.534	435.1
409.912	416.34
410.29	428.32
410.667	436.46
411.045	423.8
411.422	428.77
411.8	431.71
412.178	463.35
412.555	438.27
412.933	443.91
413.31	440.07
413.687	459.51
414.065	444.37
414.442	461.32
414.819	453.63
415.197	452.95
415.574	459.28
415.951	477.13
416.328	465.84
416.705	466.29
417.082	469.68
417.46	469.9
417.837	475.78
418.214	463.12
418.591	471.71
418.967	486.4
419.344	492.5
419.721	460.64
420.098	502.9
420.475	506.96
420.852	494.54
421.228	501.31
421.605	502.44
421.982	505.83
422.358	506.29
422.735	511.71
423.111	514.42
423.488	505.38
423.864	531.82
424.241	527.98
424.617	525.49
424.994	540.41
425.37	543.57
425.746	537.47
426.123	531.6
426.499	549
426.875	542.44
427.251	557.58
427.627	548.77
428.003	550.35
428.379	572.95
428.756	568.21
429.132	553.29
429.507	565.72
429.883	569.11
430.259	583.57
430.635	597.58
431.011	575.66
431.387	594.42
431.763	580.86
432.138	603.68
432.514	593.97
432.89	606.85
433.265	635.55
433.641	601.42
434.016	638.03
434.392	624.48
434.767	655.89
435.143	649.56
435.518	647.53
435.894	639.39
436.269	660.18
436.644	654.53
437.02	650.01
437.395	666.51
437.77	676.68
438.145	684.36
438.52	700.18
438.895	696.79
439.271	676.45
439.646	694.3
440.021	721.42
440.395	691.14
440.77	711.48
441.145	710.35
441.52	718.48
441.895	716.22
442.27	724.13
442.645	714.87
443.019	723.46
443.394	719.84
443.769	723.68
444.143	734.75
444.518	743.34
444.892	767.3
445.267	782.21
445.641	748.54
446.016	754.42
446.39	781.99
446.764	783.12
447.139	785.37
447.513	785.83
447.887	783.34
448.262	820.63
448.636	781.76
449.01	800.06
449.384	817.01
449.758	806.62
450.132	824.7
450.506	845.03
450.88	829.89
451.254	837.12
451.628	826.05
452.002	844.13
452.376	843.45
452.75	856.56
453.123	857.24
453.497	868.31
453.871	898.37
454.244	890.23
454.618	904.69
454.992	909.67
455.365	915.09
455.739	924.13
456.112	941.75
456.486	928.87
456.859	961.42
457.232	984.01
457.606	950.57
457.979	972.26
458.352	1018.59
458.725	1012.94
459.099	1009.55
459.472	1025.82
459.845	1041.87
460.218	1066.95
460.591	1025.59
460.964	1070.11
461.337	1077.57
461.71	1092.03
462.083	1122.54
462.456	1127.29
462.829	1147.85
463.201	1148.98
463.574	1144.46
463.947	1169.77
464.32	1195.08
464.692	1197.57
465.065	1205.7
465.438	1243.67
465.81	1233.5
466.183	1270.11
466.555	1285.25
466.928	1318.92
467.3	1289.32
467.672	1339.26
468.045	1353.72
468.417	1373.16
468.789	1417.22
469.161	1423.1
469.534	1415.87
469.906	1499.71
470.278	1462.65
470.65	1538.58
471.022	1545.58
471.394	1584.9
471.766	1628.97
472.138	1622.41
472.51	1659.7
472.882	1706.93
473.253	1730.43
473.625	1785.12
473.997	1814.95
474.369	1838.45
474.74	1868.96
475.112	1927.72
475.484	1981.28
475.855	1989.86
476.227	2056.98
476.598	2118.67
476.97	2172.91
477.341	2204.55
477.713	2270.08
478.084	2309.4
478.455	2391.21
478.827	2448.61
479.198	2506.91
479.569	2567.47
479.94	2645.89
480.311	2729.05
480.682	2821.93
481.053	2918.2
481.424	2947.8
481.795	3028.48
482.166	3120
482.537	3193.22
482.908	3325.42
483.279	3386.89
483.65	3485.19
484.021	3604.74
484.391	3690.38
484.762	3778.06
485.133	3849.93
485.503	3950.49
485.874	4079.53
486.244	4210.6
486.615	4307.77
486.985	4409.01
487.356	4531.49
487.726	4560.87
488.097	4790.69
488.467	4884.25
488.837	4994.3
489.207	5193.39
489.578	5253.73
489.948	5359.04
490.318	5504.8
490.688	5601.29
491.058	5767.16
491.428	5934.17
491.798	6040.6
492.168	6215.97
492.538	6316.53
492.908	6485.79
493.278	6644.66
493.648	6721.94
494.017	6858.21
494.387	7008.26
494.757	7090.29
495.126	7261.36
495.496	7335.49
495.866	7466.1
496.235	7609.6
496.605	7822.48
496.974	7847.56
497.344	7984.51
497.713	8137.05
498.082	8295.01
498.452	8417.49
498.821	8544.49
499.19	8559.86
499.559	8752.85
499.928	8831.49
500.298	8975.67
500.667	9079.17
501.036	9199.84
501.405	9325.72
501.774	9377.47
502.143	9554.64
502.512	9665.14
502.88	9804.57
503.249	9856.55
503.618	9932.93
503.987	10106.71
504.356	10132.93
504.724	10223.77
505.093	10336.08
505.462	10390.55
505.83	10492.92
506.199	10642.52
506.567	10834.6
506.936	10844.32
507.304	10984.2
507.672	11064.65
508.041	11160.92
508.409	11172.67
508.777	11320.47
509.145	11417.64
509.514	11554.81
509.882	11613.34
510.25	11644.98
510.618	11766.1
510.986	11749.38
511.354	11994.35
511.722	12059.2
512.09	12165.41
512.458	12075.47
512.826	12315.47
513.193	12349.82
513.561	12411.96
513.929	12474.56
514.297	12612.63
514.664	12648.11
515.032	12697.83
515.4	12782.57
515.767	12794.78
516.135	12899.41
516.502	12915.9
516.869	13097.59
517.237	13148.21
517.604	13064.83
517.972	13283.35
518.339	13318.6
518.706	13314.31
519.073	13338.94
519.44	13420.3
519.808	13630.69
520.175	13603.12
520.542	13712.94
520.909	13828.42
521.276	13744.36
521.643	13887.86
522.009	13997
522.376	13952.49
522.743	14080.84
523.11	14186.83
523.477	14310.22
523.843	14333.49
524.21	14370.78
524.577	14561.96
524.943	14561.06
525.31	14638.57
525.676	14628.17
526.043	14789.3
526.409	14734.16
526.776	14905
527.142	14923.08
527.508	14905.91
527.874	15079.46
528.241	15155.17
528.607	15080.14
528.973	15243.3
529.339	15125.79
529.705	15275.62
530.071	15314.94
530.437	15426.8
530.803	15448.27
531.169	15503.41
531.535	15380.7
531.901	15516.51
532.267	15524.65
532.632	15563.52
532.998	15553.8
533.364	15606.68
533.73	15624.76
534.095	15710.86
534.461	15704.3
534.826	15761.25
535.192	15734.81
535.557	15832.89
535.923	15817.97
536.288	15765.32
536.653	15799.67
537.019	15673.57
537.384	15727.13
537.749	15776.62
538.114	15751.76
538.479	15780.01
538.845	15700.01
539.21	15742.95
539.575	15734.36
539.94	15766.45
540.305	15793.12
540.67	15765.32
541.034	15757.64
541.399	15837.63
541.764	15871.53
542.129	15850.29
542.494	15771.42
542.858	15731.2
543.223	15753.79
543.587	15820.91
543.952	15708.37
544.316	15795.15
544.681	15720.58
545.045	15734.13
545.41	15864.75
545.774	15799.9
546.138	15773.68
546.503	15766.9
546.867	15699.78
547.231	15844.87
547.595	15726.22
547.959	15727.58
548.324	15761.03
548.688	15807.35
549.052	15767.58
549.416	15834.47
549.779	15760.57
550.143	15754.25
550.507	15751.31
550.871	15664.08
551.235	15705.21
551.599	15804.64
551.962	15819.1
552.326	15711.08
552.689	15814.81
553.053	15712.21
553.417	15751.08
553.78	15844.41
554.143	15707.47
554.507	15759.44
554.87	15787.01
555.234	15843.96
555.597	15765.09
555.96	15833.57
556.323	15861.59
556.686	15777.07
557.05	15947.91
557.413	15847.13
557.776	15954.69
558.139	15925.77
558.502	15915.6
558.865	15902.27
559.228	16071.3
559.59	16019.1
559.953	15922.83
560.316	16022.26
560.679	15980.91
561.041	16100.68
561.404	16154.91
561.767	16156.72
562.129	16181.58
562.492	16224.52
562.854	16249.15
563.217	16190.39
563.579	16243.05
563.941	16325.53
564.304	16396.94
564.666	16480.33
565.028	16416.38
565.39	16421.35
565.753	16490.95
566.115	16456.6
566.477	16480.33
566.839	16513.55
567.201	16554.68
567.563	16632.87
567.925	16617.73
568.287	16684.62
568.648	16665.64
569.01	16780.89
569.372	16867.66
569.734	16757.61
570.095	16824.5
570.457	16849.36
570.819	16883.93
571.18	16892.52
571.542	16912.63
571.903	16993.54
572.265	16994.89
572.626	16992.18
572.987	16981.79
573.349	17038.28
573.71	17095.45
574.071	17110.6
574.432	17190.37
574.794	17175.68
575.155	17121.89
575.516	17095.45
575.877	17155.11
576.238	17158.73
576.599	17227.43
576.96	17215.45
577.32	17260.65
577.681	17289.35
578.042	17379.74
578.403	17309.23
578.763	17360.31
579.124	17373.41
579.485	17391.27
579.845	17403.24
580.206	17445.73
580.566	17300.42
580.927	17478.5
581.287	17475.33
581.648	17436.24
582.008	17516.01
582.368	17437.14
582.728	17395.11
583.089	17432.85
583.449	17409.8
583.809	17427.65
584.169	17363.47
584.529	17323.02
584.889	17503.58
585.249	17439.4
585.609	17398.05
585.969	17339.06
586.329	17255
586.688	17463.13
587.048	17384.94
587.408	17329.12
587.768	17275.11
588.127	17362.34
588.487	17325.28
588.846	17401.44
589.206	17218.84
589.565	17300.65
589.925	17425.16
590.284	17339.52
590.643	17340.19
591.003	17348.78
591.362	17353.53
591.721	17351.94
592.08	17309.23
592.44	17390.81
592.799	17390.36
593.158	17317.6
593.517	17329.8
593.876	17331.15
594.235	17366.41
594.593	17227.2
594.952	17320.08
595.311	17205.06
595.67	17227.2
596.029	17393.98
596.387	17364.37
596.746	17320.53
597.104	17154.66
597.463	17289.8
597.822	17384.26
598.18	17323.47
598.538	17273.98
598.897	17362.34
599.255	17187.88
599.613	17405.28
599.972	17264.04
600.33	17297.94
600.688	17293.64
601.046	17314.21
601.404	17424.71
601.762	17340.19
602.12	17359.63
602.478	17370.48
602.836	17424.49
603.194	17264.26
603.552	17315.79
603.91	17236.92
604.268	17324.15
604.625	17315.56
604.983	17419.51
605.341	17330.25
605.698	17392.17
606.056	17403.24
606.413	17353.75
606.771	17426.29
607.128	17395.33
607.485	17396.92
607.843	17352.62
608.2	17472.85
608.557	17500.19
608.914	17438.72
609.272	17526.63
609.629	17552.62
609.986	17591.71
610.343	17486.63
610.7	17669
611.057	17635.33
611.414	17688.66
611.771	17657.47
612.127	17704.25
612.484	17741.31
612.841	17762.78
613.198	17695.66
613.554	17692.5
613.911	17845.49
614.267	17770.46
614.624	17646.4
614.98	17783.35
615.337	17859.28
615.693	17888.88
616.05	17758.94
616.406	17954.64
616.762	17825.83
617.118	17864.02
617.475	17840.07
617.831	17881.87
618.187	17951.03
618.543	17934.3
618.899	18027.41
619.255	17996
619.611	18052.27
619.967	18047.29
620.323	18102.43
620.678	17964.81
621.034	17880.74
621.39	17973.4
621.746	17965.26
622.101	18172.94
622.457	18147.4
622.812	18079.84
623.168	18073.51
623.523	18148.08
623.879	18144.24
624.234	18029.44
624.589	18170.68
624.945	18059.95
625.3	18050.01
625.655	18124.35
626.01	18123.22
626.365	18013.85
626.72	18003.68
627.075	18120.96
627.43	18063.34
627.785	17960.74
628.14	18068.99
628.495	18107.41
628.85	18104.24
629.205	18014.3
629.559	18084.13
629.914	17997.13
630.269	18050.68
630.623	17913.51
630.978	17996
631.332	17947.86
631.687	17963.68
632.041	17990.8
632.396	17963.91
632.75	17921.2
633.104	17972.27
633.459	17831.25
633.813	17901.53
634.167	17825.15
634.521	17897.47
634.875	17819.73
635.229	17850.24
635.583	17691.37
635.937	17761.88
636.291	17735.89
636.645	17725.95
636.999	17675.1
637.352	17778.37
637.706	17578.38
638.06	17708.32
638.413	17727.3
638.767	17627.42
639.121	17697.02
639.474	17493.41
639.828	17523.01
640.181	17569.11
640.534	17609.57
640.888	17534.99
641.241	17455.22
641.594	17539.28
641.947	17498.16
642.301	17467.87
642.654	17476.69
643.007	17440.3
643.36	17423.36
643.713	17397.59
644.066	17411.6
644.419	17316.92
644.771	17335.67
645.124	17083.48
645.477	17001.45
645.83	17073.76
646.182	16952.41
646.535	16846.42
646.888	16860.66
647.24	16819.76
647.593	16860.66
647.945	16869.7
648.298	16827.66
648.65	16819.76
649.002	16761.23
649.355	16826.53
649.707	16814.33
650.059	16904.95
650.411	17106.75
650.763	17076.7
651.115	17282.57
651.467	17192.85
651.819	17247.31
652.171	17243.7
652.523	17141.78
652.875	17170.71
653.227	17128.22
653.578	17291.16
653.93	17204.6
654.282	17111.05
654.633	17032.18
654.985	17201.21
655.337	17078.73
655.688	17127.32
656.039	17178.16
656.391	17086.42
656.742	17081.67
657.094	17117.15
657.445	17159.41
657.796	17131.84
658.147	17082.57
658.498	17127.54
658.849	17164.61
659.2	17146.98
659.551	17120.31
659.902	17164.38
660.253	17200.08
660.604	17160.09
660.955	17043.48
661.306	17196.69
661.656	17083.48
662.007	17166.64
662.358	17147.2
662.708	17173.19
663.059	17128.9
663.409	17055.68
663.76	17275.11
664.11	17192.85
664.461	17215.45
664.811	17257.48
665.161	17226.52
665.511	17174.77
665.862	17155.57
666.212	17240.08
666.562	17247.77
666.912	17279.86
667.262	17262.46
667.612	17287.54
667.962	17183.14
668.312	17255.68
668.662	17230.14
669.011	17224.26
669.361	17159.18
669.711	17160.99
670.06	17124.38
670.41	17151.95
670.76	17040.77
671.109	17196.69
671.459	17125.74
671.808	17039.86
672.157	17197.6
672.507	17026.08
672.856	16918.74
673.205	17088
673.554	17030.82
673.904	16961.45
674.253	17062.46
674.602	17083.03
674.951	16758.74
675.3	16680.78
675.649	16972.29
675.998	16916.25
676.346	16947.89
676.695	16966.87
677.044	16810.72
677.393	16886.87
677.741	16955.12
678.09	16862.92
678.438	16840.77
678.787	16752.19
679.135	16826.31
679.484	16714.67
679.832	16809.13
680.181	16627.67
680.529	16687.1
680.877	16689.59
681.225	16625.86
681.573	16806.65
681.922	16626.31
682.27	16481.69
682.618	16520.1
682.966	16527.33
683.314	16529.82
683.661	16415.7
684.009	16395.59
684.357	16297.06
684.705	16277.85
685.053	16318.75
685.4	16359.88
685.748	16271.52
686.095	16165.08
686.443	16226.1
686.79	16173.22
687.138	16144.29
687.485	16061.58
687.832	16035.14
688.18	16063.84
688.527	15901.36
688.874	15972.55
689.221	15927.12
689.568	15971.64
689.915	15857.29
690.262	15837.86
690.609	15775.49
690.956	15668.6
691.303	15664.76
691.65	15562.84
691.997	15577.98
692.344	15470.41
692.69	15445.55
693.037	15541.82
693.383	15289.17
693.73	15368.72
694.077	15323.07
694.423	15327.37
694.769	15264.77
695.116	15150.42
695.462	15087.37
695.808	14999.46
696.155	15086.02
696.501	14980.26
696.847	14857.32
697.193	14787.27
697.539	14833.14
697.885	14711.79
698.231	14656.87
698.577	14665.24
698.923	14610.77
699.269	14537.78
699.614	14454.17
699.96	14465.69
700.306	14424.79
700.651	14345.02
700.997	14272.25
701.342	14299.37
701.688	14226.15
702.033	14114.29
702.379	14161.52
702.724	14058.47
703.069	14070.68
703.415	13958.14
703.76	13938.02
704.105	13940.06
704.45	13949.32
704.795	13887.18
705.14	13799.27
705.485	13733.51
705.83	13698.03
706.175	13696.67
706.52	13699.39
706.865	13635.66
707.209	13540.97
707.554	13569.45
707.899	13667.97
708.243	13460.75
708.588	13380.98
708.932	13336.46
709.277	13426.17
709.621	13385.27
709.966	13256.23
710.31	13304.14
710.654	13171.04
710.998	13172.17
711.342	13080.19
711.687	13106.18
712.031	13082
712.375	12967.2
712.719	13033.19
713.063	12976.24
713.407	12961.78
713.75	12930.82
714.094	12870.48
714.438	12912.29
714.782	12884.94
715.125	12771.05
715.469	12854.21
715.812	12797.26
716.156	12621.22
716.499	12698.73
716.843	12711.84
717.186	12632.75
717.53	12691.05
717.873	12704.38
718.216	12677.27
718.559	12605.85
718.902	12549.13
719.246	12579.42
719.589	12532.41
719.932	12496.03
720.275	12476.82
720.617	12526.76
720.96	12468.46
721.303	12428.01
721.646	12416.93
721.989	12397.72
722.331	12456.03
722.674	12421
723.016	12334.45
723.359	12366.77
723.701	12345.3
724.044	12262.81
724.386	12158.41
724.729	12308.69
725.071	12200.44
725.413	12270.72
725.755	12249.03
726.097	12150.05
726.439	12110.27
726.782	12181.23
727.124	12183.04
727.465	12222.81
727.807	12234.79
728.149	12054.23
728.491	12122.7
728.833	12155.7
729.175	12054.91
729.516	12113.89
729.858	12103.72
730.199	12120.44
730.541	11989.83
730.882	12032.99
731.224	12086.77
731.565	12022.59
731.906	12029.6
732.248	12003.84
732.589	11939.66
732.93	12004.06
733.271	12040.9
733.612	11981.92
733.953	12087.45
734.294	11936.04
734.635	11942.37
734.976	12066.66
735.317	11931.3
735.658	11961.8
735.999	11967.91
736.339	11938.3
736.68	11974.69
737.021	11955.25
737.361	11900.34
737.702	11983.95
738.042	12030.28
738.383	11928.13
738.723	11974.69
739.063	11951.63
739.404	12065.08
739.744	12028.47
740.084	11958.41
740.424	11976.49
740.764	11964.97
741.104	12015.36
741.444	12003.16
741.784	12022.37
742.124	12077.73
742.464	12044.51
742.804	12024.4
743.143	12046.77
743.483	12141.91
743.823	12056.49
744.162	12087.22
744.502	12204.96
744.841	12095.13
745.181	12261.68
745.52	12175.58
745.86	12292.87
746.199	12341.23
746.538	12319.31
746.877	12411.06
747.216	12386.2
747.556	12469.36
747.895	12468.91
748.234	12459.64
748.573	12570.6
748.911	12670.03
749.25	12707.1
749.589	12707.55
749.928	12759.75
750.267	12886.3
750.605	12823.02
750.944	12917.94
751.283	12967.43
751.621	13076.58
751.96	13200.42
752.298	13192.28
752.636	13280.64
752.975	13324.93
753.313	13488.32
753.651	13521.09
753.989	13516.57
754.327	13681.31
754.666	13737.35
755.004	13789.1
755.342	13980.28
755.679	14009.43
756.017	14101.86
756.355	14345.47
756.693	14410.78
757.031	14414.62
