Data from hue_180_FLMS001491_00036.txt Node
Date: Tue Feb 07 16:46:54 GMT 2017
User: dcchb
Spectrometer: FLMS00149
Trigger mode: 0
Integration Time (sec): 2.000000E-2
Scans to average: 10
Electric dark correction enabled: true
Nonlinearity correction enabled: false
Boxcar width: 0
XAxis mode: Wavelengths
Number of Pixels in Spectrum: 2048
>>>>>Begin Spectral Data<<<<<
341.393	-19.96
341.776	-19.96
342.16	-19.96
342.543	-58.15
342.927	-68.54
343.31	-62.44
343.693	-59.5
344.077	-59.73
344.46	-54.98
344.843	-48.66
345.226	-49.56
345.61	-24.7
345.993	-27.19
346.376	6.71
346.759	-19.51
347.142	11.68
347.525	29.53
347.908	65.46
348.291	86.93
348.674	105.01
349.057	100.94
349.44	120.38
349.823	152.24
350.206	161.96
350.588	202.41
350.971	198.79
351.354	217.55
351.737	251.67
352.119	252.8
352.502	267.94
352.884	269.3
353.267	276.76
353.65	291.9
354.032	292.58
354.414	301.39
354.797	303.65
355.179	312.24
355.562	316.08
355.944	310.88
356.326	324.21
356.709	323.54
357.091	351.78
357.473	317.21
357.855	335.06
358.238	338
358.62	321.95
359.002	335.29
359.384	346.81
359.766	348.62
360.148	349.07
360.53	333.93
360.912	333.93
361.294	327.83
361.676	347.72
362.057	335.06
362.439	335.74
362.821	327.15
363.203	332.35
363.584	333.93
363.966	334.84
364.348	329.64
364.729	310.88
365.111	308.62
365.493	306.36
365.874	321.28
366.256	319.02
366.637	313.14
367.019	313.59
367.4	310.43
367.781	321.28
368.163	318.34
368.544	317.21
368.925	305.91
369.306	332.12
369.688	311.56
370.069	315.85
370.45	325.34
370.831	316.31
371.212	302.29
371.593	326.93
371.974	337.77
372.355	323.31
372.736	313.37
373.117	306.59
373.498	316.98
373.879	312.69
374.26	317.89
374.641	319.24
375.021	323.76
375.402	331.9
375.783	314.72
376.163	341.39
376.544	313.59
376.925	329.64
377.305	308.85
377.686	320.37
378.066	347.94
378.447	324.67
378.827	317.89
379.208	333.03
379.588	333.71
379.968	345.68
380.349	355.17
380.729	339.81
381.109	352.69
381.489	340.94
381.87	348.62
382.25	355.63
382.63	349.98
383.01	335.06
383.39	336.19
383.77	327.83
384.15	332.35
384.53	359.92
384.91	356.53
385.29	362.63
385.67	356.76
386.049	349.07
386.429	367.83
386.809	363.99
387.189	363.76
387.568	347.26
387.948	344.1
388.328	348.85
388.707	340.49
389.087	362.41
389.466	374.61
389.846	373.25
390.225	348.85
390.605	347.49
390.984	376.19
391.363	381.61
391.743	354.95
392.122	348.17
392.501	372.12
392.881	389.52
393.26	378.22
393.639	375.29
394.018	383.42
394.397	382.29
394.776	407.6
395.155	380.71
395.534	380.03
395.913	385.46
396.292	401.05
396.671	382.07
397.05	387.94
397.429	394.95
397.808	393.37
398.186	401.27
398.565	420.94
398.944	418.22
399.323	427.94
399.701	413.93
400.08	416.19
400.458	426.36
400.837	421.84
401.215	436.08
401.594	417.55
401.972	411.44
402.351	437.43
402.729	422.29
403.107	423.42
403.486	437.66
403.864	431.78
404.242	431.78
404.62	434.04
404.999	452.8
405.377	431.1
405.755	459.58
406.133	445.34
406.511	464.55
406.889	468.62
407.267	462.06
407.645	470.2
408.023	486.24
408.401	483.08
408.779	493.02
409.156	489.41
409.534	504.55
409.912	517.43
410.29	528.5
410.667	515.4
411.045	500.71
411.422	506.13
411.8	538.22
412.178	539.35
412.555	560.82
412.933	565.11
413.31	576.64
413.687	582.96
414.065	582.96
414.442	574.38
414.819	578.22
415.197	608.5
415.574	615.28
415.951	587.03
416.328	604.43
416.705	606.92
417.082	634.04
417.46	624.77
417.837	656.64
418.214	662.74
418.591	669.29
418.967	686.69
419.344	669.52
419.721	690.08
420.098	671.1
420.475	713.58
420.852	694.37
421.228	732.57
421.605	713.13
421.982	729.18
422.358	728.5
422.735	754.03
423.111	766.01
423.488	773.69
423.864	768.27
424.241	794.03
424.617	810.08
424.994	799.91
425.37	831.32
425.746	829.06
426.123	856.18
426.499	844.65
426.875	883.97
427.251	903.86
427.627	844.88
428.003	892.34
428.379	921.04
428.756	930.53
429.132	926.01
429.507	930.75
429.883	926.68
430.259	981.37
430.635	957.87
431.011	967.14
431.387	1014.14
431.763	1025.67
432.138	1036.29
432.514	1033.35
432.89	1025.44
433.265	1103.4
433.641	1047.59
434.016	1079.9
434.392	1114.48
434.767	1157.41
435.143	1124.42
435.518	1159.67
435.894	1152.44
436.269	1211.2
436.644	1226.79
437.02	1227.02
437.395	1241.48
437.77	1246.9
438.145	1290.74
438.52	1279.9
438.895	1309.05
439.271	1308.82
439.646	1344.53
440.021	1365.09
440.395	1352.44
440.77	1383.85
441.145	1401.47
441.52	1414.58
441.895	1462.49
442.27	1443.06
442.645	1462.04
443.019	1491.64
443.394	1486.44
443.769	1528.7
444.143	1523.73
444.518	1551.3
444.892	1554.69
445.267	1545.43
445.641	1574.35
446.016	1578.64
446.39	1597.85
446.764	1593.33
447.139	1584.07
447.513	1618.19
447.887	1652.09
448.262	1635.37
448.636	1656.83
449.01	1688.7
449.384	1694.35
449.758	1687.12
450.132	1746.55
450.506	1727.57
450.88	1770.96
451.254	1743.61
451.628	1807.57
452.002	1801.01
452.376	1804.85
452.75	1865.19
453.123	1888.69
453.497	1915.59
453.871	1921.01
454.244	1935.02
454.618	1960.33
454.992	2008.69
455.365	2020.44
455.739	2062.47
456.112	2062.93
456.486	2073.55
456.859	2090.27
457.232	2148.35
457.606	2141.34
457.979	2132.98
458.352	2203.49
458.725	2248.01
459.099	2217.72
459.472	2306.31
459.845	2289.81
460.218	2324.84
460.591	2396.25
460.964	2365.97
461.337	2431.73
461.71	2463.37
462.083	2488
462.456	2546.76
462.829	2553.76
463.201	2558.28
463.574	2591.27
463.947	2656.36
464.32	2688.9
464.692	2702.23
465.065	2752.4
465.438	2781.1
465.81	2822.68
466.183	2894.77
466.555	2946.52
466.928	2938.84
467.3	2964.37
467.672	2993.3
468.045	3094.99
468.417	3113.29
468.789	3119.17
469.161	3193.07
469.534	3239.62
469.906	3313.29
470.278	3336.11
470.65	3383.8
471.022	3459.5
471.394	3484.58
471.766	3518.93
472.138	3572.49
472.51	3679.15
472.882	3706.95
473.253	3777.01
473.625	3878.47
473.997	3925.25
474.369	3952.59
474.74	4064.68
475.112	4137
475.484	4190.33
475.855	4291.34
476.227	4331.11
476.598	4423.77
476.97	4504.67
477.341	4610.66
477.713	4698.56
478.084	4703.99
478.455	4857.2
478.827	4904.89
479.198	5099
479.569	5071.43
479.94	5301.26
480.311	5342.84
480.682	5463.29
481.053	5545.77
481.424	5628.71
481.795	5756.39
482.166	5811.53
482.537	5933.33
482.908	6038.41
483.279	6177.39
483.65	6281.57
484.021	6397.95
484.391	6525.86
484.762	6653.77
485.133	6671.17
485.503	6745.97
485.874	6945.06
486.244	7054.43
486.615	7132.85
486.985	7258.04
487.356	7395.67
487.726	7483.8
488.097	7637.47
488.467	7690.57
488.837	7874.3
489.207	7967.4
489.578	8146.61
489.948	8180.96
490.318	8348.41
490.688	8258.02
491.058	8419.82
491.428	8599.03
491.798	8664.11
492.168	8869.75
492.538	8954.95
492.908	9015.29
493.278	9063.65
493.648	9147.03
494.017	9281.04
494.387	9423.18
494.757	9423.64
495.126	9514.71
495.496	9589.06
495.866	9666.12
496.235	9817.52
496.605	9927.35
496.974	9895.94
497.344	10038.31
497.713	10060
498.082	10166.89
498.452	10261.13
498.821	10267.68
499.19	10343.61
499.559	10371.63
499.928	10462.48
500.298	10524.4
500.667	10568.69
501.036	10529.6
501.405	10649.37
501.774	10670.61
502.143	10747.44
502.512	10786.09
502.88	10847.33
503.249	10837.38
503.618	10927.78
503.987	10910.38
504.356	10994.22
504.724	10969.58
505.093	11100.65
505.462	11158.05
505.83	11203.7
506.199	11295.9
506.567	11349.46
506.936	11344.26
507.304	11439.85
507.672	11420.65
508.041	11438.5
508.409	11420.87
508.777	11552.39
509.145	11642.56
509.514	11612.28
509.882	11659.74
510.25	11652.28
510.618	11799.39
510.986	11766.17
511.354	11913.97
511.722	11849.11
512.09	11964.36
512.458	11941.08
512.826	11945.38
513.193	11939.28
513.561	11964.81
513.929	12027.86
514.297	12151.7
514.664	12213.39
515.032	12125.49
515.4	12186.73
515.767	12176.33
516.135	12233.28
516.502	12168.87
516.869	12365.25
517.237	12318.7
517.604	12245.03
517.972	12372.49
518.339	12322.77
518.706	12338.81
519.073	12386.5
519.44	12324.8
519.808	12472.14
520.175	12475.53
520.542	12487.51
520.909	12507.4
521.276	12532.03
521.643	12567.28
522.009	12643.21
522.376	12617.22
522.743	12593.27
523.11	12650.67
523.477	12746.71
523.843	12785.36
524.21	12791.46
524.577	12810.89
524.943	12842.3
525.31	12870.33
525.676	12871
526.043	12857.22
526.409	12837.33
526.776	12932.02
527.142	12884.79
527.508	12919.82
527.874	13033.94
528.241	12902.87
528.607	12859.03
528.973	12990.55
529.339	12885.69
529.705	12957.78
530.071	12966.82
530.437	12904
530.803	12973.15
531.169	12913.04
531.535	12784.68
531.901	12825.13
532.267	12887.27
532.632	12859.93
532.998	12896.54
533.364	12903.09
533.73	12843.66
534.095	12912.36
534.461	12823.32
534.826	12836.43
535.192	12712.59
535.557	12769.76
535.923	12720.5
536.288	12698.13
536.653	12708.75
537.019	12649.77
537.384	12676.88
537.749	12609.77
538.114	12505.36
538.479	12532.03
538.845	12544.01
539.21	12420.62
539.575	12453.61
539.94	12333.16
540.305	12385.82
540.67	12308.76
541.034	12349.21
541.399	12326.16
541.764	12087.97
542.129	12154.41
542.494	12194.41
542.858	12093.85
543.223	12035.09
543.587	12052.04
543.952	11948.54
544.316	11916.68
544.681	11940.18
545.045	11860.86
545.41	11844.36
545.774	11785.61
546.138	11740.64
546.503	11757.81
546.867	11629.91
547.231	11688.21
547.595	11617.25
547.959	11667.42
548.324	11522.56
548.688	11500.64
549.052	11510.14
549.416	11419.06
549.779	11431.04
550.143	11329.12
550.507	11407.54
550.871	11324.15
551.235	11291.61
551.599	11231.05
551.962	11260.2
552.326	11216.13
552.689	11232.18
553.053	11040.77
553.417	11038.06
553.78	11139.75
554.143	10998.74
554.507	11082.12
554.87	11022.92
555.234	11050.71
555.597	11013.2
555.96	10970.26
556.323	10966.42
556.686	10878.51
557.05	10876.25
557.413	10931.39
557.776	10862.69
558.139	10918.06
558.502	10804.62
558.865	10800.1
559.228	10865.86
559.59	10787.89
559.953	10815.46
560.316	10819.31
560.679	10799.65
561.041	10844.39
561.404	10817.5
561.767	10909.02
562.129	10787.67
562.492	10810.94
562.854	10744.96
563.217	10729.82
563.579	10722.81
563.941	10799.65
564.304	10732.3
564.666	10881.68
565.028	10784.96
565.39	10749.48
565.753	10792.64
566.115	10748.12
566.477	10800.1
566.839	10852.98
567.201	10881.9
567.563	10817.95
567.925	10955.8
568.287	10819.76
568.648	10822.02
569.01	10879.87
569.372	10927.33
569.734	10756.93
570.095	10899.98
570.457	10941.56
570.819	10864.95
571.18	10860.89
571.542	10916.03
571.903	10839.19
572.265	10934.33
572.626	10988.12
572.987	10931.17
573.349	10991.5
573.71	11021.79
574.071	10968.23
574.432	10999.19
574.794	10974.1
575.155	10920.09
575.516	10918.06
575.877	11038.74
576.238	10972.3
576.599	11066.53
576.96	10963.48
577.32	10960.32
577.681	11042.12
578.042	10941.11
578.403	10968.23
578.763	10969.36
579.124	10947.44
579.485	10977.27
579.845	11046.64
580.206	11005.29
580.566	10956.93
580.927	10926.2
581.287	11048.23
581.648	10930.26
582.008	11016.36
582.368	10927.33
582.728	11068.11
583.089	10955.12
583.449	10915.35
583.809	10959.87
584.169	10963.26
584.529	10897.72
584.889	10973.2
585.249	10889.59
585.609	10841
585.969	10938.4
586.329	10885.52
586.688	10895.24
587.048	10851.4
587.408	10777.73
587.768	10827.44
588.127	10811.62
588.487	10819.31
588.846	10843.94
589.206	10755.58
589.565	10738.4
589.925	10804.17
590.284	10802.81
590.643	10827.89
591.003	10757.61
591.362	10793.32
591.721	10805.52
592.08	10766.88
592.44	10805.75
592.799	10832.19
593.158	10670.16
593.517	10735.92
593.876	10784.5
594.235	10708.12
594.593	10733.43
594.952	10669.48
595.311	10661.8
595.67	10704.51
596.029	10682.81
596.387	10764.62
596.746	10662.25
597.104	10619.99
597.463	10664.73
597.822	10709.48
598.18	10674.9
598.538	10644.85
598.897	10720.33
599.255	10617.28
599.613	10764.39
599.972	10633.77
600.33	10717.39
600.688	10581.12
601.046	10691.85
601.404	10680.33
601.762	10662.25
602.12	10687.33
602.478	10721.91
602.836	10683.49
603.194	10575.02
603.552	10574.34
603.91	10586.77
604.268	10691.17
604.625	10547
604.983	10609.14
605.341	10584.74
605.698	10658.18
606.056	10622.93
606.413	10597.39
606.771	10669.25
607.128	10702.02
607.485	10647.33
607.843	10675.35
608.2	10638.75
608.557	10734.56
608.914	10716.94
609.272	10723.94
609.629	10721
609.986	10755.58
610.343	10649.37
610.7	10855.46
611.057	10794.22
611.414	10667.67
611.771	10732.08
612.127	10686.43
612.484	10825.41
612.841	10752.19
613.198	10720.55
613.554	10759.19
613.911	10826.31
614.267	10786.31
614.624	10792.41
614.98	10722.13
615.337	10839.87
615.693	10798.74
616.05	10753.77
616.406	10869.47
616.762	10831.96
617.118	10843.03
617.475	10804.84
617.831	10889.13
618.187	10878.06
618.543	10850.27
618.899	10947.89
619.255	10859.76
619.611	10863.15
619.967	10910.83
620.323	10930.49
620.678	10875.12
621.034	10841.68
621.39	10835.8
621.746	10869.93
622.101	10924.84
622.457	10799.65
622.812	10895.46
623.168	10859.3
623.523	10875.8
623.879	10896.14
624.234	10912.64
624.589	10844.39
624.945	10882.81
625.3	10907.44
625.655	11023.37
626.01	10854.79
626.365	10875.58
626.72	10883.94
627.075	10846.2
627.43	10838.51
627.785	10821.11
628.14	10831.73
628.495	10820.44
628.85	10812.53
629.205	10806.88
629.559	10844.39
629.914	10823.83
630.269	10838.29
630.623	10756.26
630.978	10746.54
631.332	10763.94
631.687	10835.35
632.041	10732.98
632.396	10745.41
632.75	10742.25
633.104	10717.39
633.459	10603.27
633.813	10651.63
634.167	10634.68
634.521	10673.1
634.875	10676.03
635.229	10695.02
635.583	10590.61
635.937	10584.28
636.291	10519.2
636.645	10587
636.999	10550.39
637.352	10543.61
637.706	10508.35
638.06	10574.11
638.413	10509.26
638.767	10540.44
639.121	10471.52
639.474	10467.22
639.828	10448.69
640.181	10551.74
640.534	10530.5
640.888	10432.65
641.241	10396.04
641.594	10409.15
641.947	10459.54
642.301	10304.29
642.654	10410.73
643.007	10387.9
643.36	10412.76
643.713	10295.48
644.066	10388.13
644.419	10402.59
644.771	10342.03
645.124	10248.93
645.477	10170.74
645.83	10105.88
646.182	10078.08
646.535	9975.94
646.888	10077.18
647.24	10000.34
647.593	9984.98
647.945	10013.68
648.298	9963.28
648.65	9932.32
649.002	9914.7
649.355	10058.87
649.707	10024.98
650.059	9984.98
650.411	10122.6
650.763	10124.86
651.115	10246.67
651.467	10248.93
651.819	10162.83
652.171	10144.3
652.523	10185.2
652.875	10196.95
653.227	10085.77
653.578	10239.21
653.93	10205.99
654.282	10202.37
654.633	10158.76
654.985	10132.77
655.337	10196.05
655.688	10225.2
656.039	10203.28
656.391	10186.33
656.742	10185.2
657.094	10212.54
657.445	10219.1
657.796	10168.7
658.147	10188.36
658.498	10180.23
658.849	10184.29
659.2	10219.32
659.551	10236.27
659.902	10138.87
660.253	10180.23
660.604	10260.45
660.955	10274.46
661.306	10170.06
661.656	10183.84
662.007	10174.8
662.358	10246.21
662.708	10279.21
663.059	10256.16
663.409	10205.08
663.76	10209.15
664.11	10223.84
664.461	10275.37
664.811	10226.1
665.161	10177.29
665.511	10194.46
665.862	10225.65
666.212	10241.24
666.562	10243.28
666.912	10195.37
667.262	10259.77
667.612	10221.58
667.962	10225.2
668.312	10227.01
668.662	10247.12
669.011	10197.63
669.361	10208.02
669.711	10228.36
670.06	10224.29
670.41	10190.62
670.76	10144.52
671.109	10199.21
671.459	10171.64
671.808	10157.85
672.157	10249.6
672.507	10101.36
672.856	10097.97
673.205	10143.62
673.554	10143.62
673.904	10082.38
674.253	10143.17
674.602	10155.37
674.951	10016.62
675.3	9927.13
675.649	10162.6
675.998	10025.43
676.346	10051.64
676.695	10097.07
677.044	10018.87
677.393	10089.61
677.741	10043.28
678.09	10010.51
678.438	9991.98
678.787	10066.56
679.135	9979.55
679.484	9953.11
679.832	9989.27
680.181	9883.06
680.529	9905.21
680.877	9901.14
681.225	9928.71
681.573	9935.49
681.922	9863.4
682.27	9810.52
682.618	9788.6
682.966	9815.94
683.314	9795.6
683.661	9829.28
684.009	9717.64
684.357	9763.06
684.705	9714.93
685.053	9702.95
685.4	9712.44
685.748	9577.98
686.095	9576.4
686.443	9573.46
686.79	9565.33
687.138	9549.73
687.485	9533.92
687.832	9532.33
688.18	9502.28
688.527	9440.36
688.874	9452.11
689.221	9357.65
689.568	9407.14
689.915	9352.9
690.262	9326.01
690.609	9300.25
690.956	9324.66
691.303	9357.65
691.65	9263.41
691.997	9179.12
692.344	9214.38
692.69	9120.59
693.037	9141.61
693.383	8992.91
693.73	9062.97
694.077	9010.77
694.423	8987.49
694.769	8999.24
695.116	8975.06
695.462	8911.56
695.808	8921.95
696.155	8908.4
696.501	8763.99
696.847	8786.82
697.193	8732.81
697.539	8733.71
697.885	8684.67
698.231	8658.23
698.577	8643.32
698.923	8595.18
699.269	8586.37
699.614	8517.45
699.96	8552.25
700.306	8500.27
700.651	8444.23
700.997	8449.65
701.342	8386.6
701.688	8430.89
702.033	8325.36
702.379	8312.25
702.724	8278.36
703.069	8313.16
703.415	8190.67
703.76	8242.88
704.105	8218.92
704.45	8201.07
704.795	8089.66
705.14	8122.88
705.485	8094.41
705.83	8036.1
706.175	7997.23
706.52	7980.96
706.865	8003.56
707.209	7983.45
707.554	7918.14
707.899	7922.43
708.243	7868.42
708.588	7863.9
708.932	7770.57
709.277	7842.44
709.621	7800.63
709.966	7750.69
710.31	7732.61
710.654	7711.59
710.998	7688.99
711.342	7690.12
711.687	7698.26
712.031	7678.6
712.375	7632.95
712.719	7644.47
713.063	7567.41
713.407	7616
713.75	7591.37
714.094	7537.58
714.438	7502.33
714.782	7508.43
715.125	7497.36
715.469	7513.4
715.812	7400.86
716.156	7403.35
716.499	7483.8
716.843	7456.91
717.186	7385.72
717.53	7417.81
717.873	7429.11
718.216	7396.57
718.559	7370.58
718.902	7295.33
719.246	7362
719.589	7330.58
719.932	7303.69
720.275	7256.91
720.617	7337.36
720.96	7291.94
721.303	7291.04
721.646	7282.68
721.989	7240.42
722.331	7257.14
722.674	7257.37
723.016	7280.19
723.359	7288.55
723.701	7244.26
724.044	7234.09
724.386	7116.8
724.729	7232.51
725.071	7169.23
725.413	7256.69
725.755	7194.09
726.097	7132.4
726.439	7152.51
726.782	7142.79
727.124	7139.63
727.465	7115.67
727.807	7120.65
728.149	7072.96
728.491	7113.64
728.833	7098.05
729.175	7079.74
729.516	7108.67
729.858	7097.37
730.199	7086.52
730.541	7126.75
730.882	7121.1
731.224	7091.04
731.565	7052.63
731.906	7099.63
732.248	7121.32
732.589	7081.33
732.93	7087.65
733.271	7097.37
733.612	7049.69
733.953	7139.63
734.294	7107.99
734.635	7079.29
734.976	7076.81
735.317	7008.33
735.658	7100.76
735.999	7061.44
736.339	7077.94
736.68	7108.22
737.021	7170.59
737.361	7079.52
737.702	7100.99
738.042	7130.82
738.383	7091.72
738.723	7098.27
739.063	7134.43
739.404	7170.36
739.744	7097.37
740.084	7166.75
740.424	7190.25
740.764	7157.03
741.104	7234.32
741.444	7183.7
741.784	7166.29
742.124	7240.42
742.464	7215.78
742.804	7322.67
743.143	7250.81
743.483	7330.13
743.823	7289.46
744.162	7327.19
744.502	7349.34
744.841	7320.87
745.181	7433.18
745.52	7368.1
745.86	7520.41
746.199	7436.8
746.538	7498.72
746.877	7623.91
747.216	7608.99
747.556	7603.35
747.895	7668.65
748.234	7715.66
748.573	7763.79
748.911	7816.22
749.25	7878.14
749.589	7881.3
749.928	7968.31
750.267	8062.77
750.605	8071.36
750.944	8164.01
751.283	8245.14
751.621	8305.02
751.96	8360.39
752.298	8437.22
752.636	8539.37
752.975	8557.9
753.313	8662.3
753.651	8824.78
753.989	8848.74
754.327	8978
754.666	9069.3
755.004	9204.66
755.342	9342.28
755.679	9429.96
756.017	9535.27
756.355	9709.5
756.693	9817.52
757.031	9993.11
757.368	10077.4
757.706	10200.34
758.044	10331.86
758.381	10562.59
758.719	10624.28
759.056	10771.85
759.394	10954.67
759.731	11045.29
