Data from hue_330_FLMS001491_42.txt Node
Date: Mon Feb 06 15:45:26 GMT 2017
User: dcchb
Spectrometer: FLMS00149
Trigger mode: 0
Integration Time (sec): 2.000000E-2
Scans to average: 10
Electric dark correction enabled: true
Nonlinearity correction enabled: false
Boxcar width: 0
XAxis mode: Wavelengths
Number of Pixels in Spectrum: 2048
>>>>>Begin Spectral Data<<<<<
341.393	-17.58
341.776	-17.58
342.16	-17.58
342.543	-57.36
342.927	-63.01
343.31	-70.01
343.693	-49
344.077	-69.79
344.46	-77.24
344.843	-53.52
345.226	-47.64
345.61	-16
345.993	-20.75
346.376	-4.03
346.759	2.75
347.142	24.22
347.525	54.73
347.908	57.89
348.291	54.73
348.674	99.25
349.057	114.39
349.44	123.65
349.823	140.6
350.206	173.6
350.588	177.89
350.971	198
351.354	226.25
351.737	221.05
352.119	215.4
352.502	273.03
352.884	251.79
353.267	263.09
353.65	282.52
354.032	300.37
354.414	292.24
354.797	310.77
355.179	308.51
355.562	310.77
355.944	327.27
356.326	338.11
356.709	340.15
357.091	343.76
357.473	346.7
357.855	336.08
358.238	349.64
358.62	333.14
359.002	320.94
359.384	331.79
359.766	348.73
360.148	330.2
360.53	350.54
360.912	332.91
361.294	320.03
361.676	302.63
362.057	320.03
362.439	339.69
362.821	319.81
363.203	321.62
363.584	341.28
363.966	320.49
364.348	310.32
364.729	318.45
365.111	314.16
365.493	338.79
365.874	293.37
366.256	310.54
366.637	302.41
367.019	308.73
367.4	303.54
367.781	325.23
368.163	298.11
368.544	292.24
368.925	295.4
369.306	316.42
369.688	318.9
370.069	327.72
370.45	322.07
370.831	297.21
371.212	315.06
371.593	306.7
371.974	315.29
372.355	311.22
372.736	311.45
373.117	320.71
373.498	325.46
373.879	298.79
374.26	284.1
374.641	298.34
375.021	327.94
375.402	299.7
375.783	303.99
376.163	320.71
376.544	324.33
376.925	326.81
377.305	315.06
377.686	314.38
378.066	323.2
378.447	333.37
378.827	309.41
379.208	325.46
379.588	326.36
379.968	309.19
380.349	342.18
380.729	327.04
381.109	348.73
381.489	351.67
381.87	344.67
382.25	338.11
382.63	342.63
383.01	332.24
383.39	341.95
383.77	336.98
384.15	340.6
384.53	339.92
384.91	347.83
385.29	342.86
385.67	343.31
386.049	343.08
386.429	349.86
386.809	345.57
387.189	349.41
387.568	351.67
387.948	326.59
388.328	341.05
388.707	351.67
389.087	341.95
389.466	366.36
389.846	349.41
390.225	343.54
390.605	357.77
390.984	365.23
391.363	364.1
391.743	379.92
392.122	365.91
392.501	380.37
392.881	377.66
393.26	360.26
393.639	366.59
394.018	355.97
394.397	373.59
394.776	385.34
395.155	360.26
395.534	354.38
395.913	363.87
396.292	375.17
396.671	374.95
397.05	363.87
397.429	376.98
397.808	393.25
398.186	368.85
398.565	382.63
398.944	386.47
399.323	398.22
399.701	390.31
400.08	396.42
400.458	368.62
400.837	393.25
401.215	386.47
401.594	398
401.972	396.19
402.351	386.02
402.729	408.39
403.107	403.87
403.486	416.08
403.864	383.54
404.242	405.23
404.62	413.14
404.999	415.17
405.377	402.29
405.755	418.11
406.133	398.45
406.511	423.99
406.889	439.13
407.267	405.46
407.645	438
408.023	428.51
408.401	434.83
408.779	467.15
409.156	449.07
409.534	438
409.912	445.68
410.29	467.15
410.667	458.34
411.045	479.13
411.422	475.06
411.8	471.67
412.178	499.46
412.555	476.41
412.933	497.43
413.31	501.27
413.687	503.31
414.065	504.44
414.442	507.6
414.819	506.7
415.197	512.35
415.574	534.49
415.951	531.55
416.328	565.68
416.705	537.88
417.082	543.98
417.46	542.63
417.837	576.75
418.214	548.05
418.591	572.68
418.967	570.87
419.344	586.69
419.721	561.61
420.098	592.34
420.475	595.73
420.852	598.9
421.228	629.18
421.605	616.07
421.982	632.57
422.358	637.54
422.735	656.75
423.111	658.33
423.488	647.03
423.864	660.59
424.241	652.68
424.617	670.31
424.994	668.27
425.37	677.76
425.746	661.27
426.123	674.37
426.499	695.17
426.875	691.32
427.251	716.41
427.627	734.71
428.003	712.57
428.379	727.03
428.756	715.05
429.132	724.77
429.507	741.04
429.883	759.34
430.259	776.75
430.635	787.14
431.011	764.77
431.387	771.55
431.763	794.15
432.138	803.41
432.514	820.13
432.89	839.12
433.265	828.5
433.641	816.97
434.016	846.57
434.392	836.4
434.767	854.48
435.143	865.78
435.518	881.83
435.894	877.53
436.269	881.83
436.644	890.19
437.02	913.24
437.395	905.33
437.77	910.75
438.145	934.26
438.52	917.08
438.895	947.36
439.271	926.12
439.646	953.01
440.021	969.73
440.395	964.31
440.77	953.92
441.145	976.97
441.52	972.45
441.895	1012.45
442.27	990.98
442.645	965.21
443.019	999.34
443.394	1009.51
443.769	1008.15
444.143	1011.09
444.518	1027.13
444.892	1026.68
445.267	1020.13
445.641	1025.55
446.016	1024.87
446.39	1055.61
446.764	1073.91
447.139	1044.53
447.513	1082.05
447.887	1059.22
448.262	1089.05
448.636	1077.75
449.01	1088.83
449.384	1081.6
449.758	1109.62
450.132	1091.31
450.506	1116.85
450.88	1074.36
451.254	1117.75
451.628	1106.91
452.002	1110.07
452.376	1137.64
452.75	1134.02
453.123	1131.31
453.497	1139
453.871	1171.76
454.244	1163.4
454.618	1169.5
454.992	1198.2
455.365	1202.95
455.739	1221.48
456.112	1232.33
456.486	1234.59
456.859	1217.86
457.232	1235.49
457.606	1222.38
457.979	1232.33
458.352	1283.85
458.725	1278.2
459.099	1309.39
459.472	1283.85
459.845	1311.65
460.218	1326.11
460.591	1321.59
460.964	1340.57
461.337	1375.83
461.71	1382.15
462.083	1372.89
462.456	1379.44
462.829	1361.59
463.201	1419.89
463.574	1420.34
463.947	1449.04
464.32	1416.28
464.692	1420.57
465.065	1416.05
465.438	1463.05
465.81	1484.3
466.183	1513.22
466.555	1512.77
466.928	1544.18
467.3	1541.47
467.672	1576.5
468.045	1600.9
468.417	1600.45
468.789	1597.06
469.161	1592.77
469.534	1603.16
469.906	1644.74
470.278	1652.65
470.65	1678.19
471.022	1679.32
471.394	1706.21
471.766	1718.64
472.138	1740.34
472.51	1792.54
472.882	1750.73
473.253	1799.77
473.625	1848.36
473.997	1848.58
474.369	1856.72
474.74	1863.5
475.112	1917.96
475.484	1945.98
475.855	1944.85
476.227	1999.31
476.598	1986.66
476.97	2053.55
477.341	2074.11
477.713	2087.22
478.084	2086.54
478.455	2124.96
478.827	2132.87
479.198	2220.77
479.569	2205.41
479.94	2252.86
480.311	2256.25
480.682	2279.76
481.053	2357.04
481.424	2373.99
481.795	2398.4
482.166	2412.41
482.537	2442.01
482.908	2486.53
483.279	2522.69
483.65	2525.85
484.021	2570.82
484.391	2630.03
484.762	2619.18
485.133	2661.44
485.503	2650.59
485.874	2707.54
486.244	2727.65
486.615	2747.77
486.985	2777.82
487.356	2854.66
487.726	2878.16
488.097	2929.91
488.467	2922.23
488.837	2980.53
489.207	3001.32
489.578	3032.96
489.948	3070.47
490.318	3094.42
490.688	3124.25
491.058	3138.04
491.428	3153.86
491.798	3193.4
492.168	3242.67
492.538	3304.59
492.908	3291.48
493.278	3363.34
493.648	3327.64
494.017	3369.67
494.387	3392.27
494.757	3417.35
495.126	3443.79
495.496	3468.88
495.866	3486.73
496.235	3521.08
496.605	3515.2
496.974	3545.03
497.344	3579.16
497.713	3587.29
498.082	3621.19
498.452	3637.91
498.821	3656.44
499.19	3664.8
499.559	3704.13
499.928	3738.25
500.298	3719.49
500.667	3794.97
501.036	3696.67
501.405	3772.15
501.774	3828.64
502.143	3825.93
502.512	3842.65
502.88	3837.91
503.249	3835.42
503.618	3876.78
503.987	3935.53
504.356	3939.83
504.724	3944.57
505.093	3948.87
505.462	3961.29
505.83	3927.4
506.199	4002.42
506.567	4001.29
506.936	4009.43
507.304	4084.68
507.672	4102.76
508.041	4070.9
508.409	4116.54
508.777	4138.24
509.145	4126.04
509.514	4109.99
509.882	4138.92
510.25	4117
510.618	4149.99
510.986	4171.91
511.354	4228.18
511.722	4212.14
512.09	4242.64
512.458	4249.42
512.826	4287.84
513.193	4277.22
513.561	4315.64
513.929	4338.46
514.297	4348.18
514.664	4390.66
515.032	4334.62
515.4	4342.08
515.767	4419.59
516.135	4366.93
516.502	4370.32
516.869	4441.28
517.237	4424.33
517.604	4458.91
517.972	4480.15
518.339	4469.98
518.706	4499.13
519.073	4478.12
519.44	4514.73
519.808	4565.57
520.175	4528.06
520.542	4582.52
520.909	4585.91
521.276	4591.79
521.643	4626.14
522.009	4648.96
522.376	4648.06
522.743	4669.3
523.11	4692.12
523.477	4737.32
523.843	4760.14
524.21	4740.93
524.577	4804.21
524.943	4782.74
525.31	4834.27
525.676	4908.84
526.043	4834.72
526.409	4911.55
526.776	4949.97
527.142	4953.36
527.508	4980.25
527.874	4985.22
528.241	5017.99
528.607	5004.66
528.973	5086.01
529.339	5094.15
529.705	5147.25
530.071	5145.9
530.437	5210.53
530.803	5220.02
531.169	5207.82
531.535	5228.61
531.901	5233.8
532.267	5269.51
532.632	5303.86
532.998	5280.81
533.364	5299.56
533.73	5358.32
534.095	5386.57
534.461	5371.65
534.826	5467.02
535.192	5443.29
535.557	5469.28
535.923	5450.75
536.288	5521.25
536.653	5552.89
537.019	5535.72
537.384	5552.21
537.749	5556.28
538.114	5605.54
538.479	5620.46
538.845	5635.15
539.21	5636.05
539.575	5664.07
539.94	5690.06
540.305	5744.3
540.67	5764.64
541.034	5785.2
541.399	5780
541.764	5796.73
542.129	5831.75
542.494	5887.57
542.858	5880.34
543.223	5926.89
543.587	5998.53
543.952	5993.11
544.316	5979.32
544.681	5961.47
545.045	5983.61
545.41	6012.77
545.774	6049.37
546.138	6068.81
546.503	6110.16
546.867	6113.55
547.231	6171.86
547.595	6154.68
547.959	6247.34
548.324	6200.78
548.688	6196.26
549.052	6258.18
549.416	6343.38
549.779	6326.2
550.143	6304.51
550.507	6330.27
550.871	6374.11
551.235	6410.95
551.599	6401.91
551.962	6409.59
552.326	6459.53
552.689	6519.19
553.053	6522.81
553.417	6516.03
553.78	6577.27
554.143	6593.09
554.507	6582.24
554.87	6594.22
555.234	6633.09
555.597	6631.05
555.96	6618.63
556.323	6635.35
556.686	6692.75
557.05	6767.32
557.413	6743.59
557.776	6732.75
558.139	6812.29
558.502	6831.05
558.865	6822.91
559.228	6883.7
559.59	6864.72
559.953	6912.63
560.316	6907.21
560.679	6988.11
561.041	6971.84
561.404	7039.41
561.767	7100.65
562.129	7040.99
562.492	7094.77
562.854	7059.07
563.217	7104.71
563.579	7119.86
563.941	7155.11
564.304	7163.7
564.666	7229.46
565.028	7212.96
565.39	7277.37
565.753	7277.37
566.115	7313.07
566.477	7323.92
566.839	7312.17
567.201	7408.21
567.563	7340.19
567.925	7421.09
568.287	7368.89
568.648	7491.82
569.01	7490.01
569.372	7575.66
569.734	7514.42
570.095	7645.04
570.457	7713.51
570.819	7655.43
571.18	7664.47
571.542	7720.29
571.903	7764.58
572.265	7815.2
572.626	7890.23
572.987	7875.09
573.349	7899.27
573.71	7908.08
574.071	8019.94
574.432	8051.36
574.794	8136.33
575.155	8208.41
575.516	8172.93
575.877	8278.24
576.238	8341.52
576.599	8363.44
576.96	8452.02
577.32	8532.02
577.681	8688.63
578.042	8711.23
578.403	8794.39
578.763	8825.12
579.124	8922.29
579.485	9052.46
579.845	9183.3
580.206	9247.48
580.566	9350.3
580.927	9437.76
581.287	9595.27
581.648	9711.65
582.008	9772.21
582.368	9993.23
582.728	10085.65
583.089	10229.38
583.449	10370.39
583.809	10592.31
584.169	10705.52
584.529	10870.49
584.889	11072.52
585.249	11200.43
585.609	11433.19
585.969	11717.47
586.329	11860.3
586.688	12116.79
587.048	12243.79
587.408	12406.95
587.768	12695.98
588.127	12875.41
588.487	13079.02
588.846	13428.84
589.206	13600.36
589.565	13827.7
589.925	14094.14
590.284	14295.94
590.643	14573.9
591.003	14877.17
591.362	15137.5
591.721	15354.21
592.08	15696.58
592.44	15964.14
592.799	16217.7
593.158	16419.05
593.517	16769.32
593.876	17100.16
594.235	17284.56
594.593	17552.8
594.952	17893.58
595.311	18218.09
595.67	18519.1
596.029	18833.67
596.387	19116.83
596.746	19502.58
597.104	19577.38
597.463	19912.97
597.822	20313.63
598.18	20497.13
598.538	20750.68
598.897	21131.92
599.255	21262.31
599.613	21877.21
599.972	22015.73
600.33	22242.62
600.688	22491.43
601.046	22918.54
601.404	23212.77
601.762	23438.3
602.12	23779.76
602.478	23936.36
602.836	24287.09
603.194	24430.36
603.552	24732.5
603.91	24969.78
604.268	25200.06
604.625	25450.22
604.983	25749.65
605.341	25974.73
605.698	26196.64
606.056	26615.39
606.413	26809.51
606.771	27094.7
607.128	27284.3
607.485	27435.03
607.843	27680.44
608.2	28048.57
608.557	28359.07
608.914	28326.3
609.272	28738.95
609.629	28881.99
609.986	29285.83
610.343	29181.65
610.7	29643.1
611.057	29776.21
611.414	29995.41
611.771	30214.16
612.127	30336.87
612.484	30590.42
612.841	30813.02
613.198	30920.81
613.554	31123.97
613.911	31294.36
614.267	31636.72
614.624	31660.23
614.98	31889.83
615.337	32250.04
615.693	32283.04
616.05	32431.28
616.406	32568.45
616.762	32756.7
617.118	32784.94
617.475	32960.53
617.831	33259.73
618.187	33255.89
618.543	33504.7
618.899	33755.99
619.255	33738.59
619.611	33860.17
619.967	34001.63
620.323	34336.54
620.678	34221.52
621.034	34198.92
621.39	34321.17
621.746	34376.09
622.101	34803.65
622.457	34688.17
622.812	34793.03
623.168	35079.8
623.523	35068.05
623.879	35340.13
624.234	35183.98
624.589	35381.71
624.945	35496.28
625.3	35517.53
625.655	35531.76
626.01	35647.92
626.365	35838.65
626.72	35773.11
627.075	35943.05
627.43	35897.18
627.785	35796.39
628.14	36078.64
628.495	36157.06
628.85	36102.82
629.205	36060.11
629.559	36341.69
629.914	36271.63
630.269	36281.12
630.623	36210.84
630.978	36315.47
631.332	36398.41
631.687	36586.88
632.041	36422.81
632.396	36517.5
632.75	36357.28
633.104	36487.22
633.459	36524.73
633.813	36469.37
634.167	36573.77
634.521	36705.07
634.875	36601.11
635.229	36545.3
635.583	36428.24
635.937	36580.32
636.291	36539.65
636.645	36542.81
636.999	36555.01
637.352	36667.78
637.706	36465.75
638.06	36674.78
638.413	36549.36
638.767	36436.6
639.121	36486.09
639.474	36363.38
639.828	36450.38
640.181	36374.91
640.534	36558.63
640.888	36404.28
641.241	36314.57
641.594	36339.43
641.947	36517.27
642.301	36416.26
642.654	36392.98
643.007	36603.83
643.36	36459.87
643.713	36336.71
644.066	36563.37
644.419	36402.02
644.771	36173.1
645.124	35856.5
645.477	35846.11
645.83	35578.32
646.182	35429.17
646.535	35317.76
646.888	35395.95
647.24	35190.76
647.593	35492.67
647.945	35337.87
648.298	35266.91
648.65	35237.53
649.002	35185.33
649.355	35200.92
649.707	35191.89
650.059	35373.58
650.411	35837.07
650.763	35861.02
651.115	36293.55
651.467	35955.03
651.819	36048.59
652.171	36023.5
652.523	35861.7
652.875	36129.26
653.227	36013.11
653.578	36166.78
653.93	36011.07
654.282	35877.97
654.633	35743.06
654.985	35914.35
655.337	35985.99
655.688	35850.17
656.039	35959.55
656.391	35655.83
656.742	35678.88
657.094	35783.96
657.445	35915.93
657.796	35731.31
658.147	35758.88
658.498	35801.36
658.849	35859.21
659.2	35803.39
659.551	35731.08
659.902	35806.33
660.253	35785.54
660.604	35814.47
660.955	35564.76
661.306	35855.37
661.656	35674.36
662.007	35633
662.358	35672.55
662.708	35567.02
663.059	35687.24
663.409	35424.2
663.76	35596.39
664.11	35630.97
664.461	35680.91
664.811	35711.87
665.161	35510.3
665.511	35579.67
665.862	35539.22
666.212	35710.06
666.562	35659.67
666.912	35625.09
667.262	35504.87
667.612	35487.92
667.962	35560.01
668.312	35561.37
668.662	35626.9
669.011	35578.54
669.361	35547.58
669.711	35566.11
670.06	35457.42
670.41	35479.11
670.76	35295.39
671.109	35512.55
671.459	35466.68
671.808	35396.85
672.157	35488.37
672.507	35267.14
672.856	35221.72
673.205	35438.21
673.554	35461.26
673.904	35273.24
674.253	35573.8
674.602	35341.94
674.951	34838.9
675.3	34683.42
675.649	35285.89
675.998	35230.75
676.346	35279.79
676.695	35205.44
677.044	34973.81
677.393	35148.27
677.741	35176.07
678.09	35087.26
678.438	34995.73
678.787	35143.53
679.135	35090.87
679.484	34845
679.832	34936.75
680.181	34761.39
680.529	34963.87
680.877	34847.49
681.225	34880.71
681.573	35014.26
681.922	34686.59
682.27	34696.98
682.618	34608.4
682.966	34551.9
683.314	34578.57
683.661	34405.92
684.009	34253.83
684.357	34178.58
684.705	34300.38
685.053	34367.5
685.4	34226.04
685.748	34176.32
686.095	34082.08
686.443	33934.97
686.79	33919.6
687.138	33991.69
687.485	33984.91
687.832	33826.95
688.18	33760.51
688.527	33678.03
688.874	33793.96
689.221	33562.32
689.568	33577.92
689.915	33509.9
690.262	33421.08
690.609	33413.85
690.956	33358.71
691.303	33305.83
691.65	33145.61
691.997	33121.43
692.344	32873.53
692.69	32845.05
693.037	32978.16
693.383	32539.53
693.73	32798.5
694.077	32535.68
694.423	32580.88
694.769	32378.4
695.116	32383.6
695.462	32370.72
695.808	32298.63
696.155	32399.19
696.501	32036.26
696.847	32074
697.193	31907.68
697.539	31976.83
697.885	31754.01
698.231	31580.68
698.577	31652.77
698.923	31521.47
699.269	31327.81
699.614	31370.97
699.96	31207.13
700.306	31305.89
700.651	31153.12
700.997	31070.41
701.342	31078.1
701.688	31064.99
702.033	30792.68
702.379	30832
702.724	30809.4
703.069	30832.68
703.415	30454.16
703.76	30475.85
704.105	30439.92
704.45	30338.23
704.795	30239.02
705.14	30079.03
705.485	30148.4
705.83	29975.07
706.175	29955.86
706.52	29873.83
706.865	29943.44
707.209	29801.97
707.554	29666.83
707.899	29759.49
708.243	29677.91
708.588	29558.81
708.932	29420.74
709.277	29389.55
709.621	29338.25
709.966	29117.69
710.31	29324.7
710.654	29031.37
710.998	29102.55
711.342	29124.25
711.687	29004.03
712.031	28888.1
712.375	28823.69
712.719	28845.16
713.063	28734.2
713.407	28915.44
713.75	28716.8
714.094	28687.88
714.438	28502.8
714.782	28431.16
715.125	28464.83
715.469	28400.65
715.812	28307.32
716.156	28124.05
716.499	28129.25
716.843	28180.09
717.186	28105.97
717.53	28088.12
717.873	28118.4
718.216	28125.86
718.559	27855.81
718.902	27707.11
719.246	27802.93
719.589	27787.56
719.932	27614.23
720.275	27656.04
720.617	27636.15
720.96	27552.31
721.303	27573.1
721.646	27512.77
721.989	27420.34
722.331	27427.12
722.674	27299.89
723.016	27334.46
723.359	27270.74
723.701	27202.94
724.044	27066.22
724.386	26936.06
724.729	27058.77
725.071	26929.05
725.413	26870.52
725.755	26963.4
726.097	26912.78
726.439	26697.19
726.782	26753.92
727.124	26826.46
727.465	26666.23
727.807	26521.38
728.149	26538.55
728.491	26471.21
728.833	26579
729.175	26429.63
729.516	26473.47
729.858	26402.06
730.199	26389.86
730.541	26341.04
730.882	26298.11
731.224	26361.16
731.565	26207.04
731.906	26263.98
732.248	26270.54
732.589	26023.09
732.93	25939.25
733.271	26082.52
733.612	26020.15
733.953	25903.32
734.294	25920.04
734.635	25759.37
734.976	25885.69
735.317	25860.83
735.658	25713.26
735.999	25792.13
736.339	25695.41
736.68	25781.51
737.021	25579.48
737.361	25531.8
737.702	25666.26
738.042	25478.69
738.383	25410
738.723	25490.22
739.063	25470.79
739.404	25369.09
739.744	25229.44
740.084	25337.23
740.424	25346.95
740.764	25242.32
741.104	25340.62
741.444	25131.36
741.784	25093.85
742.124	25077.8
742.464	25045.26
742.804	25081.87
743.143	24910.57
743.483	24938.6
743.823	24971.59
744.162	24879.84
744.502	24918.48
744.841	24826.06
745.181	24849.11
745.52	24748.32
745.86	24805.04
746.199	24654.08
746.538	24615.67
746.877	24624.25
747.216	24543.13
747.556	24549.23
747.895	24451.83
748.234	24396.01
748.573	24433.07
748.911	24401.21
749.25	24445.73
749.589	24163.7
749.928	24245.96
750.267	24335.45
750.605	24102.01
750.944	24177.49
751.283	24023.82
751.621	24130.93
751.96	23991.05
752.298	23900.88
752.636	23898.17
752.975	23743.37
753.313	23676.03
753.651	23764.62
753.989	23699.98
754.327	23705.18
754.666	23507.45
755.004	23436.26
755.342	23506.54
755.679	23531.4
756.017	23430.84
756.355	23349.48
756.693	23302.93
757.031	23331.41
757.368	23230.84
757.706	23045.76
758.044	23087.12
758.381	23027.91
758.719	22971.87
759.056	23088.7
759.394	22848.48
759.731	22704.53
760.068	22808.03
