Data from hue_280_FLMS001491_00084.txt Node
Date: Tue Feb 07 15:55:54 GMT 2017
User: dcchb
Spectrometer: FLMS00149
Trigger mode: 0
Integration Time (sec): 2.000000E-2
Scans to average: 10
Electric dark correction enabled: true
Nonlinearity correction enabled: false
Boxcar width: 0
XAxis mode: Wavelengths
Number of Pixels in Spectrum: 2048
>>>>>Begin Spectral Data<<<<<
341.393	-14.04
341.776	-14.04
342.16	-14.04
342.543	-41.84
342.927	-61.72
343.31	-44.32
343.693	-56.07
344.077	-83.42
344.46	-50.65
344.843	-59.46
345.226	-51.33
345.61	-30.31
345.993	-3.64
346.376	-16.52
346.759	7.2
347.142	23.7
347.525	36.81
347.908	34.77
348.291	81.78
348.674	97.37
349.057	114.09
349.44	112.06
349.823	141.21
350.206	133.75
350.588	182.79
350.971	196.12
351.354	214.88
351.737	216.01
352.119	242.23
352.502	255.11
352.884	268.67
353.267	263.92
353.65	287.2
354.032	297.14
354.414	280.64
354.797	319.74
355.179	307.08
355.562	301.88
355.944	334.65
356.326	314.77
356.709	335.33
357.091	334.2
357.473	329.91
357.855	331.49
358.238	327.42
358.62	345.27
359.002	341.21
359.384	323.58
359.766	322.68
360.148	316.35
360.53	331.94
360.912	318.38
361.294	331.26
361.676	325.16
362.057	317.48
362.439	334.65
362.821	314.77
363.203	323.81
363.584	307.99
363.966	310.25
364.348	316.12
364.729	327.42
365.111	300.75
365.493	321.55
365.874	304.14
366.256	308.66
366.637	317.93
367.019	312.05
367.4	314.99
367.781	300.08
368.163	306.63
368.544	296.24
368.925	329
369.306	324.48
369.688	324.71
370.069	294.43
370.45	280.42
370.831	302.34
371.212	296.24
371.593	302.56
371.974	301.21
372.355	286.29
372.736	304.82
373.117	317.93
373.498	307.53
373.879	313.86
374.26	314.99
374.641	305.5
375.021	308.44
375.402	300.98
375.783	331.49
376.163	310.02
376.544	313.41
376.925	314.99
377.305	337.36
377.686	301.88
378.066	333.75
378.447	313.64
378.827	304.6
379.208	336.23
379.588	341.88
379.968	315.22
380.349	318.16
380.729	336.46
381.109	318.83
381.489	336.01
381.87	341.43
382.25	342.79
382.63	340.3
383.01	369.68
383.39	318.83
383.77	342.34
384.15	339.85
384.53	338.49
384.91	345.73
385.29	352.5
385.67	345.27
386.049	345.73
386.429	317.25
386.809	334.43
387.189	355.89
387.568	336.23
387.948	344.82
388.328	351.6
388.707	367.19
389.087	340.53
389.466	350.47
389.846	358.83
390.225	353.18
390.605	371.26
390.984	372.84
391.363	356.57
391.743	345.95
392.122	347.99
392.501	373.97
392.881	367.42
393.26	364.71
393.639	364.03
394.018	373.52
394.397	398.83
394.776	369.45
395.155	390.7
395.534	378.27
395.913	399.28
396.292	373.07
396.671	377.36
397.05	358.38
397.429	391.83
397.808	389.11
398.186	362
398.565	392.05
398.944	387.53
399.323	374.43
399.701	393.63
400.08	409.68
400.458	382.11
400.837	400.41
401.215	410.36
401.594	397.48
401.972	409.23
402.351	399.06
402.729	431.15
403.107	424.59
403.486	434.99
403.864	423.92
404.242	435.44
404.62	440.41
404.999	409.23
405.377	424.82
405.755	423.01
406.133	431.82
406.511	445.38
406.889	468.66
407.267	448.32
407.645	473.18
408.023	488.55
408.401	464.37
408.779	486.96
409.156	490.13
409.534	486.29
409.912	496.46
410.29	505.72
410.667	493.74
411.045	499.39
411.422	491.94
411.8	508.43
412.178	524.93
412.555	520.86
412.933	521.77
413.31	536.91
413.687	557.25
414.065	559.05
414.442	579.17
414.819	560.41
415.197	562.89
415.574	590.69
415.951	569
416.328	571.93
416.705	600.63
417.082	616
417.46	637.7
417.837	616.45
418.214	631.14
418.591	639.95
418.967	646.28
419.344	610.13
419.721	661.65
420.098	657.58
420.475	667.07
420.852	665.04
421.228	675.21
421.605	670.69
421.982	686.51
422.358	706.85
422.735	720.4
423.111	721.53
423.488	732.61
423.864	730.8
424.241	763.12
424.617	752.72
424.994	769.9
425.37	790.23
425.746	777.8
426.123	803.34
426.499	768.31
426.875	812.38
427.251	798.82
427.627	837.01
428.003	847.18
428.379	844.92
428.756	856.22
429.132	877.69
429.507	848.99
429.883	882.43
430.259	904.81
430.635	908.65
431.011	935.77
431.387	932.38
431.763	922.66
432.138	943
432.514	936.67
432.89	970.34
433.265	1000.17
433.641	1010.79
434.016	1011.47
434.392	1011.24
434.767	1032.26
435.143	1069.77
435.518	1057.35
435.894	1059.15
436.269	1061.41
436.644	1127.85
437.02	1132.15
437.395	1100.96
437.77	1126.04
438.145	1157.68
438.52	1166.27
438.895	1156.33
439.271	1172.6
439.646	1198.36
440.021	1223.67
440.395	1221.86
440.77	1221.63
441.145	1231.58
441.52	1227.96
441.895	1276.1
442.27	1257.57
442.645	1262.76
443.019	1293.5
443.394	1298.69
443.769	1311.35
444.143	1299.82
444.518	1340.5
444.892	1328.52
445.267	1327.85
445.641	1326.49
446.016	1347.96
446.39	1376.21
446.764	1387.05
447.139	1350.67
447.513	1371.91
447.887	1381.86
448.262	1385.92
448.636	1373.27
449.01	1400.16
449.384	1425.92
449.758	1415.98
450.132	1439.93
450.506	1454.85
450.88	1446.04
451.254	1434.96
451.628	1465.02
452.002	1473.83
452.376	1493.49
452.75	1477
453.123	1505.69
453.497	1519.25
453.871	1502.08
454.244	1565.81
454.618	1577.56
454.992	1566.71
455.365	1575.75
455.739	1629.31
456.112	1618.01
456.486	1635.86
456.859	1650.32
457.232	1649.65
457.606	1626.6
457.979	1692.58
458.352	1707.27
458.725	1726.71
459.099	1741.85
459.472	1726.25
459.845	1727.38
460.218	1754.5
460.591	1792.02
460.964	1784.33
461.337	1811.45
461.71	1860.94
462.083	1863.88
462.456	1855.97
462.829	1875.85
463.201	1884.44
463.574	1907.04
463.947	1907.72
464.32	1939.36
464.692	1951.78
465.065	1951.56
465.438	2005.12
465.81	2013.93
466.183	2024.33
466.555	2048.28
466.928	2046.02
467.3	2056.19
467.672	2062.06
468.045	2115.17
468.417	2122.63
468.789	2149.07
469.161	2163.76
469.534	2165.56
469.906	2227.71
470.278	2213.47
470.65	2224.55
471.022	2261.83
471.394	2313.58
471.766	2307.48
472.138	2315.84
472.51	2400.36
472.882	2345.9
473.253	2429.51
473.625	2441.04
473.997	2522.39
474.369	2495.05
474.74	2505.22
475.112	2584.99
475.484	2591.99
475.855	2574.82
476.227	2633.35
476.598	2697.08
476.97	2694.59
477.341	2702.73
477.713	2778.88
478.084	2768.49
478.455	2808.26
478.827	2854.13
479.198	2888.48
479.569	2916.05
479.94	2965.32
480.311	2989.72
480.682	3046.45
481.053	3079.44
481.424	3122.15
481.795	3139.55
482.166	3183.16
482.537	3201.02
482.908	3262.03
483.279	3244.18
483.65	3333.67
484.021	3368.24
484.391	3407.11
484.762	3420.45
485.133	3418.86
485.503	3492.31
485.874	3543.16
486.244	3537.51
486.615	3600.78
486.985	3609.82
487.356	3651.85
487.726	3702.93
488.097	3731.63
488.467	3762.81
488.837	3810.49
489.207	3822.7
489.578	3846.42
489.948	3953.99
490.318	3977.27
490.688	3969.13
491.058	3999.64
491.428	4009.58
491.798	4076.7
492.168	4095.91
492.538	4162.57
492.908	4207.54
493.278	4194.89
493.648	4244.83
494.017	4262.46
494.387	4297.71
494.757	4298.39
495.126	4315.79
495.496	4351.27
495.866	4378.39
496.235	4376.81
496.605	4443.7
496.974	4441.21
497.344	4516.92
497.713	4508.1
498.082	4493.41
498.452	4581.32
498.821	4591.04
499.19	4579.51
499.559	4578.83
499.928	4621.09
500.298	4618.38
500.667	4713.52
501.036	4675.1
501.405	4715.55
501.774	4669
502.143	4713.52
502.512	4776.34
502.88	4817.92
503.249	4773.86
503.618	4758.26
503.987	4789.22
504.356	4773.86
504.724	4851.37
505.093	4815.89
505.462	4849.79
505.83	4887.07
506.199	4899.73
506.567	4937.7
506.936	4930.92
507.304	5002.33
507.672	4996.45
508.041	5075.54
508.409	5012.95
508.777	5016.56
509.145	5116.67
509.514	5117.8
509.882	5103.57
510.25	5098.82
510.618	5149.67
510.986	5110.8
511.354	5118.03
511.722	5199.16
512.09	5234.18
512.458	5168.42
512.826	5230.34
513.193	5227.63
513.561	5229.44
513.929	5278.25
514.297	5311.47
514.664	5341.75
515.032	5321.64
515.4	5349.21
515.767	5337.91
516.135	5371.36
516.502	5295.2
516.869	5414.07
517.237	5394.86
517.604	5369.55
517.972	5478.25
518.339	5438.47
518.706	5428.98
519.073	5436.44
519.44	5412.71
519.808	5475.08
520.175	5525.02
520.542	5548.75
520.909	5542.65
521.276	5565.48
521.643	5582.88
522.009	5577.9
522.376	5555.53
522.743	5578.58
523.11	5647.96
523.477	5680.27
523.843	5696.09
524.21	5734.28
524.577	5765.24
524.943	5772.02
525.31	5781.29
525.676	5796.88
526.043	5801.63
526.409	5871
526.776	5913.94
527.142	5954.62
527.508	5888.86
527.874	5929.53
528.241	5997.33
528.607	5983.77
528.973	6015.18
529.339	5979.02
529.705	6056.31
530.071	6059.25
530.437	6059.7
530.803	6115.97
531.169	6124.33
531.535	6118
531.901	6129.75
532.267	6108.06
532.632	6205.68
532.998	6174.05
533.364	6182.63
533.73	6213.37
534.095	6307.6
534.461	6230.32
534.826	6300.6
535.192	6304.44
535.557	6306.25
535.923	6310.31
536.288	6301.27
536.653	6375.17
537.019	6277.77
537.384	6366.36
537.749	6353.7
538.114	6373.14
538.479	6445
538.845	6418.56
539.21	6401.39
539.575	6418.56
539.94	6459.01
540.305	6461.5
540.67	6462.4
541.034	6495.85
541.399	6499.46
541.764	6525.22
542.129	6491.55
542.494	6570.19
542.858	6574.49
543.223	6593.92
543.587	6560.03
543.952	6558.44
544.316	6610.19
544.681	6574.26
545.045	6640.02
545.41	6593.02
545.774	6714.82
546.138	6595.28
546.503	6625.56
546.867	6661.04
547.231	6703.07
547.595	6716.63
547.959	6751.43
548.324	6720.92
548.688	6741.72
549.052	6764.54
549.416	6752.56
549.779	6776.52
550.143	6742.85
550.507	6821.94
550.871	6859.23
551.235	6764.99
551.599	6892.9
551.962	6891.54
552.326	6926.57
552.689	6908.72
553.053	6896.51
553.417	6908.04
553.78	6938.77
554.143	6906.23
554.507	6895.84
554.87	6949.17
555.234	6977.87
555.597	6981.94
555.96	6955.04
556.323	6997.3
556.686	7004.99
557.05	7081.14
557.413	7022.39
557.776	7091.99
558.139	7096.96
558.502	7127.02
558.865	7110.07
559.228	7143.96
559.59	7164.76
559.953	7168.6
560.316	7286.11
560.679	7181.48
561.041	7258.76
561.404	7285.88
561.767	7343.06
562.129	7361.13
562.492	7402.94
562.854	7379.89
563.217	7417.18
563.579	7456.05
563.941	7419.66
564.304	7507.34
564.666	7475.26
565.028	7491.98
565.39	7590.73
565.753	7607.91
566.115	7609.49
566.477	7617.4
566.839	7618.53
567.201	7715.7
567.563	7741.24
567.925	7777.39
568.287	7735.81
568.648	7803.83
569.01	7757.96
569.372	7787.34
569.734	7836.6
570.095	7873.66
570.457	7873.44
570.819	7981.68
571.18	7933.1
571.542	7982.13
571.903	8054.68
572.265	8072.53
572.626	8033.21
572.987	8088.57
573.349	8100.1
573.71	8143.94
574.071	8182.58
574.432	8234.11
574.794	8259.19
575.155	8283.82
575.516	8277.49
575.877	8345.97
576.238	8382.12
576.599	8426.87
576.96	8470.48
577.32	8427.09
577.681	8467.55
578.042	8556.36
578.403	8513.65
578.763	8596.58
579.124	8637.48
579.485	8605.4
579.845	8705.28
580.206	8770.81
580.566	8810.81
580.927	8832.51
581.287	8934.65
581.648	8950.02
582.008	8973.07
582.368	9020.75
582.728	9081.54
583.089	9105.04
583.449	9140.3
583.809	9235.21
584.169	9284.7
584.529	9252.61
584.889	9432.94
585.249	9460.51
585.609	9437.24
585.969	9481.98
586.329	9580.74
586.688	9625.48
587.048	9615.99
587.408	9689.89
587.768	9771.47
588.127	9888.75
588.487	9816.66
588.846	10001.06
589.206	9996.09
589.565	10047.39
589.925	10243.54
590.284	10235.63
590.643	10265.69
591.003	10350.66
591.362	10470.2
591.721	10466.36
592.08	10506.81
592.44	10606.25
592.799	10670.88
593.158	10753.36
593.517	10737.32
593.876	10827.26
594.235	10860.93
594.593	10925.33
594.952	10974.6
595.311	11043.3
595.67	11095.95
596.029	11255.27
596.387	11309.96
596.746	11373.01
597.104	11363.29
597.463	11447.35
597.822	11551.31
598.18	11500.46
598.538	11646.9
598.897	11650.51
599.255	11630.17
599.613	11882.37
599.972	11834.69
600.33	11912.2
600.688	11845.54
601.046	12005.08
601.404	12109.71
601.762	12088.92
602.12	12123.27
602.478	12214.57
602.836	12205.07
603.194	12231.06
603.552	12264.06
603.91	12328.46
604.268	12297.28
604.625	12480.32
604.983	12492.98
605.341	12403.94
605.698	12549.25
606.056	12534.78
606.413	12609.36
606.771	12717.38
607.128	12771.84
607.485	12673.31
607.843	12673.08
608.2	12893.42
608.557	12881.44
608.914	12817.94
609.272	12940.42
609.629	12911.72
609.986	12987.2
610.343	13006.41
610.7	13081.89
611.057	13116.01
611.414	13151.72
611.771	13139.74
612.127	13196.91
612.484	13164.37
612.841	13324.14
613.198	13271.26
613.554	13309.9
613.911	13452.27
614.267	13429.22
614.624	13401.43
614.98	13395.78
615.337	13563.46
615.693	13501.76
616.05	13496.79
616.406	13596.45
616.762	13551.71
617.118	13581.31
617.475	13590.35
617.831	13655.21
618.187	13710.12
618.543	13750.12
618.899	13809.55
619.255	13703.11
619.611	13755.32
619.967	13840.29
620.323	13814.07
620.678	13849.78
621.034	13813.85
621.39	13895.88
621.746	13807.52
622.101	13976.1
622.457	13872.15
622.812	13913.96
623.168	13993.5
623.523	13955.09
623.879	13947.63
624.234	13959.6
624.589	13925.48
624.945	14051.35
625.3	13974.75
625.655	14038.25
626.01	14021.98
626.365	14010.45
626.72	13945.37
627.075	14022.65
627.43	14028.08
627.785	14032.82
628.14	14051.58
628.495	14035.99
628.85	14044.8
629.205	13907.63
629.559	14043.9
629.914	13940.62
630.269	14021.3
630.623	13947.63
630.978	13940.85
631.332	13977.01
631.687	13950.79
632.041	14021.98
632.396	13978.81
632.75	13871.25
633.104	13949.44
633.459	13940.4
633.813	13875.54
634.167	14002.09
634.521	13967.06
634.875	13943.11
635.229	13916.67
635.583	13814.3
635.937	13779.72
636.291	13846.39
636.645	13882.09
636.999	13736.11
637.352	13778.14
637.706	13772.72
638.06	13792.15
638.413	13753.51
638.767	13679.61
639.121	13724.13
639.474	13615.66
639.828	13657.01
640.181	13805.48
640.534	13698.37
640.888	13630.35
641.241	13614.76
641.594	13687.3
641.947	13746.95
642.301	13650.91
642.654	13699.95
643.007	13703.34
643.36	13609.33
643.713	13522.78
644.066	13710.35
644.419	13620.18
644.771	13524.59
645.124	13382.9
645.477	13307.42
645.83	13298.38
646.182	13125.5
646.535	13177.25
646.888	13210.47
647.24	13136.58
647.593	13207.08
647.945	13251.83
648.298	13158.27
648.65	13116.69
649.002	13187.2
649.355	13108.33
649.707	13120.3
650.059	13247.31
650.411	13427.64
650.763	13403.01
651.115	13560.97
651.467	13547.86
651.819	13454.53
652.171	13542.89
652.523	13455.21
652.875	13536.79
653.227	13437.58
653.578	13547.64
653.93	13440.07
654.282	13488.66
654.633	13451.37
654.985	13456.34
655.337	13503.57
655.688	13485.27
656.039	13556.9
656.391	13489.56
656.742	13401.43
657.094	13540.41
657.445	13528.43
657.796	13484.14
658.147	13475.32
658.498	13507.41
658.849	13560.07
659.2	13501.31
659.551	13462.89
659.902	13607.07
660.253	13440.3
660.604	13510.8
660.955	13506.28
661.306	13492.05
661.656	13552.38
662.007	13532.5
662.358	13633.29
662.708	13558.71
663.059	13586.73
663.409	13443.01
663.76	13581.99
664.11	13560.52
664.461	13566.17
664.811	13669.67
665.161	13578.6
665.511	13503.57
665.862	13548.32
666.212	13602.78
666.562	13637.81
666.912	13506.06
667.262	13546.28
667.612	13554.19
667.962	13572.27
668.312	13589.44
668.662	13585.83
669.011	13620.86
669.361	13627.86
669.711	13532.05
670.06	13544.47
670.41	13533.4
670.76	13495.44
671.109	13553.29
671.459	13601.42
671.808	13571.82
672.157	13487.53
672.507	13379.73
672.856	13465.61
673.205	13543.12
673.554	13437.36
673.904	13479.84
674.253	13533.85
674.602	13493.4
674.951	13349.45
675.3	13209.79
675.649	13456.79
675.998	13390.81
676.346	13438.49
676.695	13457.7
677.044	13384.7
677.393	13433.06
677.741	13395.55
678.09	13317.36
678.438	13320.07
678.787	13332.05
679.135	13318.49
679.484	13250.47
679.832	13370.47
680.181	13157.14
680.529	13267.19
680.877	13187.2
681.225	13223.58
681.573	13267.87
681.922	13215.44
682.27	13135.67
682.618	13144.48
682.966	13094.99
683.314	13084.6
683.661	13025.17
684.009	12978.39
684.357	12974.32
684.705	12946.07
685.053	12910.59
685.4	13001.21
685.748	12876.7
686.095	12914.66
686.443	12810.03
686.79	12922.12
687.138	12862.68
687.485	12770.03
687.832	12739.75
688.18	12717.15
688.527	12618.4
688.874	12629.02
689.221	12556.93
689.568	12588.57
689.915	12429.02
690.262	12470.38
690.609	12488.68
690.956	12419.31
691.303	12417.5
691.65	12375.92
691.997	12389.02
692.344	12213.66
692.69	12204.62
693.037	12209.37
693.383	12102.7
693.73	12178.86
694.077	12018.41
694.423	12067.45
694.769	12027
695.116	12029.03
695.462	11879.89
695.808	11885.53
696.155	11808.02
696.501	11701.58
696.847	11852.32
697.193	11730.06
697.539	11723.05
697.885	11677.86
698.231	11620.68
698.577	11574.81
698.923	11584.07
699.269	11405.77
699.614	11461.14
699.96	11403.29
700.306	11373.46
700.651	11262.5
700.997	11286
701.342	11275.83
701.688	11210.07
702.033	11172.33
702.379	11189.51
702.724	11135.5
703.069	11090.53
703.415	10976.63
703.76	11009.63
704.105	10964.66
704.45	10963.75
704.795	10829.97
705.14	10883.75
705.485	10809.41
705.83	10802.63
706.175	10734.83
706.52	10770.76
706.865	10740.93
707.209	10693.48
707.554	10698.22
707.899	10625.68
708.243	10548.85
708.588	10626.58
708.932	10534.61
709.277	10531.45
709.621	10489.19
709.966	10465.91
710.31	10437.89
710.654	10411.68
710.998	10333.03
711.342	10375.29
711.687	10340.49
712.031	10345.91
712.375	10275.86
712.719	10281.96
713.063	10235.63
713.407	10264.56
713.75	10211.23
714.094	10245.13
714.438	10192.25
714.782	10135.3
715.125	10128.97
715.469	10152.7
715.812	10044.23
716.156	10035.87
716.499	10068.41
716.843	10045.81
717.186	10040.16
717.53	10021.18
717.873	9941.18
718.216	10005.58
718.559	9950.22
718.902	9888.98
719.246	9931.01
719.589	9865.93
719.932	9871.58
720.275	9814.4
720.617	9821.41
720.96	9827.74
721.303	9840.16
721.646	9800.17
721.989	9705.71
722.331	9830.45
722.674	9733.73
723.016	9803.56
723.359	9775.53
723.701	9718.36
724.044	9713.16
724.386	9661.19
724.729	9667.97
725.071	9667.06
725.413	9647.18
725.755	9630
726.097	9580.96
726.439	9631.81
726.782	9612.15
727.124	9705.48
727.465	9632.26
727.807	9640.17
728.149	9581.19
728.491	9596.78
728.833	9684.01
729.175	9571.02
729.516	9599.49
729.858	9601.98
730.199	9534.41
730.541	9577.12
730.882	9602.88
731.224	9619.38
731.565	9535.31
731.906	9550.68
732.248	9535.99
732.589	9497.35
732.93	9555.65
733.271	9489.21
733.612	9608.31
733.953	9497.35
734.294	9486.28
734.635	9495.32
734.976	9472.04
735.317	9490.12
735.658	9543.45
735.999	9599.27
736.339	9518.59
736.68	9582.09
737.021	9557.91
737.361	9515.2
737.702	9656.89
738.042	9504.35
738.383	9597.23
738.723	9664.58
739.063	9631.36
739.404	9592.49
739.744	9608.76
740.084	9607.63
740.424	9617.57
740.764	9632.26
741.104	9691.47
741.444	9581.41
741.784	9582.09
742.124	9684.46
742.464	9669.1
742.804	9694.63
743.143	9709.55
743.483	9701.41
743.823	9742.31
744.162	9808.98
744.502	9827.06
744.841	9829.77
745.181	9925.59
745.52	9911.12
745.86	9970.78
746.199	9985.92
746.538	10053.72
746.877	10043.1
747.216	10155.18
747.556	10145.69
747.895	10301.62
748.234	10186.14
748.573	10313.82
748.911	10327.16
749.25	10402.64
749.589	10430.88
749.928	10527.83
750.267	10607.83
750.605	10706.58
750.944	10754.04
751.283	10890.08
751.621	10890.76
751.96	10913.81
752.298	11036.97
752.636	11162.39
752.975	11152.9
753.313	11327.81
753.651	11436.51
753.989	11488.48
754.327	11701.58
754.666	11753.34
755.004	11858.64
755.342	12043.72
755.679	12132.08
756.017	12211.4
756.355	12381.57
756.693	12418.85
757.031	12543.6
757.368	12678.28
757.706	12817.04
758.044	12913.76
758.381	13099.29
758.719	13164.37
759.056	13383.57
759.394	13439.17
759.731	13546.51
760.068	13686.62
760.405	13857.01
760.743	13944.92
761.08	14208.86
761.417	14297.9
