Data from hue_60_FLMS001491_60.txt Node
Date: Mon Feb 06 15:17:36 GMT 2017
User: dcchb
Spectrometer: FLMS00149
Trigger mode: 0
Integration Time (sec): 2.000000E-2
Scans to average: 10
Electric dark correction enabled: true
Nonlinearity correction enabled: false
Boxcar width: 0
XAxis mode: Wavelengths
Number of Pixels in Spectrum: 2048
>>>>>Begin Spectral Data<<<<<
341.393	-30.06
341.776	-30.06
342.16	-30.06
342.543	-58.98
342.927	-58.76
343.31	-68.02
343.693	-69.15
344.077	-75.03
344.46	-45.87
344.843	-54.24
345.226	-33.67
345.61	-17.85
345.993	-47.68
346.376	-21.47
346.759	9.27
347.142	39.77
347.525	28.02
347.908	63.28
348.291	83.16
348.674	87.68
349.057	121.8
349.44	133.1
349.823	147.11
350.206	170.84
350.588	194.8
350.971	236.6
351.354	243.84
351.737	242.71
352.119	254.46
352.502	266.89
352.884	270.05
353.267	283.61
353.65	298.75
354.032	299.43
354.414	315.02
354.797	321.57
355.179	313.44
355.562	340.33
355.944	312.76
356.326	332.65
356.709	336.94
357.091	358.63
357.473	330.39
357.855	334.45
358.238	335.36
358.62	341.69
359.002	365.19
359.384	331.06
359.766	329.93
360.148	335.58
360.53	337.62
360.912	343.27
361.294	322.25
361.676	326.32
362.057	340.33
362.439	345.08
362.821	318.18
363.203	320.44
363.584	319.77
363.966	342.36
364.348	344.4
364.729	338.97
365.111	326.77
365.493	326.77
365.874	302.59
366.256	325.87
366.637	329.03
367.019	318.41
367.4	321.57
367.781	307.34
368.163	306.66
368.544	317.28
368.925	329.48
369.306	328.58
369.688	290.61
370.069	333.78
370.45	316.83
370.831	304.17
371.212	312.99
371.593	317.96
371.974	327.9
372.355	313.66
372.736	313.44
373.117	306.88
373.498	319.54
373.879	312.08
374.26	342.14
374.641	330.61
375.021	334.68
375.402	327
375.783	326.32
376.163	342.82
376.544	317.05
376.925	317.73
377.305	325.64
377.686	330.39
378.066	321.12
378.447	342.14
378.827	317.05
379.208	323.83
379.588	323.38
379.968	329.48
380.349	330.39
380.729	324.96
381.109	330.61
381.489	337.17
381.87	343.72
382.25	303.95
382.63	337.84
383.01	344.85
383.39	327
383.77	353.89
384.15	347.11
384.53	341.46
384.91	336.04
385.29	335.13
385.67	357.28
386.049	342.59
386.429	329.48
386.809	347.11
387.189	346.66
387.568	342.36
387.948	367.45
388.328	365.64
388.707	358.41
389.087	353.44
389.466	348.01
389.846	353.66
390.225	366.09
390.605	371.74
390.984	372.87
391.363	356.15
391.743	361.8
392.122	372.42
392.501	376.71
392.881	372.65
393.26	362.48
393.639	363.83
394.018	358.63
394.397	375.13
394.776	395.02
395.155	386.88
395.534	368.58
395.913	382.81
396.292	375.81
396.671	375.81
397.05	389.14
397.429	383.94
397.808	391.18
398.186	378.3
398.565	385.3
398.944	383.72
399.323	376.94
399.701	379.43
400.08	405.64
400.458	380.33
400.837	400.89
401.215	394.34
401.594	389.82
401.972	393.21
402.351	400.22
402.729	414.23
403.107	394.34
403.486	388.69
403.864	397.73
404.242	396.6
404.62	395.92
404.999	402.93
405.377	422.81
405.755	416.03
406.133	371.29
406.511	406.99
406.889	417.84
407.267	411.74
407.645	411.51
408.023	406.09
408.401	424.85
408.779	418.07
409.156	446.54
409.534	428.24
409.912	428.24
410.29	438.63
410.667	439.54
411.045	432.76
411.422	440.21
411.8	456.03
412.178	459.65
412.555	434.56
412.933	448.12
413.31	428.46
413.687	445.86
414.065	459.2
414.442	450.84
414.819	454.45
415.197	458.97
415.574	461.46
415.951	485.64
416.328	467.11
416.705	454.9
417.082	456.94
417.46	492.19
417.837	473.21
418.214	476.37
418.591	493.09
418.967	492.87
419.344	518.63
419.721	503.04
420.098	490.83
420.475	494
420.852	485.86
421.228	501.23
421.605	522.7
421.982	498.74
422.358	498.52
422.735	509.37
423.111	524.51
423.488	512.53
423.864	531.06
424.241	542.13
424.617	525.41
424.994	530.61
425.37	522.92
425.746	534.22
426.123	557.27
426.499	545.3
426.875	529.48
427.251	550.95
427.627	550.49
428.003	542.58
428.379	557.73
428.756	569.48
429.132	564.73
429.507	569.7
429.883	586.65
430.259	583.94
430.635	582.36
431.011	570.83
431.387	563.83
431.763	591.4
432.138	618.97
432.514	599.98
432.89	623.71
433.265	604.96
433.641	619.19
434.016	636.82
434.392	614.9
434.767	626.88
435.143	607.44
435.518	639.76
435.894	634.11
436.269	631.17
436.644	644.28
437.02	676.37
437.395	674.11
437.77	660.77
438.145	662.36
438.52	662.13
438.895	666.42
439.271	688.57
439.646	674.33
440.021	696.7
440.395	708.23
440.77	718.4
441.145	711.39
441.52	710.26
441.895	703.71
442.27	727.89
442.645	725.18
443.019	726.53
443.394	702.58
443.769	732.86
444.143	722.01
444.518	745.29
444.892	727.89
445.267	743.03
445.641	764.05
446.016	752.52
446.39	759.08
446.764	759.75
447.139	775.12
447.513	757.27
447.887	792.52
448.262	745.97
448.636	778.28
449.01	785.52
449.384	771.51
449.758	793.2
450.132	801.79
450.506	796.36
450.88	811.5
451.254	828.45
451.628	797.95
452.002	821
452.376	828.68
452.75	836.59
453.123	837.27
453.497	860.54
453.871	888.11
454.244	869.58
454.618	884.04
454.992	867.32
455.365	880.2
455.739	897.83
456.112	927.89
456.486	911.16
456.859	917.49
457.232	943.25
457.606	930.6
457.979	934.89
458.352	948.9
458.725	978.28
459.099	968.56
459.472	977.83
459.845	976.7
460.218	994.55
460.591	987.54
460.964	997.04
461.337	1034.32
461.71	1066.64
462.083	1061.89
462.456	1038.62
462.829	1079.97
463.201	1095.79
463.574	1112.29
463.947	1125.85
464.32	1131.04
464.692	1141.21
465.065	1147.99
465.438	1178.95
465.81	1216.47
466.183	1213.53
466.555	1201.32
466.928	1238.39
467.3	1230.7
467.672	1246.29
468.045	1326.52
468.417	1303.92
468.789	1328.78
469.161	1363.35
469.534	1368.33
469.906	1420.3
470.278	1445.39
470.65	1458.49
471.022	1460.75
471.394	1497.59
471.766	1552.28
472.138	1555.67
472.51	1592.95
472.882	1630.01
473.253	1683.8
473.625	1673.85
473.997	1727.86
474.369	1764.25
474.74	1773.06
475.112	1839.05
475.484	1864.58
475.855	1941.19
476.227	1980.74
476.598	2043.11
476.97	2071.36
477.341	2111.58
477.713	2183.9
478.084	2207.85
478.455	2286.95
478.827	2368.3
479.198	2469.09
479.569	2486.26
479.94	2551.8
480.311	2635.18
480.682	2736.43
481.053	2777.55
481.424	2882.64
481.795	2971
482.166	3060.26
482.537	3060.94
482.908	3248.28
483.279	3278.33
483.65	3443.3
484.021	3509.74
484.391	3570.53
484.762	3703.63
485.133	3774.14
485.503	3903.17
485.874	4017.07
486.244	4061.14
486.615	4235.59
486.985	4343.16
487.356	4477.85
487.726	4599.88
488.097	4729.59
488.467	4849.14
488.837	4983.37
489.207	5067.89
489.578	5266.75
489.948	5389.46
490.318	5489.12
490.688	5623.81
491.058	5816.8
491.428	5897.7
491.798	6113.51
492.168	6260.17
492.538	6384.92
492.908	6556.44
493.278	6739.03
493.648	6784.68
494.017	6981.51
494.387	7091.56
494.757	7235.06
495.126	7456.53
495.496	7572
495.866	7690.42
496.235	7868.04
496.605	8064.42
496.974	8109.62
497.344	8291.76
497.713	8445.65
498.082	8611.3
498.452	8734.91
498.821	8925.19
499.19	9024.4
499.559	9160.66
499.928	9239.98
500.298	9502.35
500.667	9643.36
501.036	9647.43
501.405	9933.75
501.774	9937.37
502.143	10109.56
502.512	10304.14
502.88	10448.54
503.249	10547.29
503.618	10720.4
503.987	10810.56
504.356	10914.52
504.724	11103.89
505.093	11218.69
505.462	11334.84
505.83	11456.87
506.199	11652.35
506.567	11859.58
506.936	11861.61
507.304	12117.87
507.672	12221.37
508.041	12379.79
508.409	12453.01
508.777	12645.77
509.145	12815.03
509.514	12833.56
509.882	12956.04
510.25	13042.37
510.618	13282.81
510.986	13293.89
511.354	13519.64
511.722	13729.13
512.09	13871.95
512.458	13865.85
512.826	14033.98
513.193	14241.66
513.561	14264.71
513.929	14393.07
514.297	14602.55
514.664	14832.38
515.032	14791.48
515.4	14971.13
515.767	15122.77
516.135	15240.73
516.502	15151.24
516.869	15539.25
517.237	15645.46
517.604	15679.81
517.972	15799.81
518.339	16034.61
518.706	16088.39
519.073	16230.53
519.44	16225.79
519.808	16498.55
520.175	16599.56
520.542	16694.48
520.909	16890.86
521.276	16944.41
521.643	17096.5
522.009	17200.9
522.376	17294.91
522.743	17538.3
523.11	17685.41
523.477	17863.03
523.843	17999.53
524.21	18204.04
524.577	18326.75
524.943	18435.22
525.31	18541.89
525.676	18771.94
526.043	18939.61
526.409	18997.24
526.776	19237.23
527.142	19314.52
527.508	19342.09
527.874	19603.55
528.241	19735.07
528.607	19774.17
528.973	19990.21
529.339	19933.26
529.705	20163.54
530.071	20430.42
530.437	20428.39
530.803	20577.54
531.169	20788.83
531.535	20758.55
531.901	20857.3
532.267	20959
532.632	21066.79
532.998	21205.09
533.364	21279.44
533.73	21359.21
534.095	21491.64
534.461	21615.25
534.826	21696.6
535.192	21801.01
535.557	21947.67
535.923	21910.38
536.288	22140.89
536.653	22221.56
537.019	22141.34
537.384	22399.41
537.749	22463.59
538.114	22443.93
538.479	22555.34
538.845	22634.21
539.21	22692.51
539.575	22821.09
539.94	22879.62
540.305	22962.56
540.67	23037.36
541.034	23061.99
541.399	23236.23
541.764	23158.94
542.129	23385.37
542.494	23483.45
542.858	23420.4
543.223	23475.54
543.587	23667.63
543.952	23724.35
544.316	23868.52
544.681	23762.31
545.045	23953.49
545.41	24024
545.774	24068.97
546.138	24083.89
546.503	24216.54
546.867	24234.39
547.231	24454.27
547.595	24465.57
547.959	24588.51
548.324	24551.67
548.688	24605
549.052	24718.9
549.416	24847.26
549.779	24963.64
550.143	24963.86
550.507	25170.64
550.871	25227.36
551.235	25207.02
551.599	25359.79
551.962	25476.84
552.326	25542.38
552.689	25693.34
553.053	25650.17
553.417	25780.79
553.78	26058.52
554.143	25900.34
554.507	26068.69
554.87	26101.69
555.234	26317.05
555.597	26190.27
555.96	26529.47
556.323	26603.59
556.686	26555.69
557.05	26742.35
557.413	26828.9
557.776	26987.31
558.139	27128.1
558.502	27128.78
558.865	27279.28
559.228	27478.83
559.59	27503.91
559.953	27533.97
560.316	27872.94
560.679	27793.85
561.041	28106.38
561.404	28172.82
561.767	28315.87
562.129	28328.75
562.492	28550.89
562.854	28555.18
563.217	28629.98
563.579	28696.42
563.941	28881.95
564.304	29064.77
564.666	29179.8
565.028	29364.88
565.39	29414.37
565.753	29533.01
566.115	29571.65
566.477	29775.04
566.839	29800.12
567.201	29987.69
567.563	30051.87
567.925	30341.35
568.287	30353.33
568.648	30213.89
569.01	30477.39
569.372	30813.65
569.734	30683.26
570.095	30867.21
570.457	30963.25
570.819	31106.98
571.18	31064.49
571.542	31366.18
571.903	31301.55
572.265	31459.74
572.626	31498.83
572.987	31694.53
573.349	31668.32
573.71	31854.53
574.071	31754.65
574.432	31946.96
574.794	32238.02
575.155	32235.54
575.516	32154.63
575.877	32323.67
576.238	32357.34
576.599	32454.74
576.96	32570.67
577.32	32540.61
577.681	32627.39
578.042	32758.91
578.403	32784.45
578.763	32801.85
579.124	32805.92
579.485	33053.59
579.845	33092.92
580.206	32971.34
580.566	33168.85
580.927	33224.44
581.287	33253.81
581.648	33172.69
582.008	33346.69
582.368	33187.38
582.728	33278.22
583.089	33325
583.449	33304.89
583.809	33376.3
584.169	33417.88
584.529	33387.82
584.889	33610.42
585.249	33429.63
585.609	33323.19
585.969	33553.02
586.329	33399.35
586.688	33681.15
587.048	33532.9
587.408	33443.19
587.768	33495.84
588.127	33509.85
588.487	33547.37
588.846	33613.35
589.206	33587.14
589.565	33538.55
589.925	33744.2
590.284	33636.86
590.643	33835.95
591.003	33732.22
591.362	33852.44
591.721	33694.26
592.08	33908.26
592.44	33979.22
592.799	33927.47
593.158	33897.64
593.517	33940.58
593.876	33962.27
594.235	33867.36
594.593	33856.96
594.952	33903.74
595.311	33830.75
595.67	33928.83
596.029	34336.95
596.387	34191.19
596.746	34350.06
597.104	34130.85
597.463	34227.8
597.822	34363.39
598.18	34206.33
598.538	34220.34
598.897	34507.57
599.255	34119.55
599.613	34678.41
599.972	34639.09
600.33	34452.88
600.688	34434.57
601.046	34643.61
601.404	34707.79
601.762	34614.01
602.12	34806.54
602.478	34620.78
602.836	34872.76
603.194	34829.14
603.552	34916.82
603.91	34645.87
604.268	34887.67
604.625	34761.8
604.983	35009.47
605.341	34872.08
605.698	34999.76
606.056	35292.86
606.413	35225.74
606.771	35222.8
607.128	35247.21
607.485	35057.16
607.843	35198.4
608.2	35503.25
608.557	35501.44
608.914	35375.12
609.272	35542.79
609.629	35822.11
609.986	35808.78
610.343	35695.33
610.7	36104.36
611.057	35922.45
611.414	36006.06
611.771	35907.98
612.127	36130.12
612.484	36217.58
612.841	36156.79
613.198	36153.17
613.554	36188.88
613.911	36379.38
614.267	36442.88
614.624	36336.22
614.98	36497.35
615.337	36759.94
615.693	36412.83
616.05	36499.38
616.406	36781.63
616.762	36568.76
617.118	36664.8
617.475	36504.8
617.831	36734.85
618.187	36808.52
618.543	36867.73
618.899	37050.33
619.255	37067.05
619.611	37004.68
619.967	37216.65
620.323	37224.56
620.678	37189.98
621.034	37034.28
621.39	37130.32
621.746	36953.6
622.101	37512.46
622.457	37266.14
622.812	37397.21
623.168	37336.87
623.523	37483.31
623.879	37605.34
624.234	37417.1
624.589	37476.3
624.945	37546.81
625.3	37417.32
625.655	37424.1
626.01	37584.32
626.365	37609.18
626.72	37493.48
627.075	37502.97
627.43	37610.08
627.785	37545
628.14	37597.2
628.495	37626.36
628.85	37628.39
629.205	37633.36
629.559	37753.81
629.914	37836.97
630.269	37638.78
630.623	37531.22
630.978	37543.42
631.332	37558.79
631.687	37751.78
632.041	37583.19
632.396	37589.97
632.75	37498.68
633.104	37560.14
633.459	37520.37
633.813	37432.91
634.167	37341.84
634.521	37439.47
634.875	37357.89
635.229	37362.86
635.583	37301.39
635.937	37372.12
636.291	37258.91
636.645	37223.43
636.999	37114.73
637.352	37213.26
637.706	37032.7
638.06	37273.37
638.413	37124
638.767	36991.57
639.121	37092.13
639.474	36966.49
639.828	36996.77
640.181	37125.13
640.534	36943.89
640.888	36966.03
641.241	36890.1
641.594	36919.71
641.947	36951.57
642.301	36858.92
642.654	36961.51
643.007	36765.13
643.36	36827.51
643.713	36739.37
644.066	36875.64
644.419	36494.41
644.771	36400.4
645.124	36039.96
645.477	36053.52
645.83	35857.81
646.182	35805.61
646.535	35547.31
646.888	35622.79
647.24	35405.17
647.593	35670.47
647.945	35592.96
648.298	35443.81
648.65	35368.34
649.002	35339.86
649.355	35481.55
649.707	35421.22
650.059	35519.29
650.411	35952.95
650.763	35980.97
651.115	36376.44
651.467	36202.89
651.819	36211.03
652.171	36063.91
652.523	36072.05
652.875	36078.83
653.227	35986.4
653.578	36121.54
653.93	36005.38
654.282	35923.35
654.633	35885.38
654.985	35916.57
655.337	35952.95
655.688	35997.47
656.039	35974.2
656.391	35601.78
656.742	35763.81
657.094	35817.36
657.445	35935.55
657.796	35825.27
658.147	35775.56
658.498	35723.35
658.849	35830.47
659.2	35789.57
659.551	35856.46
659.902	35844.48
660.253	35790.25
660.604	35792.05
660.955	35532.63
661.306	35733.3
661.656	35633.41
662.007	35637.48
662.358	35615.33
662.708	35711.15
663.059	35586.41
663.409	35289.24
663.76	35672.28
664.11	35740.76
664.461	35742.11
664.811	35508.9
665.161	35526.3
665.511	35386.41
665.862	35558.84
666.212	35613.53
666.562	35642
666.912	35663.92
667.262	35504.15
667.612	35545.05
667.962	35627.54
668.312	35429.12
668.662	35555.45
669.011	35489.01
669.361	35395
669.711	35428.45
670.06	35396.81
670.41	35313.2
670.76	35303.25
671.109	35386.64
671.459	35428.9
671.808	35345.06
672.157	35584.83
672.507	35181.9
672.856	35249.24
673.205	35253.99
673.554	35480.2
673.904	35197.94
674.253	35471.61
674.602	35232.07
674.951	34835.47
675.3	34722.25
675.649	35211.73
675.998	35057.38
676.346	35144.61
676.695	35260.09
677.044	34945.07
677.393	34961.11
677.741	35087.66
678.09	35100.77
678.438	34772.65
678.787	34990.72
679.135	34932.64
679.484	34726.77
679.832	34809.93
680.181	34624.17
680.529	34753.66
680.877	34574.68
681.225	34566.1
681.573	34929.25
681.922	34506.66
682.27	34375.37
682.618	34523.16
682.966	34403.84
683.314	34505.99
683.661	34447.23
684.009	34225.54
684.357	34232.55
684.705	34123.4
685.053	34204.98
685.4	34178.54
685.748	33858.09
686.095	33971.76
686.443	33854.93
686.79	33837.08
687.138	33896.06
687.485	33771.09
687.832	33674.59
688.18	33674.14
688.527	33474.83
688.874	33461.72
689.221	33420.59
689.568	33381.72
689.915	33309.18
690.262	33174.27
690.609	33096.08
690.956	32968.85
691.303	33097.21
691.65	32956.42
691.997	32932.24
692.344	32699.71
692.69	32695.19
693.037	32757.56
693.383	32442.76
693.73	32497.45
694.077	32348.3
694.423	32367.06
694.769	32297.46
695.116	32185.82
695.462	32186.27
695.808	31991.7
696.155	32158.7
696.501	31820.41
696.847	31871.93
697.193	31563.69
697.539	31828.32
697.885	31512.17
698.231	31416.35
698.577	31352.62
698.923	31467.2
699.269	31134.77
699.614	31208.44
699.96	31045.06
700.306	31210.25
700.651	30735.92
700.997	30873.76
701.342	30907.66
701.688	30786.08
702.033	30736.37
702.379	30563.72
702.724	30472.87
703.069	30551.74
703.415	30302.48
703.76	30283.27
704.105	30245.98
704.45	30063.16
704.795	29998.76
705.14	29811.65
705.485	29926.22
705.83	29757.18
706.175	29790.86
706.52	29799.44
706.865	29672.21
707.209	29556.51
707.554	29441.71
707.899	29643.74
708.243	29298.21
708.588	29378.89
708.932	29152.68
709.277	29143.41
709.621	29185.45
709.966	28841.5
710.31	29117.2
710.654	28698.45
710.998	28784.55
711.342	28868.39
711.687	28748.62
712.031	28691.22
712.375	28499.14
712.719	28714.5
713.063	28510.66
713.407	28535.75
713.75	28405.35
714.094	28225.25
714.438	28266.6
714.782	28351.8
715.125	28046.27
715.469	28183.89
715.812	28025.48
716.156	27875.2
716.499	27900.28
716.843	27973.5
717.186	27696.22
717.53	27839.27
717.873	27830
718.216	27803.56
718.559	27667.3
718.902	27437.47
719.246	27527.64
719.589	27465.49
719.932	27436.79
720.275	27377.36
720.617	27323.12
720.96	27243.35
721.303	27370.35
721.646	27264.82
721.989	27093.98
722.331	27220.98
722.674	27082.45
723.016	27077.93
723.359	26952.29
723.701	27042.9
724.044	27025.28
724.386	26785.96
724.729	26870.93
725.071	26831.61
725.413	26826.41
725.755	26759.97
726.097	26605.4
726.439	26492.86
726.782	26470.72
727.124	26594.55
727.465	26469.36
727.807	26387.55
728.149	26465.52
728.491	26419.87
728.833	26367.22
729.175	26169.03
729.516	26294.9
729.858	26189.14
730.199	26246.54
730.541	26063.04
730.882	26111.86
731.224	26175.58
731.565	25851.52
731.906	25925.42
732.248	25945.08
732.589	25762.49
732.93	25804.07
733.271	25813.56
733.612	25808.13
733.953	25800.23
734.294	25740.57
734.635	25631.64
734.976	25652.88
735.317	25616.73
735.658	25505.77
735.999	25557.29
736.339	25504.64
736.68	25472.55
737.021	25379.67
737.361	25301.26
737.702	25383.29
738.042	25303.97
738.383	25300.8
738.723	25341.93
739.063	25320.24
739.404	25208.38
739.744	25101.49
740.084	24963.64
740.424	25038.89
740.764	25009.29
741.104	25084.31
741.444	24950.3
741.784	24873.47
742.124	24868.95
742.464	24867.82
742.804	24749.41
743.143	24698.11
743.483	24841.38
743.823	24604.32
744.162	24701.72
744.502	24623.31
744.841	24590.77
745.181	24592.8
745.52	24569.3
745.86	24517.1
746.199	24467.15
746.538	24469.64
746.877	24434.61
747.216	24460.6
747.556	24306.93
747.895	24329.08
748.234	24266.71
748.573	24243.66
748.911	24170.44
749.25	24110.1
749.589	23984.45
749.928	24185.58
750.267	24033.72
750.605	24075.53
750.944	23853.84
751.283	23878.92
751.621	23877.11
751.96	23819.03
752.298	23782.2
752.636	23784.91
752.975	23633.28
753.313	23638.02
753.651	23701.3
753.989	23430.34
754.327	23543.34
754.666	23344.92
755.004	23231.71
755.342	23457.46
755.679	23359.61
756.017	23076.68
756.355	23204.59
756.693	23115.78
757.031	23259.5
