Data from hue_340_FLMS001491_29.txt Node
Date: Mon Feb 06 15:42:42 GMT 2017
User: dcchb
Spectrometer: FLMS00149
Trigger mode: 0
Integration Time (sec): 2.000000E-2
Scans to average: 10
Electric dark correction enabled: true
Nonlinearity correction enabled: false
Boxcar width: 0
XAxis mode: Wavelengths
Number of Pixels in Spectrum: 2048
>>>>>Begin Spectral Data<<<<<
341.393	-9.75
341.776	-9.75
342.16	-9.75
342.543	-61.27
342.927	-47.48
343.31	-65.56
343.693	-70.99
344.077	-69.86
344.46	-52.68
344.843	-57.65
345.226	-60.82
345.61	-42.06
345.993	-29.41
346.376	0.42
346.759	13.53
347.142	46.07
347.525	68.22
347.908	60.54
348.291	80.87
348.674	73.19
349.057	106.18
349.44	125.62
349.823	126.52
350.206	158.61
350.588	181.66
350.971	187.31
351.354	237.25
351.737	237.03
352.119	251.72
352.502	245.39
352.884	259.4
353.267	290.59
353.65	302.56
354.032	286.97
354.414	328.55
354.797	328.1
355.179	326.06
355.562	322.45
355.944	318.83
356.326	332.39
356.709	345.95
357.091	329.23
357.473	337.36
357.855	331.04
358.238	340.08
358.62	331.49
359.002	336.01
359.384	330.81
359.766	328.32
360.148	333.52
360.53	354.31
360.912	336.01
361.294	327.65
361.676	337.36
362.057	335.78
362.439	340.98
362.821	326.52
363.203	315.44
363.584	308.66
363.966	317.25
364.348	309.12
364.729	301.66
365.111	316.57
365.493	313.41
365.874	332.84
366.256	318.83
366.637	320.19
367.019	307.08
367.4	321.55
367.781	318.16
368.163	312.96
368.544	301.43
368.925	324.26
369.306	305.27
369.688	317.93
370.069	306.4
370.45	335.33
370.831	319.06
371.212	297.59
371.593	301.66
371.974	318.16
372.355	288.33
372.736	317.48
373.117	327.19
373.498	324.93
373.879	310.02
374.26	303.47
374.641	323.81
375.021	303.92
375.402	317.93
375.783	307.08
376.163	322.22
376.544	322
376.925	313.18
377.305	317.7
377.686	302.56
378.066	320.42
378.447	312.28
378.827	314.09
379.208	309.57
379.588	319.96
379.968	347.08
380.349	343.24
380.729	339.85
381.109	337.36
381.489	338.27
381.87	330.58
382.25	312.73
382.63	341.21
383.01	318.16
383.39	329
383.77	328.78
384.15	346.4
384.53	350.7
384.91	346.86
385.29	318.16
385.67	338.27
386.049	350.02
386.429	359.06
386.809	358.61
387.189	347.99
387.568	341.43
387.948	357.25
388.328	348.21
388.707	353.41
389.087	345.5
389.466	339.85
389.846	352.73
390.225	349.34
390.605	372.39
390.984	352.05
391.363	370.58
391.743	363.13
392.122	362.45
392.501	354.31
392.881	348.66
393.26	360.41
393.639	370.13
394.018	353.41
394.397	380.3
394.776	375.56
395.155	385.27
395.534	375.56
395.913	378.49
396.292	381.2
396.671	388.66
397.05	377.81
397.429	372.17
397.808	357.93
398.186	373.75
398.565	378.27
398.944	391.6
399.323	386.85
399.701	364.03
400.08	365.16
400.458	381.2
400.837	395.67
401.215	409.23
401.594	399.96
401.972	396.57
402.351	361.09
402.729	394.31
403.107	391.6
403.486	400.87
403.864	402.67
404.242	415.78
404.62	382.11
404.999	397.48
405.377	409
405.755	415.1
406.133	418.72
406.511	419.62
406.889	429.34
407.267	437.93
407.645	430.02
408.023	426.63
408.401	432.95
408.779	440.19
409.156	418.27
409.534	434.76
409.912	455.55
410.29	444.03
410.667	447.87
411.045	465.5
411.422	459.85
411.8	467.08
412.178	450.13
412.555	453.75
412.933	461.43
413.31	482.22
413.687	468.89
414.065	490.13
414.442	504.59
414.819	487.19
415.197	480.41
415.574	516.12
415.951	528.55
416.328	505.5
416.705	530.35
417.082	513.86
417.46	507.53
417.837	532.61
418.214	533.07
418.591	544.36
418.967	524.93
419.344	555.66
419.721	542.1
420.098	539.62
420.475	547.08
420.852	573.06
421.228	551.82
421.605	548.43
421.982	581.65
422.358	592.95
422.735	575.32
423.111	591.59
423.488	589.33
423.864	590.24
424.241	603.8
424.617	591.59
424.994	605.15
425.37	613.29
425.746	627.3
426.123	616.23
426.499	626.4
426.875	631.82
427.251	606.28
427.627	665.49
428.003	637.92
428.379	655.77
428.756	651.48
429.132	657.58
429.507	674.98
429.883	658.71
430.259	670.46
430.635	703.91
431.011	689.67
431.387	719.27
431.763	690.8
432.138	723.79
432.514	723.34
432.89	706.17
433.265	745.04
433.641	737.35
434.016	727.86
434.392	757.47
434.767	719.27
435.143	743.23
435.518	782.1
435.894	763.79
436.269	774.64
436.644	791.82
437.02	799.72
437.395	783.23
437.77	802.21
438.145	808.31
438.52	812.15
438.895	808.76
439.271	819.84
439.646	815.09
440.021	830.01
440.395	844.24
440.77	852.6
441.145	848.09
441.52	869.78
441.895	869.78
442.27	868.42
442.645	864.58
443.019	887.86
443.394	892.38
443.769	884.92
444.143	879.04
444.518	912.04
444.892	867.29
445.267	890.8
445.641	901.42
446.016	914.52
446.39	905.48
446.764	919.95
447.139	918.37
447.513	913.85
447.887	907.07
448.262	933.51
448.636	908.65
449.01	930.79
449.384	933.05
449.758	948.2
450.132	963.79
450.506	947.07
450.88	972.15
451.254	971.47
451.628	974.64
452.002	956.1
452.376	995.2
452.75	983
453.123	982.32
453.497	1033.39
453.871	1015.54
454.244	1051.7
454.618	1045.82
454.992	1030.68
455.365	1045.82
455.739	1072.94
456.112	1054.41
456.486	1057.12
456.859	1059.38
457.232	1069.32
457.606	1084.46
457.979	1072.94
458.352	1130.11
458.725	1115.2
459.099	1130.56
459.472	1147.74
459.845	1157.23
460.218	1150.22
460.591	1148.87
460.964	1173.27
461.337	1177.12
461.71	1197.68
462.083	1225.93
462.456	1208.53
462.829	1220.28
463.201	1230.22
463.574	1241.75
463.947	1257.11
464.32	1268.64
464.692	1249.88
465.065	1289.2
465.438	1306.83
465.81	1295.76
466.183	1318.13
466.555	1319.71
466.928	1332.14
467.3	1359.94
467.672	1397.68
468.045	1379.6
468.417	1394.74
468.789	1382.53
469.161	1424.12
469.534	1437.67
469.906	1441.97
470.278	1467.96
470.65	1514.06
471.022	1502.53
471.394	1515.86
471.766	1537.11
472.138	1536.2
472.51	1563.09
472.882	1581.17
473.253	1625.01
473.625	1642.41
473.997	1651.91
474.369	1632.25
474.74	1685.35
475.112	1707.95
475.484	1722.41
475.855	1748.63
476.227	1776.42
476.598	1781.39
476.97	1810.55
477.341	1842.18
477.713	1915.63
478.084	1866.59
478.455	1913.37
478.827	1926.02
479.198	1980.71
479.569	1992.01
479.94	2027.72
480.311	2056.87
480.682	2074.49
481.053	2133.7
481.424	2142.29
481.795	2160.82
482.166	2198.33
482.537	2218.9
482.908	2291.21
483.279	2272.23
483.65	2312.23
484.021	2380.7
484.391	2424.77
484.762	2441.94
485.133	2409.17
485.503	2478.1
485.874	2541.6
486.244	2514.48
486.615	2565.78
486.985	2617.08
487.356	2668.83
487.726	2658.66
488.097	2679.45
488.467	2728.94
488.837	2792.67
489.207	2805.77
489.578	2811.88
489.948	2864.76
490.318	2887.35
490.688	2883.06
491.058	2957.63
491.428	3017.75
491.798	2999.21
492.168	3070.4
492.538	3043.06
492.908	3127.35
493.278	3154.01
493.648	3131.87
494.017	3203.05
494.387	3178.42
494.757	3234.01
495.126	3239.89
495.496	3257.29
495.866	3300.68
496.235	3351.52
496.605	3338.87
496.974	3387.45
497.344	3358.53
497.713	3419.09
498.082	3444.85
498.452	3443.5
498.821	3519.88
499.19	3487.34
499.559	3499.09
499.928	3524.17
500.298	3561.01
500.667	3631.74
501.036	3601.68
501.405	3618.18
501.774	3620.67
502.143	3706.99
502.512	3653.89
502.88	3688.69
503.249	3708.8
503.618	3703.38
503.987	3743.15
504.356	3809.82
504.724	3735.01
505.093	3787.22
505.462	3832.19
505.83	3809.59
506.199	3861.79
506.567	3881.23
506.936	3841.45
507.304	3958.51
507.672	3972.97
508.041	3980.88
508.409	3981.56
508.777	3956.93
509.145	3998.96
509.514	3987.66
509.882	4041
510.25	4032.18
510.618	4079.19
510.986	4031.5
511.354	4050.71
511.722	4104.72
512.09	4134.1
512.458	4125.51
512.826	4144.27
513.193	4161.22
513.561	4151.28
513.929	4220.2
514.297	4210.26
514.664	4177.49
515.032	4234.89
515.4	4277.6
515.767	4264.49
516.135	4249.8
516.502	4261.78
516.869	4309.91
517.237	4334.1
517.604	4298.62
517.972	4375.22
518.339	4359.18
518.706	4370.03
519.073	4414.09
519.44	4428.56
519.808	4418.84
520.175	4424.04
520.542	4455.9
520.909	4521.89
521.276	4429.91
521.643	4485.05
522.009	4494.09
522.376	4536.35
522.743	4603.47
523.11	4612.28
523.477	4637.82
523.843	4667.42
524.21	4652.28
524.577	4727.31
524.943	4706.29
525.31	4732.95
525.676	4768.21
526.043	4810.69
526.409	4769.56
526.776	4847.08
527.142	4844.82
527.508	4866.28
527.874	4876.91
528.241	4935.21
528.607	4960.29
528.973	5010.69
529.339	5024.7
529.705	5025.38
530.071	5085.94
530.437	5079.61
530.803	5104.24
531.169	5136.56
531.535	5119.84
531.901	5184.02
532.267	5103.11
532.632	5171.14
532.998	5257.91
533.364	5267.18
533.73	5217.91
534.095	5333.84
534.461	5303.56
534.826	5362.54
535.192	5336.78
535.557	5398.02
535.923	5410.68
536.288	5427.4
536.653	5478.02
537.019	5430.11
537.384	5466.72
537.749	5516.89
538.114	5504.01
538.479	5507.17
538.845	5515.31
539.21	5505.59
539.575	5584.68
539.94	5638.69
540.305	5666.49
540.67	5632.37
541.034	5657.22
541.399	5683.66
541.764	5700.16
542.129	5778.12
542.494	5788.75
542.858	5795.3
543.223	5760.72
543.587	5859.48
543.952	5845.69
544.316	5844.34
544.681	5911
545.045	5949.42
545.41	5960.27
545.774	5948.52
546.138	5992.13
546.503	6012.47
546.867	5963.2
547.231	6084.78
547.595	6059.02
547.959	6085.91
548.324	6109.42
548.688	6167.49
549.052	6130.66
549.416	6131.11
549.779	6138.34
550.143	6175.63
550.507	6290.43
550.871	6315.74
551.235	6292.69
551.599	6337.43
551.962	6332.91
552.326	6329.07
552.689	6362.06
553.053	6373.59
553.417	6391.22
553.78	6444.77
554.143	6428.28
554.507	6450.88
554.87	6492
555.234	6580.36
555.597	6565.9
555.96	6546.69
556.323	6580.59
556.686	6617.42
557.05	6593.02
557.413	6646.35
557.776	6658.33
558.139	6642.06
558.502	6737.87
558.865	6700.36
559.228	6712.34
559.59	6718.67
559.953	6777.42
560.316	6844.09
560.679	6838.21
561.041	6873.24
561.404	6907.36
561.767	6956.85
562.129	6911.2
562.492	6936.51
562.854	6974.7
563.217	6947.59
563.579	6965.21
563.941	7012.44
564.304	7054.7
564.666	7058.09
565.028	7076.85
565.39	7098.54
565.753	7131.08
566.115	7180.35
566.477	7188.94
566.839	7242.95
567.201	7337.18
567.563	7322.72
567.925	7367.01
568.287	7322.72
568.648	7356.16
569.01	7381.25
569.372	7500.57
569.734	7388.25
570.095	7509.6
570.457	7547.34
570.819	7562.71
571.18	7624.18
571.542	7634.57
571.903	7613.78
572.265	7694.91
572.626	7711.86
572.987	7768.81
573.349	7794.34
573.71	7826.21
574.071	7836.83
574.432	7932.19
574.794	8065.3
575.155	8081.79
575.516	8030.27
575.877	8078.86
576.238	8165.41
576.599	8249.47
576.96	8305.29
577.32	8379.41
577.681	8484.49
578.042	8528.79
578.403	8604.94
578.763	8633.19
579.124	8700.76
579.485	8818.5
579.845	8946.86
580.206	8995.44
580.566	9095.1
580.927	9205.38
581.287	9327.86
581.648	9398.82
582.008	9570.79
582.368	9645.59
582.728	9835.42
583.089	9880.62
583.449	10105.24
583.809	10197.9
584.169	10395.86
584.529	10527.83
584.889	10777.77
585.249	10789.74
585.609	11013.69
585.969	11140.47
586.329	11302.95
586.688	11533.45
587.048	11621.36
587.408	11916.49
587.768	12156.71
588.127	12327.56
588.487	12631.73
588.846	12832.85
589.206	12954.66
589.565	13276.23
589.925	13402.56
590.284	13677.58
590.643	13845.26
591.003	14243.21
591.362	14438.24
591.721	14697.66
592.08	14948.51
592.44	15184.43
592.799	15541.03
593.158	15718.43
593.517	16023.73
593.876	16262.14
594.235	16504.4
594.593	16771.28
594.952	17107.54
595.311	17283.13
595.67	17604.25
596.029	18009.89
596.387	18394.06
596.746	18560.61
597.104	18649.88
597.463	19032.92
597.822	19370.76
598.18	19488.72
598.538	19782.73
598.897	20113.12
599.255	20350.85
599.613	20855.24
599.972	20897.95
600.33	21309.02
600.688	21480.31
601.046	21809.57
601.404	22141.99
601.762	22259.73
602.12	22649.09
602.478	22878.24
602.836	23117.56
603.194	23254.73
603.552	23538.11
603.91	23800.93
604.268	24078.21
604.625	24308.26
604.983	24677.51
605.341	24731.98
605.698	24998.64
606.056	25291.28
606.413	25545.74
606.771	25779.63
607.128	26135.78
607.485	26179.4
607.843	26343.23
608.2	26688.76
608.557	27026.38
608.914	27062.54
609.272	27422.75
609.629	27662.52
609.986	28001.95
610.343	27939.35
610.7	28454.14
611.057	28444.2
611.414	28549.5
611.771	28817.97
612.127	29024.97
612.484	29188.58
612.841	29322.59
613.198	29464.06
613.554	29806.65
613.911	30053.64
614.267	29998.73
614.624	30251.15
614.98	30453.86
615.337	30667.87
615.693	30783.57
616.05	30829.44
616.406	31180.39
616.762	31107.85
617.118	31312.82
617.475	31473.04
617.831	31652.02
618.187	31822.19
618.543	31883.88
618.899	32316.41
619.255	32250.65
619.611	32365
619.967	32387.14
620.323	32692.67
620.678	32740.35
621.034	32857.86
621.39	32845.66
621.746	32912.1
622.101	33393.22
622.457	33139.89
622.812	33495.59
623.168	33507.34
623.523	33532.88
623.879	33760.21
624.234	33702.81
624.589	33891.06
624.945	33887.44
625.3	34051.05
625.655	34005.63
626.01	34243.82
626.365	34144.84
626.72	34213.08
627.075	34277.26
627.43	34266.64
627.785	34219.64
628.14	34386.64
628.495	34567.2
628.85	34493.98
629.205	34454.21
629.559	34809.23
629.914	34562.23
630.269	34599.51
630.623	34674.54
630.978	34794.99
631.332	34757.93
631.687	35025.94
632.041	34829.79
632.396	34927.41
632.75	34820.75
633.104	34942.78
633.459	34890.35
633.813	34915.66
634.167	34837.47
634.521	35029.79
634.875	35076.79
635.229	35062.1
635.583	34884.48
635.937	35023.46
636.291	34919.05
636.645	34867.08
636.999	34972.61
637.352	35077.02
637.706	34844.48
638.06	35052.16
638.413	34961.54
638.767	34806.51
639.121	35085.15
639.474	34788.66
639.828	34819.62
640.181	34984.14
640.534	34997.7
640.888	34889.22
641.241	34708.89
641.594	34821.43
641.947	34846.74
642.301	34805.38
642.654	34951.82
643.007	34907.75
643.36	34838.38
643.713	34906.4
644.066	35032.72
644.419	34680.19
644.771	34644.48
645.124	34086.76
645.477	34124.05
645.83	34069.36
646.182	33916.37
646.535	33796.82
646.888	33910.27
647.24	33738.29
647.593	33888.57
647.945	33791.17
648.298	33797.05
648.65	33598.41
649.002	33632.31
649.355	33790.95
649.707	33676.6
650.059	33919.53
650.411	34124.27
650.763	34232.07
651.115	34611.27
651.467	34537.82
651.819	34517.93
652.171	34433.64
652.523	34407.2
652.875	34417.37
653.227	34230.94
653.578	34570.81
653.93	34388.45
654.282	34317.49
654.633	34151.62
654.985	34275.45
655.337	34334.66
655.688	34253.53
656.039	34419.18
656.391	34143.48
656.742	34164.5
657.094	34152.75
657.445	34316.13
657.796	34321.78
658.147	34226.42
658.498	34213.08
658.849	34283.36
659.2	34203.59
659.551	34033.43
659.902	34279.07
660.253	34263.7
660.604	34299.63
660.955	33970.15
661.306	34201.78
661.656	34076.59
662.007	34051.05
662.358	34026.65
662.708	34094.22
663.059	34246.98
663.409	33850.38
663.76	34193.65
664.11	34041.79
664.461	34184.16
664.811	34241.78
665.161	34100.54
665.511	33981.23
665.862	34046.31
666.212	34180.54
666.562	34129.92
666.912	34130.6
667.262	34009.02
667.612	34057.83
667.962	34076.14
668.312	34023.26
668.662	34049.25
669.011	34175.57
669.361	34111.17
669.711	33991.62
670.06	33914.11
670.41	33870.49
670.76	34056.93
671.109	33995.69
671.459	33975.35
671.808	33904.84
672.157	33941.23
672.507	33816.48
672.856	33850.61
673.205	33798.63
673.554	33852.64
673.904	33820.33
674.253	33948.23
674.602	33883.83
674.951	33373.11
675.3	33193.22
675.649	33609.03
675.998	33748.24
676.346	33636.83
676.695	33819.87
677.044	33607.22
677.393	33585.53
677.741	33632.99
678.09	33625.3
678.438	33520.45
678.787	33653.32
679.135	33659.88
679.484	33394.8
679.832	33668.24
680.181	33464.85
680.529	33428.02
680.877	33314.35
681.225	33297.85
681.573	33639.09
681.922	33315.48
682.27	33091.76
682.618	33253.33
682.966	33129.04
683.314	33214.69
683.661	33109.38
684.009	32890.41
684.357	32837.07
684.705	32788.94
685.053	32889.05
685.4	32770.64
685.748	32664.2
686.095	32676.4
686.443	32499.23
686.79	32523.86
687.138	32531.32
687.485	32616.74
687.832	32487.71
688.18	32486.8
688.527	32156.19
688.874	32319.57
689.221	32211.78
689.568	32092.69
689.915	32135.4
690.262	32059.69
690.609	32078.68
690.956	31931.11
691.303	31844.11
691.65	31778.8
691.997	31657.44
692.344	31477.79
692.69	31534.74
693.037	31499.03
693.383	31217.91
693.73	31452.25
694.077	31210.9
694.423	31235.31
694.769	31178.14
695.116	31149.21
695.462	31032.15
695.808	30937.46
696.155	30750.12
696.501	30728.43
696.847	30640.52
697.193	30527.08
697.539	30616.57
697.885	30254.54
698.231	30310.81
698.577	30256.13
698.923	30140.87
699.269	30043.93
699.614	29958.51
699.96	29819.75
700.306	29980.88
700.651	29802.13
700.997	29743.14
701.342	29644.39
701.688	29638.97
702.033	29474
702.379	29585.63
702.724	29390.39
703.069	29533.21
703.415	29144.06
703.76	29181.8
704.105	29231.52
704.45	29107.68
704.795	28861.59
705.14	28983.62
705.485	28834.69
705.83	28771.19
706.175	28829.95
706.52	28646.45
706.865	28514.48
707.209	28475.61
707.554	28532.1
707.899	28479.22
708.243	28330.75
708.588	28451.2
708.932	28156.52
709.277	28058.22
709.621	28138.44
709.966	27981.83
710.31	28111.1
710.654	27698
710.998	27807.38
711.342	27848.28
711.687	27683.31
712.031	27547.27
712.375	27542.75
712.719	27633.14
713.063	27471.57
713.407	27504.11
713.75	27332.81
714.094	27316.32
714.438	27362.64
714.782	27235.19
715.125	26969.43
715.469	27255.98
715.812	26891.47
716.156	26929.21
716.499	26975.76
716.843	26944.12
717.186	26823
717.53	26934.86
717.873	26959.94
718.216	26832.26
718.559	26741.19
718.902	26571.02
719.246	26631.59
719.589	26439.05
719.932	26456
720.275	26313.18
720.617	26359.96
720.96	26260.98
721.303	26264.14
721.646	26235.67
721.989	26151.83
722.331	26246.29
722.674	26169.23
723.016	26151.37
723.359	26137.59
723.701	26077.25
724.044	25940.76
724.386	25742.57
724.729	25875.22
725.071	25750.71
725.413	25767.66
725.755	25728.11
726.097	25598.85
726.439	25558.62
726.782	25583.71
727.124	25677.04
727.465	25522.46
727.807	25516.59
728.149	25564.27
728.491	25374.22
728.833	25568.11
729.175	25239.31
729.516	25291.51
729.858	25316.37
730.199	25227.56
730.541	25250.16
730.882	25152.3
731.224	25286.09
731.565	25098.29
731.906	25090.61
732.248	25055.81
732.589	24896.49
732.93	24808.81
733.271	24800.68
733.612	24903.05
733.953	24928.13
734.294	24829.6
734.635	24752.99
734.976	24820.34
735.317	24654.24
735.658	24635.71
735.999	24635.93
736.339	24648.14
736.68	24585.31
737.021	24614.24
737.361	24442.49
737.702	24509.38
738.042	24532.21
738.383	24412.21
738.723	24413.79
739.063	24386
739.404	24416.5
739.744	24240.24
740.084	24161.14
740.424	24220.35
740.764	24219.9
741.104	24275.49
741.444	24149.62
741.784	24118.89
742.124	24036.18
742.464	24106.46
742.804	23915.95
743.143	24063.97
743.483	23931.77
743.823	23770.65
744.162	23715.96
744.502	23839.57
744.841	23697.65
745.181	23743.75
745.52	23667.6
745.86	23665.56
746.199	23730.42
746.538	23633.25
746.877	23714.6
747.216	23667.82
747.556	23637.32
747.895	23598.67
748.234	23531.78
748.573	23459.47
748.911	23435.29
749.25	23332.69
749.589	23275.29
749.928	23360.26
750.267	23303.09
750.605	23242.75
750.944	23213.37
751.283	23230.55
751.621	23181.06
751.96	22985.36
752.298	23047.95
752.636	22947.62
752.975	22892.48
753.313	22848.41
753.651	22889.77
753.989	22851.12
754.327	22757.34
754.666	22714.85
755.004	22591.69
755.342	22614.97
755.679	22590.79
756.017	22484.35
756.355	22515.54
756.693	22442.77
757.031	22530.9
757.368	22407.29
757.706	22334.75
758.044	22240.52
758.381	22213.85
758.719	22145.38
759.056	22144.93
759.394	22065.83
759.731	21937.7
760.068	21904.48
760.405	21850.7
760.743	21752.62
