Data from hue_350_FLMS001491_72.txt Node
Date: Mon Feb 06 15:38:29 GMT 2017
User: dcchb
Spectrometer: FLMS00149
Trigger mode: 0
Integration Time (sec): 2.000000E-2
Scans to average: 10
Electric dark correction enabled: true
Nonlinearity correction enabled: false
Boxcar width: 0
XAxis mode: Wavelengths
Number of Pixels in Spectrum: 2048
>>>>>Begin Spectral Data<<<<<
341.393	-26.89
341.776	-26.89
342.16	-26.89
342.543	-56.72
342.927	-55.14
343.31	-57.4
343.693	-81.81
344.077	-76.38
344.46	-63.73
344.843	-62.37
345.226	-41.35
345.61	-42.26
345.993	-24.86
346.376	-23.5
346.759	2.03
347.142	44.74
347.525	67.12
347.908	60.34
348.291	80.9
348.674	94.69
349.057	123.84
349.44	129.71
349.823	129.04
350.206	175.36
350.588	188.92
350.971	206.55
351.354	228.69
351.737	239.77
352.119	241.12
352.502	237.73
352.884	277.05
353.267	283.38
353.65	292.65
354.032	303.49
354.414	319.99
354.797	307.11
355.179	319.99
355.562	345.75
355.944	332.87
356.326	328.58
356.709	324.51
357.091	357.96
357.473	338.3
357.855	347.11
358.238	334
358.62	355.24
359.002	332.65
359.384	366.32
359.766	318.18
360.148	331.06
360.53	313.89
360.912	316.38
361.294	325.64
361.676	310.27
362.057	355.02
362.439	330.16
362.821	311.4
363.203	306.88
363.584	341.46
363.966	312.76
364.348	305.98
364.729	311.4
365.111	301.91
365.493	306.66
365.874	317.05
366.256	305.53
366.637	319.54
367.019	306.21
367.4	337.62
367.781	316.6
368.163	292.87
368.544	301.24
368.925	301.91
369.306	297.85
369.688	324.06
370.069	310.05
370.45	295.36
370.831	310.95
371.212	304.4
371.593	301.69
371.974	297.39
372.355	302.82
372.736	291.07
373.117	325.64
373.498	320.9
373.879	313.44
374.26	306.21
374.641	316.38
375.021	309.82
375.402	323.61
375.783	315.92
376.163	323.38
376.544	336.94
376.925	317.05
377.305	325.64
377.686	332.19
378.066	329.71
378.447	331.29
378.827	325.64
379.208	339.43
379.588	324.29
379.968	324.96
380.349	319.54
380.729	318.41
381.109	315.25
381.489	321.12
381.87	334.45
382.25	348.69
382.63	327.22
383.01	340.33
383.39	344.4
383.77	317.05
384.15	344.4
384.53	344.4
384.91	319.31
385.29	362.25
385.67	355.7
386.049	359.99
386.429	348.01
386.809	336.49
387.189	357.73
387.568	344.62
387.948	330.61
388.328	334.23
388.707	347.11
389.087	369.26
389.466	348.69
389.846	344.17
390.225	361.8
390.605	333.1
390.984	366.32
391.363	362.48
391.743	357.28
392.122	361.8
392.501	369.71
392.881	370.16
393.26	338.52
393.639	365.87
394.018	357.96
394.397	362.93
394.776	327
395.155	393.89
395.534	370.61
395.913	360.89
396.292	358.86
396.671	361.12
397.05	369.93
397.429	362.7
397.808	369.26
398.186	360.89
398.565	374.45
398.944	369.93
399.323	389.14
399.701	363.61
400.08	370.84
400.458	391.85
400.837	407.67
401.215	385.3
401.594	393.44
401.972	411.97
402.351	390.05
402.729	379.65
403.107	389.14
403.486	392.98
403.864	399.09
404.242	392.76
404.62	391.18
404.999	395.47
405.377	423.49
405.755	390.27
406.133	392.31
406.511	411.29
406.889	418.52
407.267	407.45
407.645	424.62
408.023	414.9
408.401	421.23
408.779	403.15
409.156	420.1
409.534	428.01
409.912	437.73
410.29	442.7
410.667	436.82
411.045	415.58
411.422	428.24
411.8	441.8
412.178	445.64
412.555	467.78
412.933	441.57
413.31	451.06
413.687	456.49
414.065	458.29
414.442	463.26
414.819	467.78
415.197	477.05
415.574	478.86
415.951	458.52
416.328	462.81
416.705	485.18
417.082	457.16
417.46	507.78
417.837	489.03
418.214	478.86
418.591	478.63
418.967	509.14
419.344	496.71
419.721	519.76
420.098	506.2
420.475	491.51
420.852	507.78
421.228	508.24
421.605	534.68
421.982	506.2
422.358	513.43
422.735	534.68
423.111	536.48
423.488	507.78
423.864	535.81
424.241	529.48
424.617	561.57
424.994	539.65
425.37	546.88
425.746	535.35
426.123	558.86
426.499	558.18
426.875	554.34
427.251	556.14
427.627	569.25
428.003	571.28
428.379	563.38
428.756	587.33
429.132	582.36
429.507	586.88
429.883	589.59
430.259	594.56
430.635	621.68
431.011	620.1
431.387	636.37
431.763	621.23
432.138	626.2
432.514	637.5
432.89	635.46
433.265	652.41
433.641	626.65
434.016	656.71
434.392	659.19
434.767	652.64
435.143	668.46
435.518	672.98
435.894	692.64
436.269	685.86
436.644	677.5
437.02	686.99
437.395	669.59
437.77	692.41
438.145	703.26
438.52	700.55
438.895	717.72
439.271	692.19
439.646	741
440.021	722.24
440.395	738.74
440.77	709.81
441.145	728.34
441.52	757.95
441.895	749.81
442.27	729.47
442.645	736.7
443.019	759.53
443.394	755.23
443.769	763.14
444.143	776.7
444.518	783.48
444.892	793.2
445.267	777.61
445.641	773.76
446.016	780.54
446.39	799.98
446.764	800.66
447.139	787.32
447.513	803.82
447.887	797.49
448.262	792.3
448.636	804.5
449.01	829.36
449.384	810.6
449.758	830.49
450.132	821.9
450.506	827.77
450.88	837.94
451.254	846.31
451.628	837.04
452.002	854.44
452.376	853.31
452.75	863.93
453.123	892.86
453.497	842.01
453.871	876.14
454.244	878.62
454.618	887.43
454.992	886.08
455.365	917.49
455.739	915.91
456.112	918.85
456.486	922.01
456.859	937.15
457.232	956.13
457.606	934.89
457.979	958.39
458.352	977.38
458.725	972.63
459.099	994.55
459.472	1010.14
459.845	996.81
460.218	1017.15
460.591	1025.28
460.964	996.81
461.337	1044.94
461.71	1047.66
462.083	1070.71
462.456	1086.3
462.829	1061.89
463.201	1099.18
463.574	1087.88
463.947	1091.95
464.32	1125.17
464.692	1139.41
465.065	1119.07
465.438	1141.44
465.81	1171.72
466.183	1158.39
466.555	1195
466.928	1198.39
467.3	1203.13
467.672	1206.07
468.045	1245.39
468.417	1237.48
468.789	1237.71
469.161	1250.59
469.534	1285.16
469.906	1317.25
470.278	1350.7
470.65	1351.6
471.022	1360.64
471.394	1371.72
471.766	1373.75
472.138	1396.8
472.51	1408.1
472.882	1458.94
473.253	1451.71
473.625	1487.87
473.997	1479.51
474.369	1520.41
474.74	1507.98
475.112	1519.96
475.484	1568.77
475.855	1620.52
476.227	1610.35
476.598	1653.29
476.97	1663.69
477.341	1709.11
477.713	1749.78
478.084	1736
478.455	1808.09
478.827	1798.37
479.198	1854.41
479.569	1833.4
479.94	1879.72
480.311	1894.19
480.682	1944.58
481.053	2002.43
481.424	2044.47
481.795	2071.58
482.166	2083.34
482.537	2112.94
482.908	2130.79
483.279	2157.46
483.65	2187.97
484.021	2267.96
484.391	2328.07
484.762	2298.24
485.133	2341.86
485.503	2370.79
485.874	2423.67
486.244	2404
486.615	2502.08
486.985	2505.92
487.356	2568.52
487.726	2582.53
488.097	2624.56
488.467	2669.76
488.837	2684.22
489.207	2693.94
489.578	2803.32
489.948	2814.39
490.318	2821.17
490.688	2851.68
491.058	2898.45
491.428	2887.61
491.798	2958.57
492.168	3015.74
492.538	3041.95
492.908	3072.01
493.278	3093.03
493.648	3115.17
494.017	3091.67
494.387	3158.56
494.757	3220.93
495.126	3226.13
495.496	3198.11
495.866	3310.2
496.235	3317.65
496.605	3302.51
496.974	3346.8
497.344	3403.53
497.713	3400.36
498.082	3403.3
498.452	3484.43
498.821	3439.91
499.19	3440.36
499.559	3515.39
499.928	3522.39
500.298	3559.45
500.667	3539.57
501.036	3589.96
501.405	3622.5
501.774	3637.87
502.143	3668.83
502.512	3663.18
502.88	3662.28
503.249	3683.29
503.618	3710.41
503.987	3717.19
504.356	3765.1
504.724	3744.53
505.093	3768.49
505.462	3825.89
505.83	3822.95
506.199	3845.32
506.567	3905.43
506.936	3906.56
507.304	3937.07
507.672	3931.42
508.041	3938.65
508.409	3983.85
508.777	3986.56
509.145	4059.78
509.514	4014.13
509.882	4057.52
510.25	4057.07
510.618	4032.44
510.986	4062.27
511.354	4098.88
511.722	4139.78
512.09	4167.35
512.458	4135.03
512.826	4168.7
513.193	4163.28
513.561	4213
513.929	4214.8
514.297	4208.25
514.664	4257.52
515.032	4270.62
515.4	4305.88
515.767	4290.28
516.135	4272.88
516.502	4311.07
516.869	4356.5
517.237	4337.97
517.604	4344.29
517.972	4350.62
518.339	4372.31
518.706	4399.21
519.073	4397.4
519.44	4432.2
519.808	4420.9
520.175	4474.23
520.542	4490.73
520.909	4503.38
521.276	4522.82
521.643	4524.85
522.009	4540.9
522.376	4578.18
522.743	4590.84
523.11	4620.67
523.477	4676.94
523.843	4662.25
524.21	4693.66
524.577	4758.97
524.943	4727.79
525.31	4749.71
525.676	4772.53
526.043	4869.93
526.409	4792.19
526.776	4920.77
527.142	4934.33
527.508	4881.45
527.874	4959.87
528.241	4966.65
528.607	4967.78
528.973	5040.09
529.339	4988.12
529.705	5048.23
530.071	5098.17
530.437	5136.81
530.803	5154.21
531.169	5164.38
531.535	5149.92
531.901	5180.88
532.267	5199.64
532.632	5250.26
532.998	5265.85
533.364	5281.22
533.73	5302.01
534.095	5384.94
534.461	5347.2
534.826	5377.03
535.192	5348.33
535.557	5459.52
535.923	5411.61
536.288	5427.43
536.653	5476.01
537.019	5535
537.384	5501.55
537.749	5504.94
538.114	5553.53
538.479	5561.44
538.845	5542.23
539.21	5606.86
539.575	5645.95
539.94	5665.84
540.305	5697.93
540.67	5646.41
541.034	5740.87
541.399	5779.51
541.764	5767.76
542.129	5780.41
542.494	5798.27
542.858	5830.81
543.223	5867.42
543.587	5871.71
543.952	5877.59
544.316	5913.52
544.681	5884.82
545.045	5982.22
545.41	5987.19
545.774	5988.09
546.138	6011.59
546.503	6040.75
546.867	6084.59
547.231	6165.71
547.595	6115.09
547.959	6145.6
548.324	6154.64
548.688	6151.25
549.052	6254.3
549.416	6161.87
549.779	6223.79
550.143	6243.23
550.507	6274.41
550.871	6339.95
551.235	6320.96
551.599	6333.17
551.962	6358.48
552.326	6361.41
552.689	6409.32
553.053	6413.62
553.417	6414.29
553.78	6509.89
554.143	6470.79
554.507	6487.29
554.87	6578.13
555.234	6581.52
555.597	6543.33
555.96	6605.02
556.323	6621.07
556.686	6600.96
557.05	6626.04
557.413	6633.5
557.776	6695.64
558.139	6759.82
558.502	6720.28
558.865	6753.27
559.228	6755.53
559.59	6769.54
559.953	6802.08
560.316	6861.06
560.679	6878.69
561.041	6906.49
561.404	6890.21
561.767	6948.29
562.129	6939.7
562.492	7047.72
562.854	6958.46
563.217	6979.7
563.579	7068.29
563.941	7031
564.304	7087.05
564.666	7156.65
565.028	7176.99
565.39	7189.64
565.753	7242.07
566.115	7143.31
566.477	7273.93
566.839	7224.89
567.201	7289.98
567.563	7334.04
567.925	7404.1
568.287	7393.03
568.648	7411.1
569.01	7439.8
569.372	7440.03
569.734	7409.07
570.095	7543.53
570.457	7505.11
570.819	7640.7
571.18	7619.01
571.542	7650.19
571.903	7688.61
572.265	7650.19
572.626	7766.35
572.987	7816.29
573.349	7921.6
573.71	7936.97
574.071	7949.85
574.432	7964.76
574.794	8047.7
575.155	8091.31
575.516	8118.66
575.877	8177.19
576.238	8262.38
576.599	8310.52
576.96	8389.84
577.32	8384.86
577.681	8510.74
578.042	8641.81
578.403	8578.31
578.763	8691.52
579.124	8806.1
579.485	8930.39
579.845	9008.12
580.206	9101.23
580.566	9134.68
580.927	9264.62
581.287	9462.12
581.648	9428.68
582.008	9641.1
582.368	9755
582.728	9902.56
583.089	9954.09
583.449	10135.1
583.809	10288.32
584.169	10443.34
584.529	10604.69
584.889	10820.73
585.249	10860.73
585.609	10988.64
585.969	11264.11
586.329	11422.52
586.688	11659.35
587.048	11732.35
587.408	12004.2
587.768	12237.64
588.127	12447.13
588.487	12577.3
588.846	12945.42
589.206	13054.8
589.565	13354
589.925	13603.26
590.284	13779.07
590.643	13998.5
591.003	14356.91
591.362	14576.34
591.721	14829.21
592.08	15053.84
592.44	15346.04
592.799	15662.41
593.158	15850.2
593.517	16110.08
593.876	16505.33
594.235	16646.79
594.593	16907.58
594.952	17270.05
595.311	17448.13
595.67	17842.92
596.029	18185.06
596.387	18484.94
596.746	18846.06
597.104	18926.28
597.463	19212.83
597.822	19717.22
598.18	19816.2
598.538	20068.62
598.897	20491.89
599.255	20606.92
599.613	21208.48
599.972	21335.03
600.33	21672.2
600.688	21806.21
601.046	22149.02
601.404	22515.34
601.762	22582.46
602.12	23002.11
602.478	23308.54
602.836	23471.93
603.194	23828.07
603.552	24022.65
603.91	24226.93
604.268	24634.38
604.625	24812.23
604.983	25104.42
605.341	25225.33
605.698	25635.26
606.056	25900.34
606.413	26059.65
606.771	26347.78
607.128	26672.52
607.485	26736.47
607.843	26923.81
608.2	27329.45
608.557	27698.03
608.914	27722.21
609.272	28073.16
609.629	28262.08
609.986	28745.23
610.343	28668.17
610.7	29095.28
611.057	29253.69
611.414	29370.98
611.771	29711.99
612.127	29863.62
612.484	30154.24
612.841	30352.87
613.198	30539.99
613.554	30581.34
613.911	30868.34
614.267	31102.46
614.624	31118.96
614.98	31378.38
615.337	31686.62
615.693	31822.21
616.05	31912.16
616.406	32197.35
616.762	32284.57
617.118	32287.74
617.475	32583.55
617.831	32697.22
618.187	32871.68
618.543	33043.42
618.899	33341.95
619.255	33377.2
619.611	33382.4
619.967	33707.36
620.323	33860.8
620.678	33834.59
621.034	33887.7
621.39	33967.47
621.746	34152.55
622.101	34538.07
622.457	34275.93
622.812	34465.31
623.168	34773.55
623.523	34837.95
623.879	34954.11
624.234	34771.52
624.589	35055.8
624.945	34985.75
625.3	35282.46
625.655	35247.43
626.01	35444.04
626.365	35486.3
626.72	35396.81
627.075	35621.44
627.43	35623.47
627.785	35635.45
628.14	35930.81
628.495	35878.15
628.85	35809.23
629.205	35833.18
629.559	36176.9
629.914	35891.94
630.269	36159.73
630.623	36026.17
630.978	35982.78
631.332	36262.32
631.687	36361.3
632.041	36147.07
632.396	36416.22
632.75	36216.9
633.104	36228.88
633.459	36263
633.813	36276.56
634.167	36258.93
634.521	36417.8
634.875	36439.04
635.229	36374.41
635.583	36252.15
635.937	36306.16
636.291	36249.22
636.645	36389.33
636.999	36203.79
637.352	36422.55
637.706	36196.11
638.06	36357.69
638.413	36326.95
638.767	36414.86
639.121	36512.49
639.474	36241.08
639.828	36389.78
640.181	36382.09
640.534	36427.74
640.888	36181.2
641.241	36241.76
641.594	36365.6
641.947	36398.36
642.301	36392.04
642.654	36451.24
643.007	36359.04
643.36	36275.43
643.713	36237.69
644.066	36334.41
644.419	36164.25
644.771	35797.25
645.124	35606.52
645.477	35597.48
645.83	35418.05
646.182	35335.79
646.535	35177.38
646.888	35202.01
647.24	35107.33
647.593	35382.8
647.945	35224.16
648.298	35227.1
648.65	34960.66
649.002	35062.35
649.355	35174.89
649.707	35120.21
650.059	35315.91
650.411	35645.84
650.763	35751.38
651.115	36010.35
651.467	35882.67
651.819	35940.07
652.171	35878.38
652.523	36008.77
652.875	35980.75
653.227	35642.45
653.578	35963.8
653.93	35990.92
654.282	35774.65
654.633	35628.89
654.985	35841.54
655.337	35860.07
655.688	35770.36
656.039	35816.91
656.391	35605.39
656.742	35709.34
657.094	35707.76
657.445	35769.45
657.796	35583.25
658.147	35711.15
658.498	35679.29
658.849	35733.98
659.2	35669.12
659.551	35698.27
659.902	35604.04
660.253	35659.18
660.604	35652.85
660.955	35484.72
661.306	35627.31
661.656	35552.74
662.007	35567.2
662.358	35477.94
662.708	35608.78
663.059	35482.46
663.409	35348.22
663.76	35626.41
664.11	35532.85
664.461	35571.49
664.811	35635.45
665.161	35537.6
665.511	35505.96
665.862	35495.34
666.212	35720.42
666.562	35602.45
666.912	35477.03
667.262	35378.05
667.612	35427.09
667.962	35505.51
668.312	35479.97
668.662	35608.56
669.011	35432.51
669.361	35485.85
669.711	35427.09
670.06	35332.63
670.41	35407.88
670.76	35386.87
671.109	35528.56
671.459	35480.65
671.808	35346.19
672.157	35375.34
672.507	35300.31
672.856	35299.18
673.205	35268.23
673.554	35483.81
673.904	35252.63
674.253	35383.7
674.602	35397.26
674.951	34809.71
675.3	34646.32
675.649	35071.62
675.998	35197.04
676.346	35180.32
676.695	35259.41
677.044	34995.69
677.393	35113.88
677.741	35219.86
678.09	35091.73
678.438	35066.2
678.787	34901.91
679.135	35097.38
679.484	34733.1
679.832	34920.66
680.181	34767.9
680.529	34933.77
680.877	34752.53
681.225	34758.86
681.573	34915.24
681.922	34642.48
682.27	34587.79
682.618	34685.64
682.966	34597.73
683.314	34555.25
683.661	34516.15
684.009	34293.11
684.357	34293.11
684.705	34193.23
685.053	34317.29
685.4	34196.39
685.748	34096.05
686.095	34096.96
686.443	33940.58
686.79	33886.34
687.138	33986.9
687.485	33969.5
687.832	33926.34
688.18	33868.49
688.527	33738.32
688.874	33733.8
689.221	33603.18
689.568	33406.81
689.915	33381.5
690.262	33435.96
690.609	33316.64
690.956	33253.81
691.303	33213.59
691.65	33067.61
691.997	33121.84
692.344	32825.58
692.69	32873.49
693.037	32889.53
693.383	32542.87
693.73	32821.06
694.077	32608.86
694.423	32626.03
694.769	32406.61
695.116	32379.71
695.462	32366.38
695.808	32301.52
696.155	32397.57
696.501	32133.84
696.847	32000.51
697.193	31785.15
697.539	31932.04
697.885	31649.34
698.231	31673.97
698.577	31649.56
698.923	31526.4
699.269	31432.85
699.614	31344.26
699.96	31209.35
700.306	31243.7
700.651	31078.5
700.997	31045.74
701.342	30927.55
701.688	30955.12
702.033	30864.27
702.379	30854.78
702.724	30676.26
703.069	30709.93
703.415	30445.08
703.76	30448.24
704.105	30507.45
704.45	30452.08
704.795	30225.19
705.14	30065.88
705.485	30132.09
705.83	30024.52
706.175	30073.79
706.52	29969.38
706.865	29894.58
707.209	29868.82
707.554	29657.3
707.899	29665.43
708.243	29629.96
708.588	29537.3
708.932	29298.44
709.277	29296.86
709.621	29202.62
709.966	29196.97
710.31	29282.85
710.654	29053.47
710.998	29106.81
711.342	29014.6
711.687	28980.93
712.031	28773.25
712.375	28767.38
712.719	28781.16
713.063	28736.42
713.407	28806.93
713.75	28676.08
714.094	28560.6
714.438	28331.68
714.782	28473.6
715.125	28329.42
715.469	28434.96
715.812	28218.69
716.156	28120.62
716.499	28204.46
716.843	28131.69
717.186	28024.35
717.53	28134.63
717.873	28024.12
718.216	27953.16
718.559	27883.79
718.902	27697.12
719.246	27740.06
719.589	27694.64
719.932	27618.71
720.275	27471.82
720.617	27383.01
720.96	27462.55
721.303	27462.1
721.646	27478.6
721.989	27246.97
722.331	27443.8
722.674	27276.34
723.016	27339.62
723.359	27213.3
723.701	27273.86
724.044	27067.31
724.386	26940.99
724.729	27090.81
725.071	26964.94
725.413	26999.06
725.755	26989.35
726.097	26972.85
726.439	26766.53
726.782	26744.83
727.124	26879.97
727.465	26586.65
727.807	26619.64
728.149	26554.1
728.491	26555.01
728.833	26633.2
729.175	26541.9
729.516	26434.11
729.858	26456.03
730.199	26471.39
730.541	26345.07
730.882	26300.78
731.224	26330.38
731.565	26208.35
731.906	26096.71
732.248	26150.72
732.589	26009.49
732.93	25923.61
733.271	25949.37
733.612	25996.38
733.953	25981.92
734.294	25909.83
734.635	25758.64
734.976	25942.82
735.317	25734.92
735.658	25783.28
735.999	25743.96
736.339	25662.15
736.68	25822.6
737.021	25574.69
737.361	25589.38
737.702	25629.16
738.042	25588.93
738.383	25521.36
738.723	25532.89
739.063	25430.07
739.404	25431.42
739.744	25441.36
740.084	25419.44
740.424	25313.23
740.764	25294.48
741.104	25377.86
741.444	25095.84
741.784	25130.86
742.124	25146.46
742.464	25148.94
742.804	25081.83
743.143	24935.16
743.483	25024.88
743.823	24858.1
744.162	24877.99
744.502	24988.95
744.841	24803.87
745.181	24808.84
745.52	24793.25
745.86	24791.44
746.199	24719.8
746.538	24626.47
746.877	24763.19
747.216	24695.17
747.556	24539.24
747.895	24562.29
748.234	24383.99
748.573	24531.33
748.911	24502.41
749.25	24433.26
749.589	24268.29
749.928	24293.37
750.267	24299.7
750.605	24245.01
750.944	24139.7
751.283	24201.85
751.621	24101.29
751.96	23968.41
752.298	24089.31
752.636	24050.89
752.975	23904.91
753.313	23794.85
753.651	24029.65
753.989	23795.53
754.327	23853.61
754.666	23740.62
755.004	23708.3
755.342	23633.5
755.679	23583.79
756.017	23481.64
756.355	23650.23
756.693	23383.34
757.031	23467.86
757.368	23323.45
757.706	23272.83
758.044	23283.23
758.381	23312.83
758.719	23064.93
759.056	23187.64
759.394	23010.47
759.731	23025.84
760.068	22881.43
760.405	22807.31
760.743	22825.84
761.08	22784.94
761.417	22690.93
