Data from hue_32_FLMS001491_00080.txt Node
Date: Tue Feb 07 17:23:54 GMT 2017
User: dcchb
Spectrometer: FLMS00149
Trigger mode: 0
Integration Time (sec): 2.000000E-2
Scans to average: 10
Electric dark correction enabled: true
Nonlinearity correction enabled: false
Boxcar width: 0
XAxis mode: Wavelengths
Number of Pixels in Spectrum: 2048
>>>>>Begin Spectral Data<<<<<
341.393	-23.15
341.776	-23.15
342.16	-23.15
342.543	-60.21
342.927	-74.67
343.31	-76.93
343.693	-69.25
344.077	-60.89
344.46	-43.71
344.843	-42.36
345.226	-41
345.61	-28.8
345.993	-22.02
346.376	-7.78
346.759	8.94
347.142	29.73
347.525	22.73
347.908	71.99
348.291	62.95
348.674	92.55
349.057	103.85
349.44	119.22
349.823	146.79
350.206	161.25
350.588	194.25
350.971	211.65
351.354	222.72
351.737	241.7
352.119	249.16
352.502	289.61
352.884	295.94
353.267	284.64
353.65	301.14
354.032	282.61
354.414	315.6
354.797	306.33
355.179	319.44
355.562	339.78
355.944	330.29
356.326	351.98
356.709	351.08
357.091	323.96
357.473	345.65
357.855	358.31
358.238	352.66
358.62	355.82
359.002	344.98
359.384	357.86
359.766	348.14
360.148	336.84
360.53	348.14
360.912	346.33
361.294	344.98
361.676	345.2
362.057	337.52
362.439	350.63
362.821	341.14
363.203	329.38
363.584	337.07
363.966	326.67
364.348	332.77
364.729	339.55
365.111	320.12
365.493	332.32
365.874	325.09
366.256	320.12
366.637	328.03
367.019	323.51
367.4	297.75
367.781	316.73
368.163	328.71
368.544	349.95
368.925	323.06
369.306	333.68
369.688	302.94
370.069	323.06
370.45	331.19
370.831	316.28
371.212	336.39
371.593	327.8
371.974	313.79
372.355	333.68
372.736	343.85
373.117	343.85
373.498	324.86
373.879	323.73
374.26	320.57
374.641	318.76
375.021	305.43
375.402	328.93
375.783	334.81
376.163	328.71
376.544	327.12
376.925	320.8
377.305	339.55
377.686	340.91
378.066	325.54
378.447	325.99
378.827	342.49
379.208	328.93
379.588	371.42
379.968	328.03
380.349	333.9
380.729	343.17
381.109	330.29
381.489	330.74
381.87	338.42
382.25	339.78
382.63	340.23
383.01	362.83
383.39	347.01
383.77	354.24
384.15	361.02
384.53	346.11
384.91	350.4
385.29	350.4
385.67	341.81
386.049	360.12
386.429	361.47
386.809	360.34
387.189	360.12
387.568	364.19
387.948	371.87
388.328	362.15
388.707	357.63
389.087	359.21
389.466	361.25
389.846	365.77
390.225	373.68
390.605	373.45
390.984	347.24
391.363	364.41
391.743	397.4
392.122	374.35
392.501	390.17
392.881	373
393.26	384.98
393.639	403.51
394.018	382.72
394.397	375.48
394.776	394.02
395.155	379.78
395.534	387.46
395.913	384.3
396.292	392.66
396.671	397.63
397.05	389.95
397.429	402.83
397.808	368.93
398.186	394.69
398.565	391.98
398.944	405.54
399.323	390.63
399.701	416.61
400.08	389.27
400.458	388.82
400.837	402.38
401.215	426.33
401.594	403.51
401.972	414.81
402.351	399.89
402.729	401.47
403.107	428.59
403.486	400.34
403.864	427.91
404.242	422.49
404.62	418.42
404.999	412.55
405.377	440.12
405.755	427.46
406.133	420.23
406.511	425.2
406.889	433.56
407.267	426.33
407.645	429.04
408.023	469.49
408.401	458.42
408.779	453.45
409.156	446.9
409.534	448.93
409.912	455.03
410.29	483.96
410.667	448.7
411.045	447.8
411.422	457.29
411.8	473.79
412.178	471.75
412.555	494.35
412.933	464.3
413.31	486.89
413.687	478.31
414.065	476.05
414.442	505.42
414.819	471.98
415.197	490.28
415.574	516.95
415.951	501.13
416.328	506.1
416.705	493.22
417.082	498.19
417.46	517.18
417.837	509.04
418.214	519.21
418.591	518.98
418.967	520.57
419.344	515.82
419.721	530.73
420.098	507.01
420.475	542.49
420.852	537.51
421.228	510.4
421.605	527.34
421.982	519.66
422.358	529.38
422.735	547.01
423.111	561.02
423.488	563.95
423.864	554.91
424.241	546.78
424.617	539.77
424.994	552.65
425.37	561.24
425.746	570.28
426.123	575.93
426.499	583.39
426.875	573.22
427.251	590.62
427.627	572.09
428.003	591.3
428.379	600.79
428.756	605.31
429.132	600.79
429.507	621.35
429.883	620
430.259	622.26
430.635	640.11
431.011	619.09
431.387	644.86
431.763	629.94
432.138	613.22
432.514	658.87
432.89	636.27
433.265	650.05
433.641	648.7
434.016	671.52
434.392	699.54
434.767	671.3
435.143	657.51
435.518	691.41
435.894	702.03
436.269	722.82
436.644	714.91
437.02	710.39
437.395	738.64
437.77	725.76
438.145	715.81
438.52	737.06
438.895	748.81
439.271	744.97
439.646	742.25
440.021	762.82
440.395	766.21
440.77	746.77
441.145	771.63
441.52	779.54
441.895	763.27
442.27	749.03
442.645	784.51
443.019	773.89
443.394	796.04
443.769	791.07
444.143	798.75
444.518	811.18
444.892	804.63
445.267	821.57
445.641	824.06
446.016	810.95
446.39	832.65
446.764	841.01
447.139	837.17
447.513	815.25
447.887	834.23
448.262	861.12
448.636	826.32
449.01	853.44
449.384	845.53
449.758	859.09
450.132	871.29
450.506	892.31
450.88	883.72
451.254	867.22
451.628	877.84
452.002	910.61
452.376	907.22
452.75	908.8
453.123	894.57
453.497	932.76
453.871	938.63
454.244	957.39
454.618	932.76
454.992	936.83
455.365	955.58
455.739	975.24
456.112	987.22
456.486	998.07
456.859	997.39
457.232	1019.54
457.606	1022.25
457.979	1040.78
458.352	1032.19
458.725	1047.11
459.099	1077.84
459.472	1064.51
459.845	1059.53
460.218	1100.89
460.591	1101.79
460.964	1099.53
461.337	1104.96
461.71	1126.2
462.083	1159.42
462.456	1163.94
462.829	1188.8
463.201	1171.62
463.574	1190.6
463.947	1217.27
464.32	1231.51
464.692	1237.61
465.065	1243.94
465.438	1253.2
465.81	1288.45
466.183	1295.01
466.555	1317.15
466.928	1318.06
467.3	1329.81
467.672	1377.49
468.045	1368.45
468.417	1410.26
468.789	1406.42
469.161	1434.44
469.534	1467.21
469.906	1479.86
470.278	1483.7
470.65	1535.68
471.022	1543.36
471.394	1567.09
471.766	1598.28
472.138	1623.14
472.51	1623.81
472.882	1662.91
473.253	1685.05
473.625	1722.57
473.997	1776.58
474.369	1786.75
474.74	1784.26
475.112	1862.9
475.484	1901.09
475.855	1860.19
476.227	1930.7
476.598	2013.63
476.97	2049.79
477.341	2087.76
477.713	2138.38
478.084	2171.14
478.455	2196.23
478.827	2241.2
479.198	2342.89
479.569	2323.46
479.94	2435.54
480.311	2466.28
480.682	2509.67
481.053	2593.51
481.424	2631.47
481.795	2690
482.166	2759.6
482.537	2802.31
482.908	2895.64
483.279	2938.81
483.65	3061.29
484.021	3086.15
484.391	3161.63
484.762	3209.53
485.133	3281.17
485.503	3369.76
485.874	3434.16
486.244	3514.84
486.615	3575.17
486.985	3635.51
487.356	3759.58
487.726	3816.3
488.097	3910.53
488.467	3957.54
488.837	4043.86
489.207	4107.82
489.578	4208.6
489.948	4268.04
490.318	4357.3
490.688	4420.8
491.058	4540.12
491.428	4604.07
491.798	4682.94
492.168	4799.32
492.538	4874.58
492.908	4951.41
493.278	4996.38
493.648	5068.69
494.017	5182.82
494.387	5241.12
494.757	5348.91
495.126	5364.28
495.496	5472.3
495.866	5473.66
496.235	5663.03
496.605	5689.92
496.974	5752.52
497.344	5864.61
497.713	5887.2
498.082	5991.83
498.452	5983.25
498.821	6107.76
499.19	6105.73
499.559	6224.14
499.928	6341.2
500.298	6347.76
500.667	6450.8
501.036	6447.42
501.405	6577.13
501.774	6577.36
502.143	6653.51
502.512	6748.65
502.88	6755.2
503.249	6834.52
503.618	6868.87
503.987	6850.57
504.356	6935.54
504.724	7010.34
505.093	7113.61
505.462	7073.84
505.83	7184.34
506.199	7258.02
506.567	7294.62
506.936	7358.58
507.304	7457.56
507.672	7499.59
508.041	7556.76
508.409	7559.02
508.777	7638.12
509.145	7763.09
509.514	7717.21
509.882	7773.48
510.25	7845.34
510.618	7891.22
510.986	7968.05
511.354	8034.04
511.722	8055.06
512.09	8138.22
512.458	8111.78
512.826	8159.01
513.193	8300.02
513.561	8318.55
513.929	8313.58
514.297	8394.26
514.664	8466.57
515.032	8490.98
515.4	8544.76
515.767	8582.73
516.135	8619.79
516.502	8612.56
516.869	8790.63
517.237	8814.58
517.604	8756.06
517.972	8876.5
518.339	8878.09
518.706	8906.56
519.073	8952.89
519.44	8992.66
519.808	9018.87
520.175	8984.52
520.542	9181.35
520.909	9245.99
521.276	9201.69
521.643	9336.15
522.009	9337.73
522.376	9415.7
522.743	9414.34
523.11	9517.39
523.477	9670.38
523.843	9699.76
524.21	9702.92
524.577	9801.9
524.943	9881.9
525.31	9912.18
525.676	9934.1
526.043	10001.22
526.409	10108.56
526.776	10150.82
527.142	10186.07
527.508	10212.06
527.874	10307.43
528.241	10352.4
528.607	10331.83
528.973	10430.36
529.339	10456.12
529.705	10563.24
530.071	10645.72
530.437	10745.38
530.803	10706.29
531.169	10838.03
531.535	10807.75
531.901	10814.98
532.267	10871.48
532.632	10920.52
532.998	10983.79
533.364	11030.35
533.73	11087.52
534.095	11168.65
534.461	11213.17
534.826	11207.74
535.192	11328.19
535.557	11403.67
535.923	11355.53
536.288	11425.36
536.653	11501.75
537.019	11431.24
537.384	11607.28
537.749	11644.57
538.114	11689.09
538.479	11686.6
538.845	11736.54
539.21	11818.8
539.575	11846.14
539.94	11880.72
540.305	11986.7
540.67	11945.8
541.034	12057.89
541.399	12059.7
541.764	12141.95
542.129	12072.13
542.494	12193.03
542.858	12180.15
543.223	12223.08
543.587	12335.4
543.952	12315.28
544.316	12428.27
544.681	12413.81
545.045	12506.24
545.41	12535.16
545.774	12608.16
546.138	12549.63
546.503	12687.48
546.867	12755.27
547.231	12820.13
547.595	12830.98
547.959	12863.07
548.324	12929.73
548.688	12885.44
549.052	13028.94
549.416	13025.1
549.779	13099.44
550.143	13100.12
550.507	13193.9
550.871	13347.8
551.235	13262.15
551.599	13370.17
551.962	13405.42
552.326	13468.25
552.689	13536.27
553.053	13477.96
553.417	13487.46
553.78	13665.76
554.143	13587.11
554.507	13708.69
554.87	13704.85
555.234	13877.5
555.597	13696.26
555.96	13850.38
556.323	13818.75
556.686	13865.75
557.05	13988.91
557.413	13997.95
557.776	14085.41
558.139	14169.02
558.502	14178.96
558.865	14211.05
559.228	14316.81
559.59	14357.72
559.953	14321.78
560.316	14536.69
560.679	14501.21
561.041	14615.56
561.404	14634.54
561.767	14735.33
562.129	14701.44
562.492	14863.69
562.854	14854.2
563.217	14818.04
563.579	14844.26
563.941	14991.37
564.304	14993.63
564.666	15076.34
565.028	15110.46
565.39	15131.71
565.753	15286.96
566.115	15237.47
566.477	15366.73
566.839	15353.85
567.201	15451.47
567.563	15474.75
567.925	15641.75
568.287	15562.88
568.648	15682.2
569.01	15637.68
569.372	15751.8
569.734	15840.61
570.095	15874.51
570.457	16017.79
570.819	16063.43
571.18	16035.86
571.542	16166.03
571.903	16175.75
572.265	16230.89
572.626	16330.77
572.987	16422.97
573.349	16544.55
573.71	16563.31
574.071	16712
574.432	16783.87
574.794	16895.5
575.155	16988.38
575.516	16978.66
575.877	17193.8
576.238	17223.86
576.599	17292.33
576.96	17461.81
577.32	17505.66
577.681	17740.9
578.042	17797.63
578.403	17934.8
578.763	18015.02
579.124	18132.53
579.485	18404.61
579.845	18540.43
580.206	18589.69
580.566	18733.42
580.927	18928.44
581.287	19097.48
581.648	19173.18
582.008	19460.63
582.368	19430.35
582.728	19769.1
583.089	19880.51
583.449	20159.6
583.809	20275.3
584.169	20524.33
584.529	20597.55
584.889	21060.36
585.249	21120.25
585.609	21365.67
585.969	21624.87
586.329	21767.92
586.688	22109.6
587.048	22388.69
587.408	22492.42
587.768	22745.52
588.127	22943.48
588.487	23186.18
588.846	23657.13
589.206	23695.55
589.565	23873.85
589.925	24387.96
590.284	24458.92
590.643	24702.08
591.003	24997.44
591.362	25356.52
591.721	25643.75
592.08	25825.21
592.44	26113.79
592.799	26478.98
593.158	26587.22
593.517	26938.4
593.876	27345.4
594.235	27415.45
594.593	27774.31
594.952	28022.44
595.311	28243.9
595.67	28647.96
596.029	28924.34
596.387	29156.42
596.746	29493.59
597.104	29727.26
597.463	29871.21
597.822	30262.83
598.18	30384.86
598.538	30480.46
598.897	30985.75
599.255	30952.99
599.613	31716.13
599.972	31727.88
600.33	31946.63
600.688	32175.1
601.046	32344.14
601.404	32747.51
601.762	32883.33
602.12	33343.21
602.478	33469.76
602.836	33664.78
603.194	33753.82
603.552	34025.45
603.91	34055.5
604.268	34614.36
604.625	34520.35
604.983	34931.86
605.341	34987.91
605.698	35184.29
606.056	35537.27
606.413	35792.18
606.771	35967.32
607.128	36226.52
607.485	36241.89
607.843	36473.74
608.2	36674.19
608.557	36914.18
608.914	36905.6
609.272	37205.93
609.629	37473.94
609.986	37703.32
610.343	37661.06
610.7	37960.26
611.057	38119.58
611.414	38294.04
611.771	38330.19
612.127	38690.64
612.484	38789.16
612.841	38980.35
613.198	39029.84
613.554	39105.09
613.911	39391.41
614.267	39518.86
614.624	39681.57
614.98	39876.14
615.337	40039.3
615.693	40030.49
616.05	40213.98
616.406	40498.27
616.762	40506.41
617.118	40471.15
617.475	40628.44
617.831	40891.26
618.187	40943.23
618.543	41067.52
618.899	41238.36
619.255	41310
619.611	41404.46
619.967	41484.46
620.323	41798.58
620.678	41637.22
621.034	41711.8
621.39	41785.7
621.746	41844.22
622.101	42381.39
622.457	41996.09
622.812	42184.1
623.168	42301.61
623.523	42367.37
623.879	42429.07
624.234	42214.84
624.589	42512.46
624.945	42717.2
625.3	42741.6
625.655	42695.73
626.01	42750.87
626.365	42874.71
626.72	42880.36
627.075	42856.63
627.43	42889.17
627.785	42808.27
628.14	43088.26
628.495	43121.25
628.85	43056.62
629.205	42740.47
629.559	43302.94
629.914	42987.25
630.269	43201.48
630.623	42974.36
630.978	42938.89
631.332	43316.28
631.687	43223.4
632.041	43186.79
632.396	43173.68
632.75	43116.51
633.104	43094.81
633.459	42984.53
633.813	43055.04
634.167	43078.99
634.521	43177.07
634.875	43196.28
635.229	43189.05
635.583	42921.71
635.937	43014.82
636.291	42990.86
636.645	43022.95
636.999	43034.7
637.352	43055.72
637.706	42828.15
638.06	43142.95
638.413	43070.18
638.767	42949.05
639.121	43180.91
639.474	42926.91
639.828	42989.05
640.181	42937.53
640.534	42904.08
640.888	42806.46
641.241	42720.13
641.594	42863.63
641.947	42950.41
642.301	42735.27
642.654	42865.21
643.007	42851.66
643.36	42721.72
643.713	42753.13
644.066	42941.14
644.419	42620.93
644.771	42377.32
645.124	41999.7
645.477	41947.5
645.83	41810.33
646.182	41593.61
646.535	41592.93
646.888	41651.91
647.24	41395.2
647.593	41554.97
647.945	41540.05
648.298	41344.35
648.65	41259.16
649.002	41326.05
649.355	41429.32
649.707	41441.52
650.059	41625.02
650.411	42018.23
650.763	41968.06
651.115	42349.75
651.467	42282.86
651.819	42295.96
652.171	42273.37
652.523	42189.98
652.875	42148.62
653.227	41933.94
653.578	42236.53
653.93	41997.44
654.282	41976.65
654.633	41932.81
654.985	41936.2
655.337	42038.34
655.688	41977.1
656.039	42140.26
656.391	41831.12
656.742	41908.4
657.094	41922.19
657.445	42093.26
657.796	41857.78
658.147	41774.85
658.498	41889.65
658.849	41958.57
659.2	41819.82
659.551	41774.62
659.902	41885.13
660.253	41640.39
660.604	41828.63
660.955	41672.7
661.306	41832.25
661.656	41705.02
662.007	41692.36
662.358	41663.66
662.708	41843.77
663.059	41706.38
663.409	41469.77
663.76	41722.19
664.11	41824.79
664.461	41899.59
664.811	41812.14
665.161	41842.64
665.511	41580.5
665.862	41779.37
666.212	41713.15
666.562	41671.35
666.912	41651.24
667.262	41640.39
667.612	41559.94
667.962	41684.91
668.312	41596.55
668.662	41892.36
669.011	41581.18
669.361	41577.11
669.711	41547.74
670.06	41469.32
670.41	41387.51
670.76	41436.78
671.109	41539.37
671.459	41381.64
671.808	41312.04
672.157	41428.19
672.507	41268.19
672.856	41384.12
673.205	41378.02
673.554	41445.14
673.904	41232.72
674.253	41482.88
674.602	41355.2
674.951	40800.86
675.3	40460.76
675.649	41319.94
675.998	41111.36
676.346	41385.48
676.695	41477.23
677.044	41080.18
677.393	41052.83
677.741	41145.94
678.09	41084.92
678.438	40935.32
678.787	41140.74
679.135	41110.01
679.484	40773.29
679.832	40921.54
680.181	40680.64
680.529	40758.6
680.877	40823.91
681.225	40745.04
681.573	40851.93
681.922	40654.88
682.27	40563.13
682.618	40512.73
682.966	40464.37
683.314	40603.35
683.661	40391.38
684.009	40235
684.357	40076.81
684.705	40044.27
685.053	40147.32
685.4	40088.11
685.748	39985.74
686.095	39939.42
686.443	39831.62
686.79	39740.78
687.138	39889.93
687.485	39835.92
687.832	39653.32
688.18	39563.15
688.527	39500.56
688.874	39406.77
689.221	39374.23
689.568	39191.86
689.915	39174.92
690.262	39084.07
690.609	39045.65
690.956	38862.38
691.303	38857.64
691.65	38712.56
691.997	38702.39
692.344	38392.34
692.69	38325.9
693.037	38488.15
693.383	38152.12
693.73	38295.17
694.077	38223.53
694.423	38102.18
694.769	38024.21
695.116	37859.7
695.462	37872.35
695.808	37837.78
696.155	37803.43
696.501	37587.61
696.847	37584.22
697.193	37325.7
697.539	37506.49
697.885	37132.26
698.231	37020.4
698.577	37013.62
698.923	36951.47
699.269	36788.76
699.614	36687.52
699.96	36714.42
700.306	36574.76
700.651	36491.82
700.997	36405.72
701.342	36315.1
701.688	36332.51
702.033	36012.51
702.379	36054.55
702.724	35969.35
703.069	36125.05
703.415	35559.64
703.76	35721
704.105	35547.67
704.45	35581.11
704.795	35483.49
705.14	35297.5
705.485	35313.1
705.83	35045.31
706.175	35234.68
706.52	34909.04
706.865	34974.35
707.209	34994.69
707.554	34642.15
707.899	34822.49
708.243	34613
708.588	34773
708.932	34448.26
709.277	34295.95
709.621	34470.18
709.966	34114.26
710.31	34269.28
710.654	33875.85
710.998	34143.86
711.342	34025.22
711.687	33852.12
712.031	33812.8
712.375	33782.52
712.719	33740.93
713.063	33555.4
713.407	33740.03
713.75	33619.13
714.094	33559.47
714.438	33234.06
714.782	33457.78
715.125	33195.41
715.469	33374.62
715.812	33109.09
716.156	32898.92
716.499	32852.6
716.843	32955.42
717.186	32783.9
717.53	32930.33
717.873	32948.41
718.216	32811.47
718.559	32635.43
718.902	32518.14
719.246	32512.49
719.589	32491.7
719.932	32425.49
720.275	32359.95
720.617	32380.97
720.96	32106.4
721.303	32295.1
721.646	32217.13
721.989	32056.91
722.331	32141.2
722.674	31987.31
723.016	31995.67
723.359	31934.43
723.701	32050.36
724.044	31747.09
724.386	31589.35
724.729	31799.29
725.071	31577.6
725.413	31560.65
725.755	31521.11
726.097	31461.22
726.439	31253.54
726.782	31285.86
727.124	31543.7
727.465	31209.25
727.807	31218.52
728.149	31124.28
728.491	31103.49
728.833	31240.21
729.175	31058.52
729.516	31064.4
729.858	30938.75
730.199	31075.69
730.541	30878.19
730.882	30820.33
731.224	30873.67
731.565	30736.04
731.906	30763.84
732.248	30677.96
732.589	30589.15
732.93	30518.42
733.271	30484.52
733.612	30625.99
733.953	30601.13
734.294	30477.74
734.635	30273.91
734.976	30448.14
735.317	30201.82
735.658	30240.24
735.999	30166.11
736.339	30045.89
736.68	30211.08
737.021	30019
737.361	29956.4
737.702	30213.12
738.042	29923.86
738.383	29939.68
738.723	29879.57
739.063	29887.48
739.404	29842.96
739.744	29779.23
740.084	29566.36
740.424	29697.88
740.764	29617.43
741.104	29700.82
741.444	29520.25
741.784	29546.02
742.124	29499.92
742.464	29455.85
742.804	29339.69
743.143	29376.3
743.483	29443.87
743.823	29337.21
744.162	29303.54
744.502	29294.5
744.841	29096.76
745.181	29200.94
745.52	29059.02
745.86	29139.25
746.199	29095.41
746.538	28919.82
746.877	28932.7
747.216	29050.66
747.556	28919.37
747.895	28765.92
748.234	28702.65
748.573	28645.93
748.911	28683.21
749.25	28723.44
749.589	28575.42
749.928	28588.98
750.267	28649.54
750.605	28528.42
750.944	28452.03
751.283	28295.65
751.621	28373.62
751.96	28207.52
752.298	28321.64
752.636	28217.24
752.975	28138.6
753.313	28071.71
753.651	28222.44
753.989	28013.85
754.327	27899.96
754.666	27827.19
755.004	27930.24
755.342	27909
755.679	27764.82
756.017	27656.35
756.355	27688.89
756.693	27529.35
757.031	27640.98
757.368	27574.32
757.706	27363.7
758.044	27351.27
