Data from hue_22_FLMS001491_00060.txt Node
Date: Tue Feb 07 17:10:20 GMT 2017
User: dcchb
Spectrometer: FLMS00149
Trigger mode: 0
Integration Time (sec): 2.000000E-2
Scans to average: 10
Electric dark correction enabled: true
Nonlinearity correction enabled: false
Boxcar width: 0
XAxis mode: Wavelengths
Number of Pixels in Spectrum: 2048
>>>>>Begin Spectral Data<<<<<
341.393	-10.82
341.776	-10.82
342.16	-10.82
342.543	-51.95
342.927	-60.31
343.31	-53.76
343.693	-52.4
344.077	-69.57
344.46	-62.57
344.843	-56.24
345.226	-54.66
345.61	-32.06
345.993	-26.41
346.376	6.81
346.759	7.03
347.142	23.3
347.525	33.47
347.908	64.43
348.291	81.16
348.674	80.7
349.057	110.76
349.44	131.55
349.823	134.26
350.206	171.1
350.588	187.14
350.971	215.62
351.354	226.69
351.737	228.5
352.119	243.19
352.502	269.63
352.884	299
353.267	287.7
353.65	305.1
354.032	301.26
354.414	334.03
354.797	325.44
355.179	320.7
355.562	343.52
355.944	322.73
356.326	353.01
356.709	326.8
357.091	368.61
357.473	359.57
357.855	330.19
358.238	332.45
358.62	357.31
359.002	340.81
359.384	339.91
359.766	349.85
360.148	343.75
360.53	334.93
360.912	334.48
361.294	342.62
361.676	337.42
362.057	350.53
362.439	324.99
362.821	321.6
363.203	321.83
363.584	342.62
363.966	330.87
364.348	321.38
364.729	321.6
365.111	312.34
365.493	343.3
365.874	334.71
366.256	332.9
366.637	322.73
367.019	283.41
367.4	320.25
367.781	330.19
368.163	336.06
368.544	320.7
368.925	332.22
369.306	309.62
369.688	324.77
370.069	338.78
370.45	330.19
370.831	325.9
371.212	313.24
371.593	304.88
371.974	330.87
372.355	312.11
372.736	315.95
373.117	328.38
373.498	317.31
373.879	343.75
374.26	344.88
374.641	321.6
375.021	337.87
375.402	309.85
375.783	333.58
376.163	339.23
376.544	332.9
376.925	309.62
377.305	325.67
377.686	354.6
378.066	341.26
378.447	349.17
378.827	319.79
379.208	344.2
379.588	344.2
379.968	327.7
380.349	350.75
380.729	351.88
381.109	328.83
381.489	337.42
381.87	339.68
382.25	354.14
382.63	357.76
383.01	362.28
383.39	341.71
383.77	332.45
384.15	342.84
384.53	350.75
384.91	329.51
385.29	364.31
385.67	361.6
386.049	360.7
386.429	383.3
386.809	358.44
387.189	350.75
387.568	369.51
387.948	348.95
388.328	359.11
388.707	354.14
389.087	362.5
389.466	346.01
389.846	369.06
390.225	381.49
390.605	367.93
390.984	381.04
391.363	378.32
391.743	369.96
392.122	378.78
392.501	365.67
392.881	374.26
393.26	380.36
393.639	384.88
394.018	374.26
394.397	386.91
394.776	382.84
395.155	387.81
395.534	393.24
395.913	390.75
396.292	364.31
396.671	384.42
397.05	391.43
397.429	401.83
397.808	399.57
398.186	420.36
398.565	403.18
398.944	408.38
399.323	402.5
399.701	393.69
400.08	411.54
400.458	412.67
400.837	407.25
401.215	413.8
401.594	409.28
401.972	422.84
402.351	414.03
402.729	408.38
403.107	419.68
403.486	414.93
403.864	408.61
404.242	426.01
404.62	443.86
404.999	430.98
405.377	416.97
405.755	440.24
406.133	422.84
406.511	421.71
406.889	439.79
407.267	445.89
407.645	440.47
408.023	447.47
408.401	443.41
408.779	460.81
409.156	467.36
409.534	466.46
409.912	463.07
410.29	452.22
410.667	469.39
411.045	461.49
411.422	433.46
411.8	469.17
412.178	483.41
412.555	464.2
412.933	475.5
413.31	486.57
413.687	472.33
414.065	495.83
414.442	513.01
414.819	482.95
415.197	495.38
415.574	506.68
415.951	501.03
416.328	512.56
416.705	502.39
417.082	510.75
417.46	502.16
417.837	500.35
418.214	517.98
418.591	525.89
418.967	521.37
419.344	516.85
419.721	531.77
420.098	530.86
420.475	541.71
420.852	529.73
421.228	549.17
421.605	536.51
421.982	557.75
422.358	559.56
422.735	562.95
423.111	568.83
423.488	550.52
423.864	550.07
424.241	569.5
424.617	567.7
424.994	574.7
425.37	571.99
425.746	588.49
426.123	581.93
426.499	570.41
426.875	586.91
427.251	589.17
427.627	559.34
428.003	593.46
428.379	602.05
428.756	620.12
429.132	583.29
429.507	614.02
429.883	623.06
430.259	645.44
430.635	630.97
431.011	640.69
431.387	626.68
431.763	672.1
432.138	642.05
432.514	650.18
432.89	644.98
433.265	633.01
433.641	653.34
434.016	679.78
434.392	696.51
434.767	681.37
435.143	694.47
435.518	698.77
435.894	716.62
436.269	680.01
436.644	721.59
437.02	729.27
437.395	723.85
437.77	713
438.145	749.61
438.52	734.25
438.895	745.55
439.271	732.21
439.646	745.09
440.021	760.23
440.395	760.69
440.77	745.32
441.145	767.01
441.52	797.75
441.895	789.61
442.27	794.58
442.645	783.06
443.019	789.61
443.394	788.93
443.769	793.23
444.143	814.02
444.518	786
444.892	804.75
445.267	837.07
445.641	825.77
446.016	820.35
446.39	829.84
446.764	837.07
447.139	834.81
447.513	813.79
447.887	837.52
448.262	829.61
448.636	868.71
449.01	869.38
449.384	859.67
449.758	859.21
450.132	868.71
450.506	870.51
450.88	921.36
451.254	871.87
451.628	909.16
452.002	907.35
452.376	922.04
452.75	902.38
453.123	921.36
453.497	921.13
453.871	941.47
454.244	961.13
454.618	934.24
454.992	965.88
455.365	967.69
455.739	992.32
456.112	997.97
456.486	998.65
456.859	988.7
457.232	1020.34
457.606	1029.83
457.979	1055.37
458.352	1067.8
458.725	1069.83
459.099	1067.34
459.472	1091.07
459.845	1078.19
460.218	1094.69
460.591	1098.76
460.964	1120.9
461.337	1120.9
461.71	1154.8
462.083	1160.45
462.456	1155.25
462.829	1167.91
463.201	1190.96
463.574	1222.82
463.947	1214.23
464.32	1239.77
464.692	1268.02
465.065	1246.1
465.438	1254.46
465.81	1296.72
466.183	1259.88
466.555	1310.28
466.928	1304.17
467.3	1345.3
467.672	1381.91
468.045	1385.98
468.417	1381.46
468.789	1402.48
469.161	1391.86
469.534	1422.82
469.906	1444.06
470.278	1463.27
470.65	1487.9
471.022	1509.14
471.394	1531.51
471.766	1561.8
472.138	1587.11
472.51	1613.09
472.882	1599.08
473.253	1657.61
473.625	1686.54
473.997	1719.53
474.369	1715.01
474.74	1725.86
475.112	1790.49
475.484	1784.39
475.855	1810.83
476.227	1840.88
476.598	1930.37
476.97	1911.16
477.341	1975.57
477.713	1979.86
478.084	2017.15
478.455	2059.18
478.827	2075.45
479.198	2132.4
479.569	2156.36
479.94	2213.98
480.311	2232.96
480.682	2256.47
481.053	2320.19
481.424	2351.15
481.795	2385.73
482.166	2448.1
482.537	2518.83
482.908	2562.67
483.279	2566.29
483.65	2624.82
484.021	2678.83
484.391	2705.27
484.762	2740.3
485.133	2775.55
485.503	2807.64
485.874	2914.08
486.244	2923.57
486.615	3001.53
486.985	3017.58
487.356	3088.31
487.726	3135.77
488.097	3190.23
488.467	3206.05
488.837	3253.05
489.207	3326.04
489.578	3366.95
489.948	3449.43
490.318	3444.01
490.688	3460.73
491.058	3569.88
491.428	3590.22
491.798	3661.63
492.168	3738.69
492.538	3767.84
492.908	3832.02
493.278	3801.06
493.648	3918.34
494.017	3934.61
494.387	3969.87
494.757	4001.73
495.126	4074.05
495.496	4079.24
495.866	4120.15
496.235	4147.26
496.605	4167.38
496.974	4201.73
497.344	4264.55
497.713	4305.45
498.082	4330.54
498.452	4371.89
498.821	4418.67
499.19	4390.2
499.559	4474.26
499.928	4446.24
500.298	4494.6
500.667	4567.59
501.036	4559.91
501.405	4629.51
501.774	4643.52
502.143	4687.36
502.512	4680.36
502.88	4772.11
503.249	4767.13
503.618	4809.85
503.987	4788.15
504.356	4800.35
504.724	4857.75
505.093	4924.42
505.462	4893.23
505.83	4933.01
506.199	4987.92
506.567	5039.22
506.936	5010.74
507.304	5090.97
507.672	5102.49
508.041	5132.55
508.409	5150.18
508.777	5197.86
509.145	5204.19
509.514	5243.05
509.882	5234.24
510.25	5286.67
510.618	5304.97
510.986	5326.22
511.354	5369.6
511.722	5347.01
512.09	5447.79
512.458	5419.32
512.826	5451.18
513.193	5422.94
513.561	5479.43
513.929	5550.84
514.297	5616.83
514.664	5582.71
515.032	5643.72
515.4	5674
515.767	5678.97
516.135	5715.81
516.502	5682.14
516.869	5744.06
517.237	5725.75
517.604	5782.25
517.972	5814.34
518.339	5842.81
518.706	5837.61
519.073	5841.46
519.44	5931.4
519.808	5949.25
520.175	5918.06
520.542	6020.66
520.909	6065.18
521.276	6000.32
521.643	6053.2
522.009	6132.97
522.376	6172.52
522.743	6189.47
523.11	6267.66
523.477	6262.69
523.843	6316.7
524.21	6366.19
524.577	6379.97
524.943	6462.23
525.31	6398.5
525.676	6448.9
526.043	6445.28
526.409	6564.83
526.776	6579.97
527.142	6610.02
527.508	6579.29
527.874	6686.86
528.241	6672.62
528.607	6704.26
528.973	6776.57
529.339	6802.56
529.705	6770.92
530.071	6942.67
530.437	6855.44
530.803	6913.52
531.169	6982.9
531.535	7047.75
531.901	7026.06
532.267	7067.41
532.632	7079.84
532.998	7161.87
533.364	7157.58
533.73	7163.91
534.095	7187.41
534.461	7259.05
534.826	7340.4
535.192	7287.75
535.557	7332.26
535.923	7366.39
536.288	7427.4
536.653	7409.32
537.019	7425.6
537.384	7489.32
537.749	7501.07
538.114	7529.1
538.479	7573.61
538.845	7619.49
539.21	7594.4
539.575	7603.22
539.94	7695.19
540.305	7713.72
540.67	7750.33
541.034	7810.22
541.399	7835.53
541.764	7815.87
542.129	7919.14
542.494	7880.72
542.858	7931.8
543.223	7885.92
543.587	7999.37
543.952	8026.71
544.316	8101.51
544.681	8035.3
545.045	8096.09
545.41	8111.91
545.774	8214.05
546.138	8208.63
546.503	8243.65
546.867	8226.7
547.231	8337.21
547.595	8325.01
547.959	8320.04
548.324	8356.87
548.688	8385.12
549.052	8451.56
549.416	8490.88
549.779	8446.81
550.143	8492.46
550.507	8576.07
550.871	8547.83
551.235	8584.89
551.599	8653.13
551.962	8669.18
552.326	8672.34
552.689	8765.22
553.053	8741.72
553.417	8737.88
553.78	8875.95
554.143	8817.42
554.507	8864.2
554.87	8928.61
555.234	8950.08
555.597	8896.07
555.96	8953.69
556.323	9029.17
556.686	9041.15
557.05	9114.82
557.413	9027.81
557.776	9154.82
558.139	9216.28
558.502	9275.04
558.865	9203.18
559.228	9262.84
559.59	9258.32
559.953	9302.16
560.316	9482.04
560.679	9326.79
561.041	9381.25
561.404	9522.04
561.767	9575.82
562.129	9493.34
562.492	9557.97
562.854	9630.28
563.217	9678.19
563.579	9683.16
563.941	9708.93
564.304	9780.11
564.666	9797.28
565.028	9822.37
565.39	9818.53
565.753	9942.59
566.115	9890.62
566.477	9970.84
566.839	10083.83
567.201	10056.71
567.563	10069.37
567.925	10178.29
568.287	10087.45
568.648	10218.74
569.01	10236.14
569.372	10322.69
569.734	10261
570.095	10309.36
570.457	10418.06
570.819	10458.74
571.18	10430.94
571.542	10504.16
571.903	10484.27
572.265	10616.47
572.626	10681.1
572.987	10745.51
573.349	10752.29
573.71	10825.73
574.071	10833.64
574.432	10950.7
574.794	10998.84
575.155	10994.32
575.516	11043.35
575.877	11104.82
576.238	11149.57
576.599	11364.48
576.96	11345.72
577.32	11444.02
577.681	11500.97
578.042	11567.18
578.403	11688.31
578.763	11741.87
579.124	11908.42
579.485	11948.41
579.845	12139.14
580.206	12161.29
580.566	12201.52
580.927	12439.02
581.287	12540.49
581.648	12682.63
582.008	12867.03
582.368	12967.37
582.728	13074.94
583.089	13285.33
583.449	13393.12
583.809	13564.19
584.169	13735.03
584.529	13969.6
584.889	14160.11
585.249	14304.06
585.609	14434.45
585.969	14646.42
586.329	14869.47
586.688	15154.43
587.048	15354.65
587.408	15449.79
587.768	15725.26
588.127	15954.64
588.487	16238.25
588.846	16556.2
589.206	16766.14
589.565	16981.05
589.925	17288.61
590.284	17498.1
590.643	17771.76
591.003	18196.84
591.362	18450.62
591.721	18684.96
592.08	19005.63
592.44	19311.84
592.799	19531.04
593.158	19935.32
593.517	20200.85
593.876	20533.73
594.235	20718.58
594.593	21069.76
594.952	21434.04
595.311	21595.39
595.67	21975.95
596.029	22431.3
596.387	22801.46
596.746	23021.12
597.104	23384.5
597.463	23752.4
597.822	24034.88
598.18	24227.87
598.538	24537.91
598.897	24959.15
599.255	24988.07
599.613	25666.02
599.972	25899.69
600.33	26200.7
600.688	26406.57
601.046	26686.33
601.404	27241.35
601.762	27457.16
602.12	27978.95
602.478	28171.72
602.836	28518.15
603.194	28542.55
603.552	28993.16
603.91	29149.32
604.268	29581.4
604.625	29724.67
604.983	30132.12
605.341	30353.13
605.698	30707.02
606.056	31055.48
606.413	31196.04
606.771	31584.73
607.128	31879.42
607.485	31906.53
607.843	32332.29
608.2	32557.82
608.557	32863.57
608.914	33124.36
609.272	33541.52
609.629	33780.61
609.986	34009.53
610.343	33964.11
610.7	34523.19
611.057	34681.15
611.414	34734.26
611.771	34984.19
612.127	35285.2
612.484	35397.29
612.841	35775.58
613.198	35772.42
613.554	35981.68
613.911	36382.8
614.267	36557.71
614.624	36615.11
614.98	36853.3
615.337	37251.03
615.693	37338.26
616.05	37479.72
616.406	37861.41
616.762	37845.59
617.118	37887.62
617.475	38066.82
617.831	38264.56
618.187	38428.4
618.543	38729.41
618.899	39040.81
619.255	38910.19
619.611	39123.07
619.967	39339.33
620.323	39524.41
620.678	39565.99
621.034	39664.07
621.39	39650.51
621.746	39728.93
622.101	40284.84
622.457	39960.79
622.812	40225.86
623.168	40436.93
623.523	40493.88
623.879	40887.09
624.234	40535.69
624.589	40718.28
624.945	40901.78
625.3	41065.84
625.655	41046.63
626.01	41101.09
626.365	41336.79
626.72	41252.95
627.075	41400.07
627.43	41474.19
627.785	41296.8
628.14	41631.02
628.495	41596.67
628.85	41639.39
629.205	41629.22
629.559	41819.72
629.914	41727.97
630.269	41811.13
630.623	41956.21
630.978	41869.44
631.332	42026.72
631.687	42174.29
632.041	41939.04
632.396	42146.94
632.75	42031.69
633.104	42174.29
633.459	41851.36
633.813	42178.81
634.167	42158.69
634.521	42104.46
634.875	42171.35
635.229	42177
635.583	42019.26
635.937	42054.97
636.291	42008.87
636.645	42108.75
636.999	42022.43
637.352	42296.09
637.706	42035.08
638.06	42362.08
638.413	42159.82
638.767	42101.07
639.121	42182.87
639.474	41968.42
639.828	42148.07
640.181	42048.64
640.534	42159.15
640.888	42009.09
641.241	41897.23
641.594	41992.82
641.947	41994.63
642.301	42040.96
642.654	42071.92
643.007	42079.6
643.36	42049.77
643.713	42010.9
644.066	42137.23
644.419	41964.57
644.771	41716.45
645.124	41343.35
645.477	41322.33
645.83	41071.72
646.182	40874.66
646.535	40947.2
646.888	41006.63
647.24	40743.14
647.593	41069.68
647.945	40893.87
648.298	40738.39
648.65	40646.87
649.002	40648
649.355	40925.05
649.707	40724.83
650.059	40831.05
650.411	41359.39
650.763	41428.09
651.115	41688.2
651.467	41565.94
651.819	41588.31
652.171	41591.93
652.523	41541.31
652.875	41468.99
653.227	41324.59
653.578	41658.82
653.93	41479.62
654.282	41537.47
654.633	41438.49
654.985	41386.96
655.337	41578.14
655.688	41453.18
656.039	41638.93
656.391	41313.52
656.742	41463.34
657.094	41417.7
657.445	41565.71
657.796	41422.22
658.147	41331.82
658.498	41361.2
658.849	41479.84
659.2	41339.05
659.551	41263.8
659.902	41365.27
660.253	41245.27
660.604	41324.14
660.955	41093.86
661.306	41451.59
661.656	41362.33
662.007	41359.84
662.358	41245.72
662.708	41306.51
663.059	41319.62
663.409	41064.03
663.76	41280.07
664.11	41350.13
664.461	41390.35
664.811	41324.37
665.161	41292.5
665.511	41199.85
665.862	41366.17
666.212	41261.54
666.562	41282.78
666.912	41087.76
667.262	41237.14
667.612	41216.35
667.962	41218.15
668.312	41058.16
668.662	41314.87
669.011	41123.24
669.361	41059.97
669.711	41057.71
670.06	40962.79
670.41	41052.28
670.76	40909.24
671.109	41151.49
671.459	40978.61
671.808	41003.92
672.157	41153.75
672.507	40845.96
672.856	40863.81
673.205	41014.32
673.554	41017.93
673.904	40962.34
674.253	41201.88
674.602	40970.25
674.951	40395.8
675.3	40332.98
675.649	40887.77
675.998	40784.49
676.346	40729.35
676.695	41001.44
677.044	40653.87
677.393	40786.3
677.741	40874.43
678.09	40683.7
678.438	40579.98
678.787	40584.5
679.135	40548.57
679.484	40311.06
679.832	40598.28
680.181	40241.91
680.529	40477.61
680.877	40414.11
681.225	40325.97
681.573	40578.85
681.922	40219.54
682.27	40210.72
682.618	40266.31
682.966	40122.59
683.314	40270.83
683.661	40038.3
684.009	39875.14
684.357	39863.16
684.705	39693.9
685.053	39820
685.4	39712.88
685.748	39622.94
686.095	39736.61
686.443	39505.66
686.79	39293.01
687.138	39578.2
687.485	39493.91
687.832	39217.3
688.18	39225.89
688.527	39145.44
688.874	39081.03
689.221	39049.4
689.568	38874.26
689.915	38875.39
690.262	38840.81
690.609	38859.35
690.956	38550.43
691.303	38528.51
691.65	38487.83
691.997	38546.36
692.344	38224.11
692.69	38312.24
693.037	38291.22
693.383	37884.68
693.73	38089.65
694.077	37761.07
694.423	37898.24
694.769	37661.18
695.116	37658.7
695.462	37642.2
695.808	37330.8
696.155	37586.84
696.501	37230.46
696.847	37242.66
697.193	36890.36
697.539	37137.13
697.885	36919.06
698.231	36834.31
698.577	36773.75
698.923	36722.23
699.269	36553.19
699.614	36372.41
699.96	36383.93
700.306	36541.67
700.651	36235.69
700.997	36192.97
701.342	36153.88
701.688	36070.04
702.033	35814.68
702.379	35943.94
702.724	35723.16
703.069	35781.01
703.415	35450.85
703.76	35547.57
704.105	35566.1
704.45	35286.78
704.795	35141.25
705.14	35069.61
705.485	35050.86
705.83	34757.08
706.175	34990.75
706.52	34767.25
706.865	34793.24
707.209	34643.64
707.554	34520.93
707.899	34708.95
708.243	34399.35
708.588	34479.8
708.932	34134.27
709.277	34174.72
709.621	34239.58
709.966	33899.02
710.31	34090.66
710.654	33795.52
710.998	33961.17
711.342	33753.94
711.687	33738.12
712.031	33604.12
712.375	33535.87
712.719	33563.67
713.063	33490.67
713.407	33538.58
713.75	33410.45
714.094	33349.43
714.438	33257.46
714.782	33182.43
715.125	33122.32
715.469	33173.62
715.812	32967.52
716.156	32849.79
716.499	32879.84
716.843	32829.45
717.186	32644.82
717.53	32879.39
717.873	32852.95
718.216	32708.09
718.559	32490.7
718.902	32209.35
719.246	32255
719.589	32309.24
719.932	32216.36
720.275	32140.65
720.617	32081.9
720.96	32210.25
721.303	32086.87
721.646	32116.92
721.989	31929.13
722.331	31950.6
722.674	31849.81
723.016	31878.74
723.359	31749.02
723.701	31704.05
724.044	31606.88
724.386	31538.86
724.729	31630.16
725.071	31580.21
725.413	31549.48
725.755	31412.08
726.097	31202.82
726.439	31228.59
726.782	31231.52
727.124	31394.68
727.465	31112.2
727.807	31027.01
728.149	31092.54
728.491	30842.83
728.833	30987.69
729.175	30921.93
729.516	30892.32
729.858	30861.36
730.199	30861.14
730.541	30680.58
730.882	30790.63
731.224	30816.62
731.565	30503.41
731.906	30617.08
732.248	30672.44
732.589	30418.21
732.93	30337.54
733.271	30333.92
733.612	30402.84
733.953	30398.78
734.294	30317.65
734.635	30072.23
734.976	30217.31
735.317	30107.03
735.658	30182.96
735.999	30176.86
736.339	29992.91
736.68	29996.75
737.021	30093.47
737.361	29819.58
737.702	29980.03
738.042	29871.56
738.383	29690.32
738.723	29839.92
739.063	29728.96
739.404	29880.37
739.744	29753.82
740.084	29548.4
740.424	29592.24
740.764	29579.36
741.104	29730.32
741.444	29531.23
741.784	29414.4
742.124	29427.28
742.464	29373.04
742.804	29361.52
743.143	29333.49
743.483	29216.21
743.823	29084.69
744.162	29103.9
744.502	29051.69
744.841	29143.89
745.181	29232.71
745.52	29044.24
745.86	28990
746.199	28969.66
746.538	29013.73
746.877	28912.04
747.216	29031.81
747.556	28904.8
747.895	28780.51
748.234	28849.89
748.573	28700.52
748.911	28719.27
749.25	28641.99
749.589	28466.85
749.928	28524.48
750.267	28626.62
750.605	28462.78
750.944	28496.45
751.283	28345.72
751.621	28388.89
751.96	28209.46
752.298	28192.73
752.636	28180.53
752.975	28049.23
753.313	28110.7
753.651	28159.29
753.989	27850.37
754.327	27878.84
754.666	27837.26
755.004	27854.66
755.342	27851.5
755.679	27806.98
756.017	27755.23
756.355	27771.73
756.693	27613.77
757.031	27550.49
757.368	27421.68
757.706	27409.93
758.044	27288.35
758.381	27367.9
758.719	27209.03
759.056	27115.47
759.394	27207
759.731	27002.48
760.068	27015.36
