Data from hue_20_FLMS001491_45.txt Node
Date: Mon Feb 06 15:34:11 GMT 2017
User: dcchb
Spectrometer: FLMS00149
Trigger mode: 0
Integration Time (sec): 2.000000E-2
Scans to average: 10
Electric dark correction enabled: true
Nonlinearity correction enabled: false
Boxcar width: 0
XAxis mode: Wavelengths
Number of Pixels in Spectrum: 2048
>>>>>Begin Spectral Data<<<<<
341.393	-7.74
341.776	-7.74
342.16	-7.74
342.543	-62.43
342.927	-57.23
343.31	-62.65
343.693	-75.31
344.077	-59.04
344.46	-59.04
344.843	-39.15
345.226	-38.02
345.61	-16.55
345.993	-36.44
346.376	-6.16
346.759	-0.51
347.142	37
347.525	22.09
347.908	63.9
348.291	85.82
348.674	81.75
349.057	102.31
349.44	122.43
349.823	140.5
350.206	160.84
350.588	202.42
350.971	225.7
351.354	235.64
351.737	231.35
352.119	264.8
352.502	242.87
352.884	287.62
353.267	287.17
353.65	308.64
354.032	297.56
354.414	308.41
354.797	329.88
355.179	299.6
355.562	328.07
355.944	328.52
356.326	329.88
356.709	350.89
357.091	320.16
357.473	345.02
357.855	334.17
358.238	342.31
358.62	355.19
359.002	361.74
359.384	365.58
359.766	353.83
360.148	349.54
360.53	343.89
360.912	354.96
361.294	338.92
361.676	332.14
362.057	326.26
362.439	339.14
362.821	315.64
363.203	321.52
363.584	328.97
363.966	341.63
364.348	342.76
364.729	338.24
365.111	324.45
365.493	325.36
365.874	319.03
366.256	328.75
366.637	330.1
367.019	309.09
367.4	325.13
367.781	337.56
368.163	324.23
368.544	302.53
368.925	320.16
369.306	319.94
369.688	330.78
370.069	316.55
370.45	301.86
370.831	327.62
371.212	325.81
371.593	309.99
371.974	323.55
372.355	312.7
372.736	316.09
373.117	318.58
373.498	329.65
373.879	329.43
374.26	336.66
374.641	322.65
375.021	331.69
375.402	340.05
375.783	317.9
376.163	335.3
376.544	319.94
376.925	316.55
377.305	340.27
377.686	338.92
378.066	312.7
378.447	332.36
378.827	337.34
379.208	325.58
379.588	340.73
379.968	334.62
380.349	356.32
380.729	346.83
381.109	346.15
381.489	333.27
381.87	334.85
382.25	341.18
382.63	351.35
383.01	336.21
383.39	363.1
383.77	346.6
384.15	363.78
384.53	349.09
384.91	372.36
385.29	349.09
385.67	366.71
386.049	370.33
386.429	365.13
386.809	358.8
387.189	365.13
387.568	357.9
387.948	347.96
388.328	368.07
388.707	359.93
389.087	387.28
389.466	372.82
389.846	356.32
390.225	373.72
390.605	382.08
390.984	363.55
391.363	390.22
391.743	392.25
392.122	401.29
392.501	385.24
392.881	402.42
393.26	376.2
393.639	412.14
394.018	386.15
394.397	395.87
394.776	387.28
395.155	391.35
395.534	398.58
395.913	393.83
396.292	411.46
396.671	408.07
397.05	395.87
397.429	397
397.808	407.62
398.186	416.88
398.565	405.58
398.944	385.02
399.323	400.61
399.701	406.71
400.08	399.48
400.458	406.71
400.837	434.06
401.215	422.98
401.594	423.44
401.972	440.16
402.351	430.89
402.729	429.76
403.107	426.82
403.486	446.94
403.864	424.11
404.242	427.95
404.62	438.35
404.999	439.03
405.377	442.42
405.755	435.41
406.133	418.69
406.511	470.89
406.889	436.77
407.267	468.86
407.645	449.42
408.023	441.97
408.401	467.05
408.779	459.14
409.156	465.92
409.534	451.23
409.912	463.43
410.29	462.3
410.667	463.21
411.045	475.64
411.422	493.94
411.8	485.35
412.178	529.2
412.555	496.65
412.933	493.26
413.31	477.45
413.687	481.51
414.065	497.11
414.442	498.24
414.819	504.56
415.197	495.07
415.574	515.86
415.951	510.21
416.328	516.09
416.705	511.79
417.082	501.63
417.46	525.35
417.837	540.72
418.214	552.7
418.591	545.69
418.967	516.09
419.344	548.86
419.721	561.96
420.098	547.05
420.475	566.71
420.852	560.15
421.228	559.02
421.605	577.1
421.982	552.25
422.358	575.3
422.735	580.95
423.111	567.84
423.488	562.64
423.864	575.52
424.241	582.08
424.617	576.65
424.994	611.68
425.37	604
425.746	599.7
426.123	601.28
426.499	623.43
426.875	623.43
427.251	611.9
427.627	630.89
428.003	634.28
428.379	648.51
428.756	626.82
429.132	616.2
429.507	667.95
429.883	665.01
430.259	645.35
430.635	651.45
431.011	658.91
431.387	678.8
431.763	692.13
432.138	680.38
432.514	692.81
432.89	684.9
433.265	730.09
433.641	738.91
434.016	694.84
434.392	719.7
434.767	719.7
435.143	751.11
435.518	747.95
435.894	783.65
436.269	752.69
436.644	760.38
437.02	740.49
437.395	777.55
437.77	787.95
438.145	792.24
438.52	787.72
438.895	792.69
439.271	836.08
439.646	817.32
440.021	806.02
440.395	829.3
440.77	786.59
441.145	831.33
441.52	834.05
441.895	830.43
442.27	833.14
442.645	848.51
443.019	845.12
443.394	859.13
443.769	850.54
444.143	853.25
444.518	873.59
444.892	860.94
445.267	874.95
445.641	895.97
446.016	868.4
446.39	911.56
446.764	894.38
447.139	925.12
447.513	905.91
447.887	886.25
448.262	930.99
448.636	938.9
449.01	946.59
449.384	937.55
449.758	934.16
450.132	976.42
450.506	935.74
450.88	987.71
451.254	951.78
451.628	960.82
452.002	992.01
452.376	985
452.75	983.65
453.123	1008.96
453.497	1035.62
453.871	1018.67
454.244	1027.26
454.618	1041.95
454.992	1059.35
455.365	1047.6
455.739	1084.21
456.112	1092.57
456.486	1074.49
456.859	1089.41
457.232	1114.49
457.606	1147.94
457.979	1155.62
458.352	1145.45
458.725	1157.65
459.099	1155.17
459.472	1194.94
459.845	1194.04
460.218	1206.69
460.591	1196.75
460.964	1213.02
461.337	1272.23
461.71	1267.48
462.083	1291.66
462.456	1249.18
462.829	1292.79
463.201	1338.89
463.574	1301.83
463.947	1332.34
464.32	1378.44
464.692	1410.08
465.065	1387.93
465.438	1387.93
465.81	1410.08
466.183	1406.46
466.555	1471.09
466.928	1460.24
467.3	1456.4
467.672	1485.55
468.045	1522.62
468.417	1543.18
468.789	1547.25
469.161	1541.37
469.534	1551.32
469.906	1622.05
470.278	1609.17
470.65	1624.53
471.022	1664.76
471.394	1692.1
471.766	1709.73
472.138	1739.11
472.51	1762.16
472.882	1796.96
473.253	1827.47
473.625	1817.07
473.997	1884.41
474.369	1853.23
474.74	1899.78
475.112	1947.24
475.484	1975.48
475.855	1987.01
476.227	2038.99
476.598	2114.01
476.97	2111.53
477.341	2163.5
477.713	2203.95
478.084	2232.2
478.455	2227
478.827	2287.57
479.198	2342.03
479.569	2349.71
479.94	2472.19
480.311	2442.82
480.682	2510.84
481.053	2570.95
481.424	2624.51
481.795	2624.06
482.166	2690.04
482.537	2715.58
482.908	2790.6
483.279	2803.26
483.65	2898.4
484.021	2952.41
484.391	2975.46
484.762	3001.9
485.133	3043.93
485.503	3119.41
485.874	3165.74
486.244	3191.95
486.615	3223.81
486.985	3281.44
487.356	3353.75
487.726	3389.23
488.097	3465.16
488.467	3469.91
488.837	3617.02
489.207	3610.7
489.578	3693.18
489.948	3678.04
490.318	3784.25
490.688	3799.17
491.058	3864.7
491.428	3911.25
491.798	3927.52
492.168	4036.22
492.538	4075.09
492.908	4098.14
493.278	4193.28
493.648	4183.79
494.017	4265.14
494.387	4316.67
494.757	4318.7
495.126	4347.63
495.496	4354.86
495.866	4420.84
496.235	4476.21
496.605	4496.77
496.974	4570.9
497.344	4617
497.713	4637.79
498.082	4668.07
498.452	4670.33
498.821	4722.08
499.19	4718.24
499.559	4860.15
499.928	4857.44
500.298	4866.26
500.667	4934.5
501.036	4940.38
501.405	4980.15
501.774	5031.68
502.143	5091.79
502.512	5044.56
502.88	5105.8
503.249	5103.54
503.618	5194.38
503.987	5113.26
504.356	5203.42
504.724	5259.24
505.093	5250.65
505.462	5263.99
505.83	5327.04
506.199	5370.42
506.567	5402.97
506.936	5388.73
507.304	5474.38
507.672	5481.16
508.041	5476.86
508.409	5563.19
508.777	5582.17
509.145	5654.03
509.514	5650.19
509.882	5690.42
510.25	5652.9
510.618	5723.63
510.986	5740.13
511.354	5813.35
511.722	5798.21
512.09	5827.13
512.458	5884.31
512.826	5860.58
513.193	5892.44
513.561	5982.84
513.929	5952.1
514.297	6033.01
514.664	6052.21
515.032	6057.19
515.4	6121.14
515.767	6080.01
516.135	6164.53
516.502	6074.81
516.869	6199.1
517.237	6258.54
517.604	6184.19
517.972	6271.87
518.339	6261.47
518.706	6329.27
519.073	6352.09
519.44	6351.64
519.808	6408.14
520.175	6417.4
520.542	6494.91
520.909	6550.96
521.276	6557.51
521.643	6612.43
522.009	6658.3
522.376	6745.75
522.743	6733.33
523.11	6792.53
523.477	6846.09
523.843	6847.67
524.21	6843.61
524.577	6898.29
524.943	6901.91
525.31	6980.32
525.676	7026.43
526.043	7084.73
526.409	7128.34
526.776	7165.18
527.142	7159.53
527.508	7239.98
527.874	7272.52
528.241	7309.13
528.607	7327.43
528.973	7341.45
529.339	7398.39
529.705	7444.95
530.071	7597.94
530.437	7527.43
530.803	7612.85
531.169	7624.83
531.535	7670.93
531.901	7724.71
532.267	7683.58
532.632	7755.22
532.998	7794.31
533.364	7833.86
533.73	7843.81
534.095	7985.72
534.461	7963.12
534.826	8002.22
535.192	8032.73
535.557	8078.6
535.923	8077.02
536.288	8046.96
536.653	8154.76
537.019	8164.25
537.384	8224.36
537.749	8243.12
538.114	8242.44
538.479	8266.39
538.845	8267.75
539.21	8345.94
539.575	8364.92
539.94	8425.03
540.305	8484.92
540.67	8483.34
541.034	8458.25
541.399	8566.95
541.764	8618.7
542.129	8622.54
542.494	8671.58
542.858	8699.83
543.223	8766.94
543.587	8806.94
543.952	8779.83
544.316	8805.14
544.681	8780.73
545.045	8900.27
545.41	8950.67
545.774	8963.32
546.138	9016.88
546.503	8987.5
546.867	8959.26
547.231	9059.82
547.595	9120.38
547.959	9124.9
548.324	9112.92
548.688	9221.62
549.052	9206.93
549.416	9283.77
549.779	9279.7
550.143	9203.77
550.507	9375.52
550.871	9398.57
551.235	9405.8
551.599	9418.45
551.962	9514.04
552.326	9433.37
552.689	9578.67
553.053	9487.15
553.417	9474.72
553.78	9661.38
554.143	9666.81
554.507	9684.21
554.87	9742.29
555.234	9794.26
555.597	9761.72
555.96	9774.6
556.323	9871.77
556.686	9903.64
557.05	9905.67
557.413	9946.57
557.776	9934.6
558.139	10038.78
558.502	10105.67
558.865	10089.85
559.228	10190.18
559.59	10198.77
559.953	10222.95
560.316	10333.01
560.679	10274.02
561.041	10336.85
561.404	10391.53
561.767	10442.38
562.129	10436.73
562.492	10467.01
562.854	10567.12
563.217	10533.23
563.579	10609.38
563.941	10586.78
564.304	10642.83
564.666	10786.33
565.028	10786.33
565.39	10795.14
565.753	10832.2
566.115	10825.42
566.477	10892.54
566.839	10965.08
567.201	11000.11
567.563	11048.92
567.925	11046.88
568.287	11044.4
568.648	11182.02
569.01	11218.86
569.372	11282.81
569.734	11260.66
570.095	11316.93
570.457	11402.81
570.819	11429.47
571.18	11473.09
571.542	11532.52
571.903	11556.25
572.265	11547.66
572.626	11699.52
572.987	11675.57
573.349	11705.62
573.71	11838.73
574.071	11858.61
574.432	11963.02
574.794	11989.91
575.155	11959.86
575.516	12013.41
575.877	12073.52
576.238	12159.4
576.599	12295.67
576.96	12351.71
577.32	12408.66
577.681	12493.4
578.042	12566.17
578.403	12622.89
578.763	12699.72
579.124	12852.94
579.485	12973.39
579.845	13055.87
580.206	13107.62
580.566	13234.85
580.927	13316.43
581.287	13507.84
581.648	13574.95
582.008	13676.19
582.368	13873.48
582.728	14028.5
583.089	14188.72
583.449	14330.41
583.809	14526.79
584.169	14671.65
584.529	14746.67
584.889	15017.4
585.249	15107.79
585.609	15293.1
585.969	15642.92
586.329	15678.85
586.688	15897.83
587.048	16059.63
587.408	16389.12
587.768	16524.48
588.127	16762.44
588.487	16955.88
588.846	17288.98
589.206	17430.45
589.565	17707.5
589.925	18123.53
590.284	18271.78
590.643	18620.02
591.003	18757.64
591.362	19141.36
591.721	19326.89
592.08	19668.58
592.44	19899.31
592.799	20197.83
593.158	20610.25
593.517	20958.71
593.876	21163
594.235	21501.3
594.593	21588.75
594.952	22097.22
595.311	22270.54
595.67	22686.8
596.029	23100.13
596.387	23345.54
596.746	23756.61
597.104	23923.61
597.463	24235.01
597.822	24801.55
598.18	24854.88
598.538	25168.77
598.897	25580.51
599.255	25735.54
599.613	26340.72
599.972	26540.71
600.33	26882.17
600.688	27095.95
601.046	27500.24
601.404	27925.31
601.762	28155.59
602.12	28478.74
602.478	28865.4
602.836	29107.65
603.194	29156.92
603.552	29610.01
603.91	29785.15
604.268	30127.51
604.625	30492.93
604.983	30739.7
605.341	31023.99
605.698	31235.05
606.056	31642.5
606.413	31900.8
606.771	32334.01
607.128	32583.95
607.485	32641.57
607.843	32939.64
608.2	33509.34
608.557	33761.99
608.914	33860.52
609.272	34097.8
609.629	34533.72
609.986	34743.66
610.343	34825.92
610.7	35295.29
611.057	35447.6
611.414	35590.42
611.771	35910.64
612.127	36291.87
612.484	36378.65
612.841	36777.51
613.198	36715.36
613.554	36897.28
613.911	37273.09
614.267	37478.51
614.624	37522.57
614.98	37728.89
615.337	38085.04
615.693	38207.53
616.05	38392.61
616.406	38839.37
616.762	38680.96
617.118	38874.63
617.475	39057
617.831	39309.42
618.187	39499.24
618.543	39665.57
618.899	40009.29
619.255	40038.21
619.611	40166.12
619.967	40374.25
620.323	40660.8
620.678	40633.23
621.034	40673.9
621.39	40831.86
621.746	40769.94
622.101	41395.01
622.457	41039.32
622.812	41280.21
623.168	41445.86
623.523	41644.5
623.879	41781.44
624.234	41604.5
624.589	41979.4
624.945	42120.87
625.3	42056.24
625.655	42224.37
626.01	42302.79
626.365	42378.04
626.72	42461.65
627.075	42512.72
627.43	42607.64
627.785	42581.42
628.14	42676.34
628.495	42723.79
628.85	42932.37
629.205	42740.51
629.559	43074.52
629.914	43025.7
630.269	43140.28
630.623	42958.14
630.978	42983.67
631.332	43273.61
631.687	43264.57
632.041	43118.58
632.396	43199.03
632.75	43142.99
633.104	43248.98
633.459	43033.61
633.813	43151.8
634.167	43162.42
634.521	43183.67
634.875	43350.67
635.229	43312.48
635.583	43130.79
635.937	43230.67
636.291	43247.85
636.645	43159.49
636.999	43180.05
637.352	43384.79
637.706	43035.65
638.06	43516.99
638.413	43211.91
638.767	43139.83
639.121	43348.63
639.474	43062.54
639.828	43129.2
640.181	43330.1
640.534	43255.98
640.888	43228.64
641.241	43026.83
641.594	43150.45
641.947	43183.44
642.301	43156.55
642.654	43189.09
643.007	43103.67
643.36	42994.29
643.713	43072.26
644.066	43291.69
644.419	42986.38
644.771	42807.63
645.124	42335.33
645.477	42409
645.83	42213.52
646.182	41932.85
646.535	41942.34
646.888	41988.44
647.24	41736.25
647.593	41949.57
647.945	41891.5
648.298	41687.21
648.65	41745.51
649.002	41571.51
649.355	41792.74
649.707	41745.51
650.059	41959.29
650.411	42406.96
650.763	42445.38
651.115	42860.51
651.467	42810.12
651.819	42741.64
652.171	42675.88
652.523	42609.9
652.875	42744.36
653.227	42439.96
653.578	42713.4
653.93	42738.71
654.282	42556.56
654.633	42530.12
654.985	42460.07
655.337	42587.98
655.688	42533.06
656.039	42713.4
656.391	42271.83
656.742	42364.25
657.094	42432.27
657.445	42402.67
657.796	42404.03
658.147	42310.02
658.498	42359.96
658.849	42358.38
659.2	42364.25
659.551	42295.78
659.902	42527.19
660.253	42275.22
660.604	42417.13
660.955	42131.49
661.306	42344.37
661.656	42311.6
662.007	42344.82
662.358	42225.73
662.708	42284.93
663.059	42203.13
663.409	42093.75
663.76	42254.2
664.11	42207.2
664.461	42281.32
664.811	42217.36
665.161	42256.91
665.511	42089.46
665.862	42236.12
666.212	42250.13
666.562	42291.94
666.912	42026.18
667.262	42138.72
667.612	42058.5
667.962	42085.84
668.312	42133.98
668.662	42125.39
669.011	42044.26
669.361	42006.97
669.711	42108.44
670.06	42044.49
670.41	41898.73
670.76	41896.24
671.109	42031.61
671.459	41990.03
671.808	41993.64
672.157	41991.83
672.507	41830.26
672.856	41910.93
673.205	41922.01
673.554	42011.49
673.904	41812.86
674.253	42046.07
674.602	41918.84
674.951	41328.57
675.3	41100.33
675.649	41942.12
675.998	41766.53
676.346	41662.8
676.695	41974.21
677.044	41677.72
677.393	41598.85
677.741	41668
678.09	41560.88
678.438	41338.52
678.787	41451.06
679.135	41522.69
679.484	41287.45
679.832	41333.32
680.181	41254.45
680.529	41333.77
680.877	41249.48
681.225	41126.32
681.573	41485.18
681.922	41057.4
682.27	41082.03
682.618	41078.64
682.966	40943.05
683.314	41042.03
683.661	40928.81
684.009	40727.91
684.357	40720
684.705	40773.56
685.053	40568.82
685.4	40703.51
685.748	40388.03
686.095	40491.76
686.443	40414.02
686.79	40273.69
687.138	40313.69
687.485	40364.08
687.832	40210.41
688.18	40242.95
688.527	39913.92
688.874	40086.57
689.221	39950.76
689.568	39759.12
689.915	39685.91
690.262	39734.49
690.609	39576.08
690.956	39377.44
691.303	39438.91
691.65	39390.77
691.997	39229.65
692.344	39069.2
692.69	38879.15
693.037	38950.33
693.383	38707.4
693.73	38903.33
694.077	38748.3
694.423	38599.38
694.769	38526.61
695.116	38399.39
695.462	38384.24
695.808	38331.59
696.155	38306.05
696.501	38051.6
696.847	38089.34
697.193	37758.5
697.539	37920.75
697.885	37730.02
698.231	37527.77
698.577	37513.08
698.923	37459.07
699.269	37352.41
699.614	37220.89
699.96	37117.84
700.306	37046.88
700.651	36950.16
700.997	36847.79
701.342	36722.14
701.688	36942.93
702.033	36580.9
702.379	36643.5
702.724	36540.68
703.069	36468.36
703.415	36182.95
703.76	36165.32
704.105	36119.9
704.45	36127.13
704.795	35925.33
705.14	35794.71
705.485	35889.4
705.83	35643.75
706.175	35742.05
706.52	35553.36
706.865	35432.46
707.209	35421.84
707.554	35340.71
707.899	35342.97
708.243	35200.15
708.588	35003.32
708.932	34867.28
709.277	34946.14
709.621	34960.83
709.966	34782.53
710.31	34796.09
710.654	34497.34
710.998	34491.01
711.342	34556.77
711.687	34399.27
712.031	34242.21
712.375	34162.44
712.719	34201.53
713.063	34194.07
713.407	34232.49
713.75	34055.55
714.094	34023.91
714.438	33923.12
714.782	33939.84
715.125	33738.27
715.469	33730.36
715.812	33561.55
716.156	33575.11
716.499	33481.1
716.843	33426.18
717.186	33391.83
717.53	33430.02
717.873	33538.27
718.216	33256.02
718.559	33212.86
718.902	33006.08
719.246	33108
719.589	32822.58
719.932	32941.45
720.275	32867.33
720.617	32837.05
720.96	32667.33
721.303	32776.26
721.646	32780.55
721.989	32516.6
722.331	32594.57
722.674	32424.63
723.016	32452.42
723.359	32482.48
723.701	32353.22
724.044	32212.88
724.386	32064.19
724.729	32164.07
725.071	32046.33
725.413	32110.51
725.755	31965.2
726.097	31984.19
726.439	31788.03
726.782	31763.63
727.124	32031.19
727.465	31663.07
727.807	31750.97
728.149	31597.53
728.491	31506.91
728.833	31562.96
729.175	31532.45
729.516	31360.47
729.858	31374.26
730.199	31404.77
730.541	31374.26
730.882	31427.14
731.224	31407.25
731.565	31216.52
731.906	31234.38
732.248	31273.7
732.589	30983.54
732.93	30801.39
733.271	31068.28
733.612	30993.93
733.953	31020.6
734.294	30940.37
734.635	30726.14
734.976	30887.72
735.317	30783.09
735.658	30681.17
735.999	30619.7
736.339	30511.46
736.68	30589.2
737.021	30599.14
737.361	30336.77
737.702	30481.85
738.042	30459.26
738.383	30384.46
738.723	30304.68
739.063	30275.08
739.404	30343.55
739.744	30281.18
740.084	30127.06
740.424	30191.92
740.764	30019.04
741.104	30248.41
741.444	30000.28
741.784	29917.12
742.124	29885.71
742.464	29838.03
742.804	29837.13
743.143	29634.42
743.483	29874.64
743.823	29489.11
744.162	29626.74
744.502	29588.77
744.841	29603.23
745.181	29699.5
745.52	29485.27
745.86	29588.32
746.199	29451.15
746.538	29591.03
746.877	29442.33
747.216	29530.69
747.556	29292.73
747.895	29335.67
748.234	29152.85
748.573	29056.81
748.911	29163.7
749.25	29096.58
749.589	28938.84
749.928	28988.79
750.267	29094.09
750.605	28855
750.944	28778.17
751.283	28712.18
751.621	28861.78
751.96	28677.16
752.298	28599.87
752.636	28601.45
752.975	28507.89
753.313	28331.63
753.651	28528.46
753.989	28318.52
754.327	28256.15
754.666	28231.74
755.004	28164.85
755.342	28220.44
755.679	28150.84
756.017	28046.44
756.355	28025.87
756.693	28014.12
757.031	27917.63
757.368	27872.88
757.706	27820.23
758.044	27791.3
758.381	27789.27
758.719	27626.11
759.056	27687.13
759.394	27552.21
759.731	27323.97
