Data from hue_150_FLMS001491_00003.txt Node
Date: Tue Feb 07 16:53:33 GMT 2017
User: dcchb
Spectrometer: FLMS00149
Trigger mode: 0
Integration Time (sec): 2.000000E-2
Scans to average: 10
Electric dark correction enabled: true
Nonlinearity correction enabled: false
Boxcar width: 0
XAxis mode: Wavelengths
Number of Pixels in Spectrum: 2048
>>>>>Begin Spectral Data<<<<<
341.393	0.04
341.776	0.04
342.16	0.04
342.543	-60.97
342.927	-46.06
343.31	-68.43
343.693	-63.91
344.077	-62.78
344.46	-60.3
344.843	-37.47
345.226	-57.13
345.61	-44.25
345.993	-16
346.376	-14.65
346.759	13.6
347.142	21.06
347.525	52.47
347.908	57.89
348.291	75.97
348.674	100.83
349.057	103.09
349.44	137.44
349.823	142.41
350.206	143.54
350.588	208.62
350.971	203.88
351.354	214.27
351.737	233.93
352.119	252.47
352.502	279.81
352.884	287.49
353.267	282.29
353.65	277.78
354.032	294.5
354.414	318.45
354.797	316.87
355.179	302.41
355.562	324.55
355.944	353.71
356.326	337.66
356.709	355.06
357.091	343.08
357.473	326.81
357.855	336.3
358.238	337.66
358.62	351.9
359.002	367.26
359.384	348.06
359.766	344.67
360.148	358
360.53	351.9
360.912	334.95
361.294	349.64
361.676	327.27
362.057	343.76
362.439	341.05
362.821	347.15
363.203	327.94
363.584	324.33
363.966	339.24
364.348	313.93
364.729	329.07
365.111	326.59
365.493	336.08
365.874	324.1
366.256	331.56
366.637	329.98
367.019	319.81
367.4	317.55
367.781	341.73
368.163	333.59
368.544	322.52
368.925	329.3
369.306	341.5
369.688	341.95
370.069	309.41
370.45	325.23
370.831	332.69
371.212	325.46
371.593	325.46
371.974	321.84
372.355	307.6
372.736	320.94
373.117	331.56
373.498	307.38
373.879	320.03
374.26	317.32
374.641	327.72
375.021	311.67
375.402	326.59
375.783	326.36
376.163	320.94
376.544	347.38
376.925	330.88
377.305	343.76
377.686	349.64
378.066	324.55
378.447	344.89
378.827	324.55
379.208	334.72
379.588	345.12
379.968	342.86
380.349	339.02
380.729	332.01
381.109	359.35
381.489	356.87
381.87	343.76
382.25	356.19
382.63	341.05
383.01	359.35
383.39	358.68
383.77	351.9
384.15	360.71
384.53	350.09
384.91	345.8
385.29	346.7
385.67	366.81
386.049	362.97
386.429	364.78
386.809	366.81
387.189	362.29
387.568	380.37
387.948	381.28
388.328	343.76
388.707	366.36
389.087	359.81
389.466	382.63
389.846	375.85
390.225	367.49
390.605	376.98
390.984	400.03
391.363	368.17
391.743	361.39
392.122	366.59
392.501	383.31
392.881	390.54
393.26	373.59
393.639	386.92
394.018	382.41
394.397	381.95
394.776	391.44
395.155	376.98
395.534	388.96
395.913	397.09
396.292	386.47
396.671	433.93
397.05	399.13
397.429	397.09
397.808	403.2
398.186	392.8
398.565	396.87
398.944	408.85
399.323	387.15
399.701	402.07
400.08	393.03
400.458	404.1
400.837	431.44
401.215	417.88
401.594	424.66
401.972	424.89
402.351	410.88
402.729	418.79
403.107	417.66
403.486	421.73
403.864	435.06
404.242	428.28
404.62	440.71
404.999	420.14
405.377	425.12
405.755	420.6
406.133	452.91
406.511	446.58
406.889	457.21
407.267	439.13
407.645	445
408.023	460.82
408.401	466.02
408.779	457.21
409.156	456.98
409.534	443.87
409.912	477.09
410.29	467.6
410.667	480.71
411.045	510.31
411.422	492.68
411.8	492.68
412.178	480.93
412.555	506.02
412.933	491.78
413.31	511.22
413.687	509.41
414.065	496.07
414.442	504.21
414.819	507.83
415.197	523.42
415.574	500.14
415.951	520.48
416.328	531.55
416.705	531.78
417.082	540.59
417.46	543.53
417.837	536.98
418.214	527.49
418.591	540.37
418.967	532.23
419.344	515.06
419.721	545.79
420.098	527.71
420.475	557.77
420.852	549.41
421.228	569.52
421.605	569.52
421.982	561.61
422.358	581.04
422.735	593.25
423.111	581.04
423.488	581.95
423.864	596.18
424.241	595.28
424.617	602.51
424.994	621.49
425.37	595.96
425.746	611.33
426.123	590.08
426.499	607.03
426.875	597.54
427.251	635.73
427.627	624.43
428.003	652.68
428.379	635.05
428.756	655.17
429.132	652.68
429.507	644.77
429.883	668.05
430.259	681.61
430.635	685.45
431.011	666.47
431.387	680.7
431.763	703.3
432.138	702.62
432.514	717.99
432.89	703.07
433.265	728.61
433.641	738.33
434.016	727.93
434.392	764.09
434.767	736.07
435.143	746.46
435.518	735.84
435.894	747.82
436.269	777.42
436.644	784.43
437.02	786.46
437.395	795.5
437.77	825.11
438.145	780.36
438.52	783.75
438.895	819
439.271	816.97
439.646	826.24
440.021	851.77
440.395	861.04
440.77	858.1
441.145	877.08
441.52	857.19
441.895	875.5
442.27	857.42
442.645	868.04
443.019	871.43
443.394	866.46
443.769	910.07
444.143	886.8
444.518	905.56
444.892	894.26
445.267	889.74
445.641	889.51
446.016	895.39
446.39	948.94
446.764	937.42
447.139	965.21
447.513	975.84
447.887	943.29
448.262	948.94
448.636	953.01
449.01	980.58
449.384	975.38
449.758	979.68
450.132	995.04
450.506	1014.48
450.88	984.42
451.254	1006.12
451.628	1051.77
452.002	1033.24
452.376	1043.63
452.75	1076.85
453.123	1073.91
453.497	1088.15
453.871	1088.15
454.244	1092.67
454.618	1108.26
454.992	1120.01
455.365	1117.08
455.739	1124.31
456.112	1170.63
456.486	1150.75
456.859	1174.93
457.232	1215.15
457.606	1194.81
457.979	1217.19
458.352	1224.87
458.725	1248.6
459.099	1253.57
459.472	1249.5
459.845	1286.11
460.218	1281.82
460.591	1319.33
460.964	1315.94
461.337	1365.88
461.71	1379.67
462.083	1353.23
462.456	1412.21
462.829	1396.84
463.201	1432.55
463.574	1440
463.947	1459.21
464.32	1509.16
464.692	1504.86
465.065	1527.69
465.438	1550.06
465.81	1565.88
466.183	1605.2
466.555	1617.85
466.928	1625.31
467.3	1639.55
467.672	1662.6
468.045	1726.1
468.417	1754.35
468.789	1757.06
469.161	1800.22
469.534	1830.5
469.906	1848.81
470.278	1893.1
470.65	1894
471.022	1940.33
471.394	1948.24
471.766	1996.6
472.138	2051.97
472.51	2064.85
472.882	2178.74
473.253	2171.51
473.625	2205.41
473.997	2261.68
474.369	2284.05
474.74	2291.96
475.112	2382.58
475.484	2420.32
475.855	2496.25
476.227	2536.02
476.598	2601.56
476.97	2641.78
477.341	2718.16
477.713	2787.09
478.084	2833.87
478.455	2937.14
478.827	2995.9
479.198	3107.08
479.569	3098.27
479.94	3254.65
480.311	3339.16
480.682	3378.03
481.053	3478.82
481.424	3578.93
481.795	3680.4
482.166	3745.25
482.537	3854.86
482.908	3968.07
483.279	4019.15
483.65	4135.3
484.021	4255.75
484.391	4343.66
484.762	4427.04
485.133	4513.82
485.503	4564.89
485.874	4744.1
486.244	4873.59
486.615	4996.3
486.985	5062.06
487.356	5287.81
487.726	5354.7
488.097	5466.79
488.467	5611.42
488.837	5755.82
489.207	5871.98
489.578	5990.62
489.948	6099.77
490.318	6273.55
490.688	6315.58
491.058	6529.36
491.428	6685.06
491.798	6810.94
492.168	6947.43
492.538	7041.67
492.908	7217.71
493.278	7326.4
493.648	7394.42
494.017	7535.44
494.387	7625.15
494.757	7790.35
495.126	7921.42
495.496	8021.3
495.866	8133.16
496.235	8249.54
496.605	8371.35
496.974	8466.03
497.344	8681.62
497.713	8687.72
498.082	8854.95
498.452	9015.62
498.821	9069.18
499.19	9156.19
499.559	9284.09
499.928	9363.41
500.298	9499.91
500.667	9601.15
501.036	9587.13
501.405	9751.42
501.774	9769.5
502.143	9947.35
502.512	10023.28
502.88	10174.69
503.249	10115.03
503.618	10287.46
503.987	10335.82
504.356	10430.05
504.724	10503.95
505.093	10600.22
505.462	10624.4
505.83	10719.31
506.199	10869.59
506.567	10903.71
506.936	10940.77
507.304	11103.25
507.672	11176.7
508.041	11183.03
508.409	11301.67
508.777	11371.27
509.145	11530.59
509.514	11458.95
509.882	11541.66
510.25	11561.32
510.618	11653.75
510.986	11751.37
511.354	11829.34
511.722	11836.79
512.09	12055.09
512.458	11958.6
512.826	12077.46
513.193	12137.58
513.561	12141.64
513.929	12203.79
514.297	12268.65
514.664	12357.23
515.032	12353.16
515.4	12429.55
515.767	12494.18
516.135	12563.78
516.502	12501.41
516.869	12662.99
517.237	12662.31
517.604	12637.45
517.972	12788.86
518.339	12821.85
518.706	12760.38
519.073	12785.24
519.44	12849.42
519.808	12915.86
520.175	12932.58
520.542	13004.9
520.909	13068.4
521.276	12998.34
521.643	13140.49
522.009	13232.46
522.376	13177.1
522.743	13201.05
523.11	13322.86
523.477	13349.75
523.843	13341.16
524.21	13472.23
524.577	13549.06
524.943	13486.02
525.31	13558.1
525.676	13624.99
526.043	13571.89
526.409	13687.82
526.776	13704.99
527.142	13682.85
527.508	13796.74
527.874	13834.71
528.241	13742.05
528.607	13785.89
528.973	13840.36
529.339	13825.89
529.705	13889.85
530.071	13921.48
530.437	13977.3
530.803	13950.41
531.169	13961.26
531.535	13853.69
531.901	13864.99
532.267	13901.82
532.632	13915.61
532.998	13913.12
533.364	13980.69
533.73	13911.99
534.095	14048.94
534.461	13916.06
534.826	14016.4
535.192	13962.39
535.557	13966.23
535.923	13890.75
536.288	13813.46
536.653	13899.34
537.019	13801.94
537.384	13819.11
537.749	13788.61
538.114	13829.96
538.479	13729.85
538.845	13694.15
539.21	13589.29
539.575	13631.55
539.94	13733.01
540.305	13683.07
540.67	13534.6
541.034	13630.19
541.399	13628.84
541.764	13549.06
542.129	13578.22
542.494	13542.29
542.858	13545.9
543.223	13507.26
543.587	13499.8
543.952	13429.75
544.316	13387.94
544.681	13362.85
545.045	13373.93
545.41	13389.29
545.774	13238.56
546.138	13223.2
546.503	13302.07
546.867	13307.72
547.231	13239.24
547.595	13230.65
547.959	13136.87
548.324	13145.69
548.688	13124.9
549.052	13117.66
549.416	13080.83
549.779	12932.58
550.143	13018.01
550.507	13040.83
550.871	12914.05
551.235	12939.82
551.599	12974.16
551.962	12896.88
552.326	12866.6
552.689	12862.53
553.053	12892.13
553.417	12833.15
553.78	12985.46
554.143	12840.61
554.507	12795.64
554.87	12757.67
555.234	12922.41
555.597	12709.76
555.96	12765.36
556.323	12746.83
556.686	12707.5
557.05	12742.98
557.413	12775.53
557.776	12719.03
558.139	12741.18
558.502	12703.21
558.865	12794.73
559.228	12721.97
559.59	12692.82
559.953	12708.41
560.316	12854.39
560.679	12765.81
561.041	12782.31
561.404	12843.55
561.767	12827.73
562.129	12748.63
562.492	12869.76
562.854	12825.47
563.217	12745.02
563.579	12780.27
563.941	12859.82
564.304	12851
564.666	12971.9
565.028	12869.53
565.39	12897.56
565.753	12947.72
566.115	12970.55
566.477	12956.54
566.839	12934.17
567.201	13086.03
567.563	13072.24
567.925	13113.82
568.287	13008.97
568.648	13060.26
569.01	13064.78
569.372	13116.53
569.734	13074.95
570.095	13137.55
570.457	13208.73
570.819	13169.41
571.18	13169.41
571.542	13185.23
571.903	13171.22
572.265	13281.73
572.626	13247.15
572.987	13255.06
573.349	13220.94
573.71	13288.05
574.071	13232.01
574.432	13335.06
574.794	13369.18
575.155	13375.28
575.516	13264.33
575.877	13316.98
576.238	13383.42
576.599	13389.29
576.96	13389.29
577.32	13379.58
577.681	13345.91
578.042	13340.71
578.403	13383.65
578.763	13395.85
579.124	13410.54
579.485	13513.36
579.845	13471.78
580.206	13461.16
580.566	13460.03
580.927	13434.49
581.287	13398.33
581.648	13378.45
582.008	13482.63
582.368	13514.49
582.728	13462.97
583.089	13435.62
583.449	13431.78
583.809	13413.7
584.169	13409.86
584.529	13452.57
584.889	13467.26
585.249	13368.5
585.609	13302.74
585.969	13336.87
586.329	13291.9
586.688	13291.22
587.048	13343.65
587.408	13276.53
587.768	13333.93
588.127	13355.17
588.487	13309.07
588.846	13360.37
589.206	13343.42
589.565	13265.46
589.925	13343.65
590.284	13258
590.643	13302.29
591.003	13311.78
591.362	13267.49
591.721	13268.85
592.08	13209.19
592.44	13312.23
592.799	13329.18
593.158	13302.97
593.517	13289.41
593.876	13252.35
594.235	13227.04
594.593	13189.53
594.952	13207.38
595.311	13173.48
595.67	13226.14
596.029	13273.14
596.387	13293.7
596.746	13280.82
597.104	13179.81
597.463	13199.92
597.822	13208.28
598.18	13188.85
598.538	13161.05
598.897	13265.46
599.255	13062.3
599.613	13291.9
599.972	13210.99
600.33	13269.3
600.688	13169.64
601.046	13201.73
601.404	13288.96
601.762	13294.16
602.12	13249.86
602.478	13265.68
602.836	13265.46
603.194	13190.43
603.552	13247.6
603.91	13220.71
604.268	13245.34
604.625	13234.95
604.983	13278.11
605.341	13198.11
605.698	13250.09
606.056	13247.6
606.413	13270.65
606.771	13334.61
607.128	13254.38
607.485	13232.01
607.843	13270.43
608.2	13344.32
608.557	13407.37
608.914	13308.39
609.272	13301.16
609.629	13353.59
609.986	13353.59
610.343	13315.17
610.7	13450.76
611.057	13418.22
611.414	13387.26
611.771	13316.75
612.127	13414.15
612.484	13404.89
612.841	13330.31
613.198	13446.24
613.554	13400.59
613.911	13457.54
614.267	13388.84
614.624	13479.01
614.98	13434.27
615.337	13507.26
615.693	13508.39
616.05	13492.12
616.406	13609.18
616.762	13523.3
617.118	13570.08
617.475	13454.15
617.831	13551.32
618.187	13609.18
618.543	13567.14
618.899	13607.37
619.255	13683.52
619.611	13534.38
619.967	13587.93
620.323	13684.2
620.678	13618.22
621.034	13664.32
621.39	13607.14
621.746	13594.04
622.101	13688.72
622.457	13623.86
622.812	13650.98
623.168	13652.56
623.523	13630.87
623.879	13683.3
624.234	13591.32
624.589	13652.11
624.945	13626.58
625.3	13631.32
625.655	13657.99
626.01	13677.2
626.365	13592.91
626.72	13690.53
627.075	13714.71
627.43	13644.2
627.785	13560.36
628.14	13589.97
628.495	13627.93
628.85	13569.86
629.205	13544.32
629.559	13569.63
629.914	13549.52
630.269	13554.04
630.623	13546.8
630.978	13494.83
631.332	13495.05
631.687	13608.05
632.041	13488.28
632.396	13528.27
632.75	13501.83
633.104	13476.07
633.459	13486.69
633.813	13441.95
634.167	13441.95
634.521	13395.4
634.875	13450.99
635.229	13407.37
635.583	13346.58
635.937	13324.44
636.291	13346.58
636.645	13320.37
636.999	13240.37
637.352	13282.86
637.706	13199.24
638.06	13281.73
638.413	13165.12
638.767	13132.8
639.121	13244.67
639.474	13180.49
639.828	13223.88
640.181	13225.68
640.534	13212.8
640.888	13158.11
641.241	13065.46
641.594	13072.02
641.947	13171
642.301	13129.19
642.654	13087.61
643.007	13069.3
643.36	13073.6
643.713	13046.93
644.066	13071.11
644.419	12925.35
644.771	12887.39
645.124	12862.53
645.477	12808.75
645.83	12691.01
646.182	12683.78
646.535	12653.72
646.888	12716.09
647.24	12601.74
647.593	12634.51
647.945	12590.45
648.298	12560.84
648.65	12524.23
649.002	12528.75
649.355	12521.97
649.707	12527.4
650.059	12595.42
650.411	12839.7
650.763	12837.22
651.115	12923.54
651.467	12827.73
651.819	12920.83
652.171	12877.44
652.523	12787.95
652.875	12841.51
653.227	12764.9
653.578	12907.5
653.93	12758.35
654.282	12791.57
654.633	12805.81
654.985	12813.94
655.337	12882.19
655.688	12801.51
656.039	12868.18
656.391	12776.66
656.742	12810.78
657.094	12807.39
657.445	12801.97
657.796	12915.63
658.147	12764.45
658.498	12822.98
658.849	12832.25
659.2	12809.88
659.551	12705.7
659.902	12855.75
660.253	12812.81
660.604	12874.05
660.955	12811
661.306	12816.2
661.656	12879.7
662.007	12831.34
662.358	12905.92
662.708	12798.8
663.059	12940.95
663.409	12765.58
663.76	12897.78
664.11	12822.08
664.461	12875.86
664.811	12949.08
665.161	12908.18
665.511	12908.18
665.862	12869.76
666.212	12921.51
666.562	12867.27
666.912	12813.49
667.262	12912.92
667.612	12868.86
667.962	12811.68
668.312	12809.42
668.662	12916.31
669.011	12816.65
669.361	12758.35
669.711	12850.78
670.06	12872.25
670.41	12805.58
670.76	12686.94
671.109	12861.85
671.459	12758.58
671.808	12747.28
672.157	12814.17
672.507	12738.01
672.856	12745.24
673.205	12774.62
673.554	12754.28
673.904	12724.91
674.253	12764.68
674.602	12719.48
674.951	12561.52
675.3	12492.14
675.649	12637
675.998	12682.19
676.346	12611.24
676.695	12658.69
677.044	12596.32
677.393	12594.06
677.741	12590.45
678.09	12608.3
678.438	12622.76
678.787	12626.6
679.135	12552.93
679.484	12494.4
679.832	12532.82
680.181	12488.98
680.529	12479.49
680.877	12456.89
681.225	12435.87
681.573	12524.01
681.922	12378.02
682.27	12321.53
682.618	12440.62
682.966	12349.55
683.314	12366.5
683.661	12354.07
684.009	12265.26
684.357	12310.68
684.705	12236.56
685.053	12271.81
685.4	12256.9
685.748	12144.13
686.095	12210.12
686.443	12155.65
686.79	12115.66
687.138	12069.78
687.485	12086.73
687.832	12048.77
688.18	12031.82
688.527	11981.2
688.874	11953.4
689.221	11942.55
689.568	11777.59
689.915	11873.63
690.262	11829.56
690.609	11734.42
690.956	11741.43
691.303	11674.54
691.65	11592.28
691.997	11630.7
692.344	11613.75
692.69	11537.59
693.037	11562.22
693.383	11363.59
693.73	11413.75
694.077	11307.77
694.423	11358.39
694.769	11293.53
695.116	11306.19
695.462	11292.4
695.808	11244.04
696.155	11228.9
696.501	11196.13
696.847	11094.67
697.193	11037.27
697.539	11087.43
697.885	10978.74
698.231	10996.14
698.577	10997.49
698.923	10933.99
699.269	10852.41
699.614	10799.76
699.96	10704.62
700.306	10741.91
700.651	10696.48
700.997	10686.54
701.342	10598.63
701.688	10628.92
702.033	10646.32
702.379	10578.75
702.724	10461.91
703.069	10546.21
703.415	10433.89
703.76	10418.75
704.105	10382.14
704.45	10301.47
704.795	10354.12
705.14	10297.85
705.485	10216.95
705.83	10178.31
706.175	10194.12
706.52	10152.54
706.865	10117.29
707.209	10156.84
707.554	10021.7
707.899	10079.55
708.243	10021.7
708.588	10016.5
708.932	9894.92
709.277	9942.15
709.621	9908.48
709.966	9804.08
710.31	9903.74
710.654	9786.23
710.998	9789.39
711.342	9816.51
711.687	9756.17
712.031	9768.83
712.375	9709.62
712.719	9722.05
713.063	9635.04
713.407	9682.05
713.75	9626.68
714.094	9673.23
714.438	9564.99
714.782	9665.55
715.125	9516.4
715.469	9581.03
715.812	9536.97
716.156	9532.22
716.499	9548.49
716.843	9502.62
717.186	9402.73
717.53	9450.64
717.873	9535.16
718.216	9409.29
718.559	9371.32
718.902	9357.99
719.246	9426.01
719.589	9327.03
719.932	9280.93
720.275	9279.57
720.617	9267.6
720.96	9308.72
721.303	9292
721.646	9267.37
721.989	9202.51
722.331	9263.98
722.674	9179.91
723.016	9193.25
723.359	9192.8
723.701	9247.71
724.044	9150.08
724.386	9111.22
724.729	9167.03
725.071	9058.56
725.413	9118.9
725.755	9172.91
726.097	9065.34
726.439	9014.95
726.782	9108.5
727.124	9132.01
727.465	9125.9
727.807	9089.07
728.149	9061.73
728.491	9019.69
728.833	9097.88
729.175	8975.4
729.516	9073.25
729.858	9054.27
730.199	9047.71
730.541	9035.51
730.882	9006.59
731.224	9029.86
731.565	9027.38
731.906	8967.72
732.248	9051.78
732.589	8945.12
732.93	8962.52
733.271	8921.39
733.612	8961.16
733.953	8988.28
734.294	8968.17
734.635	8949.64
734.976	8934.72
735.317	8902.86
735.658	8904.44
735.999	8947.15
736.339	8976.3
736.68	8961.16
737.021	8916.64
737.361	8927.94
737.702	8971.56
738.042	9031.9
738.383	8956.87
738.723	8982.63
739.063	8923.65
739.404	8967.94
739.744	8946.47
740.084	8940.37
740.424	9012.46
740.764	9022.4
741.104	8987.15
741.444	9019.01
741.784	8966.36
742.124	9113.25
742.464	9046.36
742.804	9081.61
743.143	9163.64
743.483	9103.76
743.823	9094.27
744.162	9085.68
744.502	9156.64
744.841	9141.5
745.181	9216.07
745.52	9167.26
745.86	9287.48
746.199	9265.11
746.538	9355.95
746.877	9467.59
747.216	9460.13
747.556	9433.47
747.895	9523.18
748.234	9520.24
748.573	9556.18
748.911	9609.51
749.25	9663.52
749.589	9630.98
749.928	9764.53
750.267	9864.19
750.605	9938.54
750.944	9993.45
751.283	10039.1
751.621	10148.7
751.96	10095.6
752.298	10186.22
752.636	10262.6
752.975	10412.2
753.313	10431.86
753.651	10663.04
753.989	10622.36
754.327	10770.61
754.666	10797.27
755.004	10995.69
755.342	11063.25
755.679	11200.65
756.017	11279.07
756.355	11410.36
756.693	11535.11
757.031	11704.37
757.368	11744.37
757.706	11917.92
758.044	12008.99
758.381	12277.46
758.719	12315.65
759.056	12508.19
