Data from hue_300_FLMS001491_00018.txt Node
Date: Tue Feb 07 15:50:22 GMT 2017
User: dcchb
Spectrometer: FLMS00149
Trigger mode: 0
Integration Time (sec): 2.000000E-2
Scans to average: 10
Electric dark correction enabled: true
Nonlinearity correction enabled: false
Boxcar width: 0
XAxis mode: Wavelengths
Number of Pixels in Spectrum: 2048
>>>>>Begin Spectral Data<<<<<
341.393	-9.32
341.776	-9.32
342.16	-9.32
342.543	-68.76
342.927	-67.85
343.31	-83.9
343.693	-60.39
344.077	-60.85
344.46	-51.35
344.843	-46.83
345.226	-45.03
345.61	-30.79
345.993	-8.42
346.376	8.08
346.759	0.85
347.142	31.81
347.525	29.77
347.908	57.34
348.291	66.16
348.674	86.49
349.057	107.06
349.44	113.61
349.823	142.31
350.206	165.81
350.588	197
350.971	202.2
351.354	212.59
351.737	219.15
352.119	239.71
352.502	229.32
352.884	281.97
353.267	287.85
353.65	280.61
354.032	273.16
354.414	291.01
354.797	311.57
355.179	305.92
355.562	301.4
355.944	304.12
356.326	318.58
356.709	313.61
357.091	347.73
357.473	330.78
357.855	323.55
358.238	335.53
358.62	331.69
359.002	319.71
359.384	321.07
359.766	335.53
360.148	346.6
360.53	328.52
360.912	326.26
361.294	319.03
361.676	307.05
362.057	326.49
362.439	325.13
362.821	328.52
363.203	298.47
363.584	299.82
363.966	305.92
364.348	309.31
364.729	335.3
365.111	316.32
365.493	317.45
365.874	302.31
366.256	309.99
366.637	309.54
367.019	309.99
367.4	303.44
367.781	286.04
368.163	297.56
368.544	281.74
368.925	288.07
369.306	297.11
369.688	299.6
370.069	294.85
370.45	285.36
370.831	298.01
371.212	309.77
371.593	300.05
371.974	293.72
372.355	302.31
372.736	307.73
373.117	298.01
373.498	293.27
373.879	312.7
374.26	300.95
374.641	278.35
375.021	298.47
375.402	306.38
375.783	303.89
376.163	319.48
376.544	316.09
376.925	337.11
377.305	331.46
377.686	340.73
378.066	328.75
378.447	305.47
378.827	328.07
379.208	306.15
379.588	306.83
379.968	307.05
380.349	326.04
380.729	323.32
381.109	330.78
381.489	337.79
381.87	300.95
382.25	329.88
382.63	312.93
383.01	324
383.39	324.68
383.77	323.55
384.15	319.71
384.53	335.98
384.91	301.18
385.29	333.27
385.67	335.53
386.049	358.58
386.429	326.94
386.809	329.2
387.189	337.56
387.568	347.96
387.948	343.89
388.328	335.53
388.707	342.99
389.087	344.12
389.466	340.5
389.846	324.45
390.225	359.93
390.605	364.68
390.984	339.37
391.363	337.11
391.743	360.39
392.122	377.11
392.501	365.81
392.881	361.97
393.26	365.36
393.639	353.38
394.018	349.31
394.397	365.13
394.776	357.9
395.155	371.91
395.534	375.3
395.913	372.14
396.292	364
396.671	377.11
397.05	371.01
397.429	368.52
397.808	355.19
398.186	364.68
398.565	366.94
398.944	376.2
399.323	396.77
399.701	389.76
400.08	379.82
400.458	385.7
400.837	388.41
401.215	407.39
401.594	381.4
401.972	397
402.351	402.19
402.729	385.7
403.107	407.16
403.486	409.88
403.864	402.42
404.242	407.39
404.62	432.25
404.999	426.6
405.377	431.34
405.755	412.59
406.133	420.5
406.511	428.41
406.889	416.43
407.267	425.92
407.645	440.16
408.023	446.26
408.401	467.73
408.779	483.77
409.156	476.32
409.534	475.41
409.912	473.38
410.29	498.46
410.667	503.21
411.045	506.37
411.422	515.86
411.8	518.8
412.178	537.78
412.555	518.57
412.933	531.23
413.31	525.35
413.687	547.27
414.065	548.86
414.442	563.32
414.819	567.84
415.197	567.39
415.574	595.63
415.951	589.31
416.328	593.83
416.705	617.1
417.082	596.31
417.46	620.27
417.837	628.18
418.214	638.12
418.591	637.67
418.967	648.29
419.344	658.46
419.721	640.6
420.098	666.82
420.475	682.64
420.852	682.41
421.228	707.95
421.605	706.59
421.982	709.3
422.358	697.78
422.735	719.02
423.111	737.33
423.488	741.17
423.864	736.42
424.241	743.2
424.617	768.06
424.994	771.67
425.37	768.06
425.746	789.3
426.123	797.89
426.499	804.67
426.875	824.1
427.251	817.78
427.627	822.07
428.003	851.67
428.379	844.67
428.756	841.73
429.132	891.45
429.507	855.97
429.883	915.63
430.259	914.5
430.635	935.29
431.011	909.07
431.387	916.08
431.763	945.91
432.138	923.08
432.514	972.12
432.89	962.4
433.265	1007.83
433.641	1004.21
434.016	991.56
434.392	1029.07
434.767	1047.6
435.143	1027.26
435.518	1048.05
435.894	1059.12
436.269	1076.07
436.644	1086.69
437.02	1083.53
437.395	1090.99
437.77	1085.11
438.145	1114.26
438.52	1137.54
438.895	1154.49
439.271	1130.54
439.646	1166.69
440.021	1184.32
440.395	1180.48
440.77	1164.21
441.145	1182.06
441.52	1190.65
441.895	1215.28
442.27	1217.76
442.645	1187.71
443.019	1227.93
443.394	1223.41
443.769	1245.11
444.143	1229.97
444.518	1239.68
444.892	1225.45
445.267	1210.31
445.641	1270.42
446.016	1244.88
446.39	1242.85
446.764	1288.5
447.139	1234.04
447.513	1264.99
447.887	1286.92
448.262	1260.48
448.636	1304.54
449.01	1277.42
449.384	1297.54
449.758	1312.68
450.132	1304.77
450.506	1326.01
450.88	1298.67
451.254	1314.71
451.628	1320.81
452.002	1361.72
452.376	1314.94
452.75	1352.22
453.123	1353.81
453.497	1362.39
453.871	1365.78
454.244	1388.83
454.618	1381.15
454.992	1373.47
455.365	1387.48
455.739	1433.13
456.112	1426.12
456.486	1422.96
456.859	1423.41
457.232	1457.98
457.606	1458.89
457.979	1471.09
458.352	1483.07
458.725	1483.29
459.099	1480.58
459.472	1497.31
459.845	1530.98
460.218	1517.42
460.591	1560.35
460.964	1530.52
461.337	1549.06
461.71	1579.11
462.083	1565.1
462.456	1599.68
462.829	1570.75
463.201	1593.12
463.574	1613.91
463.947	1652.33
464.32	1647.58
464.692	1635.83
465.065	1724.87
465.438	1691.42
465.81	1680.58
466.183	1700.46
466.555	1733.46
466.928	1733.68
467.3	1726.9
467.672	1741.59
468.045	1787.69
468.417	1765.09
468.789	1776.39
469.161	1804.64
469.534	1840.35
469.906	1827.47
470.278	1872.66
470.65	1861.14
471.022	1875.37
471.394	1892.78
471.766	1910.18
472.138	1902.94
472.51	1955.37
472.882	1967.58
473.253	2005.99
473.625	1997.18
473.997	2012.09
474.369	2022.04
474.74	2073.11
475.112	2062.04
475.484	2084.18
475.855	2142.71
476.227	2130.73
476.598	2133.45
476.97	2171.64
477.341	2192.2
477.713	2202.6
478.084	2233.56
478.455	2249.15
478.827	2254.8
479.198	2315.36
479.569	2318.3
479.94	2342.71
480.311	2378.19
480.682	2395.59
481.053	2448.24
481.424	2453.21
481.795	2469.71
482.166	2478.75
482.537	2513.1
482.908	2522.82
483.279	2565.07
483.65	2575.02
484.021	2585.64
484.391	2652.53
484.762	2624.96
485.133	2630.83
485.503	2696.82
485.874	2688.23
486.244	2745.63
486.615	2741.57
486.985	2739.98
487.356	2826.08
487.726	2835.58
488.097	2869.25
488.467	2838.29
488.837	2914.22
489.207	2913.54
489.578	2986.98
489.948	2949.02
490.318	3003.03
490.688	2989.92
491.058	2986.76
491.428	3041.22
491.798	3085.51
492.168	3105.4
492.538	3134.1
492.908	3140.43
493.278	3156.02
493.648	3170.93
494.017	3239.18
494.387	3225.62
494.757	3241.89
495.126	3198.73
495.496	3249.12
495.866	3290.7
496.235	3297.03
496.605	3316.92
496.974	3295.68
497.344	3328.67
497.713	3335.45
498.082	3334.09
498.452	3374.32
498.821	3397.59
499.19	3397.14
499.559	3391.27
499.928	3443.24
500.298	3427.42
500.667	3453.64
501.036	3415.67
501.405	3491.38
501.774	3481.21
502.143	3505.61
502.512	3508.1
502.88	3523.92
503.249	3547.65
503.618	3534.77
503.987	3540.64
504.356	3562.11
504.724	3622.45
505.093	3564.6
505.462	3634.2
505.83	3590.81
506.199	3638.72
506.567	3667.64
506.936	3633.07
507.304	3642.56
507.672	3645.72
508.041	3677.59
508.409	3722.33
508.777	3670.81
509.145	3745.83
509.514	3694.54
509.882	3734.99
510.25	3739.05
510.618	3726.4
510.986	3752.39
511.354	3772.05
511.722	3810.46
512.09	3840.75
512.458	3830.35
512.826	3834.87
513.193	3864.25
513.561	3827.87
513.929	3831.71
514.297	3861.08
514.664	3894.53
515.032	3878.03
515.4	3894.3
515.767	3880.29
516.135	3914.64
516.502	3897.02
516.869	3919.16
517.237	3957.81
517.604	3878.03
517.972	3998.93
518.339	3910.8
518.706	3973.85
519.073	3932.27
519.44	3983.12
519.808	4001.65
520.175	3981.08
520.542	4023.34
520.909	3993.51
521.276	4019.27
521.643	4019.5
522.009	4022.44
522.376	4081.64
522.743	4037.58
523.11	4113.06
523.477	4106.73
523.843	4152.83
524.21	4172.49
524.577	4210.45
524.943	4193.28
525.31	4148.31
525.676	4238.93
526.043	4243.67
526.409	4249.78
526.776	4293.62
527.142	4292.94
527.508	4337.46
527.874	4318.25
528.241	4353.73
528.607	4402.09
528.973	4393.95
529.339	4412.26
529.705	4391.92
530.071	4458.13
530.437	4468.53
530.803	4486.61
531.169	4504.91
531.535	4506.72
531.901	4534.51
532.267	4523.89
532.632	4523.89
532.998	4591.69
533.364	4572.7
533.73	4587.39
534.095	4629.65
534.461	4568.64
534.826	4667.84
535.192	4699.48
535.557	4731.57
535.923	4725.92
536.288	4765.69
536.653	4756.88
537.019	4732.7
537.384	4764.34
537.749	4752.13
538.114	4805.69
538.479	4794.17
538.845	4832.58
539.21	4814.96
539.575	4904.45
539.94	4911.45
540.305	4913.26
540.67	4906.03
541.034	4917.1
541.399	4968.85
541.764	4980.83
542.129	5006.37
542.494	5012.24
542.858	5067.38
543.223	5085.69
543.587	5086.14
543.952	5143.54
544.316	5093.37
544.681	5154.61
545.045	5145.57
545.41	5197.55
545.774	5172.01
546.138	5199.13
546.503	5253.14
546.867	5209.75
547.231	5303.08
547.595	5258.56
547.959	5289.07
548.324	5289.52
548.688	5323.42
549.052	5348.73
549.416	5357.54
549.779	5368.62
550.143	5356.86
550.507	5421.72
550.871	5429.63
551.235	5414.72
551.599	5496.97
551.962	5463.53
552.326	5498.1
552.689	5545.79
553.053	5515.5
553.417	5542.17
553.78	5544.88
554.143	5565.67
554.507	5551.44
554.87	5626.24
555.234	5634.15
555.597	5596.18
555.96	5631.66
556.323	5630.98
556.686	5654.71
557.05	5649.96
557.413	5708.04
557.776	5718.21
558.139	5748.94
558.502	5770.19
558.865	5782.39
559.228	5786.46
559.59	5829.17
559.953	5795.05
560.316	5858.09
560.679	5869.62
561.041	5886.34
561.404	5867.13
561.767	5919.79
562.129	5897.64
562.492	5945.32
562.854	5960.01
563.217	5939
563.579	6034.14
563.941	6021.48
564.304	6054.93
564.666	6029.84
565.028	6111.2
565.39	6063.74
565.753	6103.96
566.115	6073.91
566.477	6149.16
566.839	6160.69
567.201	6153.45
567.563	6218.76
567.925	6204.07
568.287	6226.45
568.648	6256.73
569.01	6283.62
569.372	6345.99
569.734	6329.72
570.095	6316.61
570.457	6397.06
570.819	6402.04
571.18	6401.81
571.542	6459.66
571.903	6484.74
572.265	6510.28
572.626	6551.41
572.987	6591.18
573.349	6669.82
573.71	6656.49
574.071	6723.61
574.432	6783.49
574.794	6889.03
575.155	6851.74
575.516	6894.23
575.877	6994.11
576.238	6993.88
576.599	7104.39
576.96	7176.25
577.32	7206.76
577.681	7248.34
578.042	7412.63
578.403	7484.49
578.763	7508.45
579.124	7629.8
579.485	7694.43
579.845	7832.51
580.206	7914.76
580.566	8024.59
580.927	8103.46
581.287	8293.06
581.648	8343.9
582.008	8468.42
582.368	8597.91
582.728	8794.06
583.089	8924.23
583.449	9123.32
583.809	9218.01
584.169	9468.85
584.529	9549.07
584.889	9860.02
585.249	9977.53
585.609	10145.44
585.969	10358.54
586.329	10554.92
586.688	10821.58
587.048	10966.66
587.408	11203.04
587.768	11354.22
588.127	11688.45
588.487	11892.74
588.846	12186.97
589.206	12395.1
589.565	12635.77
589.925	12977.91
590.284	13128.86
590.643	13527.27
591.003	13716.42
591.362	14113.7
591.721	14318.21
592.08	14549.17
592.44	15000.23
592.799	15197.06
593.158	15454.23
593.517	15728.12
593.876	16064.15
594.235	16331.04
594.593	16507.98
594.952	16926.73
595.311	17233.39
595.67	17560.39
596.029	17911.79
596.387	18257.99
596.746	18476.97
597.104	18749.51
597.463	19034.47
597.822	19445.76
598.18	19604.63
598.538	19915.13
598.897	20362.35
599.255	20443.7
599.613	20985.61
599.972	21156.22
600.33	21494.29
600.688	21649.77
601.046	22112.13
601.404	22447.04
601.762	22603.87
602.12	22962.96
602.478	23249.28
602.836	23562.49
603.194	23651.53
603.552	23987.34
603.91	24190.72
604.268	24473.88
604.625	24688.56
604.983	25080.19
605.341	25210.58
605.698	25578.25
606.056	25902.09
606.413	26063.21
606.771	26383.43
607.128	26517.44
607.485	26640.37
607.843	26917.43
608.2	27282.62
608.557	27559.67
608.914	27826.1
609.272	28001.02
609.629	28332.31
609.986	28452.3
610.343	28594.45
610.7	28990.37
611.057	29132.96
611.414	29294.09
611.771	29429.23
612.127	29755.32
612.484	29910.8
612.841	30129.77
613.198	30324.57
613.554	30350.56
613.911	30638.91
614.267	30932.69
614.624	30993.25
614.98	31237.77
615.337	31369.06
615.693	31559.57
616.05	31675.95
616.406	32042.04
616.762	31944.19
617.118	32077.07
617.475	32220.34
617.831	32481.58
618.187	32642.7
618.543	32818.97
618.899	33030.49
619.255	32957.27
619.611	33033.65
619.967	33335.11
620.323	33440.65
620.678	33439.06
621.034	33554.09
621.39	33588.66
621.746	33714.09
622.101	34189.55
622.457	33916.79
622.812	34203.79
623.168	34245.6
623.523	34352.94
623.879	34571.46
624.234	34477.23
624.589	34538.24
624.945	34679.94
625.3	34749.99
625.655	34929.19
626.01	34994.05
626.365	34960.15
626.72	35019.81
627.075	35119.92
627.43	35197.21
627.785	35112.24
628.14	35313.59
628.495	35368.51
628.85	35365.12
629.205	35383.19
629.559	35545.9
629.914	35283.08
630.269	35606.69
630.623	35563.53
630.978	35559.69
631.332	35628.39
631.687	35740.7
632.041	35610.53
632.396	35752.68
632.75	35634.71
633.104	35842.39
633.459	35709.29
633.813	35585.9
634.167	35821.37
634.521	35611.44
634.875	35946.79
635.229	35836.97
635.583	35529.18
635.937	35756.07
636.291	35789.74
636.645	35720.81
636.999	35744.99
637.352	35916.97
637.706	35700.47
638.06	36005.55
638.413	35711.55
638.767	35670.42
639.121	35869.73
639.474	35489.63
639.828	35677.42
640.181	35720.13
640.534	35784.54
640.888	35701.6
641.241	35554.26
641.594	35787.03
641.947	35783.18
642.301	35778.21
642.654	35732.56
643.007	35760.13
643.36	35813.69
643.713	35647.82
644.066	35869.51
644.419	35672.68
644.771	35373.7
645.124	35036.99
645.477	35005.58
645.83	34825.02
646.182	34735.08
646.535	34743.66
646.888	34772.59
647.24	34635.42
647.593	34799.71
647.945	34725.36
648.298	34589.54
648.65	34507.74
649.002	34461.41
649.355	34583.67
649.707	34596.77
650.059	34753.61
650.411	35001.28
650.763	35118.57
651.115	35485.34
651.467	35414.83
651.819	35333.25
652.171	35248.28
652.523	35264.33
652.875	35252.8
653.227	35252.35
653.578	35576.41
653.93	35329.18
654.282	35272.01
654.633	35177.78
654.985	35418.45
655.337	35240.15
655.688	35367.38
656.039	35476.75
656.391	35024.56
656.742	35151.56
657.094	35203.09
657.445	35351.33
657.796	35202.41
658.147	35061.17
658.498	35165.35
658.849	35312.46
659.2	35093.26
659.551	35025.46
659.902	35130.09
660.253	35183.65
660.604	35278.11
660.955	35044.9
661.306	35152.69
661.656	35129.87
662.007	35179.36
662.358	35060.72
662.708	35060.49
663.059	35154.95
663.409	34962.41
663.76	35137.1
664.11	35091
664.461	35139.58
664.811	35225.01
665.161	35091.45
665.511	34991.79
665.862	35099.13
666.212	35273.82
666.562	35050.1
666.912	35041.28
667.262	35069.98
667.612	35013.03
667.962	35058.46
668.312	34978.46
668.662	35136.42
669.011	35058.68
669.361	35037.67
669.711	35077.67
670.06	34820.95
670.41	34965.58
670.76	34857.33
671.109	35041.06
671.459	34994.05
671.808	34790.22
672.157	35071.11
672.507	34695.3
672.856	34737.11
673.205	34912.47
673.554	34995.41
673.904	34961.51
674.253	34963.54
674.602	34826.15
674.951	34465.03
675.3	34265.26
675.649	34841.06
675.998	34636.09
676.346	34681.07
676.695	34960.61
677.044	34556.77
677.393	34733.95
677.741	34758.35
678.09	34598.58
678.438	34644.23
678.787	34569.43
679.135	34564.01
679.484	34433.61
679.832	34442.65
680.181	34226.84
680.529	34440.85
680.877	34314.52
681.225	34350.23
681.573	34538.92
681.922	34268.42
682.27	34250.12
682.618	34090.57
682.966	34069.1
683.314	34179.38
683.661	34061.65
684.009	33812.84
684.357	33910.24
684.705	33804.03
685.053	33796.57
685.4	33721.32
685.748	33653.97
686.095	33721.32
686.443	33369.91
686.79	33422.57
687.138	33435.45
687.485	33321.78
687.832	33248.33
688.18	33310.71
688.527	33206.08
688.874	33220.76
689.221	33087.89
689.568	32936.03
689.915	32963.37
690.262	32921.11
690.609	32809.02
690.956	32765.86
691.303	32733.09
691.65	32642.7
691.997	32567.45
692.344	32318.64
692.69	32332.65
693.037	32460.11
693.383	32224.18
693.73	32324.29
694.077	32087.46
694.423	32067.35
694.769	31852.44
695.116	31854.7
695.462	31858.31
695.808	31677.3
696.155	31751.88
696.501	31501.94
696.847	31584.2
697.193	31412.22
697.539	31356.63
697.885	31146.7
698.231	31082.52
698.577	31157.54
698.923	31116.41
699.269	30828.51
699.614	30784.22
699.96	30669.87
700.306	30808.62
700.651	30664.22
700.997	30548.74
701.342	30404.79
701.688	30508.75
702.033	30377
702.379	30382.87
702.724	30249.09
703.069	30255.19
703.415	29924.35
703.76	29946.05
704.105	29986.73
704.45	29816.11
704.795	29663.57
705.14	29569.56
705.485	29698.15
705.83	29421.32
706.175	29566.4
706.52	29352.84
706.865	29346.52
707.209	29312.17
707.554	29199.18
707.899	29367.76
708.243	29105.39
708.588	29153.98
708.932	28777.27
709.277	28824.95
709.621	28915.79
709.966	28648.91
710.31	28666.53
710.654	28568.91
710.998	28677.83
711.342	28547.22
711.687	28391.97
712.031	28322.14
712.375	28218.86
712.719	28388.8
713.063	28179.54
713.407	28370.72
713.75	28151.97
714.094	28096.38
714.438	28132.31
714.782	28127.79
715.125	27962.6
715.469	27948.14
715.812	27817.29
716.156	27716.28
716.499	27674.47
716.843	27741.81
717.186	27491.65
717.53	27689.61
717.873	27594.47
718.216	27519.45
718.559	27390.41
718.902	27400.8
719.246	27364.42
719.589	27245.33
719.932	27118.1
720.275	27149.06
720.617	27093.24
720.96	27111.55
721.303	27035.62
721.646	27057.76
721.989	26892.12
722.331	26921.04
722.674	26858.45
723.016	26810.31
723.359	26852.57
723.701	26846.24
724.044	26601.5
724.386	26599.47
724.729	26636.53
725.071	26629.07
725.413	26449.42
725.755	26490.32
726.097	26377.56
726.439	26355.18
726.782	26235.19
727.124	26401.51
727.465	26195.19
727.807	26261.17
728.149	26177.56
728.491	26065.02
728.833	26215.75
729.175	26062.76
729.516	26032.93
729.858	25980.5
730.199	25988.41
730.541	25922.88
730.882	25889.21
731.224	26032.25
731.565	25700.51
731.906	25818.47
732.248	25784.12
732.589	25597.46
732.93	25658.48
733.271	25597.69
733.612	25620.29
733.953	25704.8
734.294	25446.28
734.635	25439.27
734.976	25598.37
735.317	25356.79
735.658	25468.43
735.999	25346.62
736.339	25301.2
736.68	25454.19
737.021	25366.06
737.361	25269.11
737.702	25304.36
738.042	25190.92
738.383	25314.53
738.723	25211.03
739.063	25193.86
739.404	25317.02
739.744	25071.83
740.084	24971.94
740.424	24976.01
740.764	24877.71
741.104	25075.67
741.444	24973.07
741.784	24758.16
742.124	24932.85
742.464	24879.06
742.804	24808.78
743.143	24803.13
743.483	24785.73
743.823	24616.25
744.162	24589.81
744.502	24820.08
744.841	24496.02
745.181	24676.58
745.52	24601.1
745.86	24599.3
746.199	24585.29
746.538	24634.55
746.877	24619.18
747.216	24647.88
747.556	24464.84
747.895	24527.43
748.234	24381.45
748.573	24413.09
748.911	24392.75
749.25	24358.4
749.589	24248.35
749.928	24287.67
750.267	24353.65
750.605	24292.64
750.944	24277.5
751.283	24058.52
751.621	24233.88
751.96	24143.04
752.298	24150.27
752.636	24024.17
752.975	23932.2
753.313	23977.39
753.651	24021.91
753.989	23913.44
754.327	23833.89
754.666	23756.83
755.004	23777.62
755.342	23860.56
755.679	23759.09
756.017	23669.6
756.355	23790.5
756.693	23630.51
757.031	23772.2
757.368	23628.93
757.706	23590.51
758.044	23582.15
758.381	23526.33
758.719	23553.22
759.056	23472.77
759.394	23449.5
