Data from hue_22_FLMS001491_00050.txt Node
Date: Tue Feb 07 17:10:11 GMT 2017
User: dcchb
Spectrometer: FLMS00149
Trigger mode: 0
Integration Time (sec): 2.000000E-2
Scans to average: 10
Electric dark correction enabled: true
Nonlinearity correction enabled: false
Boxcar width: 0
XAxis mode: Wavelengths
Number of Pixels in Spectrum: 2048
>>>>>Begin Spectral Data<<<<<
341.393	-11.89
341.776	-11.89
342.16	-11.89
342.543	-47.6
342.927	-59.35
343.31	-81.5
343.693	-66.81
344.077	-60.03
344.46	-46.92
344.843	-42.4
345.226	-49.41
345.61	-13.93
345.993	-31.78
346.376	-4.89
346.759	10.93
347.142	32.63
347.525	46.64
347.908	53.64
348.291	67.88
348.674	87.54
349.057	98.39
349.44	131.15
349.823	138.61
350.206	173.87
350.588	184.03
350.971	212.51
351.354	223.13
351.737	235.56
352.119	251.15
352.502	268.78
352.884	274.2
353.267	269
353.65	278.72
354.032	308.78
354.414	323.92
354.797	322.56
355.179	330.02
355.562	331.6
355.944	321.43
356.326	334.77
356.709	333.18
357.091	325.73
357.473	359.4
357.855	337.25
358.238	335.9
358.62	348.1
359.002	347.65
359.384	338.83
359.766	331.83
360.148	341.32
360.53	322.11
360.912	342.22
361.294	338.83
361.676	339.74
362.057	341.77
362.439	327.99
362.821	329.79
363.203	327.76
363.584	325.5
363.966	307.87
364.348	327.53
364.729	315.78
365.111	321.66
365.493	313.52
365.874	308.1
366.256	305.61
366.637	313.07
367.019	331.38
367.4	327.76
367.781	314.88
368.163	337.25
368.544	326.86
368.925	314.2
369.306	313.75
369.688	326.18
370.069	332.28
370.45	304.71
370.831	332.73
371.212	307.42
371.593	311.94
371.974	304.94
372.355	305.39
372.736	308.1
373.117	334.77
373.498	335.22
373.879	319.17
374.26	320.98
374.641	315.78
375.021	297.93
375.402	316.23
375.783	306.07
376.163	321.88
376.544	325.95
376.925	338.61
377.305	326.63
377.686	325.05
378.066	327.99
378.447	339.96
378.827	344.48
379.208	338.83
379.588	343.58
379.968	347.65
380.349	318.95
380.729	334.31
381.109	351.94
381.489	326.86
381.87	344.48
382.25	346.52
382.63	368.66
383.01	357.59
383.39	355.78
383.77	351.49
384.15	361.88
384.53	344.48
384.91	338.83
385.29	335.44
385.67	336.12
386.049	350.81
386.429	375.89
386.809	351.94
387.189	352.62
387.568	351.71
387.948	349.91
388.328	362.56
388.707	330.92
389.087	359.17
389.466	343.8
389.846	364.14
390.225	366.4
390.605	369.79
390.984	360.08
391.363	377.93
391.743	344.26
392.122	354.43
392.501	372.73
392.881	377.02
393.26	358.04
393.639	379.51
394.018	377.7
394.397	354.2
394.776	371.83
395.155	393.75
395.534	363.01
395.913	376.8
396.292	373.18
396.671	395.1
397.05	387.42
397.429	367.76
397.808	383.58
398.186	372.28
398.565	395.1
398.944	378.15
399.323	392.84
399.701	395.33
400.08	399.85
400.458	383.13
400.837	407.53
401.215	410.24
401.594	400.98
401.972	402.79
402.351	407.98
402.729	395.78
403.107	409.57
403.486	399.85
403.864	423.35
404.242	408.66
404.62	421.99
404.999	415.89
405.377	402.56
405.755	416.34
406.133	441.43
406.511	409.34
406.889	435.55
407.267	418.15
407.645	415.67
408.023	413.86
408.401	451.15
408.779	438.72
409.156	440.3
409.534	451.15
409.912	452.28
410.29	445.04
410.667	466.97
411.045	453.18
411.422	448.43
411.8	472.39
412.178	451.15
412.555	455.67
412.933	466.97
413.31	492.95
413.687	469.9
414.065	492.95
414.442	484.82
414.819	502.22
415.197	491.15
415.574	470.81
415.951	507.19
416.328	480.07
416.705	489.11
417.082	497.7
417.46	479.39
417.837	487.3
418.214	526.62
418.591	516.91
418.967	485.95
419.344	487.3
419.721	509.68
420.098	506.74
420.475	539.96
420.852	527.53
421.228	507.64
421.605	522.78
421.982	548.54
422.358	542.22
422.735	524.82
423.111	521.88
423.488	534.76
423.864	538.83
424.241	548.77
424.617	568.43
424.994	547.64
425.37	559.62
425.746	546.29
426.123	559.62
426.499	560.07
426.875	578.15
427.251	581.76
427.627	570.92
428.003	587.64
428.379	592.16
428.756	598.71
429.132	599.62
429.507	592.16
429.883	594.42
430.259	598.71
430.635	605.94
431.011	622.22
431.387	612.5
431.763	624.93
432.138	621.54
432.514	633.06
432.89	633.97
433.265	646.17
433.641	661.76
434.016	645.94
434.392	661.99
434.767	659.5
435.143	680.97
435.518	670.35
435.894	653.63
436.269	658.15
436.644	685.72
437.02	689.56
437.395	685.49
437.77	705.15
438.145	709.44
438.52	720.07
438.895	715.32
439.271	705.83
439.646	723
440.021	725.94
440.395	739.73
440.77	727.98
441.145	736.79
441.52	751.03
441.895	750.12
442.27	747.86
442.645	744.92
443.019	755.32
443.394	761.42
443.769	770.46
444.143	770.23
444.518	779.95
444.892	753.06
445.267	772.27
445.641	798.03
446.016	792.83
446.39	796
446.764	820.18
447.139	813.85
447.513	786.5
447.887	791.25
448.262	815.2
448.636	798.71
449.01	833.96
449.384	834.41
449.758	833.06
450.132	827.18
450.506	843.68
450.88	855.43
451.254	862.21
451.628	862.89
452.002	884.81
452.376	850.68
452.75	891.81
453.123	884.81
453.497	892.94
453.871	917.12
454.244	904.02
454.618	930
454.992	930.68
455.365	921.42
455.739	951.47
456.112	933.85
456.486	952.38
456.859	985.82
457.232	975.65
457.606	985.14
457.979	985.82
458.352	1013.84
458.725	1027.63
459.099	1042.54
459.472	1057.01
459.845	1032.15
460.218	1058.59
460.591	1061.07
460.964	1070.79
461.337	1095.2
461.71	1112.6
462.083	1098.36
462.456	1147.4
462.829	1129.09
463.201	1136.78
463.574	1111.69
463.947	1150.56
464.32	1176.1
464.692	1157.79
465.065	1202.76
465.438	1234.63
465.81	1226.49
466.183	1252.93
466.555	1251.8
466.928	1264.68
467.3	1283.44
467.672	1297.9
468.045	1331.58
468.417	1310.11
468.789	1322.08
469.161	1346.26
469.534	1380.39
469.906	1425.58
470.278	1414.74
470.65	1416.32
471.022	1448.41
471.394	1467.16
471.766	1471.68
472.138	1503.55
472.51	1527.73
472.882	1557.11
473.253	1566.82
473.625	1561.4
473.997	1624
474.369	1627.16
474.74	1636.2
475.112	1689.76
475.484	1700.61
475.855	1760.04
476.227	1750.1
476.598	1813.37
476.97	1842.52
477.341	1828.96
477.713	1912.58
478.084	1888.85
478.455	1968.62
478.827	1988.06
479.198	2029.18
479.569	2025.34
479.94	2130.88
480.311	2166.36
480.682	2174.49
481.053	2224.66
481.424	2254.94
481.795	2246.13
482.166	2304.66
482.537	2371.32
482.908	2402.06
483.279	2450.42
483.65	2463.52
484.021	2588.94
484.391	2562.96
484.762	2624.42
485.133	2667.36
485.503	2657.87
485.874	2729.28
486.244	2797.53
486.615	2846.56
486.985	2859.67
487.356	2947.13
487.726	2946.67
488.097	3025.09
488.467	3019.89
488.837	3098.31
489.207	3171.75
489.578	3190.51
489.948	3235.48
490.318	3300.79
490.688	3264.41
491.058	3372.65
491.428	3438.41
491.798	3442.71
492.168	3560.44
492.538	3561.57
492.908	3597.73
493.278	3625.98
493.648	3617.16
494.017	3705.75
494.387	3712.98
494.757	3779.65
495.126	3802.7
495.496	3839.08
495.866	3862.81
496.235	3924.95
496.605	3907.78
496.974	4014.22
497.344	4024.61
497.713	4055.35
498.082	4099.64
498.452	4146.64
498.821	4147.55
499.19	4190.03
499.559	4226.19
499.928	4190.94
500.298	4254.21
500.667	4307.09
501.036	4328.11
501.405	4348.44
501.774	4346.64
502.143	4395.45
502.512	4432.74
502.88	4510.93
503.249	4491.94
503.618	4517.03
503.987	4535.11
504.356	4590.47
504.724	4590.7
505.093	4585.73
505.462	4664.14
505.83	4564.71
506.199	4663.46
506.567	4716.8
506.936	4738.49
507.304	4774.2
507.672	4768.77
508.041	4784.59
508.409	4850.58
508.777	4848.32
509.145	4901.88
509.514	4879.28
509.882	4957.47
510.25	4903.91
510.618	4964.7
510.986	4992.72
511.354	5001.31
511.722	5062.78
512.09	5099.39
512.458	5092.38
512.826	5142.1
513.193	5167.41
513.561	5139.84
513.929	5207.41
514.297	5213.96
514.664	5257.12
515.032	5300.51
515.4	5301.19
515.767	5307.52
516.135	5335.54
516.502	5381.64
516.869	5369.44
517.237	5361.98
517.604	5416.21
517.972	5477.68
518.339	5497.12
518.706	5494.18
519.073	5508.19
519.44	5568.07
519.808	5591.35
520.175	5556.1
520.542	5622.31
520.909	5613.72
521.276	5601.07
521.643	5694.85
522.009	5731.23
522.376	5745.02
522.743	5764.23
523.11	5860.27
523.477	5886.48
523.843	5868.18
524.21	5906.6
524.577	5958.35
524.943	6036.54
525.31	6054.84
525.676	6043.54
526.043	6087.83
526.409	6102.52
526.776	6129.87
527.142	6194.05
527.508	6204.22
527.874	6255.29
528.241	6218.23
528.607	6297.32
528.973	6338.22
529.339	6315.17
529.705	6421.84
530.071	6400.82
530.437	6459.35
530.803	6454.38
531.169	6530.76
531.535	6495.28
531.901	6583.41
532.267	6581.83
532.632	6602.4
532.998	6625.22
533.364	6677.88
533.73	6722.39
534.095	6778.44
534.461	6800.13
534.826	6844.2
535.192	6870.41
535.557	6883.07
535.923	6842.16
536.288	6894.14
536.653	6942.73
537.019	6956.96
537.384	6923.52
537.749	6966.91
538.114	7046.45
538.479	6996.51
538.845	7086.45
539.21	7060.01
539.575	7142.27
539.94	7191.53
540.305	7175.94
540.67	7237.41
541.034	7194.25
541.399	7248.48
541.764	7328.48
542.129	7342.26
542.494	7345.2
542.858	7378.2
543.223	7390.4
543.587	7403.51
543.952	7453.22
544.316	7483.96
544.681	7515.37
545.045	7591.75
545.41	7596.27
545.774	7680.11
546.138	7601.24
546.503	7607.79
546.867	7681.46
547.231	7716.94
547.595	7713.55
547.959	7708.58
548.324	7814.79
548.688	7781.8
549.052	7843.49
549.416	7850.95
549.779	7875.36
550.143	7884.85
550.507	8036.94
550.871	7965.07
551.235	8058.4
551.599	8102.47
551.962	8138.18
552.326	8059.53
552.689	8105.86
553.053	8165.07
553.417	8144.73
553.78	8249.59
554.143	8186.08
554.507	8274.9
554.87	8258.4
555.234	8376.81
555.597	8307.21
555.96	8307.66
556.323	8370.71
556.686	8405.74
557.05	8446.64
557.413	8446.87
557.776	8532.74
558.139	8475.12
558.502	8541.56
558.865	8503.14
559.228	8644.38
559.59	8654.32
559.953	8667.43
560.316	8717.82
560.679	8755.33
561.041	8797.82
561.404	8808.21
561.767	8866.74
562.129	8802.79
562.492	8947.19
562.854	8877.37
563.217	8863.13
563.579	8938.38
563.941	9035.33
564.304	9045.5
564.666	9081.88
565.028	9061.77
565.39	9069.45
565.753	9206.62
566.115	9226.51
566.477	9282.33
566.839	9225.38
567.201	9325.26
567.563	9257.02
567.925	9340.18
568.287	9453.62
568.648	9402.55
569.01	9495.65
569.372	9471.93
569.734	9497.01
570.095	9517.57
570.457	9592.37
570.819	9682.77
571.18	9689.1
571.542	9722.54
571.903	9786.72
572.265	9793.5
572.626	9913.27
572.987	9894.29
573.349	10024.68
573.71	10082.53
574.071	10060.61
574.432	10079.37
574.794	10180.38
575.155	10231.91
575.516	10208.18
575.877	10327.95
576.238	10377.21
576.599	10468.96
576.96	10514.16
577.32	10592.12
577.681	10668.28
578.042	10748.05
578.403	10786.92
578.763	10911.44
579.124	10965.9
579.485	11081.83
579.845	11213.8
580.206	11315.49
580.566	11457.86
580.927	11534.7
581.287	11658.76
581.648	11785.31
582.008	11959.54
582.368	12063.04
582.728	12178.52
583.089	12230.72
583.449	12431.4
583.809	12606.98
584.169	12832.06
584.529	12897.37
584.889	13175.78
585.249	13298.94
585.609	13436.12
585.969	13698.03
586.329	13838.82
586.688	14062.09
587.048	14314.74
587.408	14463.21
587.768	14734.16
588.127	14851.45
588.487	15090.76
588.846	15510.19
589.206	15500.02
589.565	15857.07
589.925	16234.23
590.284	16349.71
590.643	16598.07
591.003	16892.3
591.362	17219.07
591.721	17481.21
592.08	17788.32
592.44	18105.37
592.799	18430.11
593.158	18640.95
593.517	19041.84
593.876	19274.83
594.235	19514.83
594.593	19786.68
594.952	20122.72
595.311	20423.73
595.67	20827.11
596.029	21172.64
596.387	21479.52
596.746	21705.73
597.104	21925.38
597.463	22404.24
597.822	22702.76
598.18	22901.18
598.538	23145.92
598.897	23681.27
599.255	23772.79
599.613	24351.99
599.972	24609.38
600.33	24998.3
600.688	25079.88
601.046	25528.68
601.404	25909.01
601.762	26130.92
602.12	26602.55
602.478	26861.3
602.836	27052.93
603.194	27145.13
603.552	27641.39
603.91	27833.03
604.268	28168.84
604.625	28445.44
604.983	28740.35
605.341	28948.48
605.698	29264.85
606.056	29630.94
606.413	29838.4
606.771	30086.98
607.128	30403.58
607.485	30465.95
607.843	30785.94
608.2	31060.74
608.557	31658.24
608.914	31556.32
609.272	32017.77
609.629	32215.06
609.986	32519.91
610.343	32673.12
610.7	33068.14
611.057	33191.3
611.414	33449.15
611.771	33678.3
612.127	33838.29
612.484	34096.36
612.841	34289.13
613.198	34395.11
613.554	34672.17
613.911	35027.19
614.267	35126.84
614.624	35225.37
614.98	35511.24
615.337	35833.49
615.693	35886.82
616.05	36000.04
616.406	36325.01
616.762	36319.81
617.118	36524.1
617.475	36753.92
617.831	36931.54
618.187	37070.75
618.543	37359.33
618.899	37612.43
619.255	37651.07
619.611	37606.78
619.967	38039.54
620.323	38129.7
620.678	38138.07
621.034	38223.71
621.39	38386.87
621.746	38395.01
622.101	38803.13
622.457	38720.42
622.812	38945.5
623.168	38954.31
623.523	39100.75
623.879	39355.66
624.234	39166.29
624.589	39469.78
624.945	39464.13
625.3	39682.66
625.655	39742.09
626.01	39745.25
626.365	39921.97
626.72	39862.31
627.075	40035.19
627.43	40022.76
627.785	39994.06
628.14	40173.49
628.495	40410.1
628.85	40365.35
629.205	40149.54
629.559	40595.85
629.914	40345.69
630.269	40539.13
630.623	40545.91
630.978	40509.98
631.332	40660.48
631.687	40870.2
632.041	40655.74
632.396	40766.24
632.75	40750.65
633.104	40702.97
633.459	40634.27
633.813	40780.93
634.167	40718.34
634.521	40708.62
634.875	40935.73
635.229	40785
635.583	40702.52
635.937	40772.8
636.291	40610.54
636.645	40721.05
636.999	40768.73
637.352	40856.41
637.706	40576.87
638.06	40808.5
638.413	40857.99
638.767	40649.19
639.121	40737.32
639.474	40394.73
639.828	40641.5
640.181	40774.15
640.534	40784.32
640.888	40699.81
641.241	40559.02
641.594	40668.39
641.947	40788.62
642.301	40669.52
642.654	40735.06
643.007	40744.1
643.36	40841.72
643.713	40639.24
644.066	40840.14
644.419	40599.24
644.771	40365.58
645.124	39880.17
645.477	39910.45
645.83	39765.37
646.182	39595.2
646.535	39419.16
646.888	39649.89
647.24	39453.06
647.593	39619.38
647.945	39444.7
648.298	39364.93
648.65	39415.55
649.002	39265.04
649.355	39526.96
649.707	39341.2
650.059	39662.54
650.411	39950.9
650.763	40075.19
651.115	40519.25
651.467	40441.51
651.819	40216.2
652.171	40184.11
652.523	40113.61
652.875	40233.6
653.227	40072.25
653.578	40400.38
653.93	40247.84
654.282	40053.72
654.633	40146.15
654.985	40142.53
655.337	40069.09
655.688	40176.2
656.039	40288.74
656.391	39782.54
656.742	39988.41
657.094	40017.79
657.445	40120.39
657.796	40125.81
658.147	39979.15
658.498	39978.24
658.849	40011.91
659.2	40018.69
659.551	39925.36
659.902	40201.74
660.253	40020.5
660.604	40067.96
660.955	39784.58
661.306	39972.59
661.656	39967.62
662.007	39928.98
662.358	40027.28
662.708	40012.14
663.059	39972.37
663.409	39795.87
663.76	39908.87
664.11	39936.66
664.461	39942.76
664.811	39899.83
665.161	39859.15
665.511	39771.24
665.862	39880.84
666.212	40012.82
666.562	39827.74
666.912	39776.89
667.262	39768.98
667.612	39728.76
667.962	39792.48
668.312	39887.62
668.662	39871.13
669.011	39963.78
669.361	39742.32
669.711	39851.47
670.06	39785.71
670.41	39694.63
670.76	39677.23
671.109	39874.74
671.459	39709.1
671.808	39741.86
672.157	39707.97
672.507	39561.98
672.856	39611.47
673.205	39601.53
673.554	39639.27
673.904	39590
674.253	39726.05
674.602	39688.53
674.951	39039.74
675.3	38784.15
675.649	39520.63
675.998	39538.25
676.346	39502.32
676.695	39652.38
677.044	39150.47
677.393	39342.1
677.741	39444.92
678.09	39258.04
678.438	39187.98
678.787	39443.57
679.135	39317.47
679.484	39075.22
679.832	39209.45
680.181	38939.85
680.529	39121.09
680.877	38971.04
681.225	39086.06
681.573	39188.88
681.922	39045.16
682.27	38731.72
682.618	38772.17
682.966	38592.06
683.314	38885.62
683.661	38760.2
684.009	38668.45
684.357	38533.53
684.705	38382.35
685.053	38503.25
685.4	38434.33
685.748	38310.94
686.095	38239.98
686.443	38076.37
686.79	38133.09
687.138	38177.39
687.485	38042.93
687.832	37969.48
688.18	37993.89
688.527	37749.83
688.874	37682.48
689.221	37621.69
689.568	37537.63
689.915	37476.61
690.262	37517.29
690.609	37348.93
690.956	37240.46
691.303	37281.14
691.65	37058.09
691.997	37148.03
692.344	36881.37
692.69	36969.73
693.037	36912.33
693.383	36632.79
693.73	36721.61
694.077	36490.88
694.423	36469.41
694.769	36408.84
695.116	36240.94
695.462	36321.39
695.808	36157.33
696.155	36318
696.501	35948.52
696.847	35913.94
697.193	35682.08
697.539	35825.81
697.885	35536.78
698.231	35424.46
698.577	35561.41
698.923	35410.45
699.269	35305.6
699.614	35218.37
699.96	34997.36
700.306	35047.52
700.651	34879.39
700.997	34814.54
701.342	34847.98
701.688	34588.78
702.033	34565.73
702.379	34505.39
702.724	34424.49
703.069	34545.39
703.415	34244.83
703.76	34279.18
704.105	34222.46
704.45	34139.98
704.795	33882.13
705.14	33750.38
705.485	33755.36
705.83	33702.7
706.175	33676.94
706.52	33546.55
706.865	33482.59
707.209	33494.35
707.554	33431.97
707.899	33468.58
708.243	33271.07
708.588	33216.16
708.932	32906.56
709.277	32915.83
709.621	32962.61
709.966	32787.02
710.31	32797.64
710.654	32511.77
710.998	32516.07
711.342	32654.82
711.687	32618.21
712.031	32382.96
712.375	32260.25
712.719	32358.33
713.063	32229.75
713.407	32347.71
713.75	32157.66
714.094	32170.09
714.438	32152.91
714.782	31984.78
715.125	31845.35
715.469	31941.39
715.812	31701.85
716.156	31693.94
716.499	31604.9
716.843	31578.46
717.186	31495.3
717.53	31537.11
717.873	31582.31
718.216	31614.85
718.559	31288.98
718.902	31183.9
719.246	31232.48
719.589	31119.04
719.932	30999.04
720.275	31130.57
720.617	30892.38
720.96	30968.99
721.303	31008.53
721.646	30998.14
721.989	30811.93
722.331	30965.82
722.674	30782.78
723.016	30598.6
723.359	30699.84
723.701	30619.84
724.044	30488.1
724.386	30420.08
724.729	30485.38
725.071	30307.08
725.413	30413.07
725.755	30236.8
726.097	30287.2
726.439	29987.77
726.782	30093.3
727.124	30176.92
727.465	30001.1
727.807	30085.4
728.149	29776.7
728.491	29864.38
728.833	29849.7
729.175	29821.22
729.516	29698.96
729.858	29675.46
730.199	29763.14
730.541	29680.21
730.882	29632.98
731.224	29700.32
731.565	29566.99
731.906	29422.14
732.248	29611.74
732.589	29291.29
732.93	29204.06
733.271	29202.48
733.612	29377.39
733.953	29285.19
734.294	29152.54
734.635	29154.57
734.976	29241.12
735.317	28954.13
735.658	29035.03
735.999	28948.7
736.339	28926.1
736.68	28988.02
737.021	28981.47
737.361	28815.82
737.702	28879.1
738.042	28780.57
738.383	28793
738.723	28791.64
739.063	28593.01
739.404	28757.97
739.744	28582.84
740.084	28534.93
740.424	28526.57
740.764	28518.43
741.104	28493.57
741.444	28426.68
741.784	28274.37
742.124	28416.96
742.464	28316.85
742.804	28252.9
743.143	28230.98
743.483	28271.88
743.823	27980.82
744.162	27952.34
744.502	28154.6
744.841	27900.37
745.181	28096.52
745.52	27998.67
745.86	27902.85
746.199	27865.34
746.538	27847.94
746.877	27901.05
747.216	27943.76
747.556	27953.02
747.895	27849.3
748.234	27619.47
748.573	27599.59
748.911	27628.28
749.25	27567.72
749.589	27550.32
749.928	27560.49
750.267	27647.95
750.605	27486.59
750.944	27383.55
751.283	27267.62
751.621	27424.22
751.96	27331.12
752.298	27194.4
752.636	27372.02
752.975	27150.11
753.313	27030.56
753.651	27266.49
753.989	26975.42
754.327	26905.59
754.666	26659.95
755.004	26892.71
755.342	26967.29
755.679	26849.32
756.017	26606.39
756.355	26704.02
756.693	26560.52
757.031	26575.66
757.368	26450.46
757.706	26544.25
758.044	26323.01
758.381	26362.1
758.719	26278.94
759.056	26276.46
759.394	26211.37
759.731	26204.14
760.068	26104.03
760.405	25843.25
