Data from hue_110_FLMS001491_00021.txt Node
Date: Tue Feb 07 17:01:05 GMT 2017
User: dcchb
Spectrometer: FLMS00149
Trigger mode: 0
Integration Time (sec): 2.000000E-2
Scans to average: 10
Electric dark correction enabled: true
Nonlinearity correction enabled: false
Boxcar width: 0
XAxis mode: Wavelengths
Number of Pixels in Spectrum: 2048
>>>>>Begin Spectral Data<<<<<
341.393	3.59
341.776	3.59
342.16	3.59
342.543	-68.05
342.927	-64.66
343.31	-70.76
343.693	-64.21
344.077	-53.81
344.46	-55.85
344.843	-65.56
345.226	-23.08
345.61	-37.54
345.993	-23.08
346.376	-10.42
346.759	4.04
347.142	20.76
347.525	35
347.908	57.15
348.291	87.65
348.674	89.91
349.057	109.8
349.44	95.34
349.823	118.16
350.206	152.74
350.588	189.8
350.971	186.41
351.354	212.62
351.737	231.38
352.119	244.71
352.502	268.89
352.884	271.15
353.267	270.7
353.65	287.87
354.032	289.91
354.414	306.86
354.797	314.09
355.179	318.61
355.562	334.88
355.944	319.29
356.326	333.75
356.709	324.93
357.091	340.98
357.473	352.28
357.855	337.14
358.238	344.6
358.62	359.74
359.002	349.79
359.384	342.56
359.766	331.49
360.148	325.84
360.53	350.25
360.912	350.92
361.294	341.66
361.676	325.61
362.057	311.83
362.439	330.58
362.821	337.14
363.203	329
363.584	313.41
363.966	319.51
364.348	328.32
364.729	337.36
365.111	328.55
365.493	342.11
365.874	305.5
366.256	313.64
366.637	328.55
367.019	314.77
367.4	306.4
367.781	303.47
368.163	282.22
368.544	297.37
368.925	314.09
369.306	300.53
369.688	305.05
370.069	314.77
370.45	306.18
370.831	322
371.212	324.26
371.593	314.09
371.974	313.18
372.355	282.9
372.736	297.14
373.117	314.54
373.498	317.25
373.879	307.99
374.26	322
374.641	317.25
375.021	300.53
375.402	306.18
375.783	294.2
376.163	337.82
376.544	325.39
376.925	324.93
377.305	306.18
377.686	314.31
378.066	314.54
378.447	302.11
378.827	347.76
379.208	328.78
379.588	338.04
379.968	326.97
380.349	327.42
380.729	336.01
381.109	357.25
381.489	330.81
381.87	346.63
382.25	336.23
382.63	340.08
383.01	329
383.39	355.44
383.77	333.97
384.15	346.63
384.53	348.21
384.91	346.86
385.29	349.34
385.67	341.21
386.049	341.88
386.429	329.45
386.809	352.5
387.189	359.28
387.568	354.54
387.948	339.17
388.328	335.33
388.707	349.79
389.087	335.56
389.466	361.09
389.846	364.48
390.225	338.72
390.605	377.59
390.984	356.35
391.363	372.39
391.743	369
392.122	357.7
392.501	345.73
392.881	354.31
393.26	381.66
393.639	373.3
394.018	387.98
394.397	364.71
394.776	365.16
395.155	363.35
395.534	364.48
395.913	364.48
396.292	388.44
396.671	380.53
397.05	387.98
397.429	385.95
397.808	376.46
398.186	380.75
398.565	358.38
398.944	380.3
399.323	388.66
399.701	397.02
400.08	380.98
400.458	380.07
400.837	391.83
401.215	379.4
401.594	391.37
401.972	396.35
402.351	400.64
402.729	406.06
403.107	404.03
403.486	405.61
403.864	387.53
404.242	394.31
404.62	398.83
404.999	406.97
405.377	404.93
405.755	404.71
406.133	421.66
406.511	438.83
406.889	431.6
407.267	424.14
407.645	436.34
408.023	430.92
408.401	431.37
408.779	433.86
409.156	424.14
409.534	442.67
409.912	447.42
410.29	440.19
410.667	451.03
411.045	452.62
411.422	455.55
411.8	451.03
412.178	441.09
412.555	459.39
412.933	479.06
413.31	479.96
413.687	459.85
414.065	483.57
414.442	467.53
414.819	478.15
415.197	472.5
415.574	465.27
415.951	468.43
416.328	482.9
416.705	475.89
417.082	487.42
417.46	484.93
417.837	502.56
418.214	508.43
418.591	500.98
418.967	502.33
419.344	517.7
419.721	509.79
420.098	505.72
420.475	516.79
420.852	518.15
421.228	512.95
421.605	521.54
421.982	556.34
422.358	533.29
422.735	526.74
423.111	531.26
423.488	518.15
423.864	542.78
424.241	545.27
424.617	555.44
424.994	564.25
425.37	539.17
425.746	545.27
426.123	551.82
426.499	564.25
426.875	556.57
427.251	585.95
427.627	584.14
428.003	585.95
428.379	594.53
428.756	586.17
429.132	590.92
429.507	597.92
429.883	608.09
430.259	605.83
430.635	612.39
431.011	622.1
431.387	613.97
431.763	630.24
432.138	632.05
432.514	607.87
432.89	641.08
433.265	634.31
433.641	659.62
434.016	656
434.392	647.41
434.767	672.27
435.143	676.11
435.518	677.69
435.894	689.67
436.269	707.3
436.644	685.6
437.02	717.92
437.395	680.63
437.77	700.29
438.145	735.55
438.52	710.01
438.895	736.22
439.271	729.9
439.646	716.34
440.021	716.11
440.395	732.16
440.77	758.6
441.145	753.4
441.52	755.66
441.895	755.88
442.27	767.41
442.645	783.23
443.019	766.96
443.394	787.52
443.769	787.3
444.143	802.89
444.518	791.36
444.892	801.53
445.267	811.02
445.641	813.96
446.016	820.52
446.39	824.36
446.764	807.18
447.139	824.13
447.513	820.06
447.887	827.52
448.262	847.18
448.636	855.54
449.01	854.41
449.384	859.38
449.758	866.39
450.132	852.38
450.506	886.28
450.88	876.78
451.254	875.65
451.628	864.81
452.002	886.28
452.376	901.42
452.75	919.04
453.123	931.25
453.497	930.12
453.871	934.18
454.244	958.14
454.618	971.47
454.992	959.49
455.365	960.85
455.739	1025.71
456.112	991.58
456.486	1041.3
456.859	1025.26
457.232	1024.8
457.606	1036.78
457.979	1060.73
458.352	1062.77
458.725	1059.6
459.099	1080.17
459.472	1096.67
459.845	1116.1
460.218	1119.94
460.591	1133.05
460.964	1118.59
461.337	1147.74
461.71	1180.73
462.083	1197
462.456	1194.29
462.829	1217.34
463.201	1226.61
463.574	1232.93
463.947	1228.87
464.32	1285.36
464.692	1288.53
465.065	1298.47
465.438	1335.76
465.81	1347.28
466.183	1365.13
466.555	1407.39
466.928	1403.55
467.3	1408.75
467.672	1437.22
468.045	1495.07
468.417	1475.19
468.789	1517.45
469.161	1510.21
469.534	1558.57
469.906	1574.85
470.278	1614.62
470.65	1656.43
471.022	1672.24
471.394	1714.5
471.766	1735.75
472.138	1742.52
472.51	1832.24
472.882	1870.21
473.253	1879.24
473.625	1936.42
473.997	1932.58
474.369	2022.29
474.74	2023.2
475.112	2065.68
475.484	2125.34
475.855	2201.5
476.227	2248.27
476.598	2325.33
476.97	2339.12
477.341	2418.21
477.713	2472.45
478.084	2521.04
478.455	2583.41
478.827	2661.37
479.198	2768.49
479.569	2811.65
479.94	2908.14
480.311	2992.21
480.682	3042.83
481.053	3149.04
481.424	3251.64
481.795	3317.62
482.166	3408.24
482.537	3521.91
482.908	3646.43
483.279	3709.03
483.65	3825.86
484.021	3925.97
484.391	4005.74
484.762	4111.28
485.133	4204.83
485.503	4310.37
485.874	4461.1
486.244	4566.86
486.615	4718.72
486.985	4795.78
487.356	4933.4
487.726	5066.96
488.097	5253.62
488.467	5297.01
488.837	5437.79
489.207	5598.02
489.578	5784.68
489.948	5875.52
490.318	5999.14
490.688	6076.2
491.058	6247.27
491.428	6475.96
491.798	6535.17
492.168	6797.31
492.538	6825.78
492.908	6993.46
493.278	7132.89
493.648	7167.69
494.017	7377.4
494.387	7534.69
494.757	7692.65
495.126	7800.67
495.496	7831.18
495.866	8017.61
496.235	8163.37
496.605	8296.48
496.974	8451.05
497.344	8565.17
497.713	8676.35
498.082	8825.73
498.452	8853.75
498.821	9065.95
499.19	9058.04
499.559	9292.38
499.928	9352.72
500.298	9426.62
500.667	9574.41
501.036	9645.37
501.405	9782.99
501.774	9748.19
502.143	9918.13
502.512	10011.01
502.88	10199.25
503.249	10245.8
503.618	10337.78
503.987	10447.15
504.356	10469.98
504.724	10571.67
505.093	10599.02
505.462	10750.42
505.83	10808.05
506.199	10928.05
506.567	10994.71
506.936	11095.73
507.304	11248.49
507.672	11231.54
508.041	11260.01
508.409	11373.01
508.777	11489.39
509.145	11524.41
509.514	11629.27
509.882	11681.7
510.25	11666.33
510.618	11772.09
510.986	11831.07
511.354	11916.95
511.722	11964.85
512.09	12045.53
512.458	12081.01
512.826	12135.92
513.193	12183.15
513.561	12208.24
513.929	12345.41
514.297	12432.64
514.664	12506.54
515.032	12510.6
515.4	12627.44
515.767	12626.98
516.135	12615.46
516.502	12612.3
516.869	12772.74
517.237	12788.34
517.604	12708.34
517.972	12912.85
518.339	12864.27
518.706	12948.78
519.073	12986.07
519.44	12987.43
519.808	13037.6
520.175	13023.58
520.542	13104.26
520.909	13160.98
521.276	13138.84
521.643	13262.22
522.009	13252.73
522.376	13298.15
522.743	13352.84
523.11	13414.99
523.477	13524.59
523.843	13513.06
524.21	13527.3
524.577	13563.68
524.943	13576.79
525.31	13670.8
525.676	13678.03
526.043	13648.88
526.409	13765.03
526.776	13840.06
527.142	13783.56
527.508	13859.72
527.874	13900.85
528.241	13787.63
528.607	13825.82
528.973	13907.85
529.339	13856.33
529.705	13928.42
530.071	14037.57
530.437	13928.87
530.803	13931.13
531.169	13965.25
531.535	13931.36
531.901	13896.78
532.267	14025.14
532.632	13986.72
532.998	13948.53
533.364	13980.4
533.73	13903.79
534.095	14014.29
534.461	13932.49
534.826	14009.77
535.192	14001.86
535.557	14056.33
535.923	13879.15
536.288	13916.89
536.653	13894.3
537.019	13804.13
537.384	13787.63
537.749	13762.77
538.114	13758.71
538.479	13739.05
538.845	13814.75
539.21	13690.01
539.575	13664.47
539.94	13671.02
540.305	13629.67
540.67	13618.82
541.034	13648.2
541.399	13597.81
541.764	13570.01
542.129	13514.87
542.494	13455.44
542.858	13503.57
543.223	13463.35
543.587	13432.84
543.952	13402.56
544.316	13355.1
544.681	13348.55
545.045	13361.43
545.41	13300.41
545.774	13326.18
546.138	13279.4
546.503	13183.58
546.867	13169.34
547.231	13274.2
547.595	13145.84
547.959	13138.16
548.324	13099.51
548.688	13097.03
549.052	13118.04
549.416	13050.25
549.779	12984.04
550.143	12937.48
550.507	12914.43
550.871	12958.28
551.235	12885.06
551.599	12877.37
551.962	12861.33
552.326	12846.41
552.689	12873.98
553.053	12721.9
553.417	12700.65
553.78	12828.79
554.143	12783.59
554.507	12704.95
554.87	12743.14
555.234	12738.85
555.597	12629.47
555.96	12622.46
556.323	12649.36
556.686	12648.68
557.05	12635.8
557.413	12642.8
557.776	12606.19
558.139	12590.15
558.502	12572.97
558.865	12593.09
559.228	12631.05
559.59	12623.82
559.953	12579.3
560.316	12684.16
560.679	12673.31
561.041	12667.89
561.404	12610.49
561.767	12710.6
562.129	12593.76
562.492	12614.56
562.854	12639.87
563.217	12594.89
563.579	12625.18
563.941	12684.84
564.304	12709.69
564.666	12749.24
565.028	12752.4
565.39	12698.62
565.753	12776.13
566.115	12752.63
566.477	12805.74
566.839	12774.78
567.201	12786.75
567.563	12840.54
567.925	12913.76
568.287	12836.47
568.648	12812.52
569.01	12865.17
569.372	12906.3
569.734	12893.42
570.095	12931.16
570.457	12901.78
570.819	12916.92
571.18	12897.94
571.542	12985.17
571.903	13027.2
572.265	13014.32
572.626	13058.39
572.987	12963.47
573.349	13033.08
573.71	12990.59
574.071	13041.21
574.432	13073.07
574.794	13108.78
575.155	13109.91
575.516	13070.81
575.877	13062
576.238	13051.83
576.599	13116.91
576.96	13092.28
577.32	13105.84
577.681	13169.79
578.042	13108.33
578.403	13112.85
578.763	13124.6
579.124	13130.25
579.485	13156.01
579.845	13153.07
580.206	13160.98
580.566	13084.83
580.927	13186.52
581.287	13164.15
581.648	13076.24
582.008	13132.28
582.368	13151.49
582.728	13159.17
583.089	13133.64
583.449	13113.75
583.809	13203.01
584.169	13129.8
584.529	13026.07
584.889	13188.78
585.249	13017.71
585.609	13056.35
585.969	13071.04
586.329	13003.25
586.688	13055.45
587.048	13057.48
587.408	12986.97
587.768	13017.48
588.127	12968.67
588.487	12953.98
588.846	13091.15
589.206	12925.73
589.565	12949.24
589.925	13021.55
590.284	13029.69
590.643	12939.52
591.003	13039.18
591.362	13046.63
591.721	12877.83
592.08	12951.27
592.44	13023.81
592.799	12980.2
593.158	12980.87
593.517	12960.08
593.876	12995.56
594.235	12870.14
594.593	12908.11
594.952	12862.46
595.311	12744.95
595.67	12871.95
596.029	12891.16
596.387	12850.71
596.746	12990.36
597.104	12853.87
597.463	12852.29
597.822	12885.06
598.18	12817.26
598.538	12795.79
598.897	12923.93
599.255	12786.75
599.613	12977.03
599.972	12822.91
600.33	12890.71
600.688	12759.18
601.046	12855.9
601.404	12923.02
601.762	12809.13
602.12	12956.47
602.478	12912.17
602.836	12850.03
603.194	12850.71
603.552	12854.77
603.91	12763.25
604.268	12847.09
604.625	12852.52
604.983	12862.23
605.341	12796.25
605.698	12851.61
606.056	12854.77
606.413	12895
606.771	12956.47
607.128	12891.61
607.485	12839.86
607.843	12904.27
608.2	12937.48
608.557	13005.73
608.914	12841.67
609.272	12974.77
609.629	12921.89
609.986	13058.39
610.343	12966.86
610.7	13020.87
611.057	12960.53
611.414	12965.51
611.771	12935.22
612.127	13144.48
612.484	13001.21
612.841	13107.88
613.198	13054.32
613.554	12969.12
613.911	13163.69
614.267	13165.95
614.624	13002.57
614.98	13114.43
615.337	13069.01
615.693	13132.96
616.05	13090.48
616.406	13127.31
616.762	13109.46
617.118	13139.29
617.475	13073.75
617.831	13144.26
618.187	13139.74
618.543	13252.5
618.899	13203.01
619.255	13286.85
619.611	13298.83
619.967	13226.74
620.323	13337.47
620.678	13319.4
621.034	13243.69
621.39	13267.42
621.746	13146.52
622.101	13317.59
622.457	13184.71
622.812	13268.32
623.168	13262.22
623.523	13268.1
623.879	13331.6
624.234	13204.6
624.589	13314.42
624.945	13248.89
625.3	13331.37
625.655	13255.67
626.01	13248.89
626.365	13311.03
626.72	13242.56
627.075	13203.47
627.43	13255.89
627.785	13217.03
628.14	13226.29
628.495	13288.44
628.85	13220.19
629.205	13156.24
629.559	13307.42
629.914	13111.72
630.269	13144.03
630.623	13103.13
630.978	13065.62
631.332	13280.75
631.687	13184.71
632.041	13108.1
632.396	13189.91
632.75	12998.5
633.104	13113.07
633.459	13056.35
633.813	13088.44
634.167	13011.61
634.521	13014.32
634.875	13079.18
635.229	13029.69
635.583	13040.76
635.937	13007.77
636.291	12966.41
636.645	12920.31
636.999	12925.73
637.352	12945.17
637.706	12898.62
638.06	12894.1
638.413	12841.22
638.767	12804.61
639.121	12883.02
639.474	12718.06
639.828	12771.61
640.181	12909.91
640.534	12921.21
640.888	12722.8
641.241	12718.96
641.594	12787.43
641.947	12764.16
642.301	12748.11
642.654	12753.76
643.007	12720.09
643.36	12689.58
643.713	12714.67
644.066	12877.37
644.419	12660.66
644.771	12607.32
645.124	12518.51
645.477	12547.89
645.83	12382.47
646.182	12298.86
646.535	12313.32
646.888	12330.72
647.24	12234.45
647.593	12418.63
647.945	12298.63
648.298	12215.92
648.65	12278.07
649.002	12216.83
649.355	12361.23
649.707	12227.22
650.059	12297.73
650.411	12456.37
650.763	12438.29
651.115	12654.33
651.467	12566.2
651.819	12512.64
652.171	12541.56
652.523	12546.31
652.875	12526.2
653.227	12461.34
653.578	12599.19
653.93	12512.64
654.282	12525.74
654.633	12487.55
654.985	12522.35
655.337	12527.1
655.688	12516.25
656.039	12619.75
656.391	12422.7
656.742	12542.01
657.094	12557.16
657.445	12576.14
657.796	12635.57
658.147	12537.72
658.498	12545.18
658.849	12592.18
659.2	12467.89
659.551	12476.71
659.902	12550.83
660.253	12555.12
660.604	12578.17
660.955	12581.11
661.306	12610.71
661.656	12610.26
662.007	12569.36
662.358	12574.56
662.708	12657.04
663.059	12675.34
663.409	12555.8
663.76	12671.05
664.11	12713.76
664.461	12634.22
664.811	12733.87
665.161	12641.22
665.511	12593.54
665.862	12583.14
666.212	12692.75
666.562	12684.84
666.912	12568
667.262	12690.03
667.612	12560.32
667.962	12571.84
668.312	12609.58
668.662	12713.76
669.011	12607.1
669.361	12612.97
669.711	12591.73
670.06	12570.49
670.41	12529.59
670.76	12520.09
671.109	12550.38
671.459	12573.2
671.808	12527.55
672.157	12618.62
672.507	12445.75
672.856	12511.06
673.205	12566.42
673.554	12559.87
673.904	12509.47
674.253	12587.66
674.602	12570.71
674.951	12340.44
675.3	12251.18
675.649	12410.27
675.998	12486.88
676.346	12408.01
676.695	12449.81
677.044	12334.79
677.393	12386.09
677.741	12390.61
678.09	12290.5
678.438	12330.72
678.787	12321.68
679.135	12412.98
679.484	12223.61
679.832	12316.03
680.181	12277.16
680.529	12229.48
680.877	12176.15
681.225	12212.76
681.573	12271.51
681.922	12136.15
682.27	12194.91
682.618	12161.91
682.966	12115.59
683.314	12112.2
683.661	12098.64
684.009	11980.22
684.357	12001.69
684.705	11984.52
685.053	11999.43
685.4	11947.23
685.748	11930.05
686.095	11950.17
686.443	11905.42
686.79	11798.08
687.138	11871.3
687.485	11902.71
687.832	11836.27
688.18	11765.54
688.527	11658.2
688.874	11722.83
689.221	11611.87
689.568	11613.9
689.915	11632.43
690.262	11595.37
690.609	11595.37
690.956	11500.69
691.303	11413.46
691.65	11481.48
691.997	11436.73
692.344	11308.83
692.69	11287.58
693.037	11340.01
693.383	11253.69
693.73	11253.01
694.077	11177.76
694.423	11106.12
694.769	11149.74
695.116	11099.79
695.462	11019.12
695.808	10987.25
696.155	11017.99
696.501	10979.57
696.847	10908.16
697.193	10831.33
697.539	10898.22
697.885	10767.37
698.231	10721.5
698.577	10732.12
698.923	10697.32
699.269	10655.96
699.614	10591.56
699.96	10546.81
700.306	10547.04
700.651	10523.08
700.997	10429.53
701.342	10385.46
701.688	10384.33
702.033	10333.49
702.379	10303.2
702.724	10323.09
703.069	10290.1
703.415	10197.44
703.76	10219.36
704.105	10163.55
704.45	10137.56
704.795	10065.7
705.14	10048.97
705.485	10034.28
705.83	10017.34
706.175	9945.7
706.52	9880.39
706.865	9914.29
707.209	9878.58
707.554	9830.22
707.899	9882.2
708.243	9740.96
708.588	9825.48
708.932	9734.63
709.277	9643.56
709.621	9692.15
709.966	9601.08
710.31	9706.16
710.654	9559.04
710.998	9571.25
711.342	9560.17
711.687	9500.74
712.031	9481.53
712.375	9461.42
712.719	9435.88
713.063	9412.83
713.407	9445.15
713.75	9392.49
714.094	9406.5
714.438	9351.59
714.782	9450.8
715.125	9310.01
715.469	9378.26
715.812	9302.55
716.156	9168.77
716.499	9229.33
716.843	9282.67
717.186	9189.79
717.53	9311.59
717.873	9187.3
718.216	9228.88
718.559	9153.63
718.902	9062.33
719.246	9113.4
719.589	9121.77
719.932	9029.56
720.275	9141.2
720.617	9053.29
720.96	9033.86
721.303	9095.33
721.646	9105.27
721.989	9064.14
722.331	9063.24
722.674	9039.06
723.016	9017.59
723.359	8976.91
723.701	9026.85
724.044	8978.94
724.386	8892.85
724.729	8995.22
725.071	8926.29
725.413	8949.34
725.755	8925.16
726.097	8888.55
726.439	8888.55
726.782	8875.9
727.124	8879.06
727.465	8874.99
727.807	8851.04
728.149	8900.3
728.491	8821.66
728.833	8876.8
729.175	8841.77
729.516	8849.46
729.858	8826.41
730.199	8864.15
730.541	8816.46
730.882	8835.45
731.224	8838.61
731.565	8788.22
731.906	8797.48
732.248	8812.85
732.589	8779.18
732.93	8731.95
733.271	8743.7
733.612	8760.19
733.953	8754.32
734.294	8757.71
734.635	8831.38
734.976	8845.84
735.317	8813.75
735.658	8740.98
735.999	8826.41
736.339	8818.27
736.68	8832.06
737.021	8821.66
737.361	8722.23
737.702	8818.5
738.042	8771.27
738.383	8816.01
738.723	8804.49
739.063	8858.27
739.404	8864.82
739.744	8860.76
740.084	8847.2
740.424	8951.6
740.764	8932.17
741.104	8894.2
741.444	8877.25
741.784	8912.73
742.124	8997.93
742.464	8954.99
742.804	8973.3
743.143	9004.03
743.483	9098.04
743.823	9113.86
744.162	8997.48
744.502	9118.15
744.841	9124.48
745.181	9148.66
745.52	9174.65
745.86	9245.15
746.199	9265.72
746.538	9364.47
746.877	9420.29
747.216	9463.9
747.556	9391.14
747.895	9505.71
748.234	9529.66
748.573	9597.01
748.911	9645.59
749.25	9733.05
749.589	9735.53
749.928	9861.41
750.267	9934.63
750.605	9986.83
750.944	10004.45
751.283	10115.41
751.621	10161.74
751.96	10302.75
752.298	10355.63
752.636	10451
752.975	10535.74
753.313	10649.18
753.651	10824.09
753.989	10838.56
754.327	10940.02
754.666	11033.58
755.004	11170.3
755.342	11356.51
755.679	11428.15
756.017	11506.79
756.355	11707.91
756.693	11800.34
757.031	11982.26
757.368	12079.88
757.706	12242.81
758.044	12375.24
758.381	12559.42
758.719	12657.27
759.056	12778.39
