Data from hue_340_FLMS001491_24.txt Node
Date: Mon Feb 06 15:42:41 GMT 2017
User: dcchb
Spectrometer: FLMS00149
Trigger mode: 0
Integration Time (sec): 2.000000E-2
Scans to average: 10
Electric dark correction enabled: true
Nonlinearity correction enabled: false
Boxcar width: 0
XAxis mode: Wavelengths
Number of Pixels in Spectrum: 2048
>>>>>Begin Spectral Data<<<<<
341.393	0.51
341.776	0.51
342.16	0.51
342.543	-51.69
342.927	-67.06
343.31	-61.41
343.693	-72.94
344.077	-48.08
344.46	-62.31
344.843	-48.98
345.226	-32.71
345.61	-28.64
345.993	-18.7
346.376	9.55
346.759	2.32
347.142	35.31
347.525	39.38
347.908	35.08
348.291	59.26
348.674	80.73
349.057	112.14
349.44	134.97
349.823	140.17
350.206	162.54
350.588	195.08
350.971	208.41
351.354	219.71
351.737	234.85
352.119	245.25
352.502	274.63
352.884	273.27
353.267	275.98
353.65	286.38
354.032	295.19
354.414	275.98
354.797	316.43
355.179	304.23
355.562	329.99
355.944	316.66
356.326	327.28
356.709	319.37
357.091	343.55
357.473	340.39
357.855	338.58
358.238	341.74
358.62	322.76
359.002	334.28
359.384	337.9
359.766	327.28
360.148	344.23
360.53	334.06
360.912	327.28
361.294	331.12
361.676	337
362.057	332.93
362.439	320.95
362.821	304.46
363.203	333.61
363.584	322.99
363.966	318.69
364.348	320.05
364.729	328.41
365.111	300.61
365.493	325.02
365.874	290.9
366.256	320.95
366.637	319.37
367.019	303.55
367.4	290.22
367.781	304.68
368.163	319.37
368.544	294.96
368.925	312.36
369.306	318.92
369.688	287.73
370.069	300.16
370.45	311.01
370.831	302.42
371.212	318.47
371.593	301.97
371.974	310.1
372.355	299.71
372.736	322.53
373.117	322.53
373.498	323.44
373.879	320.73
374.26	297.22
374.641	330.22
375.021	309.65
375.402	313.49
375.783	319.82
376.163	321.4
376.544	319.37
376.925	336.77
377.305	335.64
377.686	346.49
378.066	322.53
378.447	313.04
378.827	322.76
379.208	341.74
379.588	319.6
379.968	320.73
380.349	315.3
380.729	330.9
381.109	336.77
381.489	348.52
381.87	340.39
382.25	332.03
382.63	329.77
383.01	321.63
383.39	328.64
383.77	347.39
384.15	327.05
384.53	338.8
384.91	353.72
385.29	324.57
385.67	340.39
386.049	336.09
386.429	332.25
386.809	335.64
387.189	350.33
387.568	327.28
387.948	345.81
388.328	341.29
388.707	374.28
389.087	342.87
389.466	361.18
389.846	360.72
390.225	347.84
390.605	364.79
390.984	348.52
391.363	355.3
391.743	350.78
392.122	355.53
392.501	387.62
392.881	378.8
393.26	345.13
393.639	370.22
394.018	339.03
394.397	362.31
394.776	386.26
395.155	385.58
395.534	382.87
395.913	374.06
396.292	376.09
396.671	393.04
397.05	387.16
397.429	387.84
397.808	376.32
398.186	369.09
398.565	373.61
398.944	383.55
399.323	378.58
399.701	388.75
400.08	382.65
400.458	380.61
400.837	379.26
401.215	387.62
401.594	386.71
401.972	393.72
402.351	405.24
402.729	391.23
403.107	423.55
403.486	425.13
403.864	391.46
404.242	412.93
404.62	429.2
404.999	414.51
405.377	408.41
405.755	411.57
406.133	407.96
406.511	415.64
406.889	425.81
407.267	439.59
407.645	417.9
408.023	423.55
408.401	406.15
408.779	457.9
409.156	424.68
409.534	452.25
409.912	442.98
410.29	472.59
410.667	443.21
411.045	455.41
411.422	436.88
411.8	463.55
412.178	447.05
412.555	465.58
412.933	482.08
413.31	492.02
413.687	484.34
414.065	482.98
414.442	502.64
414.819	505.13
415.197	519.82
415.574	496.09
415.951	527.27
416.328	532.25
416.705	494.28
417.082	519.82
417.46	516.65
417.837	520.95
418.214	543.09
418.591	524.11
418.967	545.35
419.344	579.93
419.721	537.67
420.098	520.95
420.475	548.74
420.852	540.16
421.228	541.74
421.605	569.08
421.982	578.12
422.358	581.51
422.735	586.26
423.111	556.2
423.488	560.04
423.864	584.9
424.241	559.82
424.617	577.67
424.994	594.62
425.37	590.78
425.746	613.37
426.123	610.44
426.499	612.47
426.875	625.12
427.251	619.93
427.627	656.31
428.003	634.39
428.379	646.14
428.756	650.66
429.132	645.92
429.507	636.65
429.883	670.55
430.259	690.89
430.635	685.46
431.011	675.52
431.387	678.46
431.763	709.19
432.138	698.57
432.514	723.43
432.89	728.85
433.265	755.29
433.641	715.07
434.016	713.03
434.392	749.64
434.767	760.04
435.143	767.27
435.518	754.16
435.894	776.31
436.269	778.34
436.644	779.92
437.02	779.7
437.395	803.65
437.77	818.34
438.145	801.17
438.52	801.39
438.895	823.31
439.271	823.31
439.646	845.23
440.021	844.33
440.395	824.67
440.77	824.44
441.145	835.29
441.52	869.64
441.895	866.47
442.27	868.06
442.645	866.02
443.019	870.54
443.394	883.88
443.769	896.53
444.143	859.02
444.518	895.4
444.892	904.21
445.267	901.28
445.641	920.48
446.016	919.13
446.39	884.55
446.764	919.13
447.139	933.59
447.513	916.42
447.887	928.17
448.262	918.45
448.636	916.87
449.01	953.93
449.384	948.05
449.758	957.32
450.132	958
450.506	946.47
450.88	957.55
451.254	972.91
451.628	969.3
452.002	958.22
452.376	983.53
452.75	993.93
453.123	984.66
453.497	1009.75
453.871	975.85
454.244	1008.62
454.618	1052.01
454.992	1020.37
455.365	1046.58
455.739	1038.67
456.112	1060.59
456.486	1053.59
456.859	1058.79
457.232	1063.31
457.606	1070.31
457.979	1100.59
458.352	1111.21
458.725	1128.61
459.099	1116.41
459.472	1126.58
459.845	1153.02
460.218	1152.57
460.591	1153.92
460.964	1172.46
461.337	1176.97
461.71	1203.87
462.083	1184.43
462.456	1215.62
462.829	1200.93
463.201	1236.63
463.574	1220.59
463.947	1266.01
464.32	1277.54
464.692	1247.93
465.065	1263.75
465.438	1289.29
465.81	1249.52
466.183	1324.32
466.555	1335.84
466.928	1355.73
467.3	1341.72
467.672	1343.07
468.045	1393.24
468.417	1360.7
468.789	1421.49
469.161	1385.1
469.534	1441.6
469.906	1448.15
470.278	1483.86
470.65	1485.22
471.022	1492.9
471.394	1536.74
471.766	1517.98
472.138	1559.11
472.51	1576.06
472.882	1564.31
473.253	1574.03
473.625	1583.52
473.997	1639.79
474.369	1665.78
474.74	1706.45
475.112	1714.14
475.484	1703.97
475.855	1729.05
476.227	1781.03
476.598	1803.62
476.97	1827.35
477.341	1823.06
477.713	1853.79
478.084	1844.3
478.455	1910.06
478.827	1946.67
479.198	1995.26
479.569	2013.79
479.94	2029.38
480.311	2071.41
480.682	2115.03
481.053	2147.8
481.424	2167.91
481.795	2164.97
482.166	2165.65
482.537	2228.02
482.908	2277.74
483.279	2285.65
483.65	2346.66
484.021	2351.41
484.391	2369.94
484.762	2400.9
485.133	2420.78
485.503	2435.02
485.874	2528.58
486.244	2523.83
486.615	2550.95
486.985	2602.47
487.356	2638.86
487.726	2666.65
488.097	2717.05
488.467	2725.41
488.837	2754.56
489.207	2770.83
489.578	2826.2
489.948	2875.46
490.318	2908.45
490.688	2891.05
491.058	2921.11
491.428	2953.2
491.798	3036.81
492.168	3098.96
492.538	3071.61
492.908	3097.6
493.278	3153.42
493.648	3153.65
494.017	3180.09
494.387	3183.48
494.757	3242.01
495.126	3274.09
495.496	3250.14
495.866	3294.66
496.235	3328.78
496.605	3364.94
496.974	3374.88
497.344	3397.71
497.713	3432.06
498.082	3504.15
498.452	3481.55
498.821	3442.23
499.19	3495.78
499.559	3537.82
499.928	3566.06
500.298	3519.51
500.667	3579.85
501.036	3574.65
501.405	3636.57
501.774	3630.7
502.143	3640.19
502.512	3680.41
502.88	3715.67
503.249	3687.42
503.618	3745.49
503.987	3741.88
504.356	3775.1
504.724	3766.51
505.093	3783.46
505.462	3772.61
505.83	3778.94
506.199	3885.83
506.567	3873.85
506.936	3850.8
507.304	3930.35
507.672	3933.96
508.041	3970.35
508.409	3961.99
508.777	3956.79
509.145	3972.61
509.514	3934.64
509.882	4041.08
510.25	4030.91
510.618	4029.1
510.986	4044.92
511.354	4040.63
511.722	4092.83
512.09	4098.25
512.458	4098.71
512.826	4164.92
513.193	4152.49
513.561	4148.65
513.929	4164.01
514.297	4224.58
514.664	4265.93
515.032	4213.05
515.4	4242.2
515.767	4256.89
516.135	4292.37
516.502	4248.31
516.869	4330.79
517.237	4336.89
517.604	4339.38
517.972	4387.74
518.339	4359.94
518.706	4344.12
519.073	4438.36
519.44	4387.29
519.808	4416.89
520.175	4406.95
520.542	4470
520.909	4515.19
521.276	4433.16
521.643	4512.48
522.009	4546.6
522.376	4501.18
522.743	4570.33
523.11	4597.9
523.477	4634.74
523.843	4613.04
524.21	4683.78
524.577	4706.37
524.943	4719.03
525.31	4774.17
525.676	4787.28
526.043	4801.96
526.409	4799.7
526.776	4858.69
527.142	4867.95
527.508	4875.86
527.874	4914.96
528.241	4935.07
528.607	4912.7
528.973	5011.45
529.339	4964.22
529.705	5041.96
530.071	5081.96
530.437	5063.43
530.803	5079.47
531.169	5139.36
531.535	5097.32
531.901	5176.42
532.267	5177.55
532.632	5218
532.998	5238.34
533.364	5280.14
533.73	5251.22
534.095	5294.83
534.461	5308.84
534.826	5340.71
535.192	5347.49
535.557	5367.15
535.923	5453.02
536.288	5396.07
536.653	5424.55
537.019	5408.73
537.384	5457.99
537.749	5498.44
538.114	5506.58
538.479	5534.83
538.845	5557.65
539.21	5529.18
539.575	5579.34
539.94	5605.78
540.305	5650.98
540.67	5613.24
541.034	5702.28
541.399	5735.27
541.764	5692.56
542.129	5729.85
542.494	5691.21
542.858	5783.63
543.223	5846.68
543.587	5866.79
543.952	5886
544.316	5867.92
544.681	5906.12
545.045	5916.96
545.41	5945.89
545.774	5982.72
546.138	6010.75
546.503	6006
546.867	6020.46
547.231	6081.03
547.595	6096.62
547.959	6086.22
548.324	6162.15
548.688	6110.86
549.052	6090.29
549.416	6144.53
549.779	6132.32
550.143	6175.49
550.507	6266.56
550.871	6214.58
551.235	6233.11
551.599	6327.12
551.962	6320.34
552.326	6364.41
552.689	6354.92
553.053	6385.43
553.417	6364.63
553.78	6482.6
554.143	6436.5
554.507	6424.07
554.87	6518.76
555.234	6514.24
555.597	6516.95
555.96	6531.86
556.323	6601.92
556.686	6545.42
557.05	6572.31
557.413	6612.54
557.776	6612.76
558.139	6666.1
558.502	6696.6
558.865	6667.23
559.228	6764.62
559.59	6731.86
559.953	6770.73
560.316	6834.23
560.679	6808.92
561.041	6851.63
561.404	6864.96
561.767	6859.99
562.129	6867.9
562.492	6974.34
562.854	6976.82
563.217	6995.35
563.579	6993.32
563.941	7024.28
564.304	7079.42
564.666	7082.13
565.028	7075.12
565.39	7112.64
565.753	7207.32
566.115	7207.55
566.477	7201.45
566.839	7254.56
567.201	7206.42
567.563	7242.58
567.925	7347.43
568.287	7342.91
568.648	7304.72
569.01	7434.21
569.372	7426.98
569.734	7416.58
570.095	7431.05
570.457	7544.49
570.819	7540.65
571.18	7567.99
571.542	7636.24
571.903	7685.5
572.265	7703.13
572.626	7696.13
572.987	7761.21
573.349	7798.27
573.71	7865.39
574.071	7888.89
574.432	7966.4
574.794	8057.25
575.155	8030.58
575.516	8043.46
575.877	8115.55
576.238	8135.21
576.599	8248.43
576.96	8285.26
577.32	8306.96
577.681	8430.57
578.042	8507.18
578.403	8510.79
578.763	8672.82
579.124	8679.83
579.485	8768.87
579.845	8913.27
580.206	9018.8
580.566	9071.91
580.927	9191.68
581.287	9399.58
581.648	9375.18
582.008	9564.55
582.368	9664.66
582.728	9797.31
583.089	9897.65
583.449	10007.48
583.809	10190.3
584.169	10266.91
584.529	10519.1
584.889	10748.7
585.249	10818.98
585.609	10974.01
585.969	11178.75
586.329	11367.67
586.688	11511.84
587.048	11637.04
587.408	11890.14
587.768	12059.63
588.127	12289.68
588.487	12541.65
588.846	12756.11
589.206	12953.84
589.565	13167.85
589.925	13481.51
590.284	13624.11
590.643	13952.91
591.003	14192.9
591.362	14444.87
591.721	14688.03
592.08	15004.18
592.44	15223.84
592.799	15441.46
593.158	15742.47
593.517	16001.9
593.876	16194.88
594.235	16546.74
594.593	16717.58
594.952	17115.76
595.311	17316.44
595.67	17573.61
596.029	18001.62
596.387	18357.99
596.746	18538.55
597.104	18718.21
597.463	18935.6
597.822	19282.94
598.18	19649.03
598.538	19823.94
598.897	20190.49
599.255	20303.03
599.613	20847.87
599.972	20923.57
600.33	21292.15
600.688	21422.54
601.046	21768.07
601.404	22116.54
601.762	22243.31
602.12	22691.44
602.478	22937.76
602.836	23150.63
603.194	23258.88
603.552	23643.05
603.91	23713.56
604.268	24085.3
604.625	24223.83
604.983	24588.79
605.341	24716.92
605.698	25047.76
606.056	25383.34
606.413	25527.07
606.771	25802.99
607.128	26172.25
607.485	26184.23
607.843	26390.1
608.2	26697.66
608.557	27044.32
608.914	27162.73
609.272	27417.41
609.629	27510.97
609.986	27873.9
610.343	28005.87
610.7	28265.98
611.057	28522.24
611.414	28618.51
611.771	28694.44
612.127	29056.92
612.484	29195.45
612.841	29490.81
613.198	29408.55
613.554	29737.81
613.911	29982.77
614.267	30140.28
614.624	30224.12
614.98	30468.86
615.337	30671.57
615.693	30588.4
616.05	30787.95
616.406	31228.39
616.762	31234.04
617.118	31380.02
617.475	31505.22
617.831	31667.92
618.187	31765.77
618.543	31893
618.899	32091.42
619.255	32248.7
619.611	32419.32
619.967	32482.14
620.323	32729.59
620.678	32662.47
621.034	32745.64
621.39	32863.6
621.746	33011.17
622.101	33485.96
622.457	33283.93
622.812	33389.46
623.168	33610.47
623.523	33611.6
623.879	33840.75
624.234	33724.14
624.589	33973.4
624.945	33860.64
625.3	33903.35
625.655	34062.21
626.01	34122.55
626.365	34309.89
626.72	34172.04
627.075	34238.25
627.43	34284.35
627.785	34400.51
628.14	34518.24
628.495	34708.97
628.85	34560.28
629.205	34590.79
629.559	34748.52
629.914	34774.06
630.269	34784
630.623	34656.09
630.978	34698.35
631.332	34849.54
631.687	34918.91
632.041	34953.26
632.396	34971.34
632.75	35005.01
633.104	34983.09
633.459	34905.35
633.813	34795.53
634.167	34918.91
634.521	35047.95
634.875	34979.25
635.229	35019.7
635.583	34922.53
635.937	34942.87
636.291	35022.86
636.645	35038.68
636.999	34921.17
637.352	35100.15
637.706	34776.77
638.06	35093.37
638.413	34938.8
638.767	34843.89
639.121	34993.26
639.474	34762.98
639.828	34947.16
640.181	35059.47
640.534	35090.21
640.888	34769.54
641.241	34744.68
641.594	34904
641.947	34934.51
642.301	34919.82
642.654	34880.95
643.007	34840.95
643.36	34842.53
643.713	34778.35
644.066	34963.43
644.419	34671.46
644.771	34482.54
645.124	34291.36
645.477	34119.84
645.83	33923.91
646.182	33868.32
646.535	33806.17
646.888	33978.37
647.24	33775.67
647.593	33868.09
647.945	33814.31
648.298	33751.71
648.65	33625.16
649.002	33636.23
649.355	33659.51
649.707	33711.94
650.059	33807.98
650.411	34189.67
650.763	34308.53
651.115	34721.18
651.467	34632.14
651.819	34511.47
652.171	34492.71
652.523	34344.46
652.875	34462.65
653.227	34235.09
653.578	34519.6
653.93	34357.35
654.282	34277.8
654.633	34226.05
654.985	34311.7
655.337	34285.93
655.688	34285.03
656.039	34332.94
656.391	34125.71
656.742	34331.58
657.094	34166.16
657.445	34289.55
657.796	34254.75
658.147	34175.2
658.498	34238.48
658.849	34241.42
659.2	34233.96
659.551	34071.25
659.902	34273.51
660.253	34122.55
660.604	34224.02
660.955	33965.49
661.306	34134.3
661.656	34070.8
662.007	34177.24
662.358	34162.32
662.708	34226.73
663.059	34161.19
663.409	34040.74
663.76	34201.87
664.11	34163.68
664.461	34126.84
664.811	34245.26
665.161	34161.42
665.511	34010.69
665.862	34167.52
666.212	34153.06
666.562	34073.28
666.912	34050.01
667.262	33961.42
667.612	34034.19
667.962	34042.55
668.312	33929.79
668.662	34155.99
669.011	34118.26
669.361	33966.4
669.711	33972.95
670.06	34040.97
670.41	33867.87
670.76	33907.41
671.109	33968.2
671.459	33954.19
671.808	33876.68
672.157	34103.11
672.507	33754.88
672.856	33789.22
673.205	33958.26
673.554	33981.76
673.904	33842.33
674.253	33917.81
674.602	33742.22
674.951	33380.2
675.3	33134.1
675.649	33644.82
675.998	33634.2
676.346	33692.73
676.695	33832.39
677.044	33632.39
677.393	33654.09
677.741	33676.69
678.09	33702.9
678.438	33579.51
678.787	33681.2
679.135	33560.08
679.484	33400.99
679.832	33550.81
680.181	33222.01
680.529	33532.28
680.877	33283.25
681.225	33402.79
681.573	33658.38
681.922	33261.55
682.27	33189.01
682.618	33224.04
682.966	33047.55
683.314	33213.65
683.661	33101.33
684.009	32949.92
684.357	32912.86
684.705	32765.97
685.053	32929.36
685.4	32803.71
685.748	32736.6
686.095	32629.48
686.443	32535.02
686.79	32628.13
687.138	32541.8
687.485	32594.45
687.832	32349.26
688.18	32424.51
688.527	32229.49
688.874	32286.44
689.221	32228.14
689.568	32195.14
689.915	32102.04
690.262	31983.62
690.609	32001.93
690.956	31863.17
691.303	31888.48
691.65	31643.29
691.997	31616.4
692.344	31487.36
692.69	31475.39
693.037	31538.21
693.383	31228.39
693.73	31590.19
694.077	31087.15
694.423	31231.55
694.769	31064.32
695.116	30937.55
695.462	30950.88
695.808	30888.28
696.155	30981.84
696.501	30646.71
696.847	30652.36
697.193	30491.68
697.539	30645.35
697.885	30295.98
698.231	30353.61
698.577	30241.07
698.923	30263.22
699.269	30055.76
699.614	29923.11
699.96	29850.57
700.306	29948.65
700.651	29781.65
700.997	29751.82
701.342	29655.1
701.688	29716.56
702.033	29486.06
702.379	29473.18
702.724	29461.2
703.069	29450.36
703.415	29135.56
703.76	29138.5
704.105	29146.63
704.45	29022.8
704.795	28973.76
705.14	28838.85
705.485	28834.1
705.83	28764.5
706.175	28738.28
706.52	28675.91
706.865	28494
707.209	28472.08
707.554	28570.38
707.899	28393.21
708.243	28495.35
708.588	28293.1
708.932	28113.22
709.277	28235.47
709.621	28069.6
709.966	27897.63
710.31	27912.77
710.654	27781.25
710.998	27919.55
711.342	27765.43
711.687	27764.07
712.031	27716.84
712.375	27449.28
712.719	27496.06
713.063	27538.32
713.407	27505.55
713.75	27341.26
714.094	27336.06
714.438	27245.89
714.782	27312.56
715.125	27143.3
715.469	27159.79
715.812	27070.53
716.156	27020.81
716.499	26917.31
716.843	27060.36
717.186	26738.34
717.53	26885
717.873	26720.03
718.216	26772.01
718.559	26680.48
718.902	26613.82
719.246	26638.68
719.589	26461.73
719.932	26454.95
720.275	26426.71
720.617	26310.1
720.96	26294.05
721.303	26338.8
721.646	26354.17
721.989	26087.51
722.331	26249.31
722.674	26113.72
723.016	26165.7
723.359	26060.39
723.701	26178.58
724.044	25898.58
724.386	25794.18
724.729	25860.39
725.071	25772.94
725.413	25773.62
725.755	25738.14
726.097	25740.4
726.439	25473.51
726.782	25604.58
727.124	25696.33
727.465	25509.44
727.807	25585.15
728.149	25496.34
728.491	25485.71
728.833	25473.29
729.175	25399.61
729.516	25237.13
729.858	25184.71
730.199	25272.84
730.541	25232.16
730.882	25264.7
731.224	25223.35
731.565	25083.46
731.906	25295.44
732.248	25076.23
732.589	24885.5
732.93	24803.02
733.271	24987.87
733.612	25026.97
733.953	24958.27
734.294	24846.41
734.635	24695.9
734.976	24713.98
735.317	24663.14
735.658	24657.94
735.999	24658.84
736.339	24579.75
736.68	24657.71
737.021	24546.53
737.361	24411.17
737.702	24535.46
738.042	24434.89
738.383	24363.48
738.723	24426.98
739.063	24344.5
739.404	24380.21
739.744	24294.11
740.084	24272.19
740.424	24200.55
740.764	24139.99
741.104	24278.97
741.444	24095.69
741.784	24118.97
742.124	24227.67
742.464	24160.78
742.804	23918.07
743.143	24010.05
743.483	23929.6
743.823	23839.43
744.162	23740.9
744.502	23816.83
744.841	23787.68
745.181	23851.63
745.52	23741.13
745.86	23694.35
746.199	23626.33
746.538	23636.27
746.877	23659.77
747.216	23625.88
747.556	23583.39
747.895	23585.43
748.234	23478.99
748.573	23473.56
748.911	23410.74
749.25	23366.22
749.589	23336.39
749.928	23263.85
750.267	23273.57
750.605	23159.22
750.944	23201.25
751.283	23012.56
751.621	23071.99
751.96	22982.96
752.298	22986.12
752.636	23017.98
752.975	22859.57
753.313	22793.13
753.651	22794.49
753.989	22697.09
754.327	22699.12
754.666	22574.6
755.004	22660.03
755.342	22759.68
755.679	22691.21
756.017	22497.77
756.355	22532.35
756.693	22453.7
757.031	22540.03
757.368	22320.6
757.706	22376.19
758.044	22307.49
758.381	22262.07
758.719	22217.33
759.056	22114.05
759.394	22103.66
759.731	22013.94
760.068	22028.4
760.405	21878.13
760.743	21818.92
