Data from hue_170_FLMS001491_00066.txt Node
Date: Tue Feb 07 16:49:02 GMT 2017
User: dcchb
Spectrometer: FLMS00149
Trigger mode: 0
Integration Time (sec): 2.000000E-2
Scans to average: 10
Electric dark correction enabled: true
Nonlinearity correction enabled: false
Boxcar width: 0
XAxis mode: Wavelengths
Number of Pixels in Spectrum: 2048
>>>>>Begin Spectral Data<<<<<
341.393	-16.37
341.776	-16.37
342.16	-16.37
342.543	-58.63
342.927	-51.4
343.31	-74
343.693	-87.78
344.077	-44.62
344.46	-72.19
344.843	-33.77
345.226	-53.88
345.61	-29.25
345.993	-1
346.376	14.59
346.759	17.08
347.142	20.47
347.525	24.53
347.908	69.05
348.291	62.05
348.674	80.13
349.057	108.6
349.44	121.03
349.823	147.92
350.206	170.74
350.588	196.28
350.971	213.23
351.354	238.31
351.737	223.85
352.119	262.95
352.502	288.48
352.884	269.95
353.267	284.64
353.65	295.03
354.032	327.8
354.414	309.5
354.797	290.97
355.179	327.58
355.562	326.22
355.944	333.23
356.326	350.4
356.709	336.84
357.091	348.59
357.473	359.21
357.855	364.64
358.238	335.94
358.62	351.53
359.002	345.65
359.384	353.34
359.766	372.77
360.148	353.56
360.53	342.27
360.912	352.66
361.294	355.37
361.676	360.34
362.057	351.53
362.439	335.49
362.821	329.16
363.203	329.61
363.584	351.08
363.966	317.86
364.348	339.78
364.729	326.67
365.111	312.66
365.493	332.32
365.874	314.92
366.256	320.8
366.637	319.67
367.019	331.42
367.4	328.25
367.781	312.66
368.163	298.42
368.544	304.53
368.925	319.89
369.306	314.02
369.688	313.34
370.069	330.06
370.45	328.93
370.831	328.71
371.212	331.42
371.593	318.54
371.974	326.67
372.355	331.42
372.736	323.96
373.117	321.47
373.498	324.86
373.879	320.34
374.26	308.82
374.641	318.31
375.021	330.51
375.402	348.82
375.783	329.84
376.163	320.8
376.544	336.39
376.925	323.06
377.305	327.35
377.686	335.26
378.066	335.26
378.447	336.62
378.827	340.46
379.208	352.66
379.588	331.87
379.968	353.56
380.349	320.8
380.729	359.44
381.109	321.93
381.489	356.95
381.87	364.64
382.25	356.28
382.63	342.72
383.01	340.23
383.39	382.26
383.77	347.91
384.15	351.53
384.53	349.72
384.91	347.46
385.29	352.21
385.67	360.12
386.049	352.43
386.429	363.96
386.809	356.5
387.189	336.16
387.568	371.42
387.948	374.58
388.328	375.26
388.707	366.9
389.087	356.28
389.466	390.17
389.846	389.27
390.225	382.72
390.605	375.26
390.984	365.09
391.363	378.42
391.743	383.62
392.122	394.47
392.501	388.37
392.881	391.98
393.26	387.46
393.639	384.07
394.018	381.13
394.397	397.86
394.776	391.98
395.155	407.35
395.534	396.5
395.913	415.26
396.292	404.64
396.671	419.78
397.05	402.83
397.429	390.4
397.808	383.85
398.186	397.18
398.565	408.48
398.944	424.97
399.323	429.27
399.701	433.79
400.08	417.07
400.458	427.69
400.837	421.81
401.215	431.08
401.594	453.67
401.972	428.36
402.351	416.84
402.729	436.27
403.107	420.68
403.486	437.18
403.864	437.18
404.242	447.35
404.62	463.84
404.999	433.34
405.377	430.17
405.755	463.17
406.133	474.01
406.511	441.92
406.889	478.76
407.267	463.84
407.645	473.79
408.023	475.59
408.401	496.16
408.779	487.57
409.156	488.48
409.534	477.85
409.912	494.8
410.29	505.2
410.667	506.55
411.045	492.54
411.422	523.05
411.8	531.64
412.178	528.02
412.555	514.01
412.933	514.92
413.31	539.1
413.687	571.41
414.065	551.75
414.442	555.14
414.819	562.37
415.197	579.77
415.574	597.85
415.951	575.25
416.328	556.5
416.705	595.59
417.082	596.95
417.46	602.82
417.837	597.85
418.214	595.82
418.591	622.94
418.967	610.96
419.344	652.31
419.721	631.3
420.098	640.79
420.475	650.28
420.852	648.25
421.228	631.52
421.605	668.36
421.982	660.45
422.358	683.27
422.735	683.27
423.111	678.53
423.488	683.5
423.864	715.36
424.241	724.4
424.617	731.63
424.994	736.83
425.37	734.57
425.746	738.41
426.123	748.58
426.499	743.84
426.875	765.98
427.251	754.46
427.627	777.51
428.003	770.95
428.379	793.78
428.756	778.64
429.132	794
429.507	837.85
429.883	819.99
430.259	852.53
430.635	844.62
431.011	860.22
431.387	853.89
431.763	849.6
432.138	871.52
432.514	878.52
432.89	878.07
433.265	918.3
433.641	923.72
434.016	942.93
434.392	937.05
434.767	954.9
435.143	975.92
435.518	956.49
435.894	979.76
436.269	982.7
436.644	1012.98
437.02	1003.26
437.395	1008.01
437.77	1039.42
438.145	1062.47
438.52	1092.3
438.895	1074.45
439.271	1089.82
439.646	1126.88
440.021	1122.36
440.395	1139.53
440.77	1135.69
441.145	1144.05
441.52	1156.93
441.895	1162.58
442.27	1159.64
442.645	1184.05
443.019	1186.54
443.394	1196.03
443.769	1248.91
444.143	1215.01
444.518	1217.72
444.892	1215.46
445.267	1253.43
445.641	1246.2
446.016	1261.79
446.39	1282.35
446.764	1303.82
447.139	1296.14
447.513	1333.2
447.887	1306.99
448.262	1323.93
448.636	1363.71
449.01	1347.21
449.384	1375.91
449.758	1366.64
450.132	1387.44
450.506	1401.45
450.88	1411.16
451.254	1396.7
451.628	1423.59
452.002	1457.04
452.376	1502.46
452.75	1483.03
453.123	1496.58
453.497	1524.61
453.871	1522.8
454.244	1527.54
454.618	1537.71
454.992	1562.35
455.365	1581.55
455.739	1598.96
456.112	1662
456.486	1628.78
456.859	1671.72
457.232	1718.05
457.606	1710.82
457.979	1720.99
458.352	1751.95
458.725	1756.24
459.099	1811.38
459.472	1843.92
459.845	1850.02
460.218	1875.56
460.591	1900.19
460.964	1943.35
461.337	1936.12
461.71	1981.54
462.083	2006.85
462.456	1997.14
462.829	2056.57
463.201	2063.12
463.574	2105.16
463.947	2106.51
464.32	2150.35
464.692	2190.13
465.065	2194.87
465.438	2225.61
465.81	2261.99
466.183	2301.08
466.555	2375.66
466.928	2360.97
467.3	2422.21
467.672	2406.62
468.045	2492.04
468.417	2516.22
468.789	2548.53
469.161	2581.98
469.534	2640.51
469.906	2679.38
470.278	2737
470.65	2766.61
471.022	2817.23
471.394	2871.69
471.766	2930.22
472.138	2938.58
472.51	3040.05
472.882	3116.43
473.253	3193.49
473.625	3182.64
473.997	3267.39
474.369	3324.79
474.74	3361.39
475.112	3467.61
475.484	3545.34
475.855	3613.82
476.227	3675.96
476.598	3824.21
476.97	3843.19
477.341	3966.12
477.713	3956.18
478.084	4024.2
478.455	4146.91
478.827	4276.17
479.198	4403.63
479.569	4465.55
479.94	4547.8
480.311	4637.07
480.682	4745.99
481.053	4916.61
481.424	5056.27
481.795	5098.98
482.166	5181.91
482.537	5299.65
482.908	5464.62
483.279	5509.59
483.65	5694.44
484.021	5802.23
484.391	5956.58
484.762	6039.74
485.133	6132.62
485.503	6276.57
485.874	6391.37
486.244	6496
486.615	6703.68
486.985	6756.56
487.356	6905.93
487.726	7010.56
488.097	7232.48
488.467	7293.27
488.837	7529.19
489.207	7663.65
489.578	7802.18
489.948	7881.95
490.318	8046.92
490.688	8088.28
491.058	8210.53
491.428	8368.27
491.798	8498.21
492.168	8781.82
492.538	8785.88
492.908	8936.84
493.278	9080.11
493.648	9146.55
494.017	9296.61
494.387	9390.16
494.757	9461.12
495.126	9579.54
495.496	9707.44
495.866	9782.92
496.235	9948.34
496.605	10067.21
496.974	10160.54
497.344	10219.07
497.713	10329.8
498.082	10462.45
498.452	10560.75
498.821	10640.3
499.19	10680.98
499.559	10847.3
499.928	10920.97
500.298	10979.27
500.667	11029.89
501.036	11045.94
501.405	11226.5
501.774	11185.37
502.143	11343.56
502.512	11397.34
502.88	11551.91
503.249	11548.3
503.618	11642.76
503.987	11616.54
504.356	11758.46
504.724	11823.09
505.093	11845.92
505.462	11942.41
505.83	12015.18
506.199	12009.3
506.567	12187.38
506.936	12129.53
507.304	12289.3
507.672	12314.83
508.041	12393.02
508.409	12435.05
508.777	12509.63
509.145	12640.02
509.514	12621.26
509.882	12723.86
510.25	12674.37
510.618	12772.67
510.986	12802.05
511.354	12980.12
511.722	12978.77
512.09	13103.96
512.458	12994.14
512.826	13072.78
513.193	13131.76
513.561	13101.7
513.929	13204.75
514.297	13378.98
514.664	13368.36
515.032	13381.47
515.4	13427.8
515.767	13474.58
516.135	13522.94
516.502	13320.68
516.869	13616.94
517.237	13611.75
517.604	13601.13
517.972	13647.23
518.339	13645.42
518.706	13734.46
519.073	13763.38
519.44	13758.64
519.808	13823.04
520.175	13781.91
520.542	13854.68
520.909	13878.18
521.276	13839.09
521.643	13952.3
522.009	13977.61
522.376	13985.75
522.743	14065.75
523.11	14190.04
523.477	14281.79
523.843	14212.18
524.21	14379.86
524.577	14343.7
524.943	14399.75
525.31	14302.8
525.676	14392.74
526.043	14483.36
526.409	14496.24
526.776	14542.12
527.142	14500.99
527.508	14521.1
527.874	14641.1
528.241	14559.29
528.607	14592.96
528.973	14639.74
529.339	14635
529.705	14713.86
530.071	14729.23
530.437	14686.52
530.803	14625.73
531.169	14721.55
531.535	14653.75
531.901	14625.28
532.267	14709.34
532.632	14760.87
532.998	14617.6
533.364	14653.53
533.73	14665.28
534.095	14674.09
534.461	14650.59
534.826	14652.62
535.192	14554.77
535.557	14604.49
535.923	14622.57
536.288	14548.9
536.653	14577.82
537.019	14479.75
537.384	14399.97
537.749	14425.28
538.114	14436.81
538.479	14335.12
538.845	14390.26
539.21	14312.97
539.575	14366.98
539.94	14316.59
540.305	14330.6
540.67	14225.29
541.034	14260.54
541.399	14244.5
541.764	14148.68
542.129	14093.77
542.494	14126.99
542.858	14112.3
543.223	13971.74
543.587	14115.01
543.952	13944.85
544.316	13926.09
544.681	13850.61
545.045	13853.77
545.41	13833.21
545.774	13803.38
546.138	13780.56
546.503	13740.56
546.867	13703.5
547.231	13794.11
547.595	13666.89
547.959	13626.44
548.324	13535.14
548.688	13577.85
549.052	13490.39
549.416	13537.17
549.779	13407.46
550.143	13375.59
550.507	13396.84
550.871	13385.76
551.235	13280.23
551.599	13295.37
551.962	13225.32
552.326	13247.24
552.689	13287.91
553.053	13131.31
553.417	13072.1
553.78	13215.37
554.143	13138.31
554.507	13108.48
554.87	13106.22
555.234	13199.33
555.597	13050.63
555.96	12995.27
556.323	13011.31
556.686	13016.73
557.05	13114.81
557.413	13073
557.776	13020.35
558.139	13003.63
558.502	12943.29
558.865	13003.18
559.228	12959.33
559.59	13021.03
559.953	12995.94
560.316	12983.74
560.679	12984.87
561.041	13041.59
561.404	12987.13
561.767	13003.4
562.129	12888.15
562.492	12974.93
562.854	12997.53
563.217	12920.47
563.579	13010.41
563.941	12991.2
564.304	13014.47
564.666	13024.42
565.028	12975.83
565.39	12981.71
565.753	13077.3
566.115	13024.42
566.477	13079.56
566.839	13045.21
567.201	13139.67
567.563	13092.21
567.925	13125.66
568.287	13102.61
568.648	13049.73
569.01	13082.27
569.372	13223.06
569.734	13099.44
570.095	13232.55
570.457	13204.75
570.819	13187.58
571.18	13166.56
571.542	13196.39
571.903	13193.45
572.265	13296.05
572.626	13245.88
572.987	13194.81
573.349	13215.82
573.71	13341.7
574.071	13222.6
574.432	13303.51
574.794	13334.47
575.155	13395.48
575.516	13355.71
575.877	13235.03
576.238	13303.28
576.599	13348.48
576.96	13359.32
577.32	13318.87
577.681	13365.2
578.042	13332.88
578.403	13346.44
578.763	13282.04
579.124	13309.16
579.485	13339.21
579.845	13456.5
580.206	13335.6
580.566	13329.72
580.927	13352.09
581.287	13393.9
581.648	13306.44
582.008	13422.83
582.368	13349.83
582.728	13354.35
583.089	13356.84
583.449	13251.08
583.809	13302.38
584.169	13296.05
584.529	13252.66
584.889	13325.43
585.249	13236.62
585.609	13167.24
585.969	13317.52
586.329	13182.61
586.688	13247.24
587.048	13228.93
587.408	13184.87
587.768	13203.85
588.127	13204.07
588.487	13212.44
588.846	13185.77
589.206	13103.06
589.565	13126.34
589.925	13199.55
590.284	13193.68
590.643	13132.89
591.003	13156.84
591.362	13132.66
591.721	13078.65
592.08	13088.82
592.44	13104.19
592.799	13042.95
593.158	13122.27
593.517	13049.28
593.876	13009.28
594.235	13030.07
594.593	13082.27
594.952	12990.52
595.311	13021.25
595.67	13018.99
596.029	12994.14
596.387	13063.29
596.746	13154.58
597.104	12968.6
597.463	12931.99
597.822	12948.71
598.18	12970.86
598.538	12907.58
598.897	12987.58
599.255	12915.49
599.613	13099.9
599.972	12940.58
600.33	13014.93
600.688	12964.76
601.046	13042.95
601.404	13029.16
601.762	12925.21
602.12	13054.25
602.478	13029.84
602.836	12999.79
603.194	12966.34
603.552	12839.56
603.91	12911.88
604.268	12972.44
604.625	12963.85
604.983	12907.13
605.341	12920.69
605.698	12934.7
606.056	13020.8
606.413	12989.62
606.771	13027.58
607.128	12942.39
607.485	12905.32
607.843	12902.39
608.2	13064.19
608.557	13042.5
608.914	12920.24
609.272	13024.64
609.629	13104.19
609.986	13145.54
610.343	13030.52
610.7	13084.98
611.057	13128.6
611.414	13069.16
611.771	13076.17
612.127	13156.17
612.484	13142.83
612.841	13124.53
613.198	13086.11
613.554	13110.97
613.911	13143.51
614.267	13153.45
614.624	13187.8
614.98	13159.78
615.337	13239.33
615.693	13146
616.05	13250.17
616.406	13264.19
616.762	13162.94
617.118	13194.13
617.475	13262.83
617.831	13244.75
618.187	13311.42
618.543	13275.94
618.899	13323.39
619.255	13369.95
619.611	13364.97
619.967	13328.14
620.323	13404.52
620.678	13272.55
621.034	13286.56
621.39	13334.69
621.746	13261.7
622.101	13432.99
622.457	13297.4
622.812	13324.52
623.168	13357.06
623.523	13287.24
623.879	13375.14
624.234	13320.45
624.589	13283.62
624.945	13352.54
625.3	13436.61
625.655	13347.57
626.01	13268.7
626.365	13289.27
626.72	13296.95
627.075	13296.73
627.43	13252.66
627.785	13288.59
628.14	13234.81
628.495	13262.83
628.85	13258.08
629.205	13244.3
629.559	13365.2
629.914	13258.08
630.269	13258.76
630.623	13197.07
630.978	13105.77
631.332	13237.52
631.687	13178.09
632.041	13193.9
632.396	13139.67
632.75	13138.76
633.104	13069.61
633.459	13049.05
633.813	13112.32
634.167	13119.33
634.521	13085.43
634.875	13076.85
635.229	13017.19
635.583	13029.62
635.937	13046.11
636.291	13044.98
636.645	13026.45
636.999	12987.81
637.352	12925.66
637.706	12902.39
638.06	12924.99
638.413	12913.23
638.767	12807.93
639.121	12885.21
639.474	12723.86
639.828	12788.49
640.181	12793.24
640.534	12793.01
640.888	12752.33
641.241	12759.34
641.594	12769.73
641.947	12793.46
642.301	12704.65
642.654	12746.68
643.007	12717.98
643.36	12745.78
643.713	12760.92
644.066	12708.27
644.419	12653.81
644.771	12579.23
645.124	12464.43
645.477	12381.04
645.83	12389.41
646.182	12306.47
646.535	12325.68
646.888	12294.95
647.24	12231.22
647.593	12272.35
647.945	12266.25
648.298	12220.37
648.65	12190.54
649.002	12208.17
649.355	12208.85
649.707	12280.48
650.059	12359.58
650.411	12444.09
650.763	12476.64
651.115	12669.17
651.467	12554.6
651.819	12607.48
652.171	12552.79
652.523	12546.69
652.875	12525.22
653.227	12550.53
653.578	12558.44
653.93	12494.04
654.282	12496.75
654.633	12451.33
654.985	12579.01
655.337	12550.31
655.688	12564.54
656.039	12568.38
656.391	12446.35
656.742	12492.23
657.094	12549.63
657.445	12582.4
657.796	12547.59
658.147	12468.27
658.498	12546.24
658.849	12581.04
659.2	12546.01
659.551	12516.18
659.902	12572.68
660.253	12434.38
660.604	12572
660.955	12424.21
661.306	12490.65
661.656	12542.17
662.007	12514.6
662.358	12552.57
662.708	12612.68
663.059	12562.73
663.409	12510.31
663.76	12500.82
664.11	12510.08
664.461	12641.15
664.811	12570.42
665.161	12580.14
665.511	12550.53
665.862	12618.1
666.212	12647.03
666.562	12619
666.912	12605.9
667.262	12580.36
667.612	12574.03
667.962	12600.93
668.312	12621.04
668.662	12617.87
669.011	12556.86
669.361	12605.9
669.711	12637.08
670.06	12638.44
670.41	12534.94
670.76	12513.92
671.109	12650.87
671.459	12506.69
671.808	12511.66
672.157	12534.26
672.507	12492
672.856	12538.55
673.205	12521.15
673.554	12566.35
673.904	12483.41
674.253	12512.11
674.602	12463.53
674.951	12330.88
675.3	12241.39
675.649	12362.74
675.998	12354.6
676.346	12413.36
676.695	12424.43
677.044	12338.11
677.393	12318.22
677.741	12385.56
678.09	12324.32
678.438	12345.34
678.787	12323.64
679.135	12390.99
679.484	12303.53
679.832	12297.66
680.181	12210.2
680.529	12253.14
680.877	12251.56
681.225	12201.61
681.573	12229.41
681.922	12176.08
682.27	12065.12
682.618	12092.69
682.966	12042.75
683.314	12085.23
683.661	12098.11
684.009	11966.14
684.357	11946.71
684.705	11976.08
685.053	11983.77
685.4	11943.77
685.748	11807.5
686.095	11849.31
686.443	11773.38
686.79	11644.79
687.138	11796.2
687.485	11781.74
687.832	11715.98
688.18	11698.12
688.527	11667.16
688.874	11592.14
689.221	11638.92
689.568	11555.98
689.915	11552.82
690.262	11517.34
690.609	11447.96
690.956	11486.6
691.303	11439.37
691.65	11352.37
691.997	11263.33
692.344	11238.25
692.69	11206.16
693.037	11265.14
693.383	11164.13
693.73	11120.96
694.077	11074.19
694.423	10996.9
694.769	11014.3
695.116	10930.24
695.462	10951.48
695.808	10859.05
696.155	10921.65
696.501	10787.19
696.847	10787.64
697.193	10768.66
697.539	10810.69
697.885	10701.31
698.231	10666.06
698.577	10625.16
698.923	10642.79
699.269	10530.7
699.614	10502
699.96	10462.22
700.306	10399.63
700.651	10357.37
700.997	10372.28
701.342	10419.06
701.688	10329.57
702.033	10249.8
702.379	10286.41
702.724	10227.88
703.069	10153.76
703.415	10145.62
703.76	10102.01
704.105	10142.91
704.45	10072.63
704.795	9980.66
705.14	9928.45
705.485	9949.24
705.83	9869.7
706.175	9870.38
706.52	9809.81
706.865	9791.73
707.209	9753.77
707.554	9740.21
707.899	9702.47
708.243	9688.91
708.588	9667.22
708.932	9595.81
709.277	9590.16
709.621	9594.9
709.966	9526.43
710.31	9501.35
710.654	9410.73
710.998	9451.4
711.342	9356.94
711.687	9408.69
712.031	9411.63
712.375	9385.42
712.719	9356.94
713.063	9348.13
713.407	9400.33
713.75	9278.75
714.094	9288.24
714.438	9257.51
714.782	9189.04
715.125	9234.23
715.469	9236.72
715.812	9183.84
716.156	9125.99
716.499	9108.14
716.843	9150.39
717.186	9030.85
717.53	9112.43
717.873	9082.6
718.216	9055.93
718.559	9098.64
718.902	9037.86
719.246	8979.1
719.589	8971.64
719.932	8988.82
720.275	8930.29
720.617	8926.22
720.96	8970.74
721.303	8968.48
721.646	8948.37
721.989	8886.22
722.331	8978.65
722.674	8868.82
723.016	8903.4
723.359	8879.67
723.701	8891.42
724.044	8868.37
724.386	8827.47
724.729	8846.67
725.071	8743.63
725.413	8840.57
725.755	8866.11
726.097	8801.03
726.439	8724.42
726.782	8726.23
727.124	8817.52
727.465	8742.72
727.807	8804.42
728.149	8720.12
728.491	8727.58
728.833	8742.27
729.175	8744.76
729.516	8750.63
729.858	8721.03
730.199	8741.14
730.541	8725.77
730.882	8702.72
731.224	8748.82
731.565	8702.95
731.906	8668.6
732.248	8750.63
732.589	8711.31
732.93	8679.67
733.271	8696.85
733.612	8695.49
733.953	8756.96
734.294	8749.5
734.635	8683.06
734.976	8735.04
735.317	8719.9
735.658	8775.72
735.999	8703.4
736.339	8713.8
736.68	8722.38
737.021	8755.6
737.361	8706.34
737.702	8772.33
738.042	8713.57
738.383	8762.16
738.723	8787.69
739.063	8733.68
739.404	8783.4
739.744	8794.02
740.084	8797.41
740.424	8810.06
740.764	8814.36
741.104	8860.91
741.444	8879.44
741.784	8806
742.124	8867.92
742.464	8918.54
742.804	8870.18
743.143	8919.67
743.483	8942.72
743.823	8885.09
744.162	8950.85
744.502	9038.76
744.841	9044.64
745.181	9031.08
745.52	9073.33
745.86	9182.48
746.199	9184.97
746.538	9175.71
746.877	9304.29
747.216	9325.98
747.556	9362.59
747.895	9279.43
748.234	9438.52
748.573	9521.01
748.911	9525.07
749.25	9613.66
749.589	9633.09
749.928	9741.11
750.267	9817.72
750.605	9856.37
750.944	9944.5
751.283	9939.3
751.621	10067.21
751.96	10122.57
752.298	10256.13
752.636	10357.14
752.975	10497.7
753.313	10480.76
753.651	10640.07
753.989	10697.92
754.327	10844.36
754.666	10969.33
755.004	11074.86
755.342	11194.86
755.679	11318.7
756.017	11444.57
756.355	11576.09
756.693	11659.71
757.031	11875.07
757.368	11960.49
757.706	12108.06
758.044	12287.71
