Data from hue_290_FLMS001491_00043.txt Node
Date: Tue Feb 07 15:52:47 GMT 2017
User: dcchb
Spectrometer: FLMS00149
Trigger mode: 0
Integration Time (sec): 2.000000E-2
Scans to average: 10
Electric dark correction enabled: true
Nonlinearity correction enabled: false
Boxcar width: 0
XAxis mode: Wavelengths
Number of Pixels in Spectrum: 2048
>>>>>Begin Spectral Data<<<<<
341.393	-32.57
341.776	-32.57
342.16	-32.57
342.543	-33.7
342.927	-67.6
343.31	-90.65
343.693	-57.65
344.077	-57.2
344.46	-63.98
344.843	-42.74
345.226	-51.55
345.61	-30.31
345.993	7.43
346.376	2.91
346.759	-2.06
347.142	36.81
347.525	34.77
347.908	49.01
348.291	73.19
348.674	82.91
349.057	109.12
349.44	110.03
349.823	145.96
350.206	160.42
350.588	196.58
350.971	190.25
351.354	204.94
351.737	246.29
352.119	233.86
352.502	232.06
352.884	258.72
353.267	285.39
353.65	282.9
354.032	302.34
354.414	305.73
354.797	306.86
355.179	300.08
355.562	309.34
355.944	326.74
356.326	322.9
356.709	337.14
357.091	335.33
357.473	310.7
357.855	338.49
358.238	329.91
358.62	337.59
359.002	327.65
359.384	319.29
359.766	314.99
360.148	324.26
360.53	335.78
360.912	321.09
361.294	341.66
361.676	300.75
362.057	337.14
362.439	326.29
362.821	335.56
363.203	319.74
363.584	312.51
363.966	328.32
364.348	318.38
364.729	328.55
365.111	309.12
365.493	317.48
365.874	317.03
366.256	314.77
366.637	309.79
367.019	306.4
367.4	307.99
367.781	303.24
368.163	311.15
368.544	311.38
368.925	319.96
369.306	313.64
369.688	313.18
370.069	310.47
370.45	299.17
370.831	298.04
371.212	321.09
371.593	291.94
371.974	319.51
372.355	307.53
372.736	299.4
373.117	324.93
373.498	318.16
373.879	317.48
374.26	310.47
374.641	303.69
375.021	306.18
375.402	320.42
375.783	321.55
376.163	319.51
376.544	322.22
376.925	308.21
377.305	351.83
377.686	338.04
378.066	341.88
378.447	340.98
378.827	332.39
379.208	337.14
379.588	324.93
379.968	334.65
380.349	343.47
380.729	329.68
381.109	323.13
381.489	327.87
381.87	331.71
382.25	323.81
382.63	324.26
383.01	346.4
383.39	359.51
383.77	347.76
384.15	343.47
384.53	335.78
384.91	336.46
385.29	339.85
385.67	348.89
386.049	349.57
386.429	354.31
386.809	349.12
387.189	360.19
387.568	351.15
387.948	357.93
388.328	371.71
388.707	360.41
389.087	370.58
389.466	358.83
389.846	364.26
390.225	382.33
390.605	354.76
390.984	352.28
391.363	363.35
391.743	375.78
392.122	398.83
392.501	374.65
392.881	362.45
393.26	363.13
393.639	384.82
394.018	393.86
394.397	397.48
394.776	396.12
395.155	393.63
395.534	383.24
395.913	405.61
396.292	397.25
396.671	418.49
397.05	410.36
397.429	409.23
397.808	393.18
398.186	422.56
398.565	420.53
398.944	402.9
399.323	411.26
399.701	427.76
400.08	402.67
400.458	417.36
400.837	414.65
401.215	443.8
401.594	426.4
401.972	421.2
402.351	430.24
402.729	444.03
403.107	415.1
403.486	456.91
403.864	442.9
404.242	454.88
404.62	451.26
404.999	450.81
405.377	490.81
405.755	446.51
406.133	461.65
406.511	459.85
406.889	474.76
407.267	482.22
407.645	496
408.023	498.26
408.401	485.38
408.779	497.13
409.156	500.07
409.534	529
409.912	514.53
410.29	532.84
410.667	524.48
411.045	546.62
411.422	554.99
411.8	553.86
412.178	578.04
412.555	573.74
412.933	572.16
413.31	589.79
413.687	605.15
414.065	603.35
414.442	627.07
414.819	603.8
415.197	637.24
415.574	635.89
415.951	622.55
416.328	641.99
416.705	642.89
417.082	660.29
417.46	683.12
417.837	668.43
418.214	669.78
418.591	713.63
418.967	670.91
419.344	705.26
419.721	717.47
420.098	713.4
420.475	763.79
420.852	715.43
421.228	747.52
421.605	735.09
421.982	765.15
422.358	792.04
422.735	770.12
423.111	781.65
423.488	788.88
423.864	818.48
424.241	823.9
424.617	825.26
424.994	841.53
425.37	845.15
425.746	839.05
426.123	865.49
426.499	886.95
426.875	888.54
427.251	900.74
427.627	900.74
428.003	906.16
428.379	948.42
428.756	958.59
429.132	954.97
429.507	949.1
429.883	993.84
430.259	997.23
430.635	1010.11
431.011	1017.35
431.387	1022.77
431.763	1023.45
432.138	1040.17
432.514	1071.58
432.89	1082.43
433.265	1087.17
433.641	1099.38
434.016	1118.13
434.392	1134.18
434.767	1132.6
435.143	1179.6
435.518	1187.96
435.894	1204.01
436.269	1203.33
436.644	1233.39
437.02	1225.02
437.395	1255.31
437.77	1241.07
438.145	1277.45
438.52	1297.56
438.895	1280.62
439.271	1287.4
439.646	1341.41
440.021	1364
440.395	1353.16
440.77	1342.99
441.145	1367.17
441.52	1379.6
441.895	1385.7
442.27	1400.39
442.645	1394.51
443.019	1397.9
443.394	1393.16
443.769	1433.83
444.143	1429.76
444.518	1440.84
444.892	1433.15
445.267	1448.97
445.641	1472.25
446.016	1459.14
446.39	1488.07
446.764	1482.87
447.139	1501.4
447.513	1515.19
447.887	1504.79
448.262	1511.8
448.636	1526.71
449.01	1544.79
449.384	1548.18
449.758	1557.44
450.132	1557.9
450.506	1561.51
450.88	1598.35
451.254	1568.97
451.628	1594.73
452.002	1596.54
452.376	1637.89
452.75	1625.24
453.123	1642.87
453.497	1668.18
453.871	1654.17
454.244	1686.71
454.618	1676.76
454.992	1710.66
455.365	1691.23
455.739	1721.28
456.112	1751.79
456.486	1777.78
456.859	1789.3
457.232	1797.89
457.606	1783.43
457.979	1803.54
458.352	1827.49
458.725	1843.54
459.099	1883.76
459.472	1905.01
459.845	1906.36
460.218	1939.58
460.591	1956.08
460.964	1943.42
461.337	1981.39
461.71	1989.75
462.083	2015.96
462.456	2014.16
462.829	2056.19
463.201	2024.55
463.574	2062.52
463.947	2062.74
464.32	2117.66
464.692	2078.56
465.065	2139.12
465.438	2131.22
465.81	2191.55
466.183	2194.26
466.555	2246.24
466.928	2227.03
467.3	2226.81
467.672	2241.27
468.045	2305.67
468.417	2315.39
468.789	2313.36
469.161	2336.86
469.534	2377.76
469.906	2431.55
470.278	2445.11
470.65	2427.93
471.022	2489.17
471.394	2518.1
471.766	2541.6
472.138	2541.83
472.51	2592.67
472.882	2636.29
473.253	2626.57
473.625	2676.29
473.997	2736.85
474.369	2729.17
474.74	2744.76
475.112	2788.6
475.484	2801.03
475.855	2904.98
476.227	2859.78
476.598	2936.62
476.97	2970.29
477.341	2984.53
477.713	3047.8
478.084	3034.02
478.455	3081.47
478.827	3087.57
479.198	3234.24
479.569	3200.34
479.94	3301.13
480.311	3259.1
480.682	3319.88
481.053	3379.77
481.424	3434.46
481.795	3487.56
482.166	3458.86
482.537	3540.44
482.908	3586.32
483.279	3598.52
483.65	3641.68
484.021	3707.44
484.391	3752.19
484.762	3763.71
485.133	3752.64
485.503	3801.68
485.874	3895.69
486.244	3892.07
486.615	3962.81
486.985	4024.05
487.356	4056.59
487.726	4060.66
488.097	4145.85
488.467	4113.99
488.837	4242.57
489.207	4263.14
489.578	4312.4
489.948	4307.43
490.318	4416.8
490.688	4410.25
491.058	4414.32
491.428	4514.43
491.798	4518.95
492.168	4603.47
492.538	4602.11
492.908	4682.11
493.278	4672.17
493.648	4713.07
494.017	4768.89
494.387	4774.08
494.757	4800.75
495.126	4864.25
495.496	4816.79
495.866	4906.06
496.235	4880.75
496.605	5007.98
496.974	4962.55
497.344	5009.56
497.713	5028.31
498.082	5133.4
498.452	5088.88
498.821	5124.81
499.19	5100.4
499.559	5114.64
499.928	5170.91
500.298	5178.14
500.667	5238.93
501.036	5212.72
501.405	5281.87
501.774	5335.42
502.143	5321.64
502.512	5358.47
502.88	5395.76
503.249	5375.88
503.618	5418.59
503.987	5454.52
504.356	5468.3
504.724	5455.87
505.093	5506.04
505.462	5514.18
505.83	5558.47
506.199	5589.66
506.567	5632.37
506.936	5618.81
507.304	5655.19
507.672	5679.14
508.041	5651.57
508.409	5697.22
508.777	5744.23
509.145	5728.63
509.514	5728.18
509.882	5810.44
510.25	5783.55
510.618	5824.45
510.986	5875.98
511.354	5914.17
511.722	5896.54
512.09	5967.05
512.458	5914.84
512.826	5935.63
513.193	5965.24
513.561	5982.64
513.929	6045.69
514.297	6073.71
514.664	6123.65
515.032	6134.95
515.4	6152.8
515.767	6168.85
516.135	6187.38
516.502	6127.49
516.869	6215.63
517.237	6230.77
517.604	6187.38
517.972	6273.71
518.339	6297.21
518.706	6294.72
519.073	6266.25
519.44	6294.72
519.808	6395.28
520.175	6360.03
520.542	6450.42
520.909	6446.36
521.276	6436.64
521.643	6450.2
522.009	6506.47
522.376	6552.79
522.743	6552.79
523.11	6617.2
523.477	6691.55
523.843	6636.41
524.21	6715.05
524.577	6773.8
524.943	6796.18
525.31	6753.92
525.676	6842.28
526.043	6909.62
526.409	6920.24
526.776	6981.48
527.142	6973.8
527.508	7003.63
527.874	7025.78
528.241	7032.56
528.607	7141.48
528.973	7131.31
529.339	7167.24
529.705	7199.33
530.071	7204.98
530.437	7259.22
530.803	7294.92
531.169	7301.7
531.535	7338.76
531.901	7351.87
532.267	7392.77
532.632	7447.23
532.998	7432.54
533.364	7437.74
533.73	7455.14
534.095	7492.43
534.461	7583.73
534.826	7570.62
535.192	7585.99
535.557	7644.97
535.923	7658.3
536.288	7670.05
536.653	7721.58
537.019	7639.09
537.384	7725.19
537.749	7771.29
538.114	7780.33
538.479	7816.26
538.845	7814
539.21	7836.83
539.575	7905.07
539.94	7862.59
540.305	7836.6
540.67	7881.57
541.034	7907.56
541.399	7972.19
541.764	8013.32
542.129	8010.16
542.494	7994.56
542.858	8074.79
543.223	8112.07
543.587	8108.23
543.952	8109.82
544.316	8221.9
544.681	8158.85
545.045	8125.41
545.41	8134.22
545.774	8257.61
546.138	8228
546.503	8230.72
546.867	8226.2
547.231	8333.99
547.595	8284.5
547.959	8394.78
548.324	8422.35
548.688	8428.9
549.052	8432.29
549.416	8419.86
549.779	8425.51
550.143	8455.12
550.507	8538.5
550.871	8517.49
551.235	8519.97
551.599	8559.75
551.962	8586.86
552.326	8554.55
552.689	8706.41
553.053	8590.93
553.417	8556.36
553.78	8707.99
554.143	8744.37
554.507	8736.01
554.87	8709.8
555.234	8789.8
555.597	8700.08
555.96	8753.41
556.323	8833.19
556.686	8813.3
557.05	8851.94
557.413	8861.66
557.776	8913.18
558.139	8900.08
558.502	8946.63
558.865	8947.99
559.228	9036.57
559.59	8996.57
559.953	9021.66
560.316	9139.62
560.679	9115.66
561.041	9193.18
561.404	9221.65
561.767	9262.55
562.129	9175.78
562.492	9285.6
562.854	9263.68
563.217	9263.01
563.579	9328.99
563.941	9390.01
564.304	9395.66
564.666	9477.69
565.028	9425.49
565.39	9481.53
565.753	9525.37
566.115	9484.92
566.477	9538.03
566.839	9536.22
567.201	9625.71
567.563	9695.99
567.925	9767.17
568.287	9755.87
568.648	9749.32
569.01	9752.03
569.372	9824.8
569.734	9842.2
570.095	9865.02
570.457	10010.1
570.819	9997.9
571.18	10008.97
571.542	10004
571.903	10058.92
572.265	10127.16
572.626	10108.41
572.987	10140.27
573.349	10173.49
573.71	10297.55
574.071	10234.28
574.432	10372.81
574.794	10448.28
575.155	10457.55
575.516	10438.12
575.877	10527.83
576.238	10544.1
576.599	10648.51
576.96	10683.98
577.32	10703.87
577.681	10783.87
578.042	10876.75
578.403	10873.13
578.763	10893.24
579.124	11022.96
579.485	11140.02
579.845	11147.48
580.206	11192.9
580.566	11306.57
580.927	11328.26
581.287	11478.54
581.648	11466.79
582.008	11579.55
582.368	11668.14
582.728	11868.13
583.089	11917.17
583.449	11956.72
583.809	12053.67
584.169	12190.84
584.529	12215.7
584.889	12377.5
585.249	12465.63
585.609	12547.89
585.969	12749.02
586.329	12792.4
586.688	12901.1
587.048	13005.28
587.408	13078.5
587.768	13253.86
588.127	13363.01
588.487	13395.33
588.846	13698.82
589.206	13660.4
589.565	13781.76
589.925	14021.98
590.284	14111.69
590.643	14323.89
591.003	14509.19
591.362	14646.82
591.721	14747.61
592.08	14832.58
592.44	14991.44
592.799	15040.48
593.158	15216.52
593.517	15410.87
593.876	15552.33
594.235	15681.14
594.593	15872.1
594.952	15999.33
595.311	16098.76
595.67	16176.27
596.029	16403.61
596.387	16582.36
596.746	16748.01
597.104	16721.11
597.463	17013.99
597.822	17082.69
598.18	17123.59
598.538	17331.49
598.897	17482.68
599.255	17514.31
599.613	17797.02
599.972	17764.48
600.33	17859.84
600.688	17966.73
601.046	18173.05
601.404	18249.21
601.762	18286.5
602.12	18491.46
602.478	18700.05
602.836	18646.04
603.194	18729.2
603.552	18793.83
603.91	18892.13
604.268	19040.6
604.625	19057.78
604.983	19325.57
605.341	19241.27
605.698	19439.01
606.056	19609.85
606.413	19630.19
606.771	19766.01
607.128	19823.18
607.485	19798.55
607.843	19930.3
608.2	20170.29
608.557	20326.22
608.914	20198.08
609.272	20359.66
609.629	20409.38
609.986	20607.34
610.343	20519.66
610.7	20774.57
611.057	20815.92
611.414	20920.55
611.771	20954
612.127	21040.55
612.484	21102.47
612.841	21201.45
613.198	21133.65
613.554	21161
613.911	21332.97
614.267	21432.18
614.624	21415
614.98	21602.34
615.337	21638.72
615.693	21676.24
616.05	21619.52
616.406	21832.17
616.762	21771.6
617.118	21809.34
617.475	21816.57
617.831	22061.31
618.187	22073.29
618.543	22058.83
618.899	22257.01
619.255	22218.37
619.611	22172.72
619.967	22279.84
620.323	22442.77
620.678	22266.5
621.034	22357.12
621.39	22363.23
621.746	22452.94
622.101	22706.27
622.457	22475.99
622.812	22522.54
623.168	22662.2
623.523	22632.82
623.879	22713.27
624.234	22654.97
624.589	22715.08
624.945	22778.36
625.3	22706.27
625.655	22800.05
626.01	22715.98
626.365	22854.29
626.72	22834.4
627.075	22761.18
627.43	22777.45
627.785	22763.67
628.14	22882.99
628.495	22811.12
628.85	22741.75
629.205	22839.82
629.559	22923.66
629.914	22913.27
630.269	22843.66
630.623	22905.81
630.978	22848.18
631.332	22935.19
631.687	22898.13
632.041	22835.3
632.396	22939.71
632.75	22838.02
633.104	22828.3
633.459	22778.81
633.813	22734.06
634.167	22843.21
634.521	22861.97
634.875	22818.13
635.229	22784.68
635.583	22694.52
635.937	22765.02
636.291	22727.51
636.645	22671.01
636.999	22666.95
637.352	22832.14
637.706	22671.47
638.06	22671.01
638.413	22695.42
638.767	22613.39
639.121	22676.89
639.474	22504.92
639.828	22558.02
640.181	22581.75
640.534	22626.95
640.888	22619.49
641.241	22433.96
641.594	22580.39
641.947	22597.12
642.301	22509.89
642.654	22534.29
643.007	22624.46
643.36	22528.19
643.713	22306.28
644.066	22575.65
644.419	22288.43
644.771	22335.88
645.124	22142.67
645.477	22087.75
645.83	22041.65
646.182	21962.33
646.535	21846.18
646.888	21777.25
647.24	21687.09
647.593	21861.09
647.945	21805.95
648.298	21637.59
648.65	21696.35
649.002	21649.35
649.355	21835.56
649.707	21739.51
650.059	21810.7
650.411	21990.58
650.763	22121.42
651.115	22372.26
651.467	22311.7
651.819	22248.2
652.171	22211.37
652.523	22214.53
652.875	22209.78
653.227	22079.62
653.578	22310.12
653.93	22204.36
654.282	22133.63
654.633	22208.88
654.985	22216.56
655.337	22173.63
655.688	22324.81
656.039	22289.56
656.391	22120.97
656.742	22286.39
657.094	22210.24
657.445	22411.13
657.796	22225.15
658.147	22243.68
658.498	22294.75
658.849	22247.52
659.2	22352.38
659.551	22254.3
659.902	22261.31
660.253	22281.65
660.604	22202.55
660.955	22161.2
661.306	22266.5
661.656	22286.17
662.007	22271.02
662.358	22306.05
662.708	22294.75
663.059	22268.76
663.409	22292.27
663.76	22365.49
664.11	22396.22
664.461	22305.15
664.811	22415.2
665.161	22363.9
665.511	22321.64
665.862	22301.08
666.212	22379.5
666.562	22321.64
666.912	22246.17
667.262	22277.8
667.612	22340.18
667.962	22317.58
668.312	22431.92
668.662	22389.89
669.011	22277.8
669.361	22231.48
669.711	22359.38
670.06	22244.81
670.41	22143.8
670.76	22207.98
671.109	22335.2
671.459	22203.68
671.808	22153.29
672.157	22265.6
672.507	22118.03
672.856	22102.44
673.205	22129.56
673.554	22222.21
673.904	22039.62
674.253	22270.35
674.602	22175.21
674.951	21824.71
675.3	21651.61
675.649	22038.94
675.998	22032.61
676.346	22048.88
676.695	22084.14
677.044	21867.42
677.393	22024.7
677.741	22008.66
678.09	21887.53
678.438	21818.83
678.787	21865.84
679.135	21896.35
679.484	21837.82
679.832	21797.14
680.181	21648.22
680.529	21720.08
680.877	21703.13
681.225	21502.23
681.573	21817.03
681.922	21612.06
682.27	21521.89
682.618	21653.19
682.966	21469.01
683.314	21513.53
683.661	21464.49
684.009	21374.55
684.357	21305.85
684.705	21362.57
685.053	21367.09
685.4	21272.86
685.748	21167.78
686.095	21192.63
686.443	21166.65
686.79	21025.41
687.138	21102.92
687.485	21053.2
687.832	20951.96
688.18	20945.41
688.527	20791.06
688.874	20747.22
689.221	20727.56
689.568	20737.05
689.915	20652.08
690.262	20657.96
690.609	20536.83
690.956	20460.45
691.303	20404.41
691.65	20335.93
691.997	20322.6
692.344	20217.29
692.69	20149.5
693.037	20091.87
693.383	20029.05
693.73	20074.7
694.077	20006
694.423	19942.27
694.769	19834.48
695.116	19723.97
695.462	19898.66
695.808	19617.54
696.155	19848.72
696.501	19491.66
696.847	19586.58
697.193	19414.6
697.539	19501.38
697.885	19321.27
698.231	19180.26
698.577	19297.32
698.923	19215.96
699.269	19057.55
699.614	18961.51
699.96	18876.99
700.306	18942.3
700.651	18870.44
700.997	18714.06
701.342	18695.53
701.688	18619.37
702.033	18700.72
702.379	18706.37
702.724	18527.17
703.069	18512.48
703.415	18288.53
703.76	18346.83
704.105	18368.75
704.45	18272.03
704.795	18179.83
705.14	17989.1
705.485	18013.74
705.83	17988.2
706.175	17975.54
706.52	17858.26
706.865	17865.72
707.209	17901.65
707.554	17741.2
707.899	17776
708.243	17661.43
708.588	17604.93
708.932	17569
709.277	17565.61
709.621	17514.99
709.966	17408.55
710.31	17427.08
710.654	17199.52
710.998	17260.08
711.342	17260.76
711.687	17111.61
712.031	17053.08
712.375	17123.14
712.719	17093.99
713.063	16973.99
713.407	17119.3
713.75	16990.03
714.094	17008.11
714.438	16891.05
714.782	16825.74
715.125	16807.44
715.469	16895.8
715.812	16870.49
716.156	16681.57
716.499	16700.78
716.843	16699.42
717.186	16654.68
717.53	16652.87
717.873	16675.24
718.216	16573.77
718.559	16603.83
718.902	16497.39
719.246	16451.06
719.589	16379.88
719.932	16418.98
720.275	16329.26
720.617	16362.71
720.96	16318.64
721.303	16425.98
721.646	16352.54
721.989	16236.16
722.331	16303.27
722.674	16317.51
723.016	16265.76
723.359	16257.85
723.701	16319.09
724.044	16067.35
724.386	16117.51
724.729	16180.79
725.071	16000.23
725.413	16037.06
725.755	15987.12
726.097	15978.31
726.439	15870.74
726.782	15870.74
727.124	16104.86
727.465	15899.67
727.807	15924.52
728.149	15976.73
728.491	15879.1
728.833	15959.1
729.175	15886.11
729.516	15803.85
729.858	15855.37
730.199	15820.12
730.541	15781.25
730.882	15879.33
731.224	15910.51
731.565	15880.91
731.906	15794.36
732.248	15811.76
732.589	15807.47
732.93	15747.13
733.271	15758.2
733.612	15820.12
733.953	15819.44
734.294	15715.26
734.635	15662.61
734.976	15771.99
735.317	15709.16
735.658	15593.69
735.999	15710.75
736.339	15662.84
736.68	15764.08
737.021	15664.64
737.361	15588.26
737.702	15796.84
738.042	15696.51
738.383	15668.03
738.723	15801.36
739.063	15659.67
739.404	15729.05
739.744	15694.02
740.084	15609.05
740.424	15727.47
740.764	15638.88
741.104	15842.95
741.444	15659.45
741.784	15671.65
742.124	15792.1
742.464	15773.34
742.804	15752.78
743.143	15703.06
743.483	15810.18
743.823	15750.97
744.162	15837.07
744.502	15836.62
744.841	15887.69
745.181	15935.37
745.52	15890.18
745.86	15948.03
746.199	15961.36
746.538	16047.46
746.877	16114.58
747.216	16137.4
747.556	16169.72
747.895	16161.81
748.234	16234.8
748.573	16268.92
748.911	16298.75
749.25	16390.5
749.589	16381.91
749.928	16497.84
750.267	16570.38
750.605	16589.14
750.944	16704.17
751.283	16720.66
751.621	16893.99
751.96	16897.15
752.298	16969.47
752.636	17086.53
752.975	17109.13
753.313	17177.83
753.651	17352.28
753.989	17395.9
754.327	17509.57
754.666	17474.77
755.004	17651.49
755.342	17736.45
755.679	17950.23
756.017	17883.34
756.355	18097.35
756.693	18191.58
757.031	18226.61
757.368	18389.54
757.706	18415.98
758.044	18579.37
758.381	18674.28
758.719	18808.06
759.056	18936.87
