Data from hue_160_FLMS001491_00090.txt Node
Date: Tue Feb 07 16:51:49 GMT 2017
User: dcchb
Spectrometer: FLMS00149
Trigger mode: 0
Integration Time (sec): 2.000000E-2
Scans to average: 10
Electric dark correction enabled: true
Nonlinearity correction enabled: false
Boxcar width: 0
XAxis mode: Wavelengths
Number of Pixels in Spectrum: 2048
>>>>>Begin Spectral Data<<<<<
341.393	-21.37
341.776	-21.37
342.16	-21.37
342.543	-59.56
342.927	-61.82
343.31	-68.6
343.693	-72.89
344.077	-49.62
344.46	-57.75
344.843	-60.01
345.226	-20.92
345.61	-20.92
345.993	-36.06
346.376	-10.97
346.759	17.05
347.142	19.31
347.525	17.05
347.908	64.96
348.291	83.26
348.674	91.17
349.057	104.95
349.44	142.24
349.823	162.35
350.206	158.06
350.588	204.84
350.971	218.85
351.354	228.12
351.737	256.82
352.119	247.32
352.502	253.43
352.884	269.7
353.267	269.47
353.65	273.54
354.032	299.3
354.414	308.57
354.797	326.19
355.179	335.68
355.562	327.77
355.944	323.03
356.326	322.58
356.709	314.21
357.091	330.26
357.473	342.24
357.855	327.32
358.238	338.62
358.62	335.46
359.002	358.51
359.384	329.36
359.766	347.89
360.148	345.63
360.53	358.28
360.912	332.97
361.294	311.5
361.676	342.46
362.057	322.8
362.439	327.32
362.821	305.18
363.203	324.61
363.584	316.93
363.966	311.5
364.348	324.84
364.729	318.96
365.111	309.92
365.493	330.71
365.874	315.57
366.256	318.06
366.637	305.18
367.019	320.77
367.4	316.7
367.781	307.89
368.163	299.3
368.544	326.87
368.925	319.86
369.306	312.18
369.688	309.7
370.069	308.57
370.45	330.03
370.831	314.89
371.212	307.89
371.593	304.95
371.974	318.51
372.355	301.79
372.736	316.02
373.117	311.05
373.498	322.8
373.879	318.96
374.26	296.59
374.641	301.33
375.021	313.76
375.402	332.75
375.783	325.74
376.163	334.33
376.544	319.19
376.925	336.36
377.305	349.02
377.686	297.94
378.066	332.52
378.447	348.79
378.827	311.05
379.208	320.09
379.588	330.03
379.968	320.99
380.349	341.56
380.729	328.68
381.109	333.2
381.489	329.13
381.87	356.7
382.25	350.37
382.63	336.14
383.01	321.45
383.39	336.36
383.77	344.27
384.15	347.89
384.53	366.64
384.91	341.56
385.29	348.11
385.67	331.84
386.049	354.21
386.429	368.9
386.809	344.04
387.189	357.83
387.568	360.32
387.948	357.15
388.328	354.21
388.707	350.82
389.087	344.27
389.466	378.17
389.846	374.78
390.225	359.64
390.605	362.35
390.984	368.9
391.363	366.42
391.743	353.31
392.122	365.96
392.501	366.19
392.881	370.03
393.26	372.29
393.639	384.27
394.018	373.65
394.397	395.34
394.776	389.92
395.155	383.14
395.534	384.95
395.913	363.71
396.292	374.55
396.671	396.25
397.05	390.37
397.429	371.61
397.808	403.93
398.186	394.44
398.565	413.42
398.944	419.75
399.323	399.41
399.701	380.43
400.08	391.28
400.458	406.42
400.837	400.99
401.215	402.57
401.594	396.25
401.972	411.16
402.351	398.05
402.729	419.3
403.107	437.15
403.486	413.87
403.864	415.68
404.242	395.79
404.62	419.75
404.999	411.16
405.377	424.27
405.755	425.4
406.133	442.35
406.511	440.09
406.889	404.61
407.267	414.33
407.645	453.19
408.023	454.55
408.401	446.87
408.779	476.92
409.156	461.1
409.534	449.58
409.912	434.89
410.29	453.42
410.667	479.41
411.045	459.07
411.422	479.63
411.8	472.63
412.178	480.76
412.555	502.23
412.933	490.71
413.31	488.9
413.687	484.38
414.065	502.23
414.442	498.84
414.819	495.23
415.197	505.17
415.574	520.54
415.951	538.62
416.328	509.01
416.705	506.98
417.082	517.15
417.46	519.86
417.837	542.23
418.214	535.9
418.591	543.14
418.967	533.64
419.344	532.51
419.721	544.49
420.098	561.67
420.475	558.5
420.852	567.99
421.228	528.67
421.605	541.33
421.982	580.87
422.358	584.04
422.735	586.07
423.111	576.13
423.488	582.68
423.864	572.97
424.241	592.4
424.617	610.7
424.994	589.24
425.37	611.61
425.746	605.51
426.123	626.3
426.499	639.18
426.875	610.25
427.251	600.54
427.627	639.18
428.003	644.83
428.379	631.27
428.756	636.92
429.132	687.31
429.507	647.54
429.883	659.29
430.259	671.72
430.635	690.25
431.011	672.85
431.387	689.35
431.763	689.12
432.138	697.71
432.514	702.68
432.89	708.55
433.265	725.28
433.641	716.01
434.016	742.68
434.392	764.6
434.767	719.4
435.143	777.03
435.518	747.88
435.894	780.42
436.269	779.74
436.644	794.43
437.02	794.43
437.395	776.8
437.77	798.5
438.145	817.25
438.52	809.12
438.895	820.42
439.271	817.48
439.646	866.74
440.021	865.61
440.395	817.48
440.77	831.72
441.145	874.88
441.52	881.66
441.895	876.46
442.27	891.83
442.645	873.07
443.019	890.47
443.394	883.01
443.769	894.31
444.143	898.83
444.518	923.69
444.892	937.25
445.267	921.88
445.641	932.05
446.016	977.02
446.39	959.62
446.764	941.09
447.139	972.73
447.513	972.28
447.887	955.1
448.262	970.24
448.636	981.09
449.01	968.21
449.384	1010.24
449.758	988.32
450.132	1012.73
450.506	1009.79
450.88	1028.09
451.254	1030.81
451.628	1044.59
452.002	1057.92
452.376	1054.99
452.75	1077.81
453.123	1091.37
453.497	1084.59
453.871	1092.05
454.244	1122.1
454.618	1126.4
454.992	1105.38
455.365	1119.17
455.739	1156.45
456.112	1217.92
456.486	1208.2
456.859	1207.3
457.232	1231.48
457.606	1233.96
457.979	1236.9
458.352	1283.23
458.725	1280.74
459.099	1294.75
459.472	1330.46
459.845	1314.64
460.218	1355.77
460.591	1337.92
460.964	1378.59
461.337	1369.78
461.71	1423.34
462.083	1425.15
462.456	1427.18
462.829	1435.09
463.201	1459.04
463.574	1480.74
463.947	1497.01
464.32	1553.28
464.692	1539.72
465.065	1583.79
465.438	1608.87
465.81	1632.82
466.183	1645.25
466.555	1694.97
466.928	1690.45
467.3	1714.18
467.672	1742.43
468.045	1818.13
468.417	1824.91
468.789	1845.02
469.161	1839.6
469.534	1876.89
469.906	1953.72
470.278	1951.91
470.65	1974.06
471.022	2035.07
471.394	2059.48
471.766	2084.11
472.138	2139.93
472.51	2194.84
472.882	2228.74
473.253	2291.79
473.625	2289.53
473.997	2336.08
474.369	2378.57
474.74	2420.83
475.112	2479.58
475.484	2556.87
475.855	2602.29
476.227	2676.19
476.598	2746.47
476.97	2779.01
477.341	2858.78
477.713	2952.56
478.084	2964.99
478.455	3043.18
478.827	3164.54
479.198	3270.75
479.569	3293.35
479.94	3390.74
480.311	3445.21
480.682	3557.07
481.053	3660.34
481.424	3776.04
481.795	3842.26
482.166	3929.04
482.537	4011.52
482.908	4147.79
483.279	4218.29
483.65	4340.78
484.021	4449.25
484.391	4528.12
484.762	4584.39
485.133	4726.53
485.503	4836.36
485.874	5005.84
486.244	5069.34
486.615	5187.08
486.985	5272.95
487.356	5470.69
487.726	5510.46
488.097	5738.25
488.467	5785.94
488.837	5942.99
489.207	6072.26
489.578	6198.58
489.948	6285.36
490.318	6438.8
490.688	6542.53
491.058	6709.75
491.428	6821.84
491.798	6902.97
492.168	7127.82
492.538	7232.45
492.908	7334.37
493.278	7494.59
493.648	7523.29
494.017	7729.61
494.387	7843.96
494.757	7937.74
495.126	8109.49
495.496	8137.96
495.866	8229.04
496.235	8407.11
496.605	8558.07
496.974	8583.6
497.344	8733.65
497.713	8846.19
498.082	8876.7
498.452	9064.04
498.821	9121.44
499.19	9209.57
499.559	9309.68
499.928	9391.49
500.298	9499.74
500.667	9626.06
501.036	9627.42
501.405	9734.98
501.774	9828.99
502.143	9878.26
502.512	9894.75
502.88	10129.78
503.249	10177.01
503.618	10246.16
503.987	10268.76
504.356	10416.55
504.724	10412.48
505.093	10453.16
505.462	10499.26
505.83	10655.19
506.199	10725.24
506.567	10836.2
506.936	10834.84
507.304	10958
507.672	11052.46
508.041	11066.47
508.409	11167.94
508.777	11209.97
509.145	11316.19
509.514	11292.91
509.882	11419.23
510.25	11455.84
510.618	11487.71
510.986	11433.92
511.354	11645.22
511.722	11701.94
512.09	11741.71
512.458	11670.98
512.826	11835.49
513.193	11783.97
513.561	11897.87
513.929	11934.02
514.297	12056.51
514.664	11983.51
515.032	12001.59
515.4	12081.82
515.767	12133.11
516.135	12225.77
516.502	12103.28
516.869	12298.98
517.237	12311.19
517.604	12383.5
517.972	12351.19
518.339	12427.12
518.706	12437.96
519.073	12512.76
519.44	12510.28
519.808	12546.89
520.175	12514.35
520.542	12612.87
520.909	12676.83
521.276	12696.26
521.643	12757.96
522.009	12758.86
522.376	12761.12
522.743	12796.15
523.11	12953.43
523.477	13004.73
523.843	12973.09
524.21	13109.13
524.577	13020.77
524.943	13069.36
525.31	13117.27
525.676	13149.81
526.043	13180.77
526.409	13126.99
526.776	13202.46
527.142	13284.27
527.508	13225.74
527.874	13285.4
528.241	13347.54
528.607	13320.2
528.973	13379.63
529.339	13284.27
529.705	13442.68
530.071	13421.21
530.437	13437.94
530.803	13395
531.169	13391.84
531.535	13403.36
531.901	13450.59
532.267	13313.65
532.632	13341.67
532.998	13362.23
533.364	13359.52
533.73	13387.32
534.095	13494.43
534.461	13384.15
534.826	13384.15
535.192	13404.72
535.557	13477.71
535.923	13283.37
536.288	13302.12
536.653	13384.83
537.019	13207.89
537.384	13298.96
537.749	13189.58
538.114	13165.63
538.479	13180.09
538.845	13147.78
539.21	13085.63
539.575	13009.93
539.94	13022.81
540.305	13062.58
540.67	12991.85
541.034	12959.31
541.399	12940.78
541.764	12905.75
542.129	12926.31
542.494	12930.83
542.858	12943.26
543.223	12835.92
543.587	12870.49
543.952	12779.2
544.316	12753.44
544.681	12688.58
545.045	12664.4
545.41	12732.65
545.774	12690.61
546.138	12680.9
546.503	12638.18
546.867	12537.62
547.231	12631.41
547.595	12554.8
547.959	12529.03
548.324	12442.03
548.688	12425.76
549.052	12455.36
549.416	12372.2
549.779	12415.14
550.143	12317.29
550.507	12296.5
550.871	12357.51
551.235	12234.58
551.599	12297.18
551.962	12289.72
552.326	12212.66
552.689	12258.31
553.053	12102.61
553.417	12084.53
553.78	12222.6
554.143	12204.52
554.507	12062.38
554.87	12035.49
555.234	12121.36
555.597	11991.65
555.96	12012.21
556.323	11986.9
556.686	11998.43
557.05	11998.2
557.413	12004.3
557.776	11987.13
558.139	11985.32
558.502	11948.71
558.865	11942.38
559.228	11938.09
559.59	11969.05
559.953	11949.39
560.316	12031.42
560.679	12033
561.041	11988.26
561.404	12016.96
561.767	12097.18
562.129	11952.33
562.492	12101.25
562.854	11985.09
563.217	11921.82
563.579	12042.72
563.941	12057.18
564.304	12043.17
564.666	12075.94
565.028	12094.02
565.39	12101.02
565.753	12145.99
566.115	12121.81
566.477	12107.13
566.839	12104.87
567.201	12189.16
567.563	12171.3
567.925	12182.38
568.287	12170.63
568.648	12144.86
569.01	12296.95
569.372	12247.23
569.734	12206.11
570.095	12215.37
570.457	12252.88
570.819	12305.54
571.18	12218.99
571.542	12269.61
571.903	12364.97
572.265	12246.56
572.626	12338.76
572.987	12289.49
573.349	12330.4
573.71	12433.9
574.071	12251.98
574.432	12281.36
574.794	12422.6
575.155	12400.9
575.516	12350.28
575.877	12360.45
576.238	12414.46
576.599	12450.84
576.96	12408.36
577.32	12477.51
577.681	12463.05
578.042	12522.71
578.403	12505.53
578.763	12438.87
579.124	12511.18
579.485	12480.45
579.845	12439.09
580.206	12486.32
580.566	12486.32
580.927	12391.41
581.287	12520.9
581.648	12338.76
582.008	12450.17
582.368	12458.08
582.728	12493.1
583.089	12439.55
583.449	12423.28
583.809	12389.83
584.169	12400.9
584.529	12341.92
584.889	12545.98
585.249	12388.93
585.609	12310.06
585.969	12423.05
586.329	12357.97
586.688	12398.42
587.048	12349.15
587.408	12254.24
587.768	12319.32
588.127	12356.16
588.487	12261.7
588.846	12375.37
589.206	12203.62
589.565	12293.11
589.925	12361.13
590.284	12319.55
590.643	12325.65
591.003	12278.65
591.362	12305.09
591.721	12181.02
592.08	12255.14
592.44	12277.52
592.799	12277.74
593.158	12247.46
593.517	12143.96
593.876	12243.17
594.235	12194.13
594.593	12175.15
594.952	12231.64
595.311	12206.78
595.67	12128.37
596.029	12201.81
596.387	12229.83
596.746	12218.31
597.104	12200.46
597.463	12189.61
597.822	12282.26
598.18	12199.55
598.538	12122.49
598.897	12234.81
599.255	12069.61
599.613	12342.6
599.972	12113
600.33	12249.95
600.688	12144.64
601.046	12211.98
601.404	12261.02
601.762	12171.53
602.12	12221.02
602.478	12196.61
602.836	12265.09
603.194	12211.98
603.552	12155.26
603.91	12188.48
604.268	12238.2
604.625	12111.19
604.983	12093.11
605.341	12121.59
605.698	12184.19
606.056	12194.81
606.413	12124.98
606.771	12182.6
607.128	12252.88
607.485	12172.66
607.843	12090.63
608.2	12202.04
608.557	12229.61
608.914	12190.29
609.272	12251.98
609.629	12339.21
609.986	12328.14
610.343	12300.79
610.7	12390.96
611.057	12302.83
611.414	12244.3
611.771	12327.91
612.127	12366.55
612.484	12328.36
612.841	12351.19
613.198	12310.51
613.554	12272.77
613.911	12360.68
614.267	12364.97
614.624	12312.54
614.98	12345.54
615.337	12455.36
615.693	12452.2
616.05	12441.81
616.406	12502.59
616.762	12457.62
617.118	12444.52
617.475	12458.98
617.831	12485.87
618.187	12485.42
618.543	12583.27
618.899	12550.05
619.255	12498.08
619.611	12515.48
619.967	12568.58
620.323	12555.93
620.678	12485.65
621.034	12489.94
621.39	12489.49
621.746	12461.92
622.101	12648.81
622.457	12406.33
622.812	12574.23
623.168	12487.68
623.523	12570.39
623.879	12478.19
624.234	12433.22
624.589	12502.59
624.945	12563.16
625.3	12496.04
625.655	12552.09
626.01	12515.93
626.365	12513.44
626.72	12575.81
627.075	12465.99
627.43	12519.32
627.785	12423.5
628.14	12499.88
628.495	12480.45
628.85	12483.61
629.205	12436.16
629.559	12618.07
629.914	12392.09
630.269	12518.87
630.623	12369.49
630.978	12482.03
631.332	12455.14
631.687	12487.91
632.041	12426.89
632.396	12428.92
632.75	12342.6
633.104	12390.51
633.459	12328.36
633.813	12384.86
634.167	12382.15
634.521	12341.47
634.875	12284.97
635.229	12362.03
635.583	12297.85
635.937	12198.42
636.291	12186.67
636.645	12176.28
636.999	12172.66
637.352	12231.64
637.706	12172.89
638.06	12231.42
638.413	12132.89
638.767	12060.12
639.121	12126.11
639.474	12096.73
639.828	12088.14
640.181	12106.22
640.534	12084.75
640.888	12032.78
641.241	12059.44
641.594	11956.39
641.947	12084.75
642.301	11963.4
642.654	12024.42
643.007	12054.92
643.36	11961.37
643.713	11993
644.066	12027.13
644.419	11967.47
644.771	11920.01
645.124	11713.24
645.477	11757.98
645.83	11684.99
646.182	11625.56
646.535	11652.22
646.888	11576.52
647.24	11569.74
647.593	11679.57
647.945	11583.3
648.298	11507.14
648.65	11597.53
649.002	11586.23
649.355	11524.09
649.707	11585.1
650.059	11620.13
650.411	11719.11
650.763	11756.85
651.115	11908.94
651.467	11709.17
651.819	11838.88
652.171	11828.04
652.523	11812.67
652.875	11772.9
653.227	11736.29
653.578	11854.93
653.93	11896.96
654.282	11729.28
654.633	11810.64
654.985	11822.16
655.337	11779.22
655.688	11821.93
656.039	11814.93
656.391	11736.29
656.742	11729.51
657.094	11790.07
657.445	11767.47
657.796	11754.14
658.147	11811.31
658.498	11745.55
658.849	11717.98
659.2	11752.33
659.551	11688.83
659.902	11791.65
660.253	11779.45
660.604	11783.52
660.955	11759.56
661.306	11781.94
661.656	11817.19
662.007	11815.38
662.358	11754.14
662.708	11859.22
663.059	11778.32
663.409	11753.69
663.76	11854.48
664.11	11836.85
664.461	11876.4
664.811	11840.01
665.161	11822.84
665.511	11773.8
665.862	11837.3
666.212	11906.68
666.562	11830.97
666.912	11818.55
667.262	11817.19
667.612	11842.73
667.962	11875.72
668.312	11901.25
668.662	11902.38
669.011	11801.82
669.361	11836.17
669.711	11780.13
670.06	11817.19
670.41	11725.67
670.76	11813.35
671.109	11793.46
671.459	11722.28
671.808	11769.73
672.157	11769.73
672.507	11760.92
672.856	11700.81
673.205	11772.22
673.554	11834.14
673.904	11715.05
674.253	11708.72
674.602	11733.58
674.951	11574.26
675.3	11484.32
675.649	11662.62
675.998	11678.21
676.346	11694.48
676.695	11683.86
677.044	11615.39
677.393	11564.54
677.741	11623.07
678.09	11615.16
678.438	11562.73
678.787	11596.63
679.135	11510.3
679.484	11452.91
679.832	11583.52
680.181	11407.26
680.529	11491.32
680.877	11434.83
681.225	11420.14
681.573	11476.86
681.922	11357.54
682.27	11356.64
682.618	11353.02
682.966	11289.29
683.314	11353.25
683.661	11316.19
684.009	11335.17
684.357	11248.84
684.705	11264.66
685.053	11238.67
685.4	11233.7
685.748	11127.04
686.095	11076.64
686.443	11173.14
686.79	11107.83
687.138	11085.68
687.485	11018.34
687.832	11065.8
688.18	11031.9
688.527	11019.24
688.874	10984.22
689.221	10897.21
689.568	10862.86
689.915	10962.07
690.262	10966.36
690.609	10862.41
690.956	10701.29
691.303	10816.54
691.65	10823.32
691.997	10719.59
692.344	10600.27
692.69	10594.17
693.037	10671.91
693.383	10488.86
693.73	10574.74
694.077	10413.61
694.423	10503.33
694.769	10430.33
695.116	10399.83
695.462	10325.03
695.808	10318.25
696.155	10322.77
696.501	10216.78
696.847	10226.04
697.193	10228.76
697.539	10209.77
697.885	10057.91
698.231	10071.47
698.577	10056.56
698.923	10068.99
699.269	9934.3
699.614	9945.15
699.96	9972.72
700.306	9905.15
700.651	9812.27
700.997	9772.5
701.342	9723.01
701.688	9773.85
702.033	9701.31
702.379	9690.69
702.724	9714.19
703.069	9717.36
703.415	9578.83
703.76	9554.2
704.105	9551.94
704.45	9563.46
704.795	9473.97
705.14	9394.2
705.485	9436.01
705.83	9380.87
706.175	9377.71
706.52	9360.76
706.865	9319.18
707.209	9258.61
707.554	9239.86
707.899	9264.49
708.243	9215.9
708.588	9155.34
708.932	9079.41
709.277	9062.69
709.621	9133.42
709.966	9040.31
710.31	9069.92
710.654	8984.27
710.998	8952.18
711.342	8960.09
711.687	8941.56
712.031	8866.98
712.375	8833.76
712.719	8901.79
713.063	8867.89
713.407	8913.99
713.75	8798.51
714.094	8793.09
714.438	8847.78
714.782	8778.63
715.125	8783.14
715.469	8699.76
715.812	8740.66
716.156	8660.44
716.499	8655.24
716.843	8605.75
717.186	8628.57
717.53	8694.11
717.873	8669.48
718.216	8616.6
718.559	8555.13
718.902	8589.48
719.246	8569.37
719.589	8498.86
719.932	8475.36
720.275	8498.63
720.617	8573.66
720.96	8528.69
721.303	8472.19
721.646	8487.56
721.989	8454.11
722.331	8487.79
722.674	8460.22
723.016	8427
723.359	8498.18
723.701	8467.22
724.044	8328.47
724.386	8374.57
724.729	8464.96
725.071	8395.58
725.413	8486.88
725.755	8379.54
726.097	8363.72
726.439	8296.15
726.782	8349.71
727.124	8393.1
727.465	8370.5
727.807	8327.56
728.149	8276.04
728.491	8324.17
728.833	8293.21
729.175	8303.61
729.516	8324.17
729.858	8281.92
730.199	8347
730.541	8334.57
730.882	8296.6
731.224	8333.89
731.565	8233.78
731.906	8302.71
732.248	8305.64
732.589	8326.66
732.93	8304.97
733.271	8279.88
733.612	8221.35
733.953	8295.25
734.294	8254.57
734.635	8197.62
734.976	8296.83
735.317	8234.68
735.658	8313.78
735.999	8205.98
736.339	8299.32
736.68	8328.69
737.021	8232.42
737.361	8276.72
737.702	8341.35
738.042	8311.52
738.383	8248.02
738.723	8355.81
739.063	8301.58
739.404	8356.49
739.744	8286.43
740.084	8282.37
740.424	8380.22
740.764	8333.67
741.104	8367.11
741.444	8351.52
741.784	8406.43
742.124	8502.93
742.464	8417.96
742.804	8434.45
743.143	8489.14
743.483	8461.57
743.823	8475.58
744.162	8474.68
744.502	8543.15
744.841	8493.66
745.181	8559.65
745.52	8613.43
745.86	8630.83
746.199	8682.13
746.538	8676.25
746.877	8730.49
747.216	8783.14
747.556	8760.09
747.895	8819.75
748.234	8910.15
748.573	8934.55
748.911	9005.51
749.25	9069.01
749.589	9085.06
749.928	9123.7
750.267	9194.66
750.605	9300.19
750.944	9386.07
751.283	9372.73
751.621	9504.71
751.96	9541.99
752.298	9655.21
752.636	9756.45
752.975	9816.79
753.313	9869.22
753.651	10027.63
753.989	10038.03
754.327	10097.46
754.666	10265.59
755.004	10352.82
755.342	10501.07
755.679	10613.38
756.017	10731.34
756.355	10885.46
756.693	10878.46
757.031	11102.86
757.368	11122.97
757.706	11303.08
758.044	11444.54
758.381	11562.73
758.719	11734.71
