Data from hue_150_FLMS001491_00041.txt Node
Date: Tue Feb 07 16:54:05 GMT 2017
User: dcchb
Spectrometer: FLMS00149
Trigger mode: 0
Integration Time (sec): 2.000000E-2
Scans to average: 10
Electric dark correction enabled: true
Nonlinearity correction enabled: false
Boxcar width: 0
XAxis mode: Wavelengths
Number of Pixels in Spectrum: 2048
>>>>>Begin Spectral Data<<<<<
341.393	-25.73
341.776	-25.73
342.16	-25.73
342.543	-60.99
342.927	-59.18
343.31	-74.77
343.693	-72.51
344.077	-72.51
344.46	-55.56
344.843	-48.33
345.226	-39.74
345.61	-35.9
345.993	-20.99
346.376	2.97
346.759	5.23
347.142	14.72
347.525	48.16
347.908	58.78
348.291	85.68
348.674	91.78
349.057	113.02
349.44	122.28
349.823	149.4
350.206	176.52
350.588	188.5
350.971	204.09
351.354	225.33
351.737	242.96
352.119	263.98
352.502	265.78
352.884	258.55
353.267	294.71
353.65	287.48
354.032	309.62
354.414	323.64
354.797	312.79
355.179	317.99
355.562	316.18
355.944	348.72
356.326	334.93
356.709	334.71
357.091	333.13
357.473	353.24
357.855	320.7
358.238	349.85
358.62	328.61
359.002	343.07
359.384	361.83
359.766	351.88
360.148	343.52
360.53	347.59
360.912	334.03
361.294	336.29
361.676	336.97
362.057	339.68
362.439	319.79
362.821	340.13
363.203	341.94
363.584	315.05
363.966	311.43
364.348	299.68
364.729	325.44
365.111	328.83
365.493	306.46
365.874	322.28
366.256	317.53
366.637	318.44
367.019	320.02
367.4	329.06
367.781	311.88
368.163	317.76
368.544	308.04
368.925	320.92
369.306	323.18
369.688	330.19
370.069	318.66
370.45	318.66
370.831	315.95
371.212	320.25
371.593	318.89
371.974	326.35
372.355	307.36
372.736	313.69
373.117	314.82
373.498	312.79
373.879	311.66
374.26	310.75
374.641	305.33
375.021	306.91
375.402	329.29
375.783	334.48
376.163	322.73
376.544	322.51
376.925	307.82
377.305	350.53
377.686	325.22
378.066	312.11
378.447	330.64
378.827	324.31
379.208	325.9
379.588	324.54
379.968	366.12
380.349	328.38
380.729	326.8
381.109	332.67
381.489	340.81
381.87	333.8
382.25	339.45
382.63	339.68
383.01	346.69
383.39	352.11
383.77	329.74
384.15	370.19
384.53	332
384.91	339.23
385.29	354.6
385.67	333.13
386.049	359.11
386.429	357.98
386.809	361.83
387.189	350.98
387.568	348.04
387.948	367.02
388.328	371.54
388.707	367.02
389.087	369.06
389.466	367.7
389.846	351.21
390.225	357.98
390.605	372.22
390.984	353.01
391.363	377.42
391.743	371.77
392.122	383.97
392.501	375.39
392.881	368.83
393.26	381.26
393.639	377.42
394.018	362.96
394.397	379.45
394.776	405.89
395.155	392.33
395.534	400.7
395.913	387.14
396.292	416.74
396.671	383.75
397.05	374.93
397.429	380.58
397.808	405.44
398.186	384.42
398.565	390.07
398.944	389.4
399.323	381.26
399.701	401.6
400.08	388.04
400.458	403.63
400.837	406.8
401.215	419
401.594	427.81
401.972	422.16
402.351	416.06
402.729	409.73
403.107	428.27
403.486	438.66
403.864	411.99
404.242	403.63
404.62	411.54
404.999	436.63
405.377	400.7
405.755	431.43
406.133	417.87
406.511	435.95
406.889	417.87
407.267	438.89
407.645	425.55
408.023	447.93
408.401	466.23
408.779	459.23
409.156	437.53
409.534	457.42
409.912	448.38
410.29	436.4
410.667	453.35
411.045	474.37
411.422	455.16
411.8	482.95
412.178	475.72
412.555	474.14
412.933	465.78
413.31	483.63
413.687	481.82
414.065	493.35
414.442	520.24
414.819	497.42
415.197	510.07
415.574	504.42
415.951	522.27
416.328	489.05
416.705	513.91
417.082	518.43
417.46	518.21
417.837	531.09
418.214	515.04
418.591	525.66
418.967	500.13
419.344	549.17
419.721	528.38
420.098	524.31
420.475	547.13
420.852	562.05
421.228	556.17
421.605	541.93
421.982	543.97
422.358	541.71
422.735	560.69
423.111	577.64
423.488	571.09
423.864	565.66
424.241	583.74
424.617	570.86
424.994	584.65
425.37	589.39
425.746	598.88
426.123	603.63
426.499	590.75
426.875	626
427.251	617.87
427.627	654.47
428.003	613.57
428.379	648.15
428.756	649.5
429.132	630.52
429.507	650.41
429.883	633.68
430.259	657.41
430.635	657.86
431.011	661.71
431.387	684.76
431.763	662.38
432.138	671.42
432.514	694.25
432.89	695.15
433.265	697.19
433.641	718.2
434.016	718.43
434.392	746.45
434.767	731.99
435.143	739.22
435.518	734.92
435.894	726.11
436.269	760.69
436.644	772.66
437.02	754.13
437.395	793.68
437.77	770.4
438.145	787.13
438.52	811.76
438.895	777.86
439.271	801.59
439.646	812.21
440.021	818.76
440.395	819.89
440.77	823.74
441.145	843.85
441.52	844.53
441.895	832.32
442.27	837.07
442.645	868.03
443.019	882.72
443.394	851.76
443.769	860.12
444.143	872.55
444.518	902.6
444.892	913.45
445.267	896.5
445.641	904.19
446.016	931.76
446.39	937.18
446.764	902.83
447.139	916.61
447.513	929.95
447.887	919.55
448.262	933.79
448.636	946.9
449.01	956.84
449.384	929.27
449.758	971.75
450.132	970.17
450.506	970.62
450.88	993.22
451.254	1010.62
451.628	1028.25
452.002	1015.59
452.376	1012.88
452.75	997.52
453.123	1050.17
453.497	1051.07
453.871	1042.26
454.244	1073.45
454.618	1092.2
454.992	1080.45
455.365	1082.49
455.739	1134.69
456.112	1148.7
456.486	1137.85
456.859	1143.5
457.232	1168.81
457.606	1189.83
457.979	1197.06
458.352	1211.75
458.725	1208.58
459.099	1220.79
459.472	1265.98
459.845	1251.07
460.218	1290.39
460.591	1286.55
460.964	1283.38
461.337	1332.87
461.71	1355.92
462.083	1408.58
462.456	1386.66
462.829	1369.71
463.201	1411.97
463.574	1415.36
463.947	1455.58
464.32	1459.65
464.692	1483.83
465.065	1501.01
465.438	1535.81
465.81	1524.73
466.183	1541.68
466.555	1594.79
466.928	1635.69
467.3	1619.42
467.672	1631.85
468.045	1729.02
468.417	1710.94
468.789	1730.15
469.161	1731.06
469.534	1776.93
469.906	1821
470.278	1857.38
470.65	1871.39
471.022	1931.73
471.394	1934.44
471.766	1985.96
472.138	2008.34
472.51	2066.41
472.882	2093.53
473.253	2145.51
473.625	2226.41
473.997	2240.42
474.369	2258.73
474.74	2325.39
475.112	2383.24
475.484	2427.31
475.855	2463.92
476.227	2508.44
476.598	2594.76
476.97	2658.04
477.341	2733.97
477.713	2781.65
478.084	2824.13
478.455	2895.77
478.827	2981.87
479.198	3059.61
479.569	3131.7
479.94	3245.14
480.311	3329.21
480.682	3418.02
481.053	3487.17
481.424	3634.28
481.795	3651.68
482.166	3760.16
482.537	3846.25
482.908	3992.92
483.279	4081.95
483.65	4134.38
484.021	4313.14
484.391	4360.37
484.762	4464.09
485.133	4549.51
485.503	4681.26
485.874	4778.66
486.244	4861.37
486.615	5068.6
486.985	5196.05
487.356	5295.48
487.726	5341.13
488.097	5570.05
488.467	5644.17
488.837	5853.89
489.207	5971.4
489.578	6068.8
489.948	6237.83
490.318	6364.83
490.688	6361.22
491.058	6575
491.428	6702.45
491.798	6859.96
492.168	6979.73
492.538	7120.52
492.908	7270.8
493.278	7426.05
493.648	7511.02
494.017	7639.83
494.387	7778.13
494.757	7895.64
495.126	8002.08
495.496	8078.46
495.866	8205.69
496.235	8430.99
496.605	8469.86
496.974	8568.39
497.344	8695.17
497.713	8787.14
498.082	8943.97
498.452	9074.14
498.821	9154.82
499.19	9214.48
499.559	9386.22
499.928	9433.9
500.298	9590.28
500.667	9655.14
501.036	9683.16
501.405	9806.32
501.774	9856.27
502.143	9988.92
502.512	10073.66
502.88	10174.9
503.249	10200.89
503.618	10303.49
503.987	10357.04
504.356	10478.17
504.724	10512.07
505.093	10581.9
505.462	10706.19
505.83	10748.9
506.199	10862.79
506.567	10952.51
506.936	10953.86
507.304	11081.77
507.672	11168.55
508.041	11230.47
508.409	11296
508.777	11352.27
509.145	11368.77
509.514	11420.52
509.882	11587.75
510.25	11527.86
510.618	11673.85
510.986	11643.79
511.354	11834.97
511.722	11879.49
512.09	11901.86
512.458	11943.67
512.826	11975.76
513.193	12008.75
513.561	12115.42
513.929	12167.17
514.297	12255.07
514.664	12315.41
515.032	12303.89
515.4	12411
515.767	12324.9
516.135	12516.54
516.502	12364.22
516.869	12586.82
517.237	12554.05
517.604	12544.78
517.972	12613.26
518.339	12655.29
518.706	12643.31
519.073	12734.38
519.44	12785.68
519.808	12786.36
520.175	12799.92
520.542	12858.9
520.909	12954.04
521.276	12860.71
521.643	12979.35
522.009	13086.24
522.376	13069.29
522.743	13017.99
523.11	13213.69
523.477	13198.1
523.843	13321.03
524.21	13339.34
524.577	13422.05
524.943	13410.75
525.31	13438.54
525.676	13493.01
526.043	13471.76
526.409	13543.4
526.776	13551.08
527.142	13572.33
527.508	13591.54
527.874	13522.84
528.241	13706.56
528.607	13548.82
528.973	13684.87
529.339	13621.82
529.705	13657.52
530.071	13682.38
530.437	13797.18
530.803	13877.63
531.169	13818.65
531.535	13763.06
531.901	13724.41
532.267	13753.56
532.632	13765.54
532.998	13719.89
533.364	13742.04
533.73	13686.67
534.095	13754.92
534.461	13739.55
534.826	13742.49
535.192	13708.14
535.557	13699.1
535.923	13590.63
536.288	13683.51
536.653	13642.61
537.019	13603.29
537.384	13664.3
537.749	13691.42
538.114	13583.4
538.479	13545.66
538.845	13559.67
539.21	13458.66
539.575	13483.97
539.94	13470.63
540.305	13461.14
540.67	13326.23
541.034	13380.69
541.399	13420.24
541.764	13343.41
542.129	13323.97
542.494	13293.69
542.858	13368.72
543.223	13288.72
543.587	13305.89
543.952	13199
544.316	13223.18
544.681	13141.6
545.045	13173.24
545.41	13181.6
545.774	13153.81
546.138	13070.19
546.503	13109.74
546.867	12956.52
547.231	13025
547.595	13072.68
547.959	13020.48
548.324	12932.12
548.688	12889.41
549.052	12867.26
549.416	12892.8
549.779	12852.35
550.143	12735.96
550.507	12800.37
550.871	12763.31
551.235	12650.32
551.599	12714.04
551.962	12674.95
552.326	12669.75
552.689	12706.13
553.053	12629.53
553.417	12604.22
553.78	12743.87
554.143	12509.3
554.507	12557.21
554.87	12662.75
555.234	12627.72
555.597	12489.42
555.96	12512.24
556.323	12524.9
556.686	12487.84
557.05	12484.45
557.413	12534.61
557.776	12416.2
558.139	12446.71
558.502	12462.07
558.865	12409.42
559.228	12473.37
559.59	12491.23
559.953	12511.34
560.316	12548.62
560.679	12544.33
561.041	12516.31
561.404	12524.22
561.767	12542.98
562.129	12574.39
562.492	12624.56
562.854	12551.56
563.217	12522.41
563.579	12568.51
563.941	12661.62
564.304	12627.94
564.666	12626.59
565.028	12580.94
565.39	12624.78
565.753	12621.62
566.115	12642.41
566.477	12648.28
566.839	12689.19
567.201	12737.09
567.563	12629.75
567.925	12729.19
568.287	12762.63
568.648	12709.3
569.01	12775.51
569.372	12818
569.734	12763.76
570.095	12856.64
570.457	12844.66
570.819	12778.68
571.18	12817.09
571.542	12837.43
571.903	12873.36
572.265	12860.71
572.626	12886.92
572.987	12823.19
573.349	12917.88
573.71	12907.94
574.071	13001.49
574.432	12959.91
574.794	13057.31
575.155	13019.35
575.516	13006.92
575.877	12974.15
576.238	12990.87
576.599	13027.71
576.96	13082.62
577.32	13000.36
577.681	12983.64
578.042	12997.2
578.403	12984.77
578.763	13051.21
579.124	13013.02
579.485	13070.19
579.845	13057.76
580.206	13036.97
580.566	13006.24
580.927	12976.64
581.287	13063.64
581.648	13042.4
582.008	13024.77
582.368	13045.33
582.728	13035.62
583.089	13070.87
583.449	13033.58
583.809	13078.33
584.169	13025.45
584.529	12975.73
584.889	13106.35
585.249	12985.22
585.609	12932.12
585.969	12972.57
586.329	12921.27
586.688	12969.63
587.048	12994.71
587.408	12888.95
587.768	12905
588.127	13018.22
588.487	12933.02
588.846	12940.25
589.206	12837.43
589.565	12909.75
589.925	12984.09
590.284	12972.79
590.643	12913.36
591.003	12943.64
591.362	12954.94
591.721	12928.05
592.08	13007.14
592.44	12916.98
592.799	12940.03
593.158	12884.44
593.517	12849.41
593.876	12888.5
594.235	12925.34
594.593	12817.54
594.952	12796.75
595.311	12770.31
595.67	12836.98
596.029	12904.32
596.387	12819.58
596.746	12860.48
597.104	12816.64
597.463	12733.7
597.822	12889.86
598.18	12751.33
598.538	12813.93
598.897	12868.39
599.255	12712.46
599.613	12866.13
599.972	12790.2
600.33	12784.1
600.688	12796.08
601.046	12850.76
601.404	12849.41
601.762	12808.51
602.12	12862.06
602.478	12871.55
602.836	12806.25
603.194	12761.95
603.552	12811.67
603.91	12883.53
604.268	12866.81
604.625	12677.89
604.983	12847.83
605.341	12733.93
605.698	12874.94
606.056	12853.93
606.413	12746.81
606.771	12867.94
607.128	12853.25
607.485	12777.55
607.843	12764.66
608.2	12853.02
608.557	12842.4
608.914	12768.28
609.272	12862.51
609.629	12867.49
609.986	12911.55
610.343	12922.4
610.7	12997.88
611.057	12985.45
611.414	12890.99
611.771	12966.69
612.127	12960.37
612.484	13002.4
612.841	13085.56
613.198	12986.13
613.554	12973.47
613.911	13046.92
614.267	13111.1
614.624	13051.44
614.98	13088.5
615.337	13098.21
615.693	13107.03
616.05	13029.29
616.406	13134.15
616.762	13027.26
617.118	13043.08
617.475	13094.37
617.831	13179.57
618.187	13183.86
618.543	13153.58
618.899	13229.06
619.255	13251.21
619.611	13219.79
619.967	13369.62
620.323	13267.48
620.678	13316.06
621.034	13217.99
621.39	13213.47
621.746	13228.61
622.101	13309.51
622.457	13227.25
622.812	13243.3
623.168	13248.04
623.523	13260.47
623.879	13234.26
624.234	13215.95
624.589	13228.61
624.945	13206.01
625.3	13245.1
625.655	13213.92
626.01	13187.03
626.365	13186.8
626.72	13220.92
627.075	13211.21
627.43	13204.65
627.785	13042.62
628.14	13110.42
628.495	13199.46
628.85	13138.67
629.205	13152.22
629.559	13177.53
629.914	13138.21
630.269	13113.36
630.623	13022.51
630.978	13075.16
631.332	13167.14
631.687	13140.25
632.041	13104.09
632.396	13039.69
632.75	13037.88
633.104	13046.01
633.459	12945.22
633.813	13040.82
634.167	12935.06
634.521	12975.05
634.875	12972.34
635.229	12955.17
635.583	12861.16
635.937	12874.49
636.291	12895.51
636.645	12882.4
636.999	12881.95
637.352	12918.11
637.706	12816.64
638.06	12889.41
638.413	12738
638.767	12771.22
639.121	12786.81
639.474	12748.17
639.828	12790.88
640.181	12776.87
640.534	12741.84
640.888	12707.49
641.241	12716.76
641.594	12724.21
641.947	12693.03
642.301	12668.85
642.654	12781.16
643.007	12678.11
643.36	12661.16
643.713	12657.32
644.066	12634.05
644.419	12602.86
644.771	12521.28
645.124	12376.43
645.477	12415.52
645.83	12300.27
646.182	12267.73
646.535	12298.91
646.888	12259.37
647.24	12159.26
647.593	12165.58
647.945	12176.66
648.298	12116.55
648.65	12138.01
649.002	12100.28
649.355	12186.6
649.707	12193.83
650.059	12239.93
650.411	12404.9
650.763	12362.87
651.115	12531
651.467	12464.11
651.819	12428.18
652.171	12507.5
652.523	12432.92
652.875	12460.94
653.227	12435.86
653.578	12492.13
653.93	12515.86
654.282	12416.65
654.633	12348.63
654.985	12449.64
655.337	12336.2
655.688	12465.92
656.039	12488.74
656.391	12305.47
656.742	12426.59
657.094	12343.88
657.445	12395.63
657.796	12337.1
658.147	12443.32
658.498	12375.52
658.849	12435.18
659.2	12381.4
659.551	12348.18
659.902	12399.93
660.253	12395.41
660.604	12472.47
660.955	12433.6
661.306	12422.07
661.656	12397.89
662.007	12443.99
662.358	12460.27
662.708	12475.18
663.059	12520.6
663.409	12427.72
663.76	12528.96
664.11	12447.84
664.461	12437.89
664.811	12509.08
665.161	12500.49
665.511	12456.42
665.862	12417.1
666.212	12523.99
666.562	12504.78
666.912	12428.4
667.262	12467.5
667.612	12550.43
667.962	12386.82
668.312	12456.42
668.662	12551.56
669.011	12494.39
669.361	12513.37
669.711	12472.24
670.06	12447.61
670.41	12345.24
670.76	12409.19
671.109	12446.93
671.459	12389.98
671.808	12340.72
672.157	12415.07
672.507	12330.78
672.856	12359.48
673.205	12340.27
673.554	12373.04
673.904	12368.29
674.253	12380.49
674.602	12365.13
674.951	12213.72
675.3	12147.73
675.649	12317.22
675.998	12265.47
676.346	12282.64
676.695	12419.36
677.044	12295.07
677.393	12274.06
677.741	12282.19
678.09	12181.63
678.438	12236.99
678.787	12279.48
679.135	12246.26
679.484	12174.62
679.832	12170.56
680.181	12107.96
680.529	12053.04
680.877	12037.68
681.225	12058.02
681.573	12137.11
681.922	12004.91
682.27	11953.16
682.618	12004.46
682.966	11920.39
683.314	11981.41
683.661	11872.71
684.009	11812.6
684.357	11871.13
684.705	11790.9
685.053	11759.04
685.4	11822.99
685.748	11686.27
686.095	11726.95
686.443	11627.97
686.79	11641.53
687.138	11702.09
687.485	11649.21
687.832	11580.97
688.18	11623.9
688.527	11558.37
688.874	11563.11
689.221	11496.45
689.568	11467.3
689.915	11420.97
690.262	11423
690.609	11383.46
690.956	11352.5
691.303	11329.9
691.65	11272.05
691.997	11257.36
692.344	11182.79
692.69	11265.27
693.037	11165.84
693.383	11046.07
693.73	11065.27
694.077	11028.44
694.423	11067.08
694.769	10969.46
695.116	10977.14
695.462	10945.96
695.808	10903.92
696.155	10870.48
696.501	10842.68
696.847	10807.2
697.193	10702.12
697.539	10778.95
697.885	10622.12
698.231	10601.33
698.577	10533.54
698.923	10600.65
699.269	10486.53
699.614	10406.99
699.96	10422.81
700.306	10419.87
700.651	10402.47
700.997	10334.22
701.342	10321.11
701.688	10325.41
702.033	10195.47
702.379	10201.12
702.724	10191.85
703.069	10217.84
703.415	10050.61
703.76	10094.45
704.105	10083.83
704.45	9938.98
704.795	9888.13
705.14	9894.68
705.485	9862.82
705.83	9770.84
706.175	9891.97
706.52	9818.08
706.865	9789.83
707.209	9775.82
707.554	9802.26
707.899	9742.6
708.243	9685.42
708.588	9658.76
708.932	9625.09
709.277	9610.62
709.621	9562.94
709.966	9485.43
710.31	9525.2
710.654	9465.99
710.998	9472.1
711.342	9480.46
711.687	9454.69
712.031	9420.12
712.375	9373.79
712.719	9367.92
713.063	9419.89
713.407	9380.12
713.75	9288.15
714.094	9284.98
714.438	9275.49
714.782	9250.63
715.125	9208.6
715.469	9215.61
715.812	9224.87
716.156	9184.87
716.499	9209.96
716.843	9086.34
717.186	9120.01
717.53	9199.11
717.873	9123.63
718.216	9191.65
718.559	9121.14
718.902	9072.11
719.246	9048.6
719.589	8987.59
719.932	8923.86
720.275	8951.43
720.617	8958.44
720.96	8955.05
721.303	8989.62
721.646	8900.59
721.989	8893.35
722.331	8929.28
722.674	8854.71
723.016	8954.37
723.359	8947.36
723.701	8870.76
724.044	8859
724.386	8820.59
724.729	8887.93
725.071	8884.54
725.413	8844.99
725.755	8894.26
726.097	8778.55
726.439	8859.68
726.782	8782.62
727.124	8819.68
727.465	8785.56
727.807	8790.98
728.149	8788.05
728.491	8728.16
728.833	8748.72
729.175	8752.11
729.516	8780.36
729.858	8737.88
730.199	8746.01
730.541	8752.11
730.882	8725
731.224	8712.12
731.565	8760.25
731.906	8804.77
732.248	8747.59
732.589	8708.5
732.93	8665.34
733.271	8682.51
733.612	8714.83
733.953	8757.76
734.294	8657.2
734.635	8597.99
734.976	8690.2
735.317	8679.12
735.658	8663.53
735.999	8631.89
736.339	8633.47
736.68	8750.98
737.021	8631.67
737.361	8667.14
737.702	8695.84
738.042	8652
738.383	8627.6
738.723	8694.26
739.063	8680.7
739.404	8753.7
739.744	8737.43
740.084	8681.83
740.424	8757.31
740.764	8765.22
741.104	8803.19
741.444	8842.28
741.784	8749.4
742.124	8810.19
742.464	8850.87
742.804	8814.26
743.143	8840.25
743.483	8857.87
743.823	8841.6
744.162	8866.24
744.502	8980.58
744.841	8979.23
745.181	8958.21
745.52	8976.74
745.86	9037.53
746.199	9075.5
746.538	9088.15
746.877	9167.02
747.216	9168.6
747.556	9228.71
747.895	9237.07
748.234	9296.06
748.573	9399.1
748.911	9374.47
749.25	9433.68
749.589	9454.24
749.928	9612.66
750.267	9665.31
750.605	9694.24
750.944	9723.61
751.283	9788.25
751.621	9902.59
751.96	9922.48
752.298	9990.27
752.636	10131.74
752.975	10202.7
753.313	10200.21
753.651	10425.97
753.989	10431.39
754.327	10550.71
754.666	10588.45
755.004	10700.09
755.342	10889.01
755.679	10969.01
756.017	11113.63
756.355	11268.21
756.693	11301.43
757.031	11514.53
757.368	11584.58
757.706	11710
758.044	11793.84
758.381	12027.73
758.719	12159.93
759.056	12384.11
759.394	12444.67
