Data from hue_250_FLMS001491_00003.txt Node
Date: Tue Feb 07 16:00:27 GMT 2017
User: dcchb
Spectrometer: FLMS00149
Trigger mode: 0
Integration Time (sec): 2.000000E-2
Scans to average: 10
Electric dark correction enabled: true
Nonlinearity correction enabled: false
Boxcar width: 0
XAxis mode: Wavelengths
Number of Pixels in Spectrum: 2048
>>>>>Begin Spectral Data<<<<<
341.393	-18.88
341.776	-18.88
342.16	-18.88
342.543	-66.57
342.927	-79.22
343.31	-69.28
343.693	-62.72
344.077	-55.72
344.46	-78.09
344.843	-49.62
345.226	-69.5
345.61	-18.88
345.993	-8.94
346.376	2.81
346.759	9.82
347.142	22.47
347.525	34.9
347.908	52.07
348.291	75.35
348.674	94.56
349.057	120.77
349.44	123.49
349.823	156.7
350.206	163.71
350.588	191.51
350.971	186.31
351.354	190.15
351.737	214.33
352.119	233.31
352.502	243.93
352.884	278.96
353.267	252.52
353.65	275.35
354.032	299.98
354.414	284.61
354.797	306.76
355.179	300.2
355.562	298.4
355.944	314.89
356.326	316.93
356.709	322.58
357.091	305.4
357.473	327.1
357.855	328.68
358.238	341.33
358.62	324.84
359.002	320.99
359.384	324.16
359.766	331.84
360.148	303.37
360.53	324.84
360.912	324.38
361.294	299.53
361.676	295.23
362.057	330.03
362.439	325.97
362.821	324.84
363.203	316.93
363.584	294.78
363.966	315.12
364.348	302.24
364.729	308.57
365.111	278.06
365.493	299.98
365.874	301.11
366.256	303.37
366.637	300.66
367.019	313.08
367.4	304.05
367.781	299.53
368.163	320.99
368.544	310.37
368.925	307.44
369.306	302.92
369.688	316.02
370.069	292.52
370.45	281.22
370.831	291.16
371.212	301.56
371.593	313.99
371.974	296.36
372.355	295.68
372.736	291.62
373.117	311.96
373.498	288.68
373.879	326.19
374.26	309.24
374.641	312.63
375.021	285.29
375.402	311.5
375.783	310.15
376.163	317.83
376.544	303.82
376.925	316.25
377.305	313.76
377.686	325.29
378.066	301.56
378.447	313.08
378.827	318.96
379.208	323.03
379.588	318.06
379.968	322.8
380.349	302.01
380.729	316.25
381.109	331.84
381.489	306.53
381.87	308.79
382.25	327.77
382.63	332.07
383.01	342.46
383.39	333.2
383.77	318.51
384.15	337.27
384.53	339.3
384.91	323.93
385.29	327.77
385.67	337.94
386.049	331.39
386.429	340.43
386.809	345.4
387.189	340.65
387.568	335.01
387.948	332.97
388.328	353.54
388.707	349.47
389.087	340.65
389.466	342.46
389.846	358.28
390.225	371.61
390.605	360.09
390.984	353.54
391.363	363.48
391.743	364.61
392.122	358.73
392.501	366.19
392.881	356.7
393.26	365.96
393.639	370.94
394.018	357.83
394.397	370.71
394.776	363.25
395.155	372.07
395.534	388.34
395.913	381.78
396.292	408.22
396.671	375.23
397.05	379.52
397.429	403.93
397.808	375.68
398.186	377.49
398.565	398.73
398.944	406.19
399.323	358.51
399.701	379.98
400.08	381.33
400.458	387.43
400.837	396.7
401.215	404.16
401.594	425.62
401.972	398.73
402.351	408.22
402.729	411.39
403.107	410.26
403.486	415.91
403.864	412.97
404.242	433.31
404.62	411.61
404.999	408.9
405.377	426.53
405.755	423.59
406.133	413.87
406.511	452.06
406.889	447.54
407.267	451.16
407.645	450.48
408.023	445.28
408.401	455.91
408.779	460.88
409.156	453.65
409.534	487.77
409.912	481.89
410.29	482.8
410.667	499.29
411.045	497.26
411.422	520.31
411.8	514.66
412.178	496.36
412.555	535.9
412.933	509.92
413.31	523.25
413.687	550.37
414.065	539.29
414.442	551.27
414.819	557.82
415.197	573.42
415.574	559.18
415.951	579.07
416.328	574.77
416.705	593.98
417.082	560.76
417.46	579.52
417.837	603.47
418.214	610.7
418.591	603.92
418.967	627.43
419.344	627.65
419.721	607.31
420.098	643.92
420.475	662.91
420.852	666.75
421.228	665.84
421.605	661.78
421.982	688.22
422.358	682.34
422.735	691.83
423.111	675.79
423.488	705.62
423.864	721.44
424.241	742.45
424.617	730.7
424.994	748.78
425.37	759.4
425.746	772.96
426.123	784.94
426.499	780.64
426.875	773.19
427.251	800.3
427.627	806.86
428.003	834.43
428.379	827.65
428.756	818.83
429.132	873.75
429.507	849.34
429.883	885.05
430.259	874.65
430.635	874.65
431.011	864.71
431.387	918.94
431.763	946.51
432.138	918.04
432.514	954.65
432.89	944.25
433.265	973.63
433.641	951.49
434.016	991.26
434.392	994.65
434.767	1027.64
435.143	1036.91
435.518	1051.14
435.894	1064.7
436.269	1087.08
436.644	1097.92
437.02	1107.87
437.395	1104.02
437.77	1151.03
438.145	1146.28
438.52	1194.42
438.895	1205.72
439.271	1200.75
439.646	1202.55
440.021	1231.93
440.395	1222.89
440.77	1210.69
441.145	1262.21
441.52	1259.5
441.895	1299.73
442.27	1299.27
442.645	1319.84
443.019	1312.61
443.394	1325.49
443.769	1334.53
444.143	1345.37
444.518	1358.03
444.892	1355.54
445.267	1369.55
445.641	1403.45
446.016	1380.4
446.39	1427.18
446.764	1397.35
447.139	1417.24
447.513	1441.42
447.887	1451.13
448.262	1426.73
448.636	1481.42
449.01	1485.48
449.384	1482.77
449.758	1478.25
450.132	1505.82
450.506	1489.55
450.88	1520.96
451.254	1509.21
451.628	1536.1
452.002	1563.9
452.376	1568.42
452.75	1594.86
453.123	1610.9
453.497	1589.21
453.871	1624.01
454.244	1638.7
454.618	1666.95
454.992	1650.68
455.365	1704.01
455.739	1709.43
456.112	1775.65
456.486	1720.05
456.859	1725.25
457.232	1795.98
457.606	1792.37
457.979	1814.97
458.352	1873.27
458.725	1862.42
459.099	1880.28
459.472	1900.16
459.845	1924.79
460.218	1951.91
460.591	1955.98
460.964	1964.57
461.337	1969.99
461.71	2029.2
462.083	2018.58
462.456	2054.73
462.829	2056.77
463.201	2101.96
463.574	2123.88
463.947	2091.57
464.32	2181.74
464.692	2172.25
465.065	2229.87
465.438	2203.66
465.81	2250.66
466.183	2263.99
466.555	2314.39
466.928	2332.92
467.3	2311.45
467.672	2356.2
468.045	2404.78
468.417	2421.28
468.789	2440.71
469.161	2465.34
469.534	2515.51
469.906	2551.67
470.278	2558.22
470.65	2572.69
471.022	2583.31
471.394	2632.8
471.766	2670.09
472.138	2674.6
472.51	2742.17
472.882	2788.5
473.253	2826.47
473.625	2860.59
473.997	2879.57
474.369	2887.25
474.74	2951.21
475.112	2988.27
475.484	3034.37
475.855	3068.94
476.227	3086.8
476.598	3190.75
476.97	3183.97
477.341	3226.45
477.713	3275.94
478.084	3286.34
478.455	3372.67
478.827	3373.57
479.198	3520.68
479.569	3504.41
479.94	3574.69
480.311	3612.43
480.682	3668.93
481.053	3752.54
481.424	3717.29
481.795	3856.04
482.166	3827.79
482.537	3887
482.908	4008.13
483.279	3995.93
483.65	4056.49
484.021	4158.18
484.391	4134
484.762	4204.06
485.133	4258.52
485.503	4265.07
485.874	4333.09
486.244	4375.13
486.615	4436.59
486.985	4482.92
487.356	4574.89
487.726	4594.33
488.097	4651.05
488.467	4666.87
488.837	4774.44
489.207	4800.88
489.578	4851.72
489.948	4933.98
490.318	4945.51
490.688	4964.04
491.058	5008.78
491.428	5036.12
491.798	5101.21
492.168	5184.82
492.538	5220.75
492.908	5245.61
493.278	5358.83
493.648	5339.85
494.017	5388.88
494.387	5417.58
494.757	5409.22
495.126	5450.8
495.496	5505.72
495.866	5546.85
496.235	5590.23
496.605	5620.74
496.974	5612.61
497.344	5700.29
497.713	5684.24
498.082	5754.3
498.452	5728.08
498.821	5785.26
499.19	5811.47
499.559	5912.71
499.928	5891.92
500.298	5839.49
500.667	5943.9
501.036	5947.06
501.405	5953.16
501.774	6008.98
502.143	6051.24
502.512	6021.41
502.88	6032.93
503.249	6097.34
503.618	6124.01
503.987	6167.62
504.356	6139.15
504.724	6171.24
505.093	6152.71
505.462	6194.74
505.83	6262.99
506.199	6291.91
506.567	6318.58
506.936	6327.16
507.304	6347.95
507.672	6365.58
508.041	6396.09
508.409	6435.41
508.777	6461.62
509.145	6550.66
509.514	6472.25
509.882	6500.04
510.25	6519.7
510.618	6549.76
510.986	6553.82
511.354	6602.19
511.722	6571
512.09	6648.29
512.458	6638.12
512.826	6680.15
513.193	6740.03
513.561	6672.69
513.929	6697.1
514.297	6765.34
514.664	6783.42
515.032	6726.93
515.4	6790.2
515.767	6804.67
516.135	6839.69
516.502	6804.89
516.869	6855.51
517.237	6848.05
517.604	6821.16
517.972	6921.72
518.339	6865.91
518.706	6893.93
519.073	6857.55
519.44	6948.16
519.808	6994.49
520.175	6953.36
520.542	7015.06
520.909	7026.81
521.276	7021.16
521.643	7037.65
522.009	7076.52
522.376	7126.01
522.743	7064.09
523.11	7165.33
523.477	7192.45
523.843	7108.39
524.21	7168.27
524.577	7250.98
524.943	7212.56
525.31	7213.92
525.676	7333.01
526.043	7301.15
526.409	7375.72
526.776	7342.05
527.142	7310.87
527.508	7330.3
527.874	7392.45
528.241	7392.67
528.607	7402.16
528.973	7429.96
529.339	7390.41
529.705	7473.57
530.071	7534.59
530.437	7442.84
530.803	7530.75
531.169	7469.28
531.535	7426.57
531.901	7474.03
532.267	7470.18
532.632	7503.18
532.998	7503.18
533.364	7556.28
533.73	7497.75
534.095	7551.31
534.461	7506.12
534.826	7454.14
535.192	7539.34
535.557	7481.94
535.923	7519
536.288	7527.81
536.653	7543.18
537.019	7498.43
537.384	7491.65
537.749	7521.48
538.114	7496.4
538.479	7483.07
538.845	7526.23
539.21	7571.88
539.575	7495.72
539.94	7532.1
540.305	7450.07
540.67	7487.81
541.034	7474.7
541.399	7526.23
541.764	7573.91
542.129	7480.13
542.494	7473.57
542.858	7481.48
543.223	7476.06
543.587	7465.67
543.952	7436.74
544.316	7421.37
544.681	7419.56
545.045	7379.79
545.41	7406.23
545.774	7437.87
546.138	7449.39
546.503	7419.34
546.867	7450.3
547.231	7404.42
547.595	7398.1
547.959	7438.32
548.324	7354.48
548.688	7406.91
549.052	7372.79
549.416	7445.33
549.779	7363.97
550.143	7371.43
550.507	7418.21
550.871	7351.77
551.235	7352.9
551.599	7429.06
551.962	7408.49
552.326	7341.6
552.689	7360.58
553.053	7332.11
553.417	7333.24
553.78	7406.46
554.143	7385.89
554.507	7405.78
554.87	7362.62
555.234	7390.64
555.597	7418.43
555.96	7344.09
556.323	7387.48
556.686	7360.36
557.05	7383.18
557.413	7427.93
557.776	7469.51
558.139	7395.38
558.502	7390.41
558.865	7375.95
559.228	7480.35
559.59	7485.33
559.953	7437.64
560.316	7505.66
560.679	7513.57
561.041	7509.73
561.404	7554.25
561.767	7551.54
562.129	7518.32
562.492	7529.84
562.854	7533.69
563.217	7574.59
563.579	7615.04
563.941	7644.42
564.304	7581.14
564.666	7684.87
565.028	7657.3
565.39	7661.37
565.753	7699.78
566.115	7724.42
566.477	7710.86
566.839	7738.43
567.201	7749.73
567.563	7772.32
567.925	7776.62
568.287	7794.92
568.648	7870.17
569.01	7866.11
569.372	7948.82
569.734	7908.82
570.095	7987.91
570.457	8009.61
570.819	7971.41
571.18	7943.84
571.542	7925.77
571.903	8023.62
572.265	8024.75
572.626	8025.2
572.987	8054.12
573.349	8076.72
573.71	8107.23
574.071	8166.66
574.432	8130.51
574.794	8172.54
575.155	8217.06
575.516	8142.48
575.877	8216.38
576.238	8191.3
576.599	8248.47
576.96	8273.1
577.32	8192.43
577.681	8271.97
578.042	8281.92
578.403	8335.25
578.763	8290.5
579.124	8392.19
579.485	8440.1
579.845	8372.76
580.206	8357.62
580.566	8400.1
580.927	8444.62
581.287	8483.27
581.648	8487.56
582.008	8461.57
582.368	8488.24
582.728	8526.43
583.089	8571.17
583.449	8561.68
583.809	8548.35
584.169	8565.52
584.529	8519.65
584.889	8602.36
585.249	8502.47
585.609	8566.43
585.969	8599.65
586.329	8609.82
586.688	8579.53
587.048	8608.46
587.408	8582.25
587.768	8639.19
588.127	8635.8
588.487	8657.05
588.846	8661.34
589.206	8676.25
589.565	8666.09
589.925	8728.91
590.284	8805.52
590.643	8733.65
591.003	8772.3
591.362	8743.37
591.721	8801.22
592.08	8783.14
592.44	8771.62
592.799	8809.36
593.158	8792.64
593.517	8819.3
593.876	8836.7
594.235	8826.53
594.593	8850.71
594.952	8835.57
595.311	8867.44
595.67	8864.27
596.029	8922.8
596.387	8916.02
596.746	8951.5
597.104	8959.41
597.463	8900.43
597.822	8998.73
598.18	8899.98
598.538	8872.18
598.897	8900.43
599.255	8845.06
599.613	8977.04
599.972	8950.15
600.33	8964.38
600.688	8966.87
601.046	9014.78
601.404	9015
601.762	8988.34
602.12	8991.27
602.478	8945.4
602.836	8997.38
603.194	8990.6
603.552	8970.48
603.91	8981.33
604.268	9067.43
604.625	8952.86
604.983	8988.11
605.341	9022.23
605.698	9079.63
606.056	9098.62
606.413	9042.12
606.771	9142.01
607.128	9074.66
607.485	9083.93
607.843	9151.27
608.2	9164.83
608.557	9126.19
608.914	9129.58
609.272	9135.9
609.629	9195.79
609.986	9175.22
610.343	9187.43
610.7	9216.35
611.057	9202.12
611.414	9160.99
611.771	9165.51
612.127	9218.16
612.484	9217.71
612.841	9172.51
613.198	9205.96
613.554	9250.93
613.911	9273.98
614.267	9181.1
614.624	9223.13
614.98	9257.93
615.337	9343.13
615.693	9298.39
616.05	9309.68
616.406	9383.81
616.762	9301.78
617.118	9271.49
617.475	9348.78
617.831	9309.46
618.187	9304.04
618.543	9436.69
618.899	9383.35
619.255	9376.58
619.611	9323.24
619.967	9346.29
620.323	9391.94
620.678	9350.36
621.034	9328.89
621.39	9357.59
621.746	9351.72
622.101	9453.18
622.457	9368.44
622.812	9415.44
623.168	9408.21
623.523	9396.01
623.879	9410.92
624.234	9345.62
624.589	9352.62
624.945	9381.1
625.3	9389.68
625.655	9366.86
626.01	9373.64
626.365	9397.82
626.72	9337.25
627.075	9403.24
627.43	9337.48
627.785	9314.88
628.14	9349.23
628.495	9321.66
628.85	9329.57
629.205	9331.15
629.559	9349.68
629.914	9295.9
630.269	9297.26
630.623	9292.74
630.978	9269.91
631.332	9393.52
631.687	9327.09
632.041	9293.41
632.396	9295
632.75	9246.18
633.104	9227.88
633.459	9229.69
633.813	9173.64
634.167	9196.47
634.521	9198.5
634.875	9153.3
635.229	9186.3
635.583	9092.29
635.937	9126.19
636.291	9125.51
636.645	9155.56
636.999	9090.26
637.352	9140.42
637.706	9038.51
638.06	9073.08
638.413	9094.32
638.767	9064.27
639.121	9091.16
639.474	8943.37
639.828	8959.64
640.181	8979.07
640.534	9037.38
640.888	9040.99
641.241	8969.35
641.594	9006.42
641.947	8980.65
642.301	9033.31
642.654	9003.48
643.007	8931.39
643.36	8939.3
643.713	8902.24
644.066	8971.16
644.419	8934.78
644.771	8900.2
645.124	8753.54
645.477	8768
645.83	8747.67
646.182	8620.21
646.535	8646.43
646.888	8666.31
647.24	8606.2
647.593	8687.33
647.945	8658.63
648.298	8607.1
648.65	8622.47
649.002	8563.94
649.355	8605.07
649.707	8587.9
650.059	8659.31
650.411	8720.77
650.763	8757.61
651.115	8795.57
651.467	8752.19
651.819	8812.3
652.171	8803.71
652.523	8770.94
652.875	8718.97
653.227	8727.78
653.578	8756.93
653.93	8783.82
654.282	8784.27
654.633	8741.34
654.985	8754.44
655.337	8789.02
655.688	8747.21
656.039	8783.37
656.391	8699.98
656.742	8761
657.094	8764.16
657.445	8790.38
657.796	8746.76
658.147	8726.88
658.498	8745.18
658.849	8709.47
659.2	8717.16
659.551	8768
659.902	8733.65
660.253	8752.86
660.604	8750.15
660.955	8744.5
661.306	8680.77
661.656	8715.35
662.007	8709.7
662.358	8728.46
662.708	8648.69
663.059	8636.26
663.409	8711.51
663.76	8804.61
664.11	8736.82
664.461	8712.19
664.811	8788.57
665.161	8733.2
665.511	8676.03
665.862	8694.11
666.212	8780.66
666.562	8790.38
666.912	8692.75
667.262	8731.62
667.612	8794.9
667.962	8787.44
668.312	8718.06
668.662	8826.31
669.011	8736.14
669.361	8721
669.711	8741.34
670.06	8736.14
670.41	8669.7
670.76	8673.32
671.109	8653.88
671.459	8706.99
671.808	8683.71
672.157	8671.06
672.507	8657.05
672.856	8676.25
673.205	8711.06
673.554	8708.8
673.904	8636.93
674.253	8758.06
674.602	8640.1
674.951	8526.43
675.3	8453.44
675.649	8531.85
675.998	8583.15
676.346	8615.01
676.695	8589.25
677.044	8558.97
677.393	8552.42
677.741	8577.27
678.09	8565.75
678.438	8472.19
678.787	8486.88
679.135	8587.44
679.484	8467.9
679.832	8498.63
680.181	8474.9
680.529	8546.31
680.877	8455.02
681.225	8486.66
681.573	8576.82
681.922	8454.34
682.27	8401.01
682.618	8398.07
682.966	8421.8
683.314	8416.6
683.661	8426.09
684.009	8351.07
684.357	8338.18
684.705	8267.9
685.053	8323.04
685.4	8306.77
685.748	8261.8
686.095	8201.47
686.443	8183.16
686.79	8150.62
687.138	8184.74
687.485	8190.84
687.832	8144.29
688.18	8197.85
688.527	8108.36
688.874	8081.02
689.221	8015.71
689.568	8036.95
689.915	8019.78
690.262	8018.42
690.609	7993.79
690.956	7939.33
691.303	7928.25
691.65	7895.03
691.997	7836.73
692.344	7872.21
692.69	7847.35
693.037	7807.8
693.383	7740.46
693.73	7771.42
694.077	7735.94
694.423	7784.98
694.769	7705.43
695.116	7628.15
695.462	7731.2
695.808	7653
696.155	7619.79
696.501	7640.8
696.847	7535.04
697.193	7475.38
697.539	7519
697.885	7486.68
698.231	7415.05
698.577	7486.68
698.923	7446.23
699.269	7385.22
699.614	7320.81
699.96	7349.74
700.306	7341.37
700.651	7258.44
700.997	7289.4
701.342	7299.57
701.688	7233.13
702.033	7228.84
702.379	7185.67
702.724	7169.18
703.069	7112.91
703.415	7073.59
703.76	7077.43
704.105	7079.46
704.45	7091.21
704.795	6980.25
705.14	7022.29
705.485	7038.78
705.83	6928.73
706.175	6895.28
706.52	6929.63
706.865	6917.21
707.209	6866.13
707.554	6794.5
707.899	6862.07
708.243	6857.55
708.588	6820.26
708.932	6731.22
709.277	6757.66
709.621	6764.44
709.966	6744.1
710.31	6681.51
710.654	6721.28
710.998	6680.83
711.342	6664.1
711.687	6638.79
712.031	6635.18
712.375	6610.32
712.719	6583.88
713.063	6618.46
713.407	6613.94
713.75	6556.99
714.094	6595.63
714.438	6519.7
714.782	6568.06
715.125	6538.46
715.469	6517.22
715.812	6470.21
716.156	6473.83
716.499	6498.01
716.843	6461.62
717.186	6441.06
717.53	6479.48
717.873	6489.42
718.216	6446.48
718.559	6387.05
718.902	6344.34
719.246	6398.57
719.589	6362.19
719.932	6364.9
720.275	6327.62
720.617	6346.82
720.96	6321.06
721.303	6347.5
721.646	6354.28
721.989	6288.75
722.331	6276.09
722.674	6304.57
723.016	6315.41
723.359	6337.11
723.701	6265.02
724.044	6247.62
724.386	6281.29
724.729	6329.42
725.071	6259.6
725.413	6266.15
725.755	6245.58
726.097	6280.16
726.439	6232.93
726.782	6197.68
727.124	6262.31
727.465	6212.82
727.807	6214.85
728.149	6173.72
728.491	6185.47
728.833	6143.44
729.175	6194.29
729.516	6221.4
729.858	6176.43
730.199	6179.15
730.541	6161.07
730.882	6171.91
731.224	6173.95
731.565	6099.15
731.906	6116.55
732.248	6163.55
732.589	6145.02
732.93	6097.57
733.271	6107.96
733.612	6127.4
733.953	6114.74
734.294	6169.65
734.635	6105.25
734.976	6168.52
735.317	6094.63
735.658	6136.21
735.999	6126.94
736.339	6154.74
736.68	6167.17
737.021	6128.3
737.361	6175.98
737.702	6173.04
738.042	6141.86
738.383	6175.08
738.723	6182.54
739.063	6135.76
739.404	6159.94
739.744	6162.87
740.084	6186.6
740.424	6166.94
740.764	6139.82
741.104	6194.96
741.444	6143.89
741.784	6191.12
742.124	6172.82
742.464	6172.82
742.804	6202.2
743.143	6195.64
743.483	6218.47
743.823	6219.37
744.162	6225.47
744.502	6223.44
744.841	6251.01
745.181	6323.77
745.52	6284
745.86	6302.53
746.199	6380.27
746.538	6396.77
746.877	6419.82
747.216	6445.13
747.556	6488.52
747.895	6486.26
748.234	6516.76
748.573	6506.14
748.911	6536.2
749.25	6590.21
749.589	6646.03
749.928	6698.91
750.267	6718.11
750.605	6796.3
750.944	6782.07
751.283	6827.26
751.621	6899.58
751.96	6975.51
752.298	7059.57
752.636	7145.22
752.975	7088.5
753.313	7159.91
753.651	7297.31
753.989	7312.45
754.327	7368.49
754.666	7432.67
755.004	7541.37
755.342	7628.15
755.679	7637.41
756.017	7771.87
756.355	7871.08
756.693	7955.14
757.031	8061.36
757.368	8182.26
757.706	8195.36
758.044	8291.41
758.381	8439.42
758.719	8529.14
759.056	8620.44
759.394	8648.69
759.731	8751.28
760.068	8898.4
760.405	8998.05
760.743	9054.1
761.08	9275.34
761.417	9281.21
761.754	9419.06
762.091	9471.04
762.428	9589
762.765	9721.43
763.102	9755.1
763.438	9942.66
763.775	9978.59
764.112	10047.52
764.449	10204.12
764.785	10278.25
765.122	10351.47
765.458	10452.93
765.795	10551.46
766.131	10661.97
766.467	10745.35
766.804	10748.97
767.14	10822.41
767.476	10971.79
767.812	10998
768.148	11153.48
768.485	11212.23
768.821	11234.61
769.157	11268.5
769.492	11385.79
769.828	11438.22
