Data from hue_38_FLMS001491_00001.txt Node
Date: Tue Feb 07 17:30:57 GMT 2017
User: dcchb
Spectrometer: FLMS00149
Trigger mode: 0
Integration Time (sec): 2.000000E-2
Scans to average: 10
Electric dark correction enabled: true
Nonlinearity correction enabled: false
Boxcar width: 0
XAxis mode: Wavelengths
Number of Pixels in Spectrum: 2048
>>>>>Begin Spectral Data<<<<<
341.393	3.8
341.776	3.8
342.16	3.8
342.543	-39.59
342.927	-61.28
343.31	-70.32
343.693	-62.64
344.077	-80.72
344.46	-65.35
344.843	-28.06
345.226	-45.24
345.61	-29.87
345.993	-14.73
346.376	-20.38
346.759	30.24
347.142	19.39
347.525	60.07
347.908	44.48
348.291	77.7
348.674	78.37
349.057	107.07
349.44	112.72
349.823	141.2
350.206	171.48
350.588	173.96
350.971	197.24
351.354	241.99
351.737	250.35
352.119	250.57
352.502	272.27
352.884	288.09
353.267	284.24
353.65	286.5
354.032	285.6
354.414	288.31
354.797	329.67
355.179	321.98
355.562	320.85
355.944	322.44
356.326	329.44
356.709	326.95
357.091	334.86
357.473	343.9
357.855	375.99
358.238	355.43
358.62	313.62
359.002	334.86
359.384	347.29
359.766	341.87
360.148	340.97
360.53	332.38
360.912	328.31
361.294	337.58
361.676	325.82
362.057	351.59
362.439	349.78
362.821	336.9
363.203	330.34
363.584	318.59
363.966	340.97
364.348	328.31
364.729	310.91
365.111	332.15
365.493	331.25
365.874	317.01
366.256	330.8
366.637	328.08
367.019	326.05
367.4	307.07
367.781	335.99
368.163	330.34
368.544	317.69
368.925	314.3
369.306	324.24
369.688	313.17
370.069	319.05
370.45	327.18
370.831	333.28
371.212	335.77
371.593	312.49
371.974	314.75
372.355	301.19
372.736	316.33
373.117	317.01
373.498	319.5
373.879	324.47
374.26	328.99
374.641	310.68
375.021	336.45
375.402	321.98
375.783	309.55
376.163	325.82
376.544	351.59
376.925	338.48
377.305	324.69
377.686	330.8
378.066	343.68
378.447	354.3
378.827	339.38
379.208	338.93
379.588	332.83
379.968	340.74
380.349	319.27
380.729	324.92
381.109	344.81
381.489	334.64
381.87	335.77
382.25	323.79
382.63	351.59
383.01	344.81
383.39	353.39
383.77	337.58
384.15	364.24
384.53	340.29
384.91	352.04
385.29	357.69
385.67	346.16
386.049	361.3
386.429	347.97
386.809	355.65
387.189	340.06
387.568	364.24
387.948	372.83
388.328	336.45
388.707	372.83
389.087	363.34
389.466	353.62
389.846	358.59
390.225	385.26
390.605	376.44
390.984	361.98
391.363	392.04
391.743	384.58
392.122	393.85
392.501	383
392.881	393.85
393.26	374.41
393.639	377.35
394.018	358.14
394.397	379.61
394.776	397.24
395.155	395.65
395.534	391.59
395.913	391.59
396.292	383.45
396.671	370.34
397.05	392.94
397.429	393.85
397.808	390.68
398.186	380.06
398.565	412.15
398.944	403.11
399.323	389.55
399.701	411.47
400.08	399.72
400.458	404.92
400.837	397.46
401.215	408.99
401.594	408.76
401.972	414.41
402.351	425.48
402.729	410.79
403.107	428.19
403.486	416.9
403.864	423.45
404.242	438.36
404.62	433.17
404.999	424.13
405.377	443.11
405.755	418.25
406.133	414.18
406.511	427.97
406.889	440.62
407.267	443.34
407.645	434.52
408.023	451.92
408.401	450.12
408.779	452.6
409.156	451.7
409.534	450.57
409.912	447.4
410.29	473.62
410.667	469.55
411.045	472.26
411.422	463.22
411.8	453.05
412.178	459.38
412.555	487.18
412.933	480.17
413.31	457.35
413.687	476.33
414.065	510
414.442	472.49
414.819	475.88
415.197	490.79
415.574	496.22
415.951	476.33
416.328	503.67
416.705	493.73
417.082	520.85
417.46	531.47
417.837	518.14
418.214	512.94
418.591	529.21
418.967	525.82
419.344	554.29
419.721	536.67
420.098	538.25
420.475	548.64
420.852	526.27
421.228	574.63
421.605	548.64
421.982	570.11
422.358	558.36
422.735	543.22
423.111	547.97
423.488	561.3
423.864	564.46
424.241	569.66
424.617	564.91
424.994	565.82
425.37	573.5
425.746	608.76
426.123	588.19
426.499	595.65
426.875	585.03
427.251	600.85
427.627	608.3
428.003	616.44
428.379	618.25
428.756	634.07
429.132	632.03
429.507	620.05
429.883	650.56
430.259	645.14
430.635	667.28
431.011	644.69
431.387	673.16
431.763	676.55
432.138	686.72
432.514	670.45
432.89	672.26
433.265	686.72
433.641	692.37
434.016	709.77
434.392	696.89
434.767	726.94
435.143	714.06
435.518	721.52
435.894	731.01
436.269	714.52
436.644	736.21
437.02	764.01
437.395	740.28
437.77	751.8
438.145	740.73
438.52	763.55
438.895	777.79
439.271	771.24
439.646	787.06
440.021	775.53
440.395	784.34
440.77	782.08
441.145	807.17
441.52	791.12
441.895	784.12
442.27	821.4
442.645	813.5
443.019	820.28
443.394	818.47
443.769	846.04
444.143	822.76
444.518	831.35
444.892	839.71
445.267	848.52
445.641	852.14
446.016	831.57
446.39	879.48
446.764	876.77
447.139	894.85
447.513	867.73
447.887	857.56
448.262	895.53
448.636	877
449.01	908.63
449.384	910.89
449.758	912.7
450.132	922.42
450.506	922.42
450.88	910.22
451.254	932.59
451.628	921.97
452.002	938.92
452.376	958.12
452.75	961.29
453.123	993.15
453.497	961.51
453.871	988.18
454.244	991.34
454.618	1001.97
454.992	1017.33
455.365	1026.6
455.739	1034.73
456.112	1035.41
456.486	1039.03
456.859	1059.36
457.232	1084.9
457.606	1064.56
457.979	1130.55
458.352	1117.22
458.725	1133.49
459.099	1150.21
459.472	1154.73
459.845	1127.39
460.218	1153.83
460.591	1180.49
460.964	1175.75
461.337	1183.43
461.71	1210.32
462.083	1225.24
462.456	1249.87
462.829	1263.2
463.201	1269.08
463.574	1280.15
463.947	1300.71
464.32	1326.7
464.692	1335.97
465.065	1334.16
465.438	1361.28
465.81	1366.7
466.183	1404.67
466.555	1406.47
466.928	1429.52
467.3	1430.88
467.672	1450.99
468.045	1520.82
468.417	1491.67
468.789	1549.97
469.161	1536.41
469.534	1558.33
469.906	1608.73
470.278	1624.32
470.65	1644.43
471.022	1703.64
471.394	1696.41
471.766	1711.33
472.138	1759.69
472.51	1795.16
472.882	1815.96
473.253	1825.22
473.625	1905.44
473.997	1908.83
474.369	1963.97
474.74	1958.1
475.112	2045.78
475.484	2057.98
475.855	2113.8
476.227	2135.27
476.598	2225.44
476.97	2230.18
477.341	2345.21
477.713	2354.7
478.084	2368.48
478.455	2459.1
478.827	2508.37
479.198	2573.22
479.569	2596.95
479.94	2714.24
480.311	2735.93
480.682	2805.31
481.053	2901.58
481.424	2947
481.795	3027.45
482.166	3119.42
482.537	3157.16
482.908	3262.24
483.279	3355.12
483.65	3381.34
484.021	3475.12
484.391	3530.03
484.762	3634.21
485.133	3680.31
485.503	3773.87
485.874	3884.38
486.244	3969.34
486.615	4060.19
486.985	4169.57
487.356	4225.16
487.726	4312.84
488.097	4436.9
488.467	4489.56
488.837	4637.35
489.207	4726.16
489.578	4847.97
489.948	4954.86
490.318	5038.7
490.688	5111.01
491.058	5225.58
491.428	5350.78
491.798	5409.31
492.168	5581.51
492.538	5659.7
492.908	5745.34
493.278	5846.36
493.648	5933.36
494.017	6046.35
494.387	6122.28
494.757	6227.14
495.126	6301.49
495.496	6413.57
495.866	6504.42
496.235	6608.6
496.605	6748.03
496.974	6773.34
497.344	6932.43
497.713	6962.71
498.082	7045.2
498.452	7201.58
498.821	7222.14
499.19	7322.93
499.559	7413.55
499.928	7525.41
500.298	7578.06
500.667	7748.45
501.036	7744.84
501.405	7882.46
501.774	7959.97
502.143	7927.21
502.512	8067.99
502.88	8224.6
503.249	8273.19
503.618	8292.62
503.987	8396.12
504.356	8518.15
504.724	8509.79
505.093	8616.45
505.462	8646.96
505.83	8776.45
506.199	8877.01
506.567	8969.67
506.936	8992.94
507.304	9073.62
507.672	9161.98
508.041	9210.34
508.409	9349.77
508.777	9430.9
509.145	9520.16
509.514	9505.24
509.882	9555.64
510.25	9663.88
510.618	9778.23
510.986	9741.62
511.354	9843.31
511.722	9969.19
512.09	10024.1
512.458	10057.77
512.826	10169.18
513.193	10316.07
513.561	10286.92
513.929	10347.48
514.297	10467.03
514.664	10496.63
515.032	10617.31
515.4	10666.57
515.767	10712.44
516.135	10784.53
516.502	10858.66
516.869	10973
517.237	10996.73
517.604	10935.94
517.972	11103.62
518.339	11194.92
518.706	11192.21
519.073	11248.02
519.44	11350.39
519.808	11502.48
520.175	11461.13
520.542	11652.53
520.909	11668.35
521.276	11617.05
521.643	11819.99
522.009	11944.05
522.376	11984.95
522.743	12059.08
523.11	12086.19
523.477	12259.07
523.843	12290.26
524.21	12416.13
524.577	12521.89
524.943	12587.65
525.31	12624.26
525.676	12666.52
526.043	12862.67
526.409	12834.42
526.776	12984.7
527.142	12984.47
527.508	13046.17
527.874	13146.73
528.241	13266.5
528.607	13245.71
528.973	13440.28
529.339	13436.67
529.705	13527.29
530.071	13645.93
530.437	13688.86
530.803	13859.71
531.169	13898.35
531.535	13860.84
531.901	13844.11
532.267	14065.35
532.632	14148.74
532.998	14248.4
533.364	14279.36
533.73	14326.59
534.095	14348.51
534.461	14426.47
534.826	14520.93
535.192	14518.45
535.557	14699.68
535.923	14765.22
536.288	14781.26
536.653	14835.73
537.019	14726.8
537.384	14849.74
537.749	14998.21
538.114	15031.2
538.479	15059.67
538.845	15181.48
539.21	15012.9
539.575	15176.96
539.94	15264.64
540.305	15328.37
540.67	15300.57
541.034	15451.3
541.399	15590.51
541.764	15590.06
542.129	15606.78
542.494	15633.9
542.858	15703.27
543.223	15766.1
543.587	15795.25
543.952	15875.25
544.316	15929.48
544.681	15983.49
545.045	16040.89
545.41	16123.83
545.774	16203.37
546.138	16247.67
546.503	16317.72
546.867	16286.54
547.231	16461.9
547.595	16499.86
547.959	16559.3
548.324	16515
548.688	16572.63
549.052	16725.62
549.416	16744.15
549.779	16807.65
550.143	16871.15
550.507	16890.13
550.871	17008.32
551.235	16974.88
551.599	17194.76
551.962	17185.95
552.326	17198.15
552.689	17340.97
553.053	17294.42
553.417	17328.99
553.78	17614.86
554.143	17449.44
554.507	17573.51
554.87	17655.31
555.234	17761.52
555.597	17714.07
555.96	17773.95
556.323	17908.64
556.686	17904.8
557.05	18046.71
557.413	18034.96
557.776	17982.54
558.139	18210.33
558.502	18257.78
558.865	18188.18
559.228	18455.97
559.59	18432.24
559.953	18487.83
560.316	18763.98
560.679	18642.63
561.041	18789.29
561.404	18821.16
561.767	18939.35
562.129	18855.28
562.492	19161.71
562.854	19067.48
563.217	19045.78
563.579	19088.95
563.941	19297.98
564.304	19377.98
564.666	19577.52
565.028	19481.03
565.39	19537.07
565.753	19657.52
566.115	19674.69
566.477	19836.5
566.839	19772.32
567.201	19927.12
567.563	19951.3
567.925	20051.18
568.287	20151.29
568.648	20078.98
569.01	20360.33
569.372	20483.49
569.734	20436.48
570.095	20585.86
570.457	20742.46
570.819	20753.76
571.18	20841.44
571.542	20848.45
571.903	20823.59
572.265	21037.82
572.626	21144.94
572.987	21184.26
573.349	21163.47
573.71	21396.23
574.071	21462.9
574.432	21624.7
574.794	21756.45
575.155	21792.83
575.516	21781.76
575.877	22049.77
576.238	22093.16
576.599	22245.7
576.96	22370.22
577.32	22339.03
577.681	22551.46
578.042	22669.42
578.403	22797.78
578.763	22863.31
579.124	23080.03
579.485	23278.89
579.845	23395.05
580.206	23457.87
580.566	23604.53
580.927	23759.11
581.287	23842.27
581.648	24039.33
582.008	24289.49
582.368	24329.71
582.728	24701.46
583.089	24685.18
583.449	24690.83
583.809	24985.74
584.169	25234.55
584.529	25363.81
584.889	25654.65
585.249	25646.06
585.609	25751.6
585.969	26158.14
586.329	26273.84
586.688	26598.81
587.048	26662.76
587.408	26891.45
587.768	27098.91
588.127	27324.66
588.487	27348.84
588.846	27840.58
589.206	27800.81
589.565	28021.14
589.925	28442.6
590.284	28540.22
590.643	28792.19
591.003	28950.61
591.362	29310.6
591.721	29530.25
592.08	29657.48
592.44	29831.26
592.799	30101.09
593.158	30295.21
593.517	30520.96
593.876	30773.16
594.235	30836.89
594.593	31127.73
594.952	31467.15
595.311	31455.85
595.67	31748.28
596.029	32099.9
596.387	32358.2
596.746	32579.67
597.104	32654.01
597.463	32756.61
597.822	33127.45
598.18	33114.34
598.538	33398.18
598.897	33696.47
599.255	33537.15
599.613	34284.03
599.972	34249.68
600.33	34430.92
600.688	34428.66
601.046	34777.12
601.404	35047.85
601.762	35182.08
602.12	35472.47
602.478	35560.15
602.836	35609.42
603.194	35624.78
603.552	35851.44
603.91	35879.92
604.268	36219.57
604.625	36172.11
604.983	36564.19
605.341	36557.19
605.698	36848.93
606.056	37003.73
606.413	37142.03
606.771	37340.67
607.128	37549.7
607.485	37474.9
607.843	37719.87
608.2	37850.26
608.557	38113.53
608.914	38041.22
609.272	38432.62
609.629	38529.79
609.986	38683.69
610.343	38733.85
610.7	39188.53
611.057	38975.88
611.414	39247.29
611.771	39300.62
612.127	39502.42
612.484	39532.93
612.841	39826.93
613.198	39763.66
613.554	39769.76
613.911	40134.95
614.267	40106.25
614.624	40161.84
614.98	40304.21
615.337	40558.89
615.693	40563.18
616.05	40595.73
616.406	40983.96
616.762	40738.55
617.118	41031.2
617.475	41106.45
617.831	41165.88
618.187	41160.01
618.543	41328.14
618.899	41637.28
619.255	41500.56
619.611	41593.67
619.967	41767.67
620.323	41921.34
620.678	41707.34
621.034	41854
621.39	41892.42
621.746	41899.87
622.101	42350.71
622.457	42170.6
622.812	42204.95
623.168	42382.57
623.523	42338.96
623.879	42561.78
624.234	42372.63
624.589	42497.15
624.945	42575.11
625.3	42578.5
625.655	42698.5
626.01	42712.73
626.365	42718.83
626.72	42758.38
627.075	42705.73
627.43	42770.81
627.785	42658.27
628.14	42796.8
628.495	43032.95
628.85	42877.25
629.205	42844.25
629.559	42852.84
629.914	42851.49
630.269	42873.86
630.623	42800.87
630.978	42842.67
631.332	43033.85
631.687	43096.68
632.041	43060.29
632.396	43040.41
632.75	42991.37
633.104	43051.03
633.459	42632.06
633.813	42880.19
634.167	42950.24
634.521	42867.98
634.875	43015.32
635.229	42970.81
635.583	42834.09
635.937	42847.19
636.291	42838.38
636.645	42734.2
636.999	42817.59
637.352	42870.24
637.706	42627.31
638.06	42825.5
638.413	42697.82
638.767	42455.79
639.121	42719.51
639.474	42473.87
639.828	42515.9
640.181	42493.76
640.534	42644.49
640.888	42500.08
641.241	42275
641.594	42469.12
641.947	42587.99
642.301	42571.27
642.654	42393.65
643.007	42553.87
643.36	42564.94
643.713	42412.18
644.066	42620.08
644.419	42177.61
644.771	42081.56
645.124	41720.89
645.477	41637.73
645.83	41416.27
646.182	41394.12
646.535	41113.45
646.888	41223.73
647.24	41050.18
647.593	41292.21
647.945	41077.75
648.298	41076.84
648.65	41053.57
649.002	40945.55
649.355	41111.42
649.707	40917.75
650.059	41213.79
650.411	41712.08
650.763	41710.95
651.115	42071.39
651.467	41882.92
651.819	42006.08
652.171	41842.25
652.523	41863.26
652.875	41656.72
653.227	41614.23
653.578	41753.66
653.93	41746.88
654.282	41591.86
654.633	41563.38
654.985	41622.59
655.337	41700.1
655.688	41679.54
656.039	41801.12
656.391	41346.89
656.742	41527
657.094	41658.07
657.445	41780.1
657.796	41603.38
658.147	41550.73
658.498	41489.26
658.849	41613.78
659.2	41411.52
659.551	41568.81
659.902	41625.3
660.253	41376.04
660.604	41594.12
660.955	41385.99
661.306	41453.33
661.656	41358.87
662.007	41434.8
662.358	41429.6
662.708	41331.53
663.059	41446.1
663.409	41073.45
663.76	41513.22
664.11	41378.3
664.461	41475.93
664.811	41324.52
665.161	41371.07
665.511	41281.36
665.862	41296.95
666.212	41359.32
666.562	41487.45
666.912	41292.66
667.262	41233.45
667.612	41326.33
667.962	41249.95
668.312	41267.8
668.662	41474.57
669.011	41255.14
669.361	41320
669.711	41105.09
670.06	41104.87
670.41	41132.89
670.76	41160.23
671.109	41202.26
671.459	41110.06
671.808	41002.04
672.157	41211.53
672.507	40885.21
672.856	40823.52
673.205	40954.81
673.554	41138.54
673.904	40890.41
674.253	41026
674.602	41169.04
674.951	40449.97
675.3	40362.29
675.649	40824.65
675.998	40787.36
676.346	40906.68
676.695	41088.59
677.044	40655.61
677.393	40795.27
677.741	40865.78
678.09	40777.42
678.438	40668.04
678.787	40792.11
679.135	40785.78
679.484	40437.09
679.832	40552.11
680.181	40425.56
680.529	40475.05
680.877	40455.62
681.225	40241.61
681.573	40456.52
681.922	40239.35
682.27	40273.25
682.618	40122.74
682.966	40045.01
683.314	40138.34
683.661	40114.61
684.009	39911.68
684.357	39814.73
684.705	39913.48
685.053	39864.67
685.4	39833.71
685.748	39645.92
686.095	39650.89
686.443	39458.13
686.79	39409.54
687.138	39489.31
687.485	39466.26
687.832	39393.5
688.18	39322.99
688.527	39153.73
688.874	39150.34
689.221	38984.02
689.568	38993.28
689.915	38899.95
690.262	38788.54
690.609	38733.18
690.956	38619.06
691.303	38588.55
691.65	38463.81
691.997	38272.17
692.344	38046.19
692.69	38212.96
693.037	38194.43
693.383	37918.73
693.73	38016.36
694.077	37859.08
694.423	37858.62
694.769	37596.26
695.116	37549.93
695.462	37527.11
695.808	37416.6
696.155	37504.06
696.501	37276.04
696.847	37201.01
697.193	36924.86
697.539	37106.1
697.885	36850.51
698.231	36785.43
698.577	36824.75
698.923	36642.16
699.269	36451.65
699.614	36515.16
699.96	36199.01
700.306	36370.3
700.651	36149.74
700.997	36064.77
701.342	36104.09
701.688	36016.41
702.033	35970.76
702.379	35859.35
702.724	35884.89
703.069	35721.96
703.415	35317.45
703.76	35382.98
704.105	35349.08
704.45	35390.89
704.795	35132.14
705.14	35019.38
705.485	35047.62
705.83	34903.45
706.175	34960.39
706.52	34885.59
706.865	34803.56
707.209	34672.27
707.554	34517.47
707.899	34614.87
708.243	34435.21
708.588	34336.46
708.932	34208.1
709.277	34160.64
709.621	34241.54
709.966	33885.62
710.31	33981.21
710.654	33749.58
710.998	33821.22
711.342	33757.26
711.687	33682.01
712.031	33581
712.375	33486.76
712.719	33527.66
713.063	33441.79
713.407	33582.13
713.75	33210.84
714.094	33237.05
714.438	33139.65
714.782	33207.22
715.125	33139.88
715.469	33085.19
715.812	32945.53
716.156	32739.44
716.499	32776.27
716.843	32769.27
717.186	32737.85
717.53	32738.98
717.873	32810.62
718.216	32608.82
718.559	32504.41
718.902	32200.69
719.246	32277.53
719.589	32206.57
719.932	32015.39
720.275	32005.44
720.617	32074.37
720.96	31962.73
721.303	31973.13
721.646	31898.1
721.989	31779.24
722.331	31943.75
722.674	31746.69
723.016	31756.86
723.359	31723.64
723.701	31842.51
724.044	31603.19
724.386	31403.2
724.729	31561.16
725.071	31393.93
725.413	31494.72
725.755	31383.09
726.097	31249.53
726.439	31077.56
726.782	31098.57
727.124	31345.35
727.465	31069.2
727.807	31035.3
728.149	30987.62
728.491	30886.38
728.833	30923.89
729.175	30797.11
729.516	30765.48
729.858	30620.85
730.199	30823.33
730.541	30553.28
730.882	30587.85
731.224	30832.37
731.565	30515.09
731.906	30614.07
732.248	30508.08
732.589	30347.41
732.93	30270.8
733.271	30297.69
733.612	30301.99
733.953	30402.55
734.294	30151.48
734.635	30201.42
734.976	30276.22
735.317	30054.08
735.658	30003.69
735.999	29930.92
736.339	29981.54
736.68	30047.98
737.021	30001.43
737.361	29826.07
737.702	29932.5
738.042	29870.36
738.383	29773.86
738.723	29688.44
739.063	29691.38
739.404	29710.59
739.744	29573.87
740.084	29436.7
740.424	29534.55
740.764	29413.42
741.104	29491.61
741.444	29368.68
741.784	29301.33
742.124	29313.09
742.464	29220.88
742.804	29237.15
743.143	29031.96
743.483	29147.89
743.823	29046.88
744.162	29057.5
744.502	28998.29
744.841	28981.12
745.181	28895.47
745.52	28827.45
745.86	28883.72
746.199	28753.78
746.538	28693.21
746.877	28878.52
747.216	28683.95
747.556	28622.93
747.895	28557.4
748.234	28576.16
748.573	28504.52
748.911	28525.99
749.25	28458.19
749.589	28258.42
749.928	28385.88
750.267	28365.09
750.605	28165.77
750.944	28168.71
751.283	28051.88
751.621	28109.5
751.96	28034.7
752.298	27905.66
752.636	27901.6
752.975	27874.7
753.313	27562.17
753.651	27841.03
753.989	27674.03
754.327	27695.5
754.666	27574.83
755.004	27565.79
755.342	27618.67
755.679	27458.22
756.017	27368.5
756.355	27419.35
756.693	27278.56
757.031	27310.88
