Data from hue_240_FLMS001491_00041.txt Node
Date: Tue Feb 07 16:35:31 GMT 2017
User: dcchb
Spectrometer: FLMS00149
Trigger mode: 0
Integration Time (sec): 2.000000E-2
Scans to average: 10
Electric dark correction enabled: true
Nonlinearity correction enabled: false
Boxcar width: 0
XAxis mode: Wavelengths
Number of Pixels in Spectrum: 2048
>>>>>Begin Spectral Data<<<<<
341.393	-16.89
341.776	-16.89
342.16	-16.89
342.543	-38.81
342.927	-33.84
343.31	-91.47
343.693	-56.89
344.077	-66.61
344.46	-57.57
344.843	-51.02
345.226	-44.69
345.61	-25.71
345.993	-7.4
346.376	-2.2
346.759	15.88
347.142	34.63
347.525	44.12
347.908	51.35
348.291	66.72
348.674	77.34
349.057	113.5
349.44	155.98
349.823	160.5
350.206	181.75
350.588	188.75
350.971	195.53
351.354	222.2
351.737	218.13
352.119	254.51
352.502	270.56
352.884	285.7
353.267	273.95
353.65	286.38
354.032	302.65
354.414	294.96
354.797	287.96
355.179	315.08
355.562	320.5
355.944	322.53
356.326	344.68
356.709	351.23
357.091	332.48
357.473	343.78
357.855	354.17
358.238	335.41
358.62	348.07
359.002	361.4
359.384	369.99
359.766	327.96
360.148	324.12
360.53	354.62
360.912	327.73
361.294	325.25
361.676	325.47
362.057	339.93
362.439	334.28
362.821	326.6
363.203	338.35
363.584	333.38
363.966	317.11
364.348	351.91
364.729	300.39
365.111	292.48
365.493	341.74
365.874	306.94
366.256	309.43
366.637	339.71
367.019	303.1
367.4	306.49
367.781	321.63
368.163	303.1
368.544	312.14
368.925	312.82
369.306	327.96
369.688	303.55
370.069	296.77
370.45	324.12
370.831	303.33
371.212	322.08
371.593	296.77
371.974	325.47
372.355	285.25
372.736	313.27
373.117	312.36
373.498	318.01
373.879	305.81
374.26	316.21
374.641	311.69
375.021	333.38
375.402	313.95
375.783	335.19
376.163	314.62
376.544	310.56
376.925	303.1
377.305	323.44
377.686	313.72
378.066	317.79
378.447	339.26
378.827	330.22
379.208	333.83
379.588	325.47
379.968	346.49
380.349	336.32
380.729	337.9
381.109	322.53
381.489	342.65
381.87	321.63
382.25	335.19
382.63	342.42
383.01	344.91
383.39	348.97
383.77	328.18
384.15	353.49
384.53	344.68
384.91	340.16
385.29	335.41
385.67	351.46
386.049	367.96
386.429	335.19
386.809	359.82
387.189	364.57
387.568	351.91
387.948	355.98
388.328	343.55
388.707	371.35
389.087	349.65
389.466	366.15
389.846	368.41
390.225	344.91
390.605	359.82
390.984	377.67
391.363	378.13
391.743	343.78
392.122	377.22
392.501	378.35
392.881	394.4
393.26	387.16
393.639	387.84
394.018	376.54
394.397	371.35
394.776	383.1
395.155	393.04
395.534	384.91
395.913	381.06
396.292	384.91
396.671	384.91
397.05	373.38
397.429	394.17
397.808	391.01
398.186	374.96
398.565	405.24
398.944	424.9
399.323	416.09
399.701	393.94
400.08	411.57
400.458	403.66
400.837	413.83
401.215	417.67
401.594	415.41
401.972	417.22
402.351	398.01
402.729	421.29
403.107	423.32
403.486	405.7
403.864	429.88
404.242	428.29
404.62	439.37
404.999	437.11
405.377	445.24
405.755	444.56
406.133	462.64
406.511	447.73
406.889	443.21
407.267	461.97
407.645	455.19
408.023	469.65
408.401	474.39
408.779	464.45
409.156	487.28
409.534	479.82
409.912	500.83
410.29	499.7
410.667	512.81
411.045	480.95
411.422	510.55
411.8	479.14
412.178	535.64
412.555	533.83
412.933	519.14
413.31	518.01
413.687	557.56
414.065	573.83
414.442	529.99
414.819	560.27
415.197	577.67
415.574	566.14
415.951	564.79
416.328	576.99
416.705	596.42
417.082	581.06
417.46	601.17
417.837	614.28
418.214	587.84
418.591	632.58
418.967	629.64
419.344	631.9
419.721	649.98
420.098	648.85
420.475	680.26
420.852	662.86
421.228	680.49
421.605	669.87
421.982	680.04
422.358	685.24
422.735	707.16
423.111	696.54
423.488	727.04
423.864	729.53
424.241	741.73
424.617	741.51
424.994	750.32
425.37	754.84
425.746	760.04
426.123	779.02
426.499	786.93
426.875	781.28
427.251	808.17
427.627	821.05
428.003	831.9
428.379	839.58
428.756	866.47
429.132	856.31
429.507	848.85
429.883	852.46
430.259	867.83
430.635	851.79
431.011	901.05
431.387	906.02
431.763	916.87
432.138	943.08
432.514	928.39
432.89	919.81
433.265	988.05
433.641	981.73
434.016	979.47
434.392	1015.4
434.767	1022.85
435.143	997.54
435.518	1043.87
435.894	1044.77
436.269	1061.72
436.644	1093.59
437.02	1099.01
437.395	1099.24
437.77	1151.89
438.145	1124.55
438.52	1151.44
438.895	1171.33
439.271	1171.33
439.646	1196.18
440.021	1224.88
440.395	1237.99
440.77	1222.85
441.145	1235.96
441.52	1292.9
441.895	1286.8
442.27	1283.64
442.645	1279.8
443.019	1317.54
443.394	1316.63
443.769	1344.2
444.143	1309.17
444.518	1363.18
444.892	1355.05
445.267	1379.46
445.641	1365.44
446.016	1379.46
446.39	1390.08
446.764	1395.05
447.139	1406.12
447.513	1429.4
447.887	1417.42
448.262	1436.63
448.636	1437.53
449.01	1469.4
449.384	1470.53
449.758	1484.09
450.132	1511.66
450.506	1504.42
450.88	1506.46
451.254	1549.39
451.628	1561.6
452.002	1562.28
452.376	1573.57
452.75	1558.89
453.123	1585.1
453.497	1613.8
453.871	1614.03
454.244	1661.03
454.618	1643.18
454.992	1677.53
455.365	1677.3
455.739	1700.8
456.112	1743.97
456.486	1758.88
456.859	1759.56
457.232	1758.65
457.606	1751.42
457.979	1823.29
458.352	1840.23
458.725	1850.4
459.099	1852.44
459.472	1916.16
459.845	1922.49
460.218	1916.62
460.591	1926.56
460.964	1942.15
461.337	1966.33
461.71	1987.8
462.083	2038.87
462.456	2024.86
462.829	2023.51
463.201	2074.35
463.574	2084.07
463.947	2116.39
464.32	2176.72
464.692	2157.97
465.065	2164.97
465.438	2235.25
465.81	2252.43
466.183	2254.01
466.555	2317.51
466.928	2310.5
467.3	2294.91
467.672	2348.02
468.045	2386.66
468.417	2399.09
468.789	2394.57
469.161	2441.35
469.534	2475.47
469.906	2485.19
470.278	2553.21
470.65	2576.03
471.022	2625.52
471.394	2646.99
471.766	2650.38
472.138	2691.29
472.51	2717.05
472.882	2770.83
473.253	2788.46
473.625	2818.74
473.997	2904.84
474.369	2864.61
474.74	2946.42
475.112	2981.45
475.484	3027.1
475.855	3063.25
476.227	3121.56
476.598	3168.11
476.97	3169.24
477.341	3242.01
477.713	3279.07
478.084	3310.03
478.455	3349.35
478.827	3401.77
479.198	3470.47
479.569	3479.06
479.94	3554.09
480.311	3577.59
480.682	3639.28
481.053	3686.51
481.424	3779.84
481.795	3809.22
482.166	3862.78
482.537	3958.14
482.908	3971.25
483.279	3977.13
483.65	4044.47
484.021	4120.4
484.391	4178.03
484.762	4183
485.133	4242.88
485.503	4288.53
485.874	4320.62
486.244	4375.31
486.615	4434.06
486.985	4502.76
487.356	4564.46
487.726	4593.38
488.097	4689.65
488.467	4701.85
488.837	4803.77
489.207	4853.26
489.578	4890.1
489.948	4933.71
490.318	4955.41
490.688	4990.43
491.058	5086.7
491.428	5087.38
491.798	5141.16
492.168	5247.38
492.538	5234.04
492.908	5328.05
493.278	5386.13
493.648	5388.62
494.017	5401.72
494.387	5488.27
494.757	5528.5
495.126	5579.12
495.496	5538.22
495.866	5554.03
496.235	5649.85
496.605	5702.96
496.974	5694.6
497.344	5758.1
497.713	5816.17
498.082	5840.58
498.452	5824.08
498.821	5849.39
499.19	5892.1
499.559	5898.21
499.928	5967.58
500.298	6026.34
500.667	6077.86
501.036	6008.71
501.405	6083.96
501.774	6099.33
502.143	6124.19
502.512	6074.02
502.88	6172.32
503.249	6161.93
503.618	6189.95
503.987	6198.99
504.356	6251.42
504.724	6287.12
505.093	6262.04
505.462	6335.94
505.83	6311.98
506.199	6417.06
506.567	6398.08
506.936	6424.97
507.304	6485.31
507.672	6487.57
508.041	6488.7
508.409	6502.03
508.777	6584.52
509.145	6618.19
509.514	6575.02
509.882	6631.97
510.25	6638.75
510.618	6696.38
510.986	6650.05
511.354	6721.91
511.722	6697.06
512.09	6808.92
512.458	6770.95
512.826	6788.58
513.193	6822.25
513.561	6861.35
513.929	6886.2
514.297	6922.81
514.664	6919.42
515.032	6916.94
515.4	6956.26
515.767	6944.51
516.135	7002.36
516.502	6911.06
516.869	6961.91
517.237	7044.62
517.604	6984.51
517.972	7064.28
518.339	7097.95
518.706	7100.21
519.073	7105.86
519.44	7118.06
519.808	7186.53
520.175	7151.28
520.542	7176.59
520.909	7272.41
521.276	7175.69
521.643	7249.58
522.009	7264.95
522.376	7222.69
522.743	7331.16
523.11	7285.74
523.477	7331.84
523.843	7410.26
524.21	7458.84
524.577	7450.71
524.943	7422.91
525.31	7525.96
525.676	7501.55
526.043	7506.07
526.409	7520.31
526.776	7640.53
527.142	7562.8
527.508	7605.51
527.874	7626.97
528.241	7615.45
528.607	7673.3
528.973	7641.44
529.339	7657.26
529.705	7614.55
530.071	7642.12
530.437	7721.44
530.803	7723.02
531.169	7728.21
531.535	7711.72
531.901	7655.45
532.267	7713.75
532.632	7783.81
532.998	7675.33
533.364	7756.91
533.73	7727.54
534.095	7763.02
534.461	7793.52
534.826	7810.7
535.192	7807.08
535.557	7816.57
535.923	7806.4
536.288	7776.8
536.653	7767.08
537.019	7750.36
537.384	7716.24
537.749	7702.9
538.114	7753.3
538.479	7750.36
538.845	7768.89
539.21	7706.29
539.575	7750.59
539.94	7743.36
540.305	7727.76
540.67	7736.12
541.034	7715.11
541.399	7759.17
541.764	7749.23
542.129	7739.97
542.494	7709.68
542.858	7687.54
543.223	7689.12
543.587	7711.49
543.952	7623.58
544.316	7730.93
544.681	7689.57
545.045	7687.99
545.41	7624.71
545.774	7652.74
546.138	7663.36
546.503	7657.93
546.867	7625.62
547.231	7669.01
547.595	7638.5
547.959	7625.39
548.324	7607.77
548.688	7625.17
549.052	7644.83
549.416	7624.94
549.779	7610.7
550.143	7636.92
550.507	7665.17
550.871	7648.89
551.235	7578.39
551.599	7607.09
551.962	7600.08
552.326	7564.38
552.689	7654.32
553.053	7557.6
553.417	7627.88
553.78	7625.84
554.143	7558.95
554.507	7611.38
554.87	7623.36
555.234	7630.36
555.597	7600.76
555.96	7617.71
556.323	7663.81
556.686	7605.51
557.05	7706.97
557.413	7646.41
557.776	7630.59
558.139	7595.11
558.502	7685.28
558.865	7583.81
559.228	7746.97
559.59	7647.99
559.953	7703.36
560.316	7742.23
560.679	7712.17
561.041	7720.53
561.404	7713.53
561.767	7791.94
562.129	7743.13
562.492	7743.36
562.854	7784.94
563.217	7767.08
563.579	7770.93
563.941	7891.15
564.304	7855.22
564.666	7811.6
565.028	7797.59
565.39	7897.02
565.753	7878.49
566.115	7963.46
566.477	7943.35
566.839	7989.68
567.201	7991.26
567.563	7984.71
567.925	8039.85
568.287	8059.73
568.648	8042.33
569.01	8050.92
569.372	8086.85
569.734	8085.95
570.095	8125.49
570.457	8128.66
570.819	8138.83
571.18	8146.28
571.542	8130.46
571.903	8177.92
572.265	8229.9
572.626	8195.55
572.987	8203.23
573.349	8250.01
573.71	8311.7
574.071	8290.01
574.432	8301.99
574.794	8335.2
575.155	8348.99
575.516	8288.43
575.877	8392.6
576.238	8428.08
576.599	8425.37
576.96	8446.61
577.32	8431.02
577.681	8434.41
578.042	8505.6
578.403	8478.7
578.763	8483.45
579.124	8541.75
579.485	8511.92
579.845	8541.07
580.206	8569.77
580.566	8565.71
580.927	8621.75
581.287	8612.49
581.648	8567.97
582.008	8595.54
582.368	8634.41
582.728	8649.32
583.089	8622.88
583.449	8685.03
583.809	8674.63
584.169	8717.57
584.529	8698.58
584.889	8777.9
585.249	8763.89
585.609	8723.44
585.969	8796.44
586.329	8721.41
586.688	8804.12
587.048	8847.73
587.408	8723.22
587.768	8802.31
588.127	8751.46
588.487	8722.09
588.846	8843.44
589.206	8797.34
589.565	8836.89
589.925	8876.21
590.284	8831.24
590.643	8892.93
591.003	8883.66
591.362	8939.03
591.721	8898.81
592.08	8892.7
592.44	8883.89
592.799	8930.67
593.158	8913.04
593.517	8934.51
593.876	8947.17
594.235	8924.57
594.593	8900.39
594.952	8927.51
595.311	8920.5
595.67	8879.37
596.029	9045.24
596.387	8987.62
596.746	9050.67
597.104	9024.23
597.463	8989.2
597.822	9000.27
598.18	8947.62
598.538	9001.85
598.897	9026.49
599.255	8974.96
599.613	9079.59
599.972	9046.15
600.33	9062.87
600.688	9041.4
601.046	9071.46
601.404	9097.67
601.762	9069.42
602.12	9115.52
602.478	9113.72
602.836	9195.97
603.194	9012.7
603.552	9053.6
603.91	9012.02
604.268	9097.9
604.625	9049.76
604.983	9110.55
605.341	9064.9
605.698	9108.74
606.056	9179.7
606.413	9087.28
606.771	9174.96
607.128	9191
607.485	9152.36
607.843	9148.06
608.2	9168.4
608.557	9258.34
608.914	9201.62
609.272	9218.35
609.629	9180.38
609.986	9196.42
610.343	9208.63
610.7	9320.49
611.057	9293.15
611.414	9238.23
611.771	9257.21
612.127	9236.65
612.484	9255.63
612.841	9254.5
613.198	9283.88
613.554	9307.16
613.911	9355.74
614.267	9295.41
614.624	9294.95
614.98	9307.83
615.337	9392.8
615.693	9377.66
616.05	9389.64
616.406	9389.41
616.762	9384.89
617.118	9416.98
617.475	9384.44
617.831	9400.71
618.187	9423.31
618.543	9396.87
618.899	9450.2
619.255	9419.7
619.611	9451.56
619.967	9441.16
620.323	9542.63
620.678	9509.41
621.034	9423.31
621.39	9414.05
621.746	9368.85
622.101	9547.6
622.457	9460.6
622.812	9438.45
623.168	9486.59
623.523	9465.57
623.879	9457.89
624.234	9435.97
624.589	9438.9
624.945	9453.59
625.3	9457.89
625.655	9432.58
626.01	9460.6
626.365	9383.54
626.72	9440.94
627.075	9386.48
627.43	9469.19
627.785	9408.17
628.14	9484.1
628.495	9384.67
628.85	9368.17
629.205	9371.79
629.559	9444.33
629.914	9436.64
630.269	9432.58
630.623	9333.14
630.978	9362.07
631.332	9377.44
631.687	9347.61
632.041	9361.17
632.396	9353.03
632.75	9312.13
633.104	9284.56
633.459	9299.25
633.813	9338.79
634.167	9265.58
634.521	9295.86
634.875	9244.11
635.229	9308.51
635.583	9188.74
635.937	9228.74
636.291	9243.66
636.645	9271
636.999	9155.3
637.352	9213.37
637.706	9152.58
638.06	9200.49
638.413	9189.42
638.767	9188.97
639.121	9170.44
639.474	9101.74
639.828	9146.48
640.181	9083.21
640.534	9104.68
640.888	9141.29
641.241	9000.5
641.594	9102.19
641.947	9120.72
642.301	9092.47
642.654	9054.51
643.007	9041.63
643.36	9035.75
643.713	9056.09
644.066	9059.03
644.419	9019.93
644.771	8965.47
645.124	8906.04
645.477	8881.18
645.83	8825.14
646.182	8830.11
646.535	8745.82
646.888	8781.52
647.24	8741.52
647.593	8720.73
647.945	8728.41
648.298	8661.3
648.65	8685.7
649.002	8633.05
649.355	8687.51
649.707	8706.49
650.059	8776.55
650.411	8851.12
650.763	8765.02
651.115	8885.92
651.467	8930.22
651.819	8895.87
652.171	8903.33
652.523	8908.07
652.875	8822.65
653.227	8811.12
653.578	8885.02
653.93	8790.79
654.282	8845.25
654.633	8804.57
654.985	8880.73
655.337	8795.53
655.688	8817.23
656.039	8843.89
656.391	8817.23
656.742	8856.77
657.094	8808.86
657.445	8854.96
657.796	8847.06
658.147	8924.12
658.498	8786.04
658.849	8866.72
659.2	8757.79
659.551	8837.11
659.902	8873.27
660.253	8794.85
660.604	8882.99
660.955	8793.5
661.306	8796.21
661.656	8848.41
662.007	8843.44
662.358	8881.18
662.708	8878.92
663.059	8834.63
663.409	8751.46
663.76	8928.86
664.11	8878.92
664.461	8923.44
664.811	8836.21
665.161	8891.8
665.511	8845.25
665.862	8825.14
666.212	8848.41
666.562	8801.41
666.912	8817.45
667.262	8789.88
667.612	8861.97
667.962	8841.86
668.312	8808.64
668.662	8916.66
669.011	8845.93
669.361	8852.48
669.711	8867.85
670.06	8813.84
670.41	8837.56
670.76	8803.21
671.109	8807.06
671.459	8777.9
671.808	8855.87
672.157	8828.98
672.507	8784.01
672.856	8783.78
673.205	8733.39
673.554	8726.38
673.904	8737.91
674.253	8839.6
674.602	8786.27
674.951	8658.13
675.3	8628.53
675.649	8772.26
675.998	8750.79
676.346	8711.24
676.695	8712.14
677.044	8687.29
677.393	8716.21
677.741	8675.53
678.09	8619.04
678.438	8624.46
678.787	8619.94
679.135	8676.44
679.484	8545.14
679.832	8579.49
680.181	8574.07
680.529	8617.01
680.877	8570.45
681.225	8578.14
681.573	8640.96
681.922	8566.61
682.27	8474.64
682.618	8468.31
682.966	8440.06
683.314	8511.92
683.661	8518.25
684.009	8420.17
684.357	8488.42
684.705	8377.46
685.053	8401.19
685.4	8376.79
685.748	8287.3
686.095	8301.76
686.443	8269.67
686.79	8227.64
687.138	8287.97
687.485	8341.76
687.832	8311.02
688.18	8249.33
688.527	8181.99
688.874	8198.71
689.221	8193.29
689.568	8189.9
689.915	8120.07
690.262	8162.1
690.609	8135.44
690.956	8108.09
691.303	8042.1
691.65	8031.48
691.997	8045.04
692.344	7967.08
692.69	7960.07
693.037	7913.52
693.383	7869.91
693.73	7918.04
694.077	7803.24
694.423	7833.52
694.769	7734.77
695.116	7779.51
695.462	7783.13
695.808	7764.6
696.155	7737.93
696.501	7637.14
696.847	7656.8
697.193	7565.73
697.539	7582.68
697.885	7561.89
698.231	7487.09
698.577	7517.82
698.923	7525.96
699.269	7476.92
699.614	7455.91
699.96	7408.22
700.306	7396.02
700.651	7350.37
700.997	7367.55
701.342	7325.97
701.688	7302.46
702.033	7291.39
702.379	7299.98
702.724	7249.81
703.069	7234.44
703.415	7212.97
703.76	7121.68
704.105	7205.74
704.45	7135.91
704.795	7129.81
705.14	7094.79
705.485	7064.28
705.83	7038.52
706.175	7022.02
706.52	6985.86
706.865	6971.4
707.209	6977.95
707.554	6884.17
707.899	6945.41
708.243	6913.55
708.588	6861.8
708.932	6840.55
709.277	6858.63
709.621	6839.88
709.966	6811.4
710.31	6824.51
710.654	6732.53
710.998	6748.13
711.342	6838.97
711.687	6683.04
712.031	6712.87
712.375	6674.23
712.719	6706.55
713.063	6709.71
713.407	6722.59
713.75	6673.78
714.094	6714.23
714.438	6608.47
714.782	6652.76
715.125	6590.62
715.469	6585.42
715.812	6584.06
716.156	6577.74
716.499	6536.38
716.843	6577.74
717.186	6516.27
717.53	6545.65
717.873	6563.73
718.216	6533.44
718.559	6511.07
718.902	6466.33
719.246	6486.44
719.589	6425.65
719.932	6471.07
720.275	6441.47
720.617	6417.51
720.96	6396.72
721.303	6399.21
721.646	6438.31
721.989	6341.36
722.331	6407.35
722.674	6414.58
723.016	6464.07
723.359	6404.86
723.701	6391.53
724.044	6358.53
724.386	6295.03
724.729	6332.09
725.071	6334.58
725.413	6328.03
725.755	6327.57
726.097	6325.09
726.439	6262.72
726.782	6271.53
727.124	6347.46
727.465	6251.42
727.807	6308.82
728.149	6310.4
728.491	6257.29
728.833	6297.52
729.175	6233.11
729.516	6256.84
729.858	6236.73
730.199	6250.51
730.541	6238.76
730.882	6293.9
731.224	6290.96
731.565	6228.82
731.906	6225.88
732.248	6270.85
732.589	6196.5
732.93	6212.77
733.271	6180.23
733.612	6211.87
733.953	6217.52
734.294	6246.22
734.635	6225.66
734.976	6250.29
735.317	6210.29
735.658	6234.92
735.999	6253.9
736.339	6226.79
736.68	6215.94
737.021	6215.94
737.361	6236.95
737.702	6208.03
738.042	6172.55
738.383	6246.45
738.723	6302.49
739.063	6265.65
739.404	6286.67
739.744	6202.15
740.084	6203.51
740.424	6229.95
740.764	6230.18
741.104	6267.01
741.444	6281.7
741.784	6251.19
742.124	6298.42
742.464	6290.74
742.804	6338.19
743.143	6370.28
743.483	6318.08
743.823	6304.75
744.162	6355.14
744.502	6326.22
744.841	6415.93
745.181	6460.68
745.52	6424.29
745.86	6418.87
746.199	6468.59
746.538	6532.31
746.877	6541.81
747.216	6573.44
747.556	6586.32
747.895	6565.53
748.234	6630.39
748.573	6601.69
748.911	6633.78
749.25	6721.01
749.589	6744.06
749.928	6771.86
750.267	6857.96
750.605	6851.4
750.944	6895.47
751.283	6955.81
751.621	6975.92
751.96	6984.28
752.298	7084.16
752.636	7123.71
752.975	7145.18
753.313	7219.08
753.651	7309.02
753.989	7312.41
754.327	7420.43
754.666	7428.11
755.004	7532.29
755.342	7652.96
755.679	7730.93
756.017	7795.56
756.355	7849.34
756.693	7915.1
757.031	8069
757.368	8051.6
757.706	8192.38
758.044	8247.75
758.381	8328.65
758.719	8392.83
759.056	8518.93
759.394	8708.75
759.731	8666.95
760.068	8729.77
760.405	8882.08
760.743	8990.78
761.08	9000.95
761.417	9098.57
761.754	9214.5
762.091	9324.78
762.428	9402.97
762.765	9477.1
763.102	9649.52
763.438	9675.96
763.775	9702.63
764.112	9903.75
764.449	9933.35
764.785	9967.48
765.122	10058.78
765.458	10137.42
765.795	10242.5
766.131	10303.74
766.467	10475.71
766.804	10500.57
767.14	10473.68
767.476	10638.65
767.812	10707.8
768.148	10832.09
768.485	10757.74
768.821	10781.24
769.157	10905.53
