Data from hue_110_FLMS001491_00015.txt Node
Date: Tue Feb 07 17:00:57 GMT 2017
User: dcchb
Spectrometer: FLMS00149
Trigger mode: 0
Integration Time (sec): 2.000000E-2
Scans to average: 10
Electric dark correction enabled: true
Nonlinearity correction enabled: false
Boxcar width: 0
XAxis mode: Wavelengths
Number of Pixels in Spectrum: 2048
>>>>>Begin Spectral Data<<<<<
341.393	-16.17
341.776	-16.17
342.16	-16.17
342.543	-41.93
342.927	-49.62
343.31	-74.02
343.693	-85.77
344.077	-60.69
344.46	-85.77
344.843	-36.74
345.226	-48.04
345.61	-42.84
345.993	-21.37
346.376	-9.84
346.759	17.27
347.142	32.64
347.525	59.98
347.908	55.01
348.291	71.28
348.674	102.47
349.057	126.42
349.44	128.91
349.823	149.02
350.206	152.86
350.588	200.55
350.971	199.87
351.354	238.51
351.737	233.77
352.119	258.62
352.502	275.12
352.884	269.47
353.267	292.75
353.65	310.6
354.032	297.49
354.414	304.27
354.797	323.03
355.179	313.31
355.562	337.94
355.944	352.41
356.326	337.04
356.709	329.36
357.091	342.69
357.473	369.81
357.855	315.8
358.238	344.5
358.62	340.2
359.002	345.17
359.384	339.3
359.766	360.54
360.148	357.38
360.53	359.86
360.912	337.27
361.294	335.91
361.676	342.01
362.057	334.78
362.439	335.91
362.821	322.12
363.203	342.91
363.584	327.32
363.966	319.86
364.348	340.88
364.729	314.44
365.111	314.21
365.493	325.74
365.874	336.59
366.256	330.03
366.637	320.99
367.019	338.4
367.4	330.94
367.781	311.73
368.163	328.23
368.544	317.38
368.925	316.25
369.306	313.08
369.688	338.85
370.069	322.12
370.45	322.12
370.831	335.91
371.212	302.01
371.593	322.35
371.974	324.16
372.355	316.93
372.736	317.6
373.117	323.03
373.498	326.19
373.879	305.85
374.26	302.01
374.641	301.56
375.021	321.22
375.402	330.49
375.783	344.5
376.163	336.59
376.544	332.52
376.925	308.34
377.305	318.73
377.686	327.1
378.066	349.24
378.447	335.91
378.827	343.14
379.208	341.11
379.588	334.78
379.968	343.37
380.349	326.87
380.729	330.94
381.109	336.59
381.489	350.6
381.87	353.76
382.25	340.88
382.63	338.4
383.01	337.94
383.39	335.46
383.77	357.6
384.15	356.25
384.53	344.04
384.91	360.09
385.29	368
385.67	342.46
386.049	344.5
386.429	347.89
386.809	374.78
387.189	351.05
387.568	357.15
387.948	358.73
388.328	351.05
388.707	364.16
389.087	351.5
389.466	381.11
389.846	353.76
390.225	384.04
390.605	365.51
390.984	378.39
391.363	364.38
391.743	371.61
392.122	358.73
392.501	365.06
392.881	371.61
393.26	389.47
393.639	349.02
394.018	364.16
394.397	397.15
394.776	377.26
395.155	373.65
395.534	386.3
395.913	393.08
396.292	410.71
396.671	358.96
397.05	411.16
397.429	386.08
397.808	389.47
398.186	386.08
398.565	397.38
398.944	392.18
399.323	386.3
399.701	396.7
400.08	416.13
400.458	413.87
400.837	406.19
401.215	415
401.594	401.44
401.972	394.44
402.351	400.77
402.729	381.11
403.107	428.79
403.486	428.11
403.864	413.2
404.242	423.59
404.62	419.97
404.999	449.13
405.377	437.6
405.755	436.02
406.133	444.15
406.511	443.25
406.889	438.96
407.267	442.12
407.645	447.77
408.023	452.29
408.401	450.26
408.779	452.52
409.156	444.38
409.534	431.5
409.912	436.92
410.29	468.34
410.667	447.32
411.045	445.28
411.422	453.87
411.8	466.75
412.178	469.69
412.555	473.98
412.933	477.83
413.31	498.84
413.687	487.32
414.065	506.07
414.442	474.66
414.819	492.52
415.197	505.17
415.574	514.66
415.951	491.39
416.328	493.42
416.705	509.46
417.082	521.44
417.46	503.81
417.837	511.95
418.214	518.73
418.591	518.96
418.967	538.84
419.344	521.44
419.721	528.45
420.098	526.19
420.475	544.27
420.852	528.67
421.228	558.95
421.605	555.79
421.982	563.02
422.358	546.75
422.735	539.07
423.111	545.4
423.488	538.84
423.864	561.67
424.241	581.55
424.617	563.7
424.994	582.46
425.37	591.04
425.746	591.27
426.123	578.39
426.499	582.68
426.875	560.76
427.251	599.18
427.627	623.36
428.003	614.77
428.379	614.77
428.756	628.56
429.132	625.39
429.507	602.34
429.883	634.43
430.259	634.21
430.635	635.11
431.011	624.72
431.387	634.66
431.763	644.38
432.138	665.39
432.514	668.56
432.89	687.09
433.265	696.58
433.641	683.47
434.016	687.54
434.392	659.52
434.767	707.65
435.143	702.68
435.518	716.46
435.894	709.23
436.269	722.57
436.644	719.4
437.02	694.54
437.395	741.1
437.77	761.43
438.145	746.29
438.52	742.45
438.895	754.2
439.271	742
439.646	760.76
440.021	767.31
440.395	806.41
440.77	767.99
441.145	805.73
441.52	807.31
441.895	809.12
442.27	799.17
442.645	810.02
443.019	808.44
443.394	811.15
443.769	816.8
444.143	826.07
444.518	836.24
444.892	810.25
445.267	844.6
445.641	853.86
446.016	881.43
446.39	851.38
446.764	867.42
447.139	902.22
447.513	858.16
447.887	870.81
448.262	903.13
448.636	906.52
449.01	908.55
449.384	883.24
449.758	904.03
450.132	919.85
450.506	916.01
450.88	923.01
451.254	935.44
451.628	956.68
452.002	943.8
452.376	955.1
452.75	969.79
453.123	949
453.497	991.71
453.871	974.08
454.244	984.71
454.618	1016.57
454.992	1005.27
455.365	1012.95
455.739	1040.07
456.112	1061.09
456.486	1042.33
456.859	1040.07
457.232	1069.22
457.606	1095.21
457.979	1108.54
458.352	1098.38
458.725	1149.67
459.099	1145.83
459.472	1192.16
459.845	1159.84
460.218	1185.15
460.591	1186.73
460.964	1224.02
461.337	1236.9
461.71	1231.25
462.083	1264.02
462.456	1271.48
462.829	1255.66
463.201	1297.24
463.574	1320.52
463.947	1323.45
464.32	1325.49
464.692	1353.74
465.065	1397.12
465.438	1396.67
465.81	1416.56
466.183	1447.07
466.555	1470.57
466.928	1490.91
467.3	1501.75
467.672	1511.25
468.045	1533.39
468.417	1534.97
468.789	1576.1
469.161	1595.54
469.534	1621.53
469.906	1679.38
470.278	1687.96
470.65	1737.23
471.022	1758.24
471.394	1811.8
471.766	1819.03
472.138	1855.87
472.51	1894.51
472.882	1939.26
473.253	1956.21
473.625	2016.54
473.997	2049.31
474.369	2053.15
474.74	2096.99
475.112	2157.56
475.484	2188.52
475.855	2258.57
476.227	2319.13
476.598	2413.82
476.97	2453.14
477.341	2517.77
477.713	2554.83
478.084	2591.9
478.455	2703.98
478.827	2726.35
479.198	2829.63
479.569	2867.82
479.94	2975.84
480.311	3009.74
480.682	3174.7
481.053	3200.47
481.424	3304.42
481.795	3404.76
482.166	3487.24
482.537	3599.33
482.908	3693.56
483.279	3754.35
483.65	3879.54
484.021	3969.94
484.391	4052.2
484.762	4166.54
485.133	4276.37
485.503	4394.33
485.874	4530.6
486.244	4611.96
486.615	4800.88
486.985	4835.9
487.356	5019.63
487.726	5088.55
488.097	5248.32
488.467	5357.47
488.837	5516.34
489.207	5649.67
489.578	5761.76
489.948	5898.7
490.318	6058.92
490.688	6132.59
491.058	6290.1
491.428	6404
491.798	6567.61
492.168	6742.75
492.538	6855.06
492.908	6977.09
493.278	7150.65
493.648	7191.77
494.017	7369.62
494.387	7491.2
494.757	7700.91
495.126	7746.56
495.496	7880.57
495.866	7983.39
496.235	8109.49
496.605	8267.23
496.974	8377.96
497.344	8557.16
497.713	8564.17
498.082	8748.8
498.452	8860.2
498.821	8994.89
499.19	9062.01
499.559	9200.08
499.928	9297.26
500.298	9372.28
500.667	9563.24
501.036	9593.07
501.405	9723.46
501.774	9843.91
502.143	9873.06
502.512	9982.89
502.88	10085.48
503.249	10166.61
503.618	10201.64
503.987	10346.04
504.356	10372.26
504.724	10447.96
505.093	10564.34
505.462	10632.81
505.83	10699.48
506.199	10884.11
506.567	10982.63
506.936	10943.99
507.304	11137.43
507.672	11192.12
508.041	11234.61
508.409	11391.66
508.777	11452.68
509.145	11504.66
509.514	11456.52
509.882	11505.33
510.25	11676.4
510.618	11741.26
510.986	11714.37
511.354	11897.87
511.722	11939.67
512.09	12111.19
512.458	11944.19
512.826	12089.27
513.193	12174.24
513.561	12193.9
513.929	12261.7
514.297	12265.77
514.664	12379.43
515.032	12511.41
515.4	12517.51
515.767	12541.46
516.135	12555.25
516.502	12488.58
516.869	12757.05
517.237	12748.46
517.604	12618.3
517.972	12735.81
518.339	12861.68
518.706	12819.65
519.073	12881.34
519.44	12946.2
519.808	13060.09
520.175	13018.06
520.542	13107.32
520.909	13173.99
521.276	13160.66
521.643	13185.51
522.009	13216.7
522.376	13258.73
522.743	13328.79
523.11	13431.38
523.477	13468.22
523.843	13487.43
524.21	13597.48
524.577	13607.42
524.943	13567.65
525.31	13647.88
525.676	13689.23
526.043	13678.38
526.409	13748.21
526.776	13861.66
527.142	13846.51
527.508	13852.84
527.874	13885.84
528.241	13875.67
528.607	13899.17
528.973	13983.91
529.339	13894.65
529.705	13984.82
530.071	13982.78
530.437	14095.1
530.803	14025.04
531.169	14123.57
531.535	14059.62
531.901	14001.09
532.267	14083.12
532.632	14116.79
532.998	14028.43
533.364	14128.77
533.73	14051.71
534.095	14123.57
534.461	14125.38
534.826	14037.47
535.192	14026.85
535.557	14101.65
535.923	14075.89
536.288	13978.71
536.653	14007.19
537.019	13972.16
537.384	13978.49
537.749	13953.4
538.114	13957.02
538.479	13978.26
538.845	13849.23
539.21	13813.75
539.575	13883.8
539.94	13854.2
540.305	13879.28
540.67	13801.09
541.034	13743.24
541.399	13778.27
541.764	13698.72
542.129	13656.01
542.494	13684.94
542.858	13700.76
543.223	13616.01
543.587	13599.52
543.952	13577.59
544.316	13635.67
544.681	13542.79
545.045	13554.32
545.41	13528.56
545.774	13527.88
546.138	13469.8
546.503	13423.7
546.867	13467.54
547.231	13442.01
547.595	13378.28
547.959	13284.27
548.324	13334.44
548.688	13235.91
549.052	13181.9
549.416	13173.76
549.779	13130.38
550.143	13074.11
550.507	13220.77
550.871	13119.98
551.235	13121.34
551.599	13122.01
551.962	13106.42
552.326	13117.27
552.689	13071.62
553.053	13001.56
553.417	13055.12
553.78	13145.06
554.143	12988.68
554.507	12963.37
554.87	13008.34
555.234	13036.82
555.597	12881.34
555.96	12943.71
556.323	12954.79
556.686	12929.02
557.05	12936.93
557.413	12846.99
557.776	12856.94
558.139	12884.51
558.502	12852.64
558.865	12858.52
559.228	12950.49
559.59	12818.97
559.953	12875.24
560.316	13004.05
560.679	12959.53
561.041	13003.15
561.404	12992.53
561.767	13018.74
562.129	12929.7
562.492	12954.33
562.854	13051.28
563.217	12956.37
563.579	12985.29
563.941	13046.54
564.304	13006.08
564.666	13152.52
565.028	13056.93
565.39	13022.36
565.753	13124.95
566.115	13126.08
566.477	13121.79
566.839	13154.33
567.201	13179.87
567.563	13147.1
567.925	13254.89
568.287	13236.14
568.648	13158.62
569.01	13223.71
569.372	13220.77
569.734	13155.01
570.095	13255.12
570.457	13351.39
570.819	13239.07
571.18	13292.86
571.542	13312.07
571.903	13355
572.265	13309.13
572.626	13344.83
572.987	13351.16
573.349	13373.31
573.71	13442.46
574.071	13383.7
574.432	13351.16
574.794	13448.33
575.155	13449.24
575.516	13440.65
575.877	13496.02
576.238	13484.26
576.599	13524.94
576.96	13504.38
577.32	13470.03
577.681	13552.74
578.042	13578.72
578.403	13560.42
578.763	13440.2
579.124	13451.72
579.485	13483.13
579.845	13566.97
580.206	13568.1
580.566	13512.29
580.927	13517.71
581.287	13593.87
581.648	13533.75
582.008	13607.88
582.368	13520.2
582.728	13478.16
583.089	13477.26
583.449	13468.22
583.809	13474.32
584.169	13517.26
584.529	13482
584.889	13564.26
585.249	13449.46
585.609	13360.43
585.969	13473.87
586.329	13461.89
586.688	13462.8
587.048	13435.68
587.408	13364.72
587.768	13390.26
588.127	13435
588.487	13390.26
588.846	13423.93
589.206	13355.23
589.565	13358.17
589.925	13435.9
590.284	13394.1
590.643	13249.92
591.003	13382.35
591.362	13364.72
591.721	13312.52
592.08	13361.78
592.44	13340.54
592.799	13331.73
593.158	13288.79
593.517	13326.75
593.876	13240.88
594.235	13250.15
594.593	13329.69
594.952	13250.15
595.311	13260.77
595.67	13318.84
596.029	13270.48
596.387	13345.06
596.746	13364.04
597.104	13229.36
597.463	13269.35
597.822	13316.13
598.18	13259.41
598.538	13220.77
598.897	13248.34
599.255	13167.66
599.613	13331.05
599.972	13237.04
600.33	13262.35
600.688	13209.47
601.046	13252.41
601.404	13326.08
601.762	13264.83
602.12	13370.82
602.478	13277.26
602.836	13309.81
603.194	13288.56
603.552	13268.45
603.91	13216.02
604.268	13265.96
604.625	13192.52
604.983	13330.82
605.341	13222.12
605.698	13289.24
606.056	13290.82
606.413	13318.84
606.771	13331.27
607.128	13353.42
607.485	13220.54
607.843	13163.14
608.2	13278.17
608.557	13371.5
608.914	13282.91
609.272	13378.28
609.629	13364.95
609.986	13431.16
610.343	13366.98
610.7	13407.88
611.057	13446.52
611.414	13415.11
611.771	13376.7
612.127	13470.48
612.484	13417.6
612.841	13471.38
613.198	13397.26
613.554	13510.7
613.911	13505.51
614.267	13464.15
614.624	13443.36
614.98	13431.84
615.337	13562
615.693	13533.3
616.05	13472.51
616.406	13608.33
616.762	13512.96
617.118	13543.92
617.475	13565.62
617.831	13572.62
618.187	13672.96
618.543	13635.9
618.899	13695.56
619.255	13629.35
619.611	13609.23
619.967	13723.13
620.323	13691.26
620.678	13594.09
621.034	13564.49
621.39	13591.15
621.746	13610.81
622.101	13758.38
622.457	13665.28
622.812	13666.18
623.168	13704.82
623.523	13740.3
623.879	13742.56
624.234	13614.43
624.589	13647.65
624.945	13616.46
625.3	13634.77
625.655	13571.72
626.01	13644.71
626.365	13526.75
626.72	13592.51
627.075	13597.71
627.43	13684.71
627.785	13585.28
628.14	13527.43
628.495	13637.93
628.85	13583.92
629.205	13496.47
629.559	13571.27
629.914	13546.41
630.269	13594.77
630.623	13488.78
630.978	13482
631.332	13604.71
631.687	13535.11
632.041	13431.16
632.396	13536.01
632.75	13484.94
633.104	13498.95
633.459	13433.87
633.813	13511.38
634.167	13459.63
634.521	13498.95
634.875	13483.13
635.229	13470.71
635.583	13353.42
635.937	13337.38
636.291	13341.44
636.645	13348
636.999	13391.16
637.352	13421.89
637.706	13273.87
638.06	13285.85
638.413	13276.81
638.767	13209.02
639.121	13254.89
639.474	13240.65
639.828	13146.65
640.181	13211.05
640.534	13188.45
640.888	13185.74
641.241	13110.26
641.594	13162.01
641.947	13198.4
642.301	13129.25
642.654	13181.9
643.007	13098.29
643.36	13068.23
643.713	13065.29
644.066	13174.89
644.419	13083.14
644.771	13044.28
645.124	12819.2
645.477	12883.38
645.83	12777.16
646.182	12691.29
646.535	12719.99
646.888	12712.31
647.24	12673.66
647.593	12709.37
647.945	12729.71
648.298	12617.39
648.65	12558.64
649.002	12523.16
649.355	12592.54
649.707	12647.9
650.059	12685.42
650.411	12844.51
650.763	12856.94
651.115	12954.79
651.467	12942.58
651.819	12935.58
652.171	12992.75
652.523	12979.87
652.875	12952.53
653.227	12913.66
653.578	12946.2
653.93	12995.01
654.282	12867.33
654.633	12928.8
654.985	12904.62
655.337	12964.05
655.688	12960.44
656.039	13002.02
656.391	12842.47
656.742	12947.56
657.094	12969.25
657.445	12931.06
657.796	12898.29
658.147	12857.84
658.498	12950.49
658.849	12948.01
659.2	12884.28
659.551	12852.64
659.902	12899.65
660.253	12913.88
660.604	12953.2
660.955	12897.84
661.306	12851.96
661.656	12957.5
662.007	12918.86
662.358	12947.33
662.708	12917.73
663.059	12891.51
663.409	12897.84
663.76	12953.2
664.11	12996.82
664.461	13029.59
664.811	12959.53
665.161	13015.8
665.511	12971.06
665.862	12971.28
666.212	12978.74
666.562	13045.18
666.912	12931.51
667.262	12975.35
667.612	12966.09
667.962	12926.99
668.312	12965.41
668.662	13030.26
669.011	12967.44
669.361	12951.85
669.711	12928.8
670.06	12840.89
670.41	12881.57
670.76	12888.57
671.109	12917.5
671.459	12926.09
671.808	13028
672.157	12998.4
672.507	12825.98
672.856	12877.95
673.205	12814
673.554	12844.96
673.904	12853.55
674.253	12902.81
674.602	12878.4
674.951	12559.09
675.3	12594.57
675.649	12728.35
675.998	12690.39
676.346	12796.6
676.695	12854.68
677.044	12681.35
677.393	12678.41
677.741	12727
678.09	12733.55
678.438	12536.27
678.787	12731.29
679.135	12678.41
679.484	12611.52
679.832	12623.04
680.181	12536.04
680.529	12677.28
680.877	12544.4
681.225	12501.01
681.573	12632.08
681.922	12477.74
682.27	12514.57
682.618	12401.35
682.966	12416.04
683.314	12453.1
683.661	12378.3
684.009	12372.2
684.357	12337.63
684.705	12258.31
685.053	12316.39
685.4	12258.99
685.748	12210.17
686.095	12217.86
686.443	12154.58
686.79	12127.24
687.138	12130.18
687.485	12138.76
687.832	12049.5
688.18	12073.68
688.527	12029.61
688.874	12011.31
689.221	11961.37
689.568	11950.75
689.915	11939.67
690.262	11950.29
690.609	11894.7
690.956	11854.25
691.303	11795.04
691.65	11712.79
691.997	11666.91
692.344	11607.7
692.69	11647.02
693.037	11626.46
693.383	11466.69
693.73	11552.79
694.077	11456.07
694.423	11556.63
694.769	11461.94
695.116	11390.08
695.462	11367.94
695.808	11345.34
696.155	11311.21
696.501	11281.84
696.847	11205.91
697.193	11205.45
697.539	11162.07
697.885	11031
698.231	10999.58
698.577	11023.99
698.923	11019.7
699.269	10952.81
699.614	10864.22
699.96	10841.62
700.306	10794.62
700.651	10730.89
700.997	10761.4
701.342	10720.49
701.688	10679.14
702.033	10657.9
702.379	10655.19
702.724	10615.41
703.069	10600.27
703.415	10463.55
703.76	10554.17
704.105	10503.55
704.45	10408.19
704.795	10377.68
705.14	10379.49
705.485	10321.18
705.83	10339.94
706.175	10288.42
706.52	10153.05
706.865	10229.21
707.209	10163.67
707.554	10070.79
707.899	10158.02
708.243	9996.67
708.588	10005.94
708.932	9924.81
709.277	9968.42
709.621	9957.35
709.966	9879.39
710.31	9880.52
710.654	9798.03
710.998	9839.84
711.342	9819.73
711.687	9763.91
712.031	9786.28
712.375	9678.71
712.719	9810.69
713.063	9753.74
713.407	9694.53
713.75	9643.01
714.094	9603.01
714.438	9667.64
714.782	9667.19
715.125	9602.11
715.469	9586.51
715.812	9550.36
716.156	9510.13
716.499	9490.02
716.843	9488.44
717.186	9474.88
717.53	9472.17
717.873	9541.77
718.216	9451.38
718.559	9447.76
718.902	9384.03
719.246	9431.04
719.589	9392.62
719.932	9317.82
720.275	9304.04
720.617	9305.62
720.96	9291.15
721.303	9283.47
721.646	9257.03
721.989	9227.2
722.331	9306.29
722.674	9296.13
723.016	9265.17
723.359	9262.91
723.701	9253.87
724.044	9230.36
724.386	9209.35
724.729	9246.86
725.071	9164.38
725.413	9207.54
725.755	9253.64
726.097	9124.38
726.439	9149.69
726.782	9163.7
727.124	9185.85
727.465	9156.69
727.807	9159.18
728.149	9139.52
728.491	9083.25
728.833	9097.49
729.175	9101.55
729.516	9021.1
729.858	9065.4
730.199	9094.77
730.541	9065.17
730.882	9124.38
731.224	9095.68
731.565	9045.74
731.906	9029.24
732.248	9045.51
732.589	9041.67
732.93	9030.82
733.271	9018.17
733.612	9094.77
733.953	9105.85
734.294	9055.23
734.635	9099.52
734.976	9044.15
735.317	9013.65
735.658	9012.07
735.999	9041.9
736.339	9050.93
736.68	9072.4
737.021	9100.65
737.361	9047.54
737.702	9076.92
738.042	9081.22
738.383	9083.48
738.723	9137.94
739.063	9056.13
739.404	9187.43
739.744	9108.11
740.084	9097.71
740.424	9117.83
740.764	9128.67
741.104	9114.66
741.444	9090.93
741.784	9166.41
742.124	9131.84
742.464	9209.12
742.804	9228.78
743.143	9210.93
743.483	9259.97
743.823	9230.82
744.162	9300.87
744.502	9311.94
744.841	9276.01
745.181	9368.44
745.52	9367.54
745.86	9356.01
746.199	9430.36
746.538	9441.43
746.877	9523.92
747.216	9599.39
747.556	9578.6
747.895	9651.82
748.234	9668.77
748.573	9737.47
748.911	9736.57
749.25	9832.83
749.589	9852.5
749.928	9986.95
750.267	9995.77
750.605	10101.08
750.944	10162.77
751.283	10216.55
751.621	10295.87
751.96	10350.11
752.298	10432.82
752.636	10524.79
752.975	10642.98
753.313	10721.62
753.651	10932.69
753.989	10967.72
754.327	11010.66
754.666	11156.42
755.004	11197.32
755.342	11436.63
755.679	11436.86
756.017	11598.21
756.355	11753.24
756.693	11857.41
757.031	11976.51
757.368	12110.51
757.706	12250.85
758.044	12361.81
758.381	12567.45
758.719	12718.18
759.056	12840.44
