Data from hue_80_FLMS001491_61.txt Node
Date: Mon Feb 06 15:23:22 GMT 2017
User: dcchb
Spectrometer: FLMS00149
Trigger mode: 0
Integration Time (sec): 2.000000E-2
Scans to average: 10
Electric dark correction enabled: true
Nonlinearity correction enabled: false
Boxcar width: 0
XAxis mode: Wavelengths
Number of Pixels in Spectrum: 2048
>>>>>Begin Spectral Data<<<<<
341.393	2.98
341.776	2.98
342.16	2.98
342.543	-55.78
342.927	-62.78
343.31	-70.46
343.693	-77.92
344.077	-71.37
344.46	-56
344.843	-56
345.226	-46.06
345.61	-30.92
345.993	-24.82
346.376	-0.41
346.759	13.38
347.142	34.84
347.525	47.5
347.908	64.9
348.291	59.25
348.674	97.21
349.057	116.88
349.44	134.73
349.823	139.02
350.206	155.07
350.588	213.82
350.971	207.04
351.354	230.09
351.737	227.16
352.119	263.99
352.502	263.54
352.884	270.77
353.267	287.27
353.65	283.42
354.032	302.63
354.414	308.28
354.797	316.87
355.179	315.97
355.562	331.33
355.944	328.17
356.326	343.99
356.709	340.37
357.091	328.17
357.473	341.28
357.855	372.01
358.238	355.97
358.62	331.11
359.002	341.28
359.384	346.47
359.766	354.84
360.148	334.72
360.53	358
360.912	329.53
361.294	319.36
361.676	331.11
362.057	335.85
362.439	319.81
362.821	316.64
363.203	310.09
363.584	318.45
363.966	307.83
364.348	309.64
364.729	315.97
365.111	286.59
365.493	324.55
365.874	317.32
366.256	318.68
366.637	327.49
367.019	309.41
367.4	296.98
367.781	324.55
368.163	326.14
368.544	331.56
368.925	308.51
369.306	318.23
369.688	298.34
370.069	317.1
370.45	290.66
370.831	300.6
371.212	306.93
371.593	309.64
371.974	295.18
372.355	318
372.736	308.28
373.117	312.58
373.498	331.79
373.879	315.06
374.26	311.45
374.641	318.23
375.021	328.85
375.402	312.12
375.783	335.85
376.163	337.43
376.544	305.12
376.925	323.88
377.305	308.51
377.686	322.97
378.066	322.97
378.447	329.07
378.827	335.85
379.208	342.63
379.588	332.46
379.968	341.73
380.349	335.4
380.729	336.98
381.109	341.73
381.489	330.2
381.87	328.85
382.25	349.41
382.63	310.77
383.01	328.62
383.39	326.14
383.77	336.08
384.15	325.91
384.53	343.54
384.91	338.79
385.29	350.54
385.67	361.61
386.049	352.8
386.429	338.56
386.809	337.89
387.189	357.77
387.568	355.51
387.948	366.81
388.328	359.35
388.707	333.14
389.087	349.41
389.466	357.55
389.846	354.16
390.225	354.38
390.605	348.96
390.984	353.93
391.363	349.19
391.743	359.13
392.122	373.37
392.501	373.37
392.881	384.44
393.26	360.71
393.639	365.91
394.018	382.41
394.397	356.64
394.776	370.43
395.155	357.32
395.534	368.39
395.913	360.94
396.292	371.56
396.671	387.6
397.05	381.73
397.429	391.22
397.808	371.56
398.186	401.16
398.565	376.53
398.944	369.75
399.323	383.08
399.701	379.92
400.08	405.68
400.458	398.22
400.837	374.04
401.215	397.32
401.594	400.03
401.972	420.6
402.351	403.42
402.729	408.62
403.107	403.65
403.486	398.45
403.864	393.7
404.242	393.7
404.62	427.83
404.999	401.16
405.377	398.22
405.755	410.65
406.133	423.76
406.511	415.85
406.889	422.86
407.267	425.34
407.645	420.37
408.023	402.97
408.401	413.36
408.779	403.87
409.156	422.18
409.534	445.91
409.912	453.36
410.29	449.75
410.667	423.31
411.045	455.62
411.422	435.51
411.8	439.35
412.178	437.09
412.555	425.79
412.933	452.01
413.31	450.88
413.687	449.3
414.065	453.36
414.442	470.99
414.819	474.61
415.197	485
415.574	462.18
415.951	473.7
416.328	471.89
416.705	480.26
417.082	479.8
417.46	479.8
417.837	485.45
418.214	481.61
418.591	485.45
418.967	485.45
419.344	488.17
419.721	490.65
420.098	478.9
420.475	483.65
420.852	502.4
421.228	507.15
421.605	523.64
421.982	501.27
422.358	498.11
422.735	517.77
423.111	530.2
423.488	543.3
423.864	537.2
424.241	535.62
424.617	529.75
424.994	532.46
425.37	546.24
425.746	558.9
426.123	539.46
426.499	566.81
426.875	562.06
427.251	519.8
427.627	544.43
428.003	553.02
428.379	595.05
428.756	574.49
429.132	581.72
429.507	590.08
429.883	564.77
430.259	579.24
430.635	591.21
431.011	572.68
431.387	607.48
431.763	613.36
432.138	601.16
432.514	617.43
432.89	622.4
433.265	628.05
433.641	633.47
434.016	635.28
434.392	630.31
434.767	668.73
435.143	639.12
435.518	641.16
435.894	656.97
436.269	645.9
436.644	654.71
437.02	668.27
437.395	676.41
437.77	696.52
438.145	685
438.52	697.65
438.895	699.46
439.271	701.72
439.646	720.7
440.021	729.97
440.395	725
440.77	715.96
441.145	718.22
441.52	736.07
441.895	722.96
442.27	739.68
442.645	736.29
443.019	752.56
443.394	720.7
443.769	734.49
444.143	769.29
444.518	744.43
444.892	745.79
445.267	751.66
445.641	782.17
446.016	777.2
446.39	764.32
446.764	785.11
447.139	783.07
447.513	792.34
447.887	790.98
448.262	780.36
448.636	800.25
449.01	822.85
449.384	811.32
449.758	817.42
450.132	828.27
450.506	819.23
450.88	840.92
451.254	810.19
451.628	842.96
452.002	844.77
452.376	834.82
452.75	853.13
453.123	847.03
453.497	876.4
453.871	898.32
454.244	920.47
454.618	917.98
454.992	930.87
455.365	904.88
455.739	925.67
456.112	948.72
456.486	959.57
456.859	943.07
457.232	971.99
457.606	986.01
457.979	1022.39
458.352	1027.36
458.725	1008.6
459.099	1023.29
459.472	1050.41
459.845	1033.46
460.218	1050.18
460.591	1057.42
460.964	1061.94
461.337	1087.02
461.71	1110.52
462.083	1114.14
462.456	1133.35
462.829	1137.19
463.201	1148.94
463.574	1164.53
463.947	1169.28
464.32	1215.6
464.692	1224.87
465.065	1212.44
465.438	1240.91
465.81	1258.09
466.183	1295.15
466.555	1301.93
466.928	1294.47
467.3	1323.85
467.672	1331.98
468.045	1361.81
468.417	1393.68
468.789	1408.59
469.161	1439.55
469.534	1443.39
469.906	1522.94
470.278	1503.96
470.65	1503.51
471.022	1569.72
471.394	1585.09
471.766	1582.37
472.138	1636.16
472.51	1660.34
472.882	1709.6
473.253	1746.21
473.625	1759.54
473.997	1839.77
474.369	1839.09
474.74	1863.5
475.112	1941.91
475.484	1966.77
475.855	2043.6
476.227	2051.51
476.598	2123.6
476.97	2143.94
477.341	2235.92
477.713	2313.2
478.084	2338.96
478.455	2395.69
478.827	2443.37
479.198	2556.13
479.569	2605.4
479.94	2702.57
480.311	2738.5
480.682	2833.64
481.053	2900.53
481.424	3009
481.795	3114.31
482.166	3144.37
482.537	3292.39
482.908	3324.7
483.279	3431.82
483.65	3557.69
484.021	3592.04
484.391	3731.7
484.762	3826.83
485.133	3914.06
485.503	4032.03
485.874	4153.38
486.244	4254.62
486.615	4396.08
486.985	4516.99
487.356	4630.2
487.726	4734.83
488.097	4867.03
488.467	4936.64
488.837	5151.09
489.207	5275.84
489.578	5385.89
489.948	5556.96
490.318	5685.54
490.688	5783.39
491.058	5941.81
491.428	6017.96
491.798	6193.78
492.168	6438.07
492.538	6467.89
492.908	6648.23
493.278	6836.25
493.648	6904.04
494.017	7026.52
494.387	7236.24
494.757	7290.47
495.126	7465.38
495.496	7524.82
495.866	7754.19
496.235	7882.55
496.605	7999.38
496.974	8135.42
497.344	8274.85
497.713	8322.99
498.082	8467.62
498.452	8673.03
498.821	8768.4
499.19	8905.34
499.559	8996.19
499.928	9151.89
500.298	9243.64
500.667	9354.6
501.036	9474.82
501.405	9634.59
501.774	9759.33
502.143	9875.49
502.512	9931.08
502.88	10116.39
503.249	10119.55
503.618	10232.32
503.987	10358.64
504.356	10475.25
504.724	10574.68
505.093	10624.17
505.462	10757.73
505.83	10882.92
506.199	11008.57
506.567	11168.11
506.936	11153.87
507.304	11319.29
507.672	11372.4
508.041	11458.95
508.409	11601.32
508.777	11738.04
509.145	11825.04
509.514	11907.07
509.882	12008.54
510.25	12011.7
510.618	12114.07
510.986	12128.54
511.354	12393.39
511.722	12394.52
512.09	12537.57
512.458	12585.02
512.826	12615.53
513.193	12841.06
513.561	12773.94
513.929	12926.26
514.297	13021.39
514.664	13155.4
515.032	13194.5
515.4	13225.68
515.767	13336.19
516.135	13431.55
516.502	13325.79
516.869	13574.83
517.237	13644.43
517.604	13567.82
517.972	13761.71
518.339	13767.82
518.706	13786.8
519.073	13951.09
519.44	14055.04
519.808	14052.78
520.175	13966.68
520.542	14184.98
520.909	14278.09
521.276	14343.85
521.643	14389.72
522.009	14420.23
522.376	14526.67
522.743	14575.48
523.11	14716.27
523.477	14768.47
523.843	14810.95
524.21	15044.84
524.577	15064.28
524.943	15059.08
525.31	15175.69
525.676	15211.62
526.043	15257.27
526.409	15393.99
526.776	15505.4
527.142	15471.73
527.508	15509.47
527.874	15553.31
528.241	15619.29
528.607	15650.48
528.973	15793.3
529.339	15746.3
529.705	15821.55
530.071	15960.98
530.437	15943.8
530.803	16059.73
531.169	15990.13
531.535	15991.49
531.901	15998.72
532.267	16104.03
532.632	16067.19
532.998	16153.29
533.364	16193.74
533.73	16191.26
534.095	16260.63
534.461	16193.06
534.826	16316
535.192	16279.61
535.557	16373.17
535.923	16363.91
536.288	16370.46
536.653	16501.76
537.019	16344.02
537.384	16395.54
537.749	16414.75
538.114	16420.85
538.479	16407.75
538.845	16441.64
539.21	16440.97
539.575	16416.56
539.94	16429.44
540.305	16515.77
540.67	16325.26
541.034	16473.28
541.399	16436.45
541.764	16454.98
542.129	16497.91
542.494	16414.75
542.858	16427.18
543.223	16409.1
543.587	16468.54
543.952	16338.14
544.316	16447.97
544.681	16295.89
545.045	16436.22
545.41	16493.85
545.774	16401.65
546.138	16400.97
546.503	16473.73
546.867	16294.53
547.231	16430.12
547.595	16421.08
547.959	16378.82
548.324	16358.71
548.688	16430.8
549.052	16458.37
549.416	16294.53
549.779	16242.33
550.143	16349.67
550.507	16416.79
550.871	16434.64
551.235	16389.44
551.599	16420.4
551.962	16380.18
552.326	16290.69
552.689	16379.27
553.053	16347.18
553.417	16424.24
553.78	16503.56
554.143	16363.45
554.507	16487.97
554.87	16433.96
555.234	16506.95
555.597	16339.27
555.96	16411.59
556.323	16521.64
556.686	16426.05
557.05	16530.23
557.413	16499.95
557.776	16482.77
558.139	16566.61
558.502	16513.28
558.865	16434.64
559.228	16582.21
559.59	16590.79
559.953	16628.98
560.316	16740.62
560.679	16675.31
561.041	16782.43
561.404	16791.69
561.767	16867.4
562.129	16778.81
562.492	16841.18
562.854	16909.88
563.217	16876.21
563.579	16812.26
563.941	16971.12
564.304	16977
564.666	17032.81
565.028	16929.54
565.39	17098.8
565.753	17132.47
566.115	17132.47
566.477	17139.7
566.839	17280.27
567.201	17283.43
567.563	17240.49
567.925	17231.68
568.287	17254.5
568.648	17262.41
569.01	17342.19
569.372	17495.18
569.734	17350.09
570.095	17373.6
570.457	17480.03
570.819	17488.85
571.18	17541.95
571.542	17600.48
571.903	17602.07
572.265	17669.18
572.626	17761.84
572.987	17693.59
573.349	17748.05
573.71	17751.21
574.071	17730.65
574.432	17905.79
574.794	17871.66
575.155	17933.13
575.516	17858.1
575.877	17893.58
576.238	17925.9
576.599	17902.62
576.96	17960.47
577.32	17979.46
577.681	17984.2
578.042	18072.11
578.403	17954.6
578.763	17972
579.124	18056.74
579.485	18022.85
579.845	18115.95
580.206	18091.54
580.566	18159.11
580.927	18005.22
581.287	18100.13
581.648	17974.94
582.008	18126.12
582.368	18124.76
582.728	18064.88
583.089	18029.4
583.449	18035.5
583.809	18085.67
584.169	18108.04
584.529	18058.55
584.889	18159.56
585.249	17923.41
585.609	17989.4
585.969	18066.91
586.329	18064.65
586.688	18010.87
587.048	18046.12
587.408	18027.59
587.768	17964.54
588.127	18028.04
588.487	18009.29
588.846	17990.08
589.206	17920.48
589.565	17903.53
589.925	17950.08
590.284	17958.67
590.643	17916.86
591.003	18075.05
591.362	18027.36
591.721	17977.87
592.08	17921.83
592.44	18031.66
592.799	18093.35
593.158	18007.03
593.517	17923.19
593.876	17942.17
594.235	17922.06
594.593	17916.63
594.952	17995.95
595.311	17950.76
595.67	17890.87
596.029	17934.49
596.387	17995.28
596.746	18007.93
597.104	17843.19
597.463	17961.6
597.822	18000.7
598.18	17942.4
598.538	17854.26
598.897	17988.95
599.255	17829.63
599.613	18057.87
599.972	17919.12
600.33	18044.99
600.688	17920.7
601.046	17927.03
601.404	18078.66
601.762	17977.2
602.12	18137.87
602.478	18139.9
602.836	18095.84
603.194	18030.98
603.552	18039.79
603.91	17926.35
604.268	18035.05
604.625	17998.67
604.983	18060.13
605.341	17929.74
605.698	18082.28
606.056	18106.01
606.413	18119.57
606.771	18131.99
607.128	18131.32
607.485	18022.39
607.843	18069.85
608.2	18168.38
608.557	18233.01
608.914	18113.24
609.272	18139.45
609.629	18220.13
609.986	18329.28
610.343	18144.88
610.7	18240.69
611.057	18272.78
611.414	18275.95
611.771	18251.31
612.127	18327.7
612.484	18312.78
612.841	18340.35
613.198	18367.02
613.554	18384.19
613.911	18454.02
614.267	18341.71
614.624	18399.56
614.98	18425.32
615.337	18509.84
615.693	18379.45
616.05	18490.4
616.406	18564.53
616.762	18522.04
617.118	18517.07
617.475	18589.61
617.831	18621.02
618.187	18613.34
618.543	18664.64
618.899	18713.67
619.255	18600.68
619.611	18633.9
619.967	18659.21
620.323	18807.91
620.678	18691.98
621.034	18653.11
621.39	18628.25
621.746	18665.54
622.101	18849.72
622.457	18662.6
622.812	18726.56
623.168	18765.2
623.523	18738.31
623.879	18904.86
624.234	18662.6
624.589	18828.7
624.945	18831.64
625.3	18912.77
625.655	18723.62
626.01	18880
626.365	18808.59
626.72	18692.43
627.075	18833.9
627.43	18662.6
627.785	18794.35
628.14	18937.62
628.495	18816.95
628.85	18728.36
629.205	18779.89
629.559	18875.7
629.914	18757.97
630.269	18704.64
630.623	18635.48
630.978	18621.47
631.332	18657.86
631.687	18690.85
632.041	18653.11
632.396	18658.08
632.75	18575.83
633.104	18664.64
633.459	18514.13
633.813	18517.52
634.167	18484.75
634.521	18559.1
634.875	18556.39
635.229	18531.08
635.583	18396.17
635.937	18426.45
636.291	18293.57
636.645	18347.58
636.999	18306.91
637.352	18369.28
637.706	18314.82
638.06	18308.49
638.413	18304.87
638.767	18273.46
639.121	18344.64
639.474	18293.57
639.828	18255.38
640.181	18202.28
640.534	18290.86
640.888	18209.96
641.241	18156.18
641.594	18139.23
641.947	18263.97
642.301	18117.76
642.654	18143.29
643.007	18245.21
643.36	18141.71
643.713	18186
644.066	18148.49
644.419	18014.71
644.771	17819.46
645.124	17692.91
645.477	17683.42
645.83	17609.3
646.182	17651.78
646.535	17573.59
646.888	17539.92
647.24	17429.19
647.593	17535.85
647.945	17454.5
648.298	17437.78
648.65	17397.78
649.002	17377.21
649.355	17440.71
649.707	17292.47
650.059	17481.62
650.411	17733.36
650.763	17738.11
651.115	17915.5
651.467	17809.52
651.819	17856.75
652.171	17944.88
652.523	17873.02
652.875	17768.16
653.227	17787.6
653.578	17811.55
653.93	17787.15
654.282	17802.06
654.633	17784.66
654.985	17884.09
655.337	17705.11
655.688	17746.47
656.039	17920.93
656.391	17685.68
656.742	17751.44
657.094	17777.88
657.445	17870.31
657.796	17736.07
658.147	17775.62
658.498	17791.66
658.849	17804.77
659.2	17791.44
659.551	17777.88
659.902	17813.36
660.253	17760.25
660.604	17869.85
660.955	17832.79
661.306	17892.91
661.656	17761.38
662.007	17774.49
662.358	17840.7
662.708	17824.88
663.059	17891.78
663.409	17686.58
663.76	17905.33
664.11	17872.11
664.461	17849.97
664.811	17955.95
665.161	17878.67
665.511	17764.55
665.862	17873.47
666.212	17873.02
666.562	17934.49
666.912	17863.98
667.262	17935.16
667.612	17859.46
667.962	17858.56
668.312	17911.66
668.662	17909.18
669.011	17848.84
669.361	17767.71
669.711	17732.01
670.06	17864.66
670.41	17783.76
670.76	17820.36
671.109	17889.74
671.459	17873.92
671.808	17732.23
672.157	17904.88
672.507	17681.84
672.856	17722.74
673.205	17784.89
673.554	17820.36
673.904	17671.67
674.253	17844.09
674.602	17807.94
674.951	17514.38
675.3	17434.61
675.649	17645.68
675.998	17755.06
676.346	17609.52
676.695	17711.89
677.044	17537.43
677.393	17625.79
677.741	17616.75
678.09	17522.52
678.438	17523.88
678.787	17552.8
679.135	17601.16
679.484	17377.21
679.832	17485.91
680.181	17336.99
680.529	17410.66
680.877	17369.3
681.225	17322.75
681.573	17324.33
681.922	17277.78
682.27	17199.82
682.618	17171.57
682.966	17110.1
683.314	17208.18
683.661	17138.35
684.009	17016.09
684.357	17011.35
684.705	16987.39
685.053	17078.92
685.4	17080.5
685.748	16874.63
686.095	16937.68
686.443	16849.54
686.79	16847.06
687.138	16891.12
687.485	16925.7
687.832	16746.49
688.18	16781.07
688.527	16715.54
688.874	16632.6
689.221	16592.15
689.568	16435.99
689.915	16500.85
690.262	16453.85
690.609	16376.11
690.956	16301.31
691.303	16302.66
691.65	16180.41
691.997	16221.31
692.344	16185.83
692.69	16186.74
693.037	16109.9
693.383	15991.26
693.73	16106.96
694.077	15944.03
694.423	15874.43
694.769	15830.13
695.116	15786.52
695.462	15669.46
695.808	15736.35
696.155	15708.1
696.501	15607.32
696.847	15593.3
697.193	15460.65
697.539	15438.05
697.885	15358.28
698.231	15263.14
698.577	15279.87
698.923	15146.99
699.269	15248.91
699.614	15137.27
699.96	15045.75
700.306	15092.07
700.651	15011.85
700.997	14898.86
701.342	14857.73
701.688	14799.65
702.033	14739.32
702.379	14743.38
702.724	14671.07
703.069	14654.8
703.415	14464.52
703.76	14535.03
704.105	14480.34
704.45	14472.2
704.795	14436.95
705.14	14318.99
705.485	14319.21
705.83	14280.8
706.175	14328.71
706.52	14226.79
706.865	14095.72
707.209	14122.83
707.554	14051.65
707.899	14106.79
708.243	14022.5
708.588	13989.28
708.932	13900.92
709.277	13867.93
709.621	13819.34
709.966	13751.55
710.31	13836.29
710.654	13703.64
710.998	13645.79
711.342	13669.29
711.687	13606.01
712.031	13568.05
712.375	13537.77
712.719	13545.45
713.063	13495.05
713.407	13521.27
713.75	13457.09
714.094	13426.81
714.438	13402.85
714.782	13425.45
715.125	13339.58
715.469	13375.28
715.812	13284.66
716.156	13198.34
716.499	13175.97
716.843	13170.77
717.186	13130.09
717.53	13196.31
717.873	13209.19
718.216	13080.38
718.559	13080.83
718.902	13055.74
719.246	13060.04
719.589	12971.45
719.932	13013.49
720.275	12898.23
720.617	12984.79
720.96	12857.33
721.303	12961.74
721.646	12901.85
721.989	12808.75
722.331	12921.74
722.674	12912.25
723.016	12834.96
723.359	12866.82
723.701	12846.94
724.044	12683.1
724.386	12659.14
724.729	12811.91
725.071	12665.02
725.413	12743.21
725.755	12821.85
726.097	12549.54
726.439	12582.99
726.782	12607.62
727.124	12720.61
727.465	12644.91
727.807	12622.54
728.149	12550.9
728.491	12567.17
728.833	12547.28
729.175	12522.88
729.516	12551.8
729.858	12479.49
730.199	12558.36
730.541	12550.22
730.882	12591.58
731.224	12590.67
731.565	12554.74
731.906	12530.56
732.248	12519.26
732.589	12484.23
732.93	12498.24
733.271	12474.74
733.612	12508.87
733.953	12498.47
734.294	12368.53
734.635	12435.2
734.976	12498.7
735.317	12401.07
735.658	12428.42
735.999	12484.69
736.339	12413.05
736.68	12424.12
737.021	12451.69
737.361	12433.61
737.702	12503.89
738.042	12413.5
738.383	12431.81
738.723	12581.18
739.063	12519.04
739.404	12511.35
739.744	12510.45
740.084	12472.48
740.424	12586.6
740.764	12474.06
741.104	12611.46
741.444	12535.53
741.784	12481.52
742.124	12599.03
742.464	12556.32
742.804	12512.26
743.143	12562.88
743.483	12604.46
743.823	12552.71
744.162	12656.66
744.502	12608.07
744.841	12710.44
745.181	12728.97
745.52	12714.06
745.86	12786.15
746.199	12764
746.538	12814.85
746.877	12881.51
747.216	12939.59
747.556	12997.21
747.895	13028.63
748.234	12950.44
748.573	13050.32
748.911	13094.39
749.25	13132.13
749.589	13174.16
749.928	13265.68
750.267	13345.23
750.605	13392.68
750.944	13495.96
751.283	13565.56
751.621	13566.47
751.96	13643.07
752.298	13771.43
752.636	13817.98
752.975	13937.08
753.313	13956.51
753.651	14152.21
753.989	14159.22
754.327	14298.42
754.666	14271.98
755.004	14446.44
755.342	14509.27
755.679	14645.08
756.017	14776.83
756.355	14842.82
756.693	14937.5
757.031	15120.55
