Data from hue_130_FLMS001491_00080.txt Node
Date: Tue Feb 07 16:58:05 GMT 2017
User: dcchb
Spectrometer: FLMS00149
Trigger mode: 0
Integration Time (sec): 2.000000E-2
Scans to average: 10
Electric dark correction enabled: true
Nonlinearity correction enabled: false
Boxcar width: 0
XAxis mode: Wavelengths
Number of Pixels in Spectrum: 2048
>>>>>Begin Spectral Data<<<<<
341.393	0.64
341.776	0.64
342.16	0.64
342.543	-59.93
342.927	-46.37
343.31	-66.93
343.693	-78.91
344.077	-59.02
344.46	-61.28
344.843	-53.37
345.226	-48.85
345.61	-22.41
345.993	-33.26
346.376	-13.83
346.759	13.74
347.142	46.06
347.525	20.75
347.908	58.04
348.291	84.25
348.674	102.33
349.057	112.72
349.44	120.18
349.823	125.38
350.206	159.05
350.588	178.03
350.971	192.72
351.354	214.42
351.737	235.21
352.119	233.85
352.502	244.24
352.884	269.33
353.267	279.72
353.65	281.53
354.032	298.03
354.414	299.61
354.797	315.43
355.179	320.18
355.562	343.45
355.944	336.67
356.326	318.37
356.709	292.83
357.091	334.86
357.473	337.35
357.855	351.13
358.238	330.12
358.62	338.03
359.002	328.76
359.384	343.68
359.766	342.55
360.148	329.89
360.53	337.8
360.912	329.21
361.294	333.96
361.676	337.58
362.057	328.54
362.439	333.06
362.821	312.49
363.203	313.85
363.584	314.75
363.966	301.64
364.348	335.54
364.729	316.11
365.111	311.14
365.493	290.8
365.874	321.98
366.256	324.24
366.637	306.39
367.019	296
367.4	327.63
367.781	317.92
368.163	315.2
368.544	324.47
368.925	290.8
369.306	323.11
369.688	304.81
370.069	323.56
370.45	323.11
370.831	287.63
371.212	314.98
371.593	301.42
371.974	308.2
372.355	313.85
372.736	306.16
373.117	306.16
373.498	297.58
373.879	306.62
374.26	317.46
374.641	303
375.021	318.14
375.402	301.42
375.783	307.29
376.163	303.23
376.544	322.21
376.925	322.89
377.305	326.5
377.686	332.15
378.066	323.11
378.447	327.63
378.827	335.09
379.208	331.93
379.588	318.82
379.968	332.38
380.349	335.32
380.729	316.33
381.109	330.8
381.489	342.1
381.87	345.03
382.25	343.68
382.63	354.98
383.01	347.29
383.39	326.73
383.77	340.74
384.15	337.12
384.53	367.63
384.91	346.39
385.29	342.1
385.67	343
386.049	327.86
386.429	347.07
386.809	359.27
387.189	347.52
387.568	361.98
387.948	341.64
388.328	370.34
388.707	357.01
389.087	350.23
389.466	348.42
389.846	363.11
390.225	346.62
390.605	364.24
390.984	332.15
391.363	357.24
391.743	371.02
392.122	369.67
392.501	383.22
392.881	349.33
393.26	371.47
393.639	373.06
394.018	376.9
394.397	375.77
394.776	384.81
395.155	358.59
395.534	367.86
395.913	396.56
396.292	388.42
396.671	384.58
397.05	384.81
397.429	381.19
397.808	394.98
398.186	379.16
398.565	376.22
398.944	385.26
399.323	383.22
399.701	385.48
400.08	372.15
400.458	397.01
400.837	407.18
401.215	397.91
401.594	388.42
401.972	391.36
402.351	400.17
402.729	401.75
403.107	405.14
403.486	407.63
403.864	415.77
404.242	393.85
404.62	397.46
404.999	405.6
405.377	404.69
405.755	426.39
406.133	410.57
406.511	407.18
406.889	409.66
407.267	419.38
407.645	416.44
408.023	423.9
408.401	459.83
408.779	434.75
409.156	434.52
409.534	435.88
409.912	443.11
410.29	453.51
410.667	430.91
411.045	445.6
411.422	438.82
411.8	464.58
412.178	455.31
412.555	472.94
412.933	455.09
413.31	452.38
413.687	487.85
414.065	482.88
414.442	467.52
414.819	468.19
415.197	481.98
415.574	493.96
415.951	462.32
416.328	473.62
416.705	486.27
417.082	479.49
417.46	507.06
417.837	483.79
418.214	492.15
418.591	506.84
418.967	481.98
419.344	509.32
419.721	496.67
420.098	494.41
420.475	530.57
420.852	520.62
421.228	521.75
421.605	548.19
421.982	523.11
422.358	527.4
422.735	526.5
423.111	534.63
423.488	540.73
423.864	525.59
424.241	527.63
424.617	540.51
424.994	544.8
425.37	551.58
425.746	565.59
426.123	546.38
426.499	565.14
426.875	557.68
427.251	565.14
427.627	585.48
428.003	587.51
428.379	566.72
428.756	612.14
429.132	599.49
429.507	604.69
429.883	620.73
430.259	605.14
430.635	611.47
431.011	633.39
431.387	620.51
431.763	630
432.138	641.52
432.514	637.23
432.89	661.18
433.265	651.24
433.641	634.74
434.016	664.35
434.392	649.43
434.767	665.02
435.143	671.13
435.518	688.3
435.894	704.35
436.269	697.57
436.644	700.05
437.02	729.2
437.395	707.74
437.77	725.14
438.145	715.19
438.52	730.33
438.895	726.94
439.271	740.5
439.646	730.56
440.021	739.6
440.395	759.94
440.77	746.38
441.145	774.4
441.52	765.59
441.895	783.21
442.27	803.33
442.645	775.76
443.019	795.19
443.394	792.93
443.769	793.38
444.143	767.62
444.518	798.58
444.892	805.59
445.267	834.51
445.641	827.05
446.016	820.28
446.39	801.07
446.764	841.29
447.139	814.63
447.513	870.67
447.887	823.89
448.262	865.7
448.636	855.75
449.01	860.27
449.384	878.35
449.758	900.72
450.132	891.23
450.506	876.54
450.88	895.3
451.254	895.75
451.628	887.84
452.002	907.73
452.376	900.5
452.75	919.71
453.123	920.84
453.497	954.28
453.871	943.44
454.244	988.41
454.618	961.06
454.992	980.27
455.365	989.76
455.739	1013.04
456.112	1009.65
456.486	1022.53
456.859	1035.18
457.232	1030.44
457.606	1051.91
457.979	1044
458.352	1095.07
458.725	1078.57
459.099	1080.83
459.472	1119.25
459.845	1133.71
460.218	1118.12
460.591	1158.35
460.964	1155.18
461.337	1186.59
461.71	1210.1
462.083	1231.56
462.456	1227.04
462.829	1237.21
463.201	1254.16
463.574	1280.6
463.947	1321.28
464.32	1295.52
464.692	1293.93
465.065	1311.34
465.438	1348.4
465.81	1373.25
466.183	1389.75
466.555	1423.42
466.928	1409.86
467.3	1428.62
467.672	1453.03
468.045	1489.86
468.417	1508.62
468.789	1511.33
469.161	1523.99
469.534	1599.01
469.906	1616.19
470.278	1634.49
470.65	1641.95
471.022	1709.52
471.394	1741.15
471.766	1752.23
472.138	1761.49
472.51	1829.51
472.882	1864.77
473.253	1897.99
473.625	1974.82
473.997	1991.32
474.369	2025.67
474.74	2041.26
475.112	2118.55
475.484	2150.64
475.855	2207.81
476.227	2251.42
476.598	2325.09
476.97	2350.4
477.341	2431.53
477.713	2481.47
478.084	2512.66
478.455	2614.58
478.827	2657.74
479.198	2740.68
479.569	2812.31
479.94	2883.27
480.311	2964.63
480.682	3067.45
481.053	3138.18
481.424	3204.62
481.795	3288.46
482.166	3391.28
482.537	3479.19
482.908	3592.86
483.279	3678.96
483.65	3785.62
484.021	3898.61
484.391	3954.43
484.762	4085.5
485.133	4116.01
485.503	4261.99
485.874	4366.62
486.244	4480.07
486.615	4579.5
486.985	4689.78
487.356	4870.79
487.726	4959.83
488.097	5077.56
488.467	5195.3
488.837	5345.81
489.207	5449.08
489.578	5638.45
489.948	5670.99
490.318	5820.6
490.688	5894.49
491.058	6110.98
491.428	6227.59
491.798	6362.5
492.168	6493.35
492.538	6623.51
492.908	6678.65
493.278	6889.95
493.648	6981.02
494.017	7086.1
494.387	7231.86
494.757	7309.14
495.126	7449.48
495.496	7523.83
495.866	7665.29
496.235	7780.77
496.605	7986.87
496.974	8041.1
497.344	8192.06
497.713	8274.99
498.082	8383.47
498.452	8479.96
498.821	8604.48
499.19	8666.4
499.559	8783.91
499.928	8893.28
500.298	9002.43
500.667	9080.62
501.036	9151.36
501.405	9350.22
501.774	9322.88
502.143	9398.13
502.512	9493.49
502.88	9633.38
503.249	9740.94
503.618	9757.22
503.987	9897.32
504.356	9943.42
504.724	10012.35
505.093	10052.12
505.462	10164.44
505.83	10172.35
506.199	10265
506.567	10482.17
506.936	10484.88
507.304	10581.6
507.672	10588.15
508.041	10696.4
508.409	10788.37
508.777	10810.07
509.145	10988.37
509.514	10991.76
509.882	10991.98
510.25	11104.98
510.618	11115.82
510.986	11242.83
511.354	11242.6
511.722	11331.19
512.09	11316.04
512.458	11435.82
512.826	11487.11
513.193	11550.84
513.561	11542.48
513.929	11610.73
514.297	11692.53
514.664	11713.32
515.032	11825.18
515.4	11829.7
515.767	11851.85
516.135	11897.72
516.502	11891.62
516.869	12085.74
517.237	12011.62
517.604	11997.61
517.972	12096.36
518.339	12118.74
518.706	12075.57
519.073	12094.33
519.44	12188.56
519.808	12350.82
520.175	12267.88
520.542	12387.43
520.909	12316.7
521.276	12338.62
521.643	12380.88
522.009	12500.42
522.376	12562.79
522.743	12630.36
523.11	12533.41
523.477	12692.96
523.843	12705.16
524.21	12750.81
524.577	12754.2
524.943	12763.01
525.31	12853.18
525.676	12909
526.043	12872.84
526.409	12913.29
526.776	13055.43
527.142	12919.39
527.508	12998.49
527.874	13006.4
528.241	13003.68
528.607	13018.6
528.973	13032.84
529.339	13087.98
529.705	13120.06
530.071	13092.95
530.437	13158.71
530.803	13160.06
531.169	13111.25
531.535	13066.96
531.901	13058.6
532.267	13140.63
532.632	13157.58
532.998	13046.17
533.364	13140.4
533.73	13134.53
534.095	13146.5
534.461	13113.06
534.826	13127.52
535.192	13115.32
535.557	13130.46
535.923	13041.42
536.288	13050.01
536.653	12986.73
537.019	12921.65
537.384	12979.96
537.749	12919.39
538.114	12937.24
538.479	12932.95
538.845	12915.32
539.21	12815.89
539.575	12805.27
539.94	12861.99
540.305	12812.5
540.67	12753.97
541.034	12711.04
541.399	12810.47
541.764	12753.75
542.129	12715.78
542.494	12680.75
542.858	12681.66
543.223	12544.94
543.587	12607.08
543.952	12522.11
544.316	12530.25
544.681	12497.48
545.045	12507.43
545.41	12479.4
545.774	12361.89
546.138	12463.36
546.503	12394.89
546.867	12280.54
547.231	12277.6
547.595	12305.17
547.959	12283.25
548.324	12277.6
548.688	12146.53
549.052	12144.5
549.416	12107.21
549.779	12090.94
550.143	11994.22
550.507	12074.44
550.871	12100.43
551.235	12026.08
551.599	12078.96
551.962	11937.95
552.326	11921.45
552.689	11961.68
553.053	11823.38
553.417	11850.04
553.78	11986.31
554.143	11830.16
554.507	11863.83
554.87	11720.1
555.234	11870.15
555.597	11777.73
555.96	11691.63
556.323	11768.91
556.686	11761.68
557.05	11744.06
557.413	11770.27
557.776	11794.22
558.139	11767.33
558.502	11682.81
558.865	11641.46
559.228	11759.65
559.59	11685.3
559.953	11695.02
560.316	11725.75
560.679	11680.1
561.041	11795.35
561.404	11774.34
561.767	11776.82
562.129	11674.9
562.492	11768.24
562.854	11706.09
563.217	11654.79
563.579	11658.41
563.941	11739.99
564.304	11786.09
564.666	11797.16
565.028	11779.31
565.39	11751.74
565.753	11761.68
566.115	11849.14
566.477	11876.26
566.839	11810.95
567.201	11860.66
567.563	11833.77
567.925	11893.88
568.287	11849.36
568.648	11833.32
569.01	11960.1
569.372	11956.71
569.734	11881
570.095	11885.29
570.457	11943.6
570.819	11913.32
571.18	11933.2
571.542	11961.9
571.903	11985.41
572.265	11986.54
572.626	11917.16
572.987	11999.87
573.349	12007.55
573.71	12086.42
574.071	12004.16
574.432	12085.97
574.794	12140.43
575.155	12110.37
575.516	12099.3
575.877	12073.31
576.238	12119.64
576.599	12127.32
576.96	11976.59
577.32	12016.82
577.681	12142.01
578.042	12066.08
578.403	12055.01
578.763	12147.43
579.124	12117.83
579.485	12128
579.845	12209.81
580.206	12111.5
580.566	12121.9
580.927	12023.37
581.287	12129.36
581.648	12131.62
582.008	12184.5
582.368	12119.41
582.728	12127.1
583.089	12001.68
583.449	12053.88
583.809	12101.79
584.169	12087.32
584.529	12027.89
584.889	12133.2
585.249	12034.9
585.609	12081
585.969	11982.69
586.329	12066.53
586.688	12042.35
587.048	12029.47
587.408	11914.22
587.768	11942.92
588.127	11947.89
588.487	11946.76
588.846	11983.37
589.206	11920.55
589.565	11942.24
589.925	12038.96
590.284	11896.37
590.643	11872.87
591.003	11909.25
591.362	11976.82
591.721	11915.35
592.08	11812.98
592.44	11868.57
592.799	11886.65
593.158	11824.05
593.517	11875.35
593.876	11829.48
594.235	11833.09
594.593	11855.47
594.952	11929.14
595.311	11790.16
595.67	11838.97
596.029	11853.66
596.387	11974.56
596.746	11920.55
597.104	11849.59
597.463	11865.63
597.822	11867.89
598.18	11787.22
598.538	11785.86
598.897	11882.36
599.255	11774.79
599.613	11907.22
599.972	11787.9
600.33	11825.18
600.688	11813.43
601.046	11801.23
601.404	11843.49
601.762	11835.13
602.12	11865.63
602.478	11847.56
602.836	11796.26
603.194	11753.09
603.552	11856.82
603.91	11769.37
604.268	11853.88
604.625	11762.81
604.983	11788.8
605.341	11790.61
605.698	11818.4
606.056	11923.94
606.413	11814.79
606.771	11852.08
607.128	11843.26
607.485	11708.58
607.843	11822.7
608.2	11880.78
608.557	11897.95
608.914	11871.28
609.272	11860.89
609.629	11933.88
609.986	11994.67
610.343	11863.83
610.7	11989.47
611.057	11932.53
611.414	11898.85
611.771	11869.93
612.127	12010.26
612.484	11989.92
612.841	12040.09
613.198	11852.98
613.554	11929.36
613.911	12024.73
614.267	12042.58
614.624	11963.03
614.98	11986.08
615.337	12083.48
615.693	11996.7
616.05	11939.3
616.406	12043.26
616.762	11995.57
617.118	12025.18
617.475	12049.36
617.831	12132.29
618.187	12084.61
618.543	12022.47
618.899	12113.99
619.255	12115.8
619.611	12100.88
619.967	12125.06
620.323	12177.26
620.678	12143.82
621.034	12128.23
621.39	12168.9
621.746	12175.23
622.101	12291.16
622.457	12137.49
622.812	12208.9
623.168	12188.56
623.523	12208.9
623.879	12117.61
624.234	12104.72
624.589	12208
624.945	12102.46
625.3	12244.16
625.655	12118.51
626.01	12185.4
626.365	12123.03
626.72	12070.15
627.075	12158.96
627.43	12097.72
627.785	12024.5
628.14	12092.52
628.495	12121.45
628.85	12212.29
629.205	12107.66
629.559	12098.17
629.914	12006.87
630.269	12068.34
630.623	12043.03
630.978	12019.75
631.332	12073.54
631.687	12090.26
632.041	11912.86
632.396	12059.08
632.75	11970.72
633.104	12004.16
633.459	11953.32
633.813	11909.7
634.167	11972.3
634.521	11935.24
634.875	11940.89
635.229	12001.68
635.583	11826.31
635.937	11955.58
636.291	11873.54
636.645	11875.35
636.999	11810.27
637.352	11944.95
637.706	11781.79
638.06	11806.43
638.413	11778.86
638.767	11805.75
639.121	11842.81
639.474	11751.51
639.828	11714.9
640.181	11771.63
640.534	11688.24
640.888	11714.68
641.241	11632.42
641.594	11683.04
641.947	11723.94
642.301	11695.24
642.654	11702.93
643.007	11730.95
643.36	11630.16
643.713	11672.42
644.066	11681.46
644.419	11557.17
644.771	11474.01
645.124	11438.07
645.477	11363.05
645.83	11354.24
646.182	11322.15
646.535	11246.44
646.888	11364.63
647.24	11318.08
647.593	11244.63
647.945	11302.26
648.298	11200.79
648.65	11179.78
649.002	11146.56
649.355	11250.74
649.707	11186.56
650.059	11352.65
650.411	11361.69
650.763	11484.85
651.115	11575.92
651.467	11450.5
651.819	11514.23
652.171	11455.02
652.523	11369.38
652.875	11427
653.227	11397.62
653.578	11540.22
653.93	11477.17
654.282	11414.12
654.633	11474.68
654.985	11469.71
655.337	11465.64
655.688	11485.53
656.039	11563.95
656.391	11355.59
656.742	11416.61
657.094	11446.44
657.445	11532.54
657.796	11431.75
658.147	11474.91
658.498	11519.88
658.849	11473.33
659.2	11502.48
659.551	11462.48
659.902	11514.23
660.253	11529.6
660.604	11495.02
660.955	11518.52
661.306	11536.6
661.656	11531.18
662.007	11550.84
662.358	11564.17
662.708	11567.11
663.059	11579.99
663.409	11444.85
663.76	11583.38
664.11	11539.09
664.461	11601.91
664.811	11631.97
665.161	11582.93
665.511	11526.43
665.862	11498.19
666.212	11501.35
666.562	11513.55
666.912	11532.99
667.262	11530.28
667.612	11517.39
667.962	11520.78
668.312	11544.74
668.662	11604.62
669.011	11570.27
669.361	11559.2
669.711	11506.1
670.06	11457.06
670.41	11486.21
670.76	11503.38
671.109	11552.87
671.459	11502.25
671.808	11523.72
672.157	11521.01
672.507	11495.7
672.856	11401.01
673.205	11462.48
673.554	11526.66
673.904	11469.49
674.253	11484.85
674.602	11475.59
674.951	11245.09
675.3	11256.16
675.649	11387.45
675.998	11453.44
676.346	11377.96
676.695	11407.12
677.044	11353.11
677.393	11307
677.741	11358.3
678.09	11309.94
678.438	11262.71
678.787	11345.87
679.135	11290.06
679.484	11241.92
679.832	11219.1
680.181	11137.29
680.529	11216.84
680.877	11154.47
681.225	11203.73
681.573	11260.68
681.922	11144.52
682.27	11149.27
682.618	11088.03
682.966	11090.06
683.314	11066.11
683.661	11071.53
684.009	11088.93
684.357	10962.83
684.705	10987.01
685.053	10964.87
685.4	10973.91
685.748	10919.9
686.095	10881.71
686.443	10822.72
686.79	10820.69
687.138	10786.79
687.485	10789.28
687.832	10757.87
688.18	10771.65
688.527	10693.69
688.874	10725.33
689.221	10692.78
689.568	10736.17
689.915	10589.06
690.262	10488.04
690.609	10564.2
690.956	10528.72
691.303	10490.53
691.65	10501.83
691.997	10465.67
692.344	10400.36
692.69	10326.01
693.037	10379.8
693.383	10235.62
693.73	10261.61
694.077	10230.65
694.423	10185.45
694.769	10119.24
695.116	10154.04
695.462	10027.04
695.808	10055.74
696.155	10037.21
696.501	9947.49
696.847	9998.34
697.193	9919.47
697.539	9884.9
697.885	9858
698.231	9785.01
698.577	9781.85
698.923	9792.69
699.269	9691.68
699.614	9651.68
699.96	9647.61
700.306	9635.18
700.651	9603.55
700.997	9496.21
701.342	9523.32
701.688	9530.78
702.033	9456.66
702.379	9527.16
702.724	9367.39
703.069	9408.98
703.415	9294.63
703.76	9304.57
704.105	9259.15
704.45	9270.9
704.795	9201.07
705.14	9206.95
705.485	9176.21
705.83	9165.82
706.175	9100.51
706.52	9128.76
706.865	9097.57
707.209	9027.74
707.554	9003.79
707.899	9058.93
708.243	8992.26
708.588	8987.97
708.932	8889.67
709.277	8867.75
709.621	8819.16
709.966	8740.97
710.31	8811.03
710.654	8735.1
710.998	8715.66
711.342	8721.76
711.687	8703.91
712.031	8646.96
712.375	8651.71
712.719	8659.62
713.063	8648.32
713.407	8624.14
713.75	8594.99
714.094	8613.29
714.438	8571.26
714.782	8552.73
715.125	8475.67
715.469	8586.85
715.812	8495.55
716.156	8492.62
716.499	8433.63
716.843	8468.89
717.186	8433.63
717.53	8399.51
717.873	8455.78
718.216	8419.4
718.559	8388.21
718.902	8328.33
719.246	8390.92
719.589	8284.26
719.932	8258.5
720.275	8296.46
720.617	8290.14
720.96	8236.35
721.303	8305.95
721.646	8347.31
721.989	8295.56
722.331	8226.63
722.674	8237.03
723.016	8268.21
723.359	8273.64
723.701	8251.04
724.044	8180.76
724.386	8183.92
724.729	8196.35
725.071	8176.01
725.413	8202
725.755	8242
726.097	8192.96
726.439	8086.75
726.782	8153.64
727.124	8169.46
727.465	8127.65
727.807	8103.47
728.149	8152.29
728.491	8142.79
728.833	8154.55
729.175	8089.69
729.516	8082.23
729.858	8086.52
730.199	8109.35
730.541	8091.5
730.882	8038.84
731.224	8093.53
731.565	8057.6
731.906	8047.66
732.248	8076.81
732.589	8039.52
732.93	7968.34
733.271	8080.42
733.612	8045.85
733.953	8023.02
734.294	8012.4
734.635	8010.37
734.976	8111.83
735.317	8003.59
735.658	7988.67
735.999	8073.87
736.339	8080.88
736.68	8056.24
737.021	8024.83
737.361	8010.59
737.702	8050.82
738.042	8076.58
738.383	8124.04
738.723	8121.1
739.063	8065.06
739.404	8109.57
739.744	8128.78
740.084	8125.17
740.424	8170.14
740.764	8098.95
741.104	8144.15
741.444	8167.2
741.784	8115.9
742.124	8160.2
742.464	8190.93
742.804	8207.65
743.143	8252.62
743.483	8272.96
743.823	8250.81
744.162	8223.92
744.502	8292.62
744.841	8282.23
745.181	8415.33
745.52	8391.15
745.86	8460.53
746.199	8428.66
746.538	8575.1
746.877	8571.71
747.216	8556.34
747.556	8633.63
747.895	8638.15
748.234	8782.78
748.573	8760.63
748.911	8792.49
749.25	8887.41
749.589	8961.53
749.928	8969.21
750.267	9086.95
750.605	9154.52
750.944	9122.88
751.283	9239.49
751.621	9417.11
751.96	9445.13
752.298	9449.65
752.636	9577.11
752.975	9636.99
753.313	9798.12
753.651	9886.25
753.989	9935.29
754.327	9995.85
754.666	10110.88
755.004	10271.78
755.342	10441.49
755.679	10470.87
756.017	10577.53
756.355	10726.46
756.693	10877.41
757.031	11074.47
757.368	11116.73
757.706	11267.46
758.044	11442.59
758.381	11559.2
758.719	11604.17
759.056	11838.97
759.394	11980.89
759.731	12064.05
760.068	12166.19
760.405	12372.51
