Data from hue_190_FLMS001491_00092.txt Node
Date: Tue Feb 07 16:46:02 GMT 2017
User: dcchb
Spectrometer: FLMS00149
Trigger mode: 0
Integration Time (sec): 2.000000E-2
Scans to average: 10
Electric dark correction enabled: true
Nonlinearity correction enabled: false
Boxcar width: 0
XAxis mode: Wavelengths
Number of Pixels in Spectrum: 2048
>>>>>Begin Spectral Data<<<<<
341.393	-20.38
341.776	-20.38
342.16	-20.38
342.543	-71
342.927	-57.44
343.31	-68.29
343.693	-65.8
344.077	-56.31
344.46	-54.73
344.843	-41.85
345.226	-49.31
345.61	-45.92
345.993	-9.53
346.376	-35.07
346.759	12.16
347.142	6.96
347.525	57.13
347.908	68.88
348.291	81.54
348.674	90.35
349.057	109.79
349.44	136.45
349.823	138.49
350.206	165.83
350.588	193.62
350.971	204.92
351.354	216.9
351.737	220.52
352.119	261.19
352.502	234.98
352.884	268.2
353.267	285.37
353.65	307.29
354.032	305.03
354.414	288.76
354.797	302.32
355.179	314.98
355.562	326.73
355.944	345.03
356.326	320.4
356.709	331.47
357.091	333.96
357.473	334.41
357.855	331.25
358.238	355.2
358.62	314.75
359.002	352.49
359.384	358.14
359.766	331.93
360.148	327.18
360.53	319.95
360.912	319.72
361.294	320.85
361.676	317.69
362.057	332.38
362.439	331.25
362.821	319.05
363.203	317.01
363.584	305.71
363.966	332.38
364.348	319.95
364.729	305.71
365.111	327.18
365.493	308.2
365.874	304.36
366.256	323.11
366.637	297.58
367.019	299.16
367.4	312.04
367.781	311.81
368.163	325.15
368.544	285.83
368.925	304.58
369.306	317.92
369.688	323.79
370.069	309.78
370.45	324.24
370.831	299.84
371.212	293.06
371.593	301.64
371.974	307.75
372.355	305.49
372.736	299.61
373.117	313.85
373.498	299.61
373.879	293.96
374.26	306.62
374.641	308.42
375.021	314.07
375.402	305.03
375.783	325.82
376.163	321.76
376.544	305.03
376.925	305.26
377.305	331.47
377.686	328.31
378.066	320.63
378.447	335.32
378.827	333.28
379.208	324.69
379.588	315.66
379.968	321.98
380.349	339.84
380.729	345.26
381.109	325.82
381.489	317.24
381.87	335.54
382.25	322.21
382.63	338.71
383.01	319.95
383.39	328.99
383.77	341.19
384.15	326.73
384.53	321.08
384.91	354.07
385.29	322.21
385.67	334.86
386.049	354.3
386.429	334.19
386.809	344.81
387.189	338.71
387.568	336.45
387.948	333.96
388.328	344.58
388.707	346.16
389.087	340.74
389.466	347.97
389.846	358.59
390.225	371.02
390.605	359.04
390.984	373.28
391.363	372.83
391.743	355.88
392.122	346.16
392.501	362.66
392.881	376.44
393.26	371.47
393.639	384.35
394.018	375.99
394.397	378.7
394.776	374.64
395.155	378.93
395.534	386.39
395.913	377.57
396.292	374.86
396.671	397.91
397.05	385.94
397.429	368.54
397.808	373.28
398.186	394.52
398.565	395.65
398.944	377.8
399.323	380.06
399.701	372.15
400.08	401.98
400.458	407.86
400.837	384.58
401.215	420.74
401.594	410.12
401.972	427.29
402.351	423.68
402.729	395.2
403.107	423.9
403.486	414.41
403.864	414.64
404.242	409.89
404.62	428.65
404.999	438.36
405.377	402.21
405.755	455.76
406.133	437.46
406.511	463.45
406.889	463.45
407.267	458.48
407.645	444.01
408.023	444.92
408.401	449.66
408.779	478.59
409.156	487.63
409.534	475.43
409.912	483.33
410.29	496.22
410.667	501.19
411.045	515.88
411.422	524.24
411.8	537.34
412.178	544.35
412.555	552.49
412.933	554.97
413.31	553.62
413.687	550.23
414.065	571.47
414.442	580.51
414.819	597.46
415.197	592.71
415.574	632.71
415.951	619.83
416.328	618.02
416.705	639.04
417.082	643.56
417.46	634.07
417.837	662.31
418.214	648.08
418.591	665.93
418.967	694.4
419.344	691.24
419.721	680.39
420.098	699.37
420.475	692.59
420.852	717.68
421.228	722.42
421.605	729.43
421.982	743.21
422.358	749.77
422.735	785.93
423.111	804
423.488	775.3
423.864	816.21
424.241	832.48
424.617	841.74
424.994	844
425.37	879.93
425.746	859.14
426.123	869.09
426.499	906.37
426.875	919.71
427.251	933.04
427.627	938.69
428.003	948.41
428.379	944.79
428.756	962.87
429.132	985.24
429.507	994.96
429.883	990.67
430.259	1006.48
430.635	1016.88
431.011	1032.02
431.387	1077.44
431.763	1069.76
432.138	1063.66
432.514	1093.49
432.89	1125.58
433.265	1133.49
433.641	1172.13
434.016	1163.77
434.392	1197.21
434.767	1232.92
435.143	1234.5
435.518	1287.61
435.894	1263.2
436.269	1312.01
436.644	1315.86
437.02	1352.69
437.395	1346.36
437.77	1359.24
438.145	1429.07
438.52	1426.59
438.895	1454.83
439.271	1457.55
439.646	1487.15
440.021	1524.21
440.395	1543.19
440.77	1531.67
441.145	1583.19
441.52	1598.11
441.895	1605.11
442.27	1629.75
442.645	1625.45
443.019	1663.64
443.394	1654.15
443.769	1702.29
444.143	1688.27
444.518	1722.85
444.892	1733.25
445.267	1757.43
445.641	1772.79
446.016	1791.77
446.39	1807.14
446.764	1813.24
447.139	1806.46
447.513	1842.4
447.887	1871.32
448.262	1889.17
448.636	1902.28
449.01	1904.09
449.384	1917.65
449.758	1951.54
450.132	1964.65
450.506	1953.58
450.88	2005.78
451.254	1967.82
451.628	2048.94
452.002	2039.9
452.376	2083.97
452.75	2064.76
453.123	2093.91
453.497	2137.98
453.871	2154.03
454.244	2194.7
454.618	2222.05
454.992	2245.77
455.365	2269.73
455.739	2289.84
456.112	2366.9
456.486	2358.99
456.859	2338.43
457.232	2390.4
457.606	2426.33
457.979	2453.9
458.352	2493.68
458.725	2526.44
459.099	2568.25
459.472	2595.37
459.845	2614.35
460.218	2605.09
460.591	2655.48
460.964	2702.94
461.337	2728.93
461.71	2808.47
462.083	2844.18
462.456	2831.3
462.829	2826.32
463.201	2900.45
463.574	2909.94
463.947	2916.72
464.32	3041.91
464.692	3043.95
465.065	3106.32
465.438	3102.47
465.81	3149.03
466.183	3197.16
466.555	3252.75
466.928	3287.1
467.3	3292.3
467.672	3337.05
468.045	3428.12
468.417	3452.52
468.789	3480.32
469.161	3554.44
469.534	3568.9
469.906	3641.9
470.278	3707.43
470.65	3741.78
471.022	3807.32
471.394	3865.17
471.766	3869.01
472.138	3955.33
472.51	4026.74
472.882	4088.44
473.253	4145.39
473.625	4210.69
473.997	4285.49
474.369	4288.43
474.74	4375.89
475.112	4444.13
475.484	4473.51
475.855	4617.24
476.227	4657.24
476.598	4798.93
476.97	4850.23
477.341	4906.5
477.713	5010.45
478.084	5037.57
478.455	5144.23
478.827	5175.41
479.198	5388.97
479.569	5392.13
479.94	5553.26
480.311	5580.83
480.682	5686.14
481.053	5772.91
481.424	5826.7
481.795	5945.34
482.166	6064.2
482.537	6178.78
482.908	6270.08
483.279	6361.15
483.65	6405.66
484.021	6585.32
484.391	6659.67
484.762	6748.93
485.133	6750.51
485.503	6844.98
485.874	7062.6
486.244	7105.76
486.615	7191.86
486.985	7291.29
487.356	7400.89
487.726	7453.77
488.097	7605.41
488.467	7647.67
488.837	7855.57
489.207	7922.24
489.578	8045.17
489.948	8146.18
490.318	8181.89
490.688	8242.23
491.058	8401.54
491.428	8488.1
491.798	8509.34
492.168	8662.33
492.538	8727.41
492.908	8836.79
493.278	8938.93
493.648	8836.56
494.017	9022.77
494.387	9070.68
494.757	9175.31
495.126	9234.29
495.496	9239.71
495.866	9371.91
496.235	9451.69
496.605	9514.51
496.974	9524
497.344	9646.94
497.713	9660.27
498.082	9716.09
498.452	9836.08
498.821	9843.54
499.19	9859.81
499.559	9878.57
499.928	9965.57
500.298	9979.58
500.667	10113.59
501.036	10059.35
501.405	10135.06
501.774	10100.48
502.143	10183.19
502.512	10251.44
502.88	10319.23
503.249	10272.91
503.618	10366.01
503.987	10326.24
504.356	10384.54
504.724	10426.58
505.093	10432.23
505.462	10577.08
505.83	10498.66
506.199	10597.42
506.567	10664.99
506.936	10646.91
507.304	10747.92
507.672	10715.83
508.041	10754.7
508.409	10846.9
508.777	10848.26
509.145	10859.33
509.514	10945.88
509.882	11018.65
510.25	10908.82
510.618	10893.23
510.986	10914.25
511.354	10994.02
511.722	11022.49
512.09	11116.5
512.458	11072.89
512.826	11100.46
513.193	11077.18
513.561	11149.72
513.929	11141.36
514.297	11269.27
514.664	11325.31
515.032	11277.18
515.4	11283.05
515.767	11301.81
516.135	11234.92
516.502	11191.3
516.869	11364.4
517.237	11306.33
517.604	11213.9
517.972	11400.56
518.339	11303.16
518.706	11348.36
519.073	11332.32
519.44	11264.29
519.808	11447.11
520.175	11347.46
520.542	11401.69
520.909	11445.98
521.276	11438.98
521.643	11500.9
522.009	11446.44
522.376	11487.34
522.743	11489.37
523.11	11525.08
523.477	11548.58
523.843	11568.24
524.21	11637.62
524.577	11582.25
524.943	11579.31
525.31	11565.08
525.676	11612.08
526.043	11587.22
526.409	11567.79
526.776	11641.23
527.142	11556.94
527.508	11566.89
527.874	11549.03
528.241	11577.96
528.607	11548.35
528.973	11531.86
529.339	11570.27
529.705	11602.82
530.071	11565.98
530.437	11524.4
530.803	11538.19
531.169	11521.24
531.535	11407.12
531.901	11375.48
532.267	11420.45
532.632	11360.11
532.998	11298.19
533.364	11300
533.73	11322.37
534.095	11338.42
534.461	11321.92
534.826	11268.36
535.192	11134.35
535.557	11189.49
535.923	11097.74
536.288	11086.67
536.653	11037.63
537.019	10921.48
537.384	10917.86
537.749	10947.01
538.114	10951.53
538.479	10815.49
538.845	10729.84
539.21	10699.11
539.575	10688.04
539.94	10596.06
540.305	10548.15
540.67	10519.68
541.034	10443.75
541.399	10451.66
541.764	10429.06
542.129	10419.34
542.494	10316.52
542.858	10291.21
543.223	10170.54
543.587	10186.13
543.952	10125.34
544.316	10060.26
544.681	9953.37
545.045	9995.4
545.41	10039.02
545.774	9910.21
546.138	9869.98
546.503	9801.73
546.867	9796.76
547.231	9731.68
547.595	9727.84
547.959	9582.76
548.324	9645.58
548.688	9534.17
549.052	9429.54
549.416	9448.75
549.779	9407.17
550.143	9271.8
550.507	9316.55
550.871	9265.02
551.235	9244.91
551.599	9199.72
551.962	9206.27
552.326	9148.42
552.689	9143.45
553.053	9015.31
553.417	8975.31
553.78	8975.54
554.143	8901.42
554.507	8920.18
554.87	8911.14
555.234	8847.41
555.597	8773.51
555.96	8754.08
556.323	8757.24
556.686	8681.76
557.05	8678.37
557.413	8696.23
557.776	8657.13
558.139	8582.1
558.502	8572.39
558.865	8573.74
559.228	8575.55
559.59	8506.85
559.953	8460.53
560.316	8483.8
560.679	8430.02
561.041	8530.35
561.404	8446.52
561.767	8445.84
562.129	8352.51
562.492	8400.87
562.854	8390.7
563.217	8343.24
563.579	8326.52
563.941	8299.4
564.304	8274.54
564.666	8302.34
565.028	8269.57
565.39	8274.77
565.753	8260.98
566.115	8304.6
566.477	8246.75
566.839	8211.72
567.201	8313.41
567.563	8262.57
567.925	8311.6
568.287	8275.22
568.648	8198.84
569.01	8292.17
569.372	8270.47
569.734	8223.24
570.095	8256.46
570.457	8258.05
570.819	8315.9
571.18	8241.1
571.542	8339.63
571.903	8250.81
572.265	8244.94
572.626	8215.33
572.987	8269.34
573.349	8254.2
573.71	8239.74
574.071	8251.49
574.432	8260.31
574.794	8285.62
575.155	8229.8
575.516	8236.35
575.877	8245.84
576.238	8221.66
576.599	8295.11
576.96	8258.95
577.32	8199.06
577.681	8231.38
578.042	8200.19
578.403	8242
578.763	8208.33
579.124	8164.49
579.485	8228.89
579.845	8184.38
580.206	8199.06
580.566	8187.54
580.927	8175.34
581.287	8195
581.648	8162.68
582.008	8179.18
582.368	8191.83
582.728	8089.24
583.089	8107.09
583.449	8142.79
583.809	8126.98
584.169	8118.84
584.529	8095.34
584.889	8161.78
585.249	8114.77
585.609	8066.41
585.969	8142.34
586.329	8034.32
586.688	8123.36
587.048	8043.36
587.408	8011.27
587.768	8033.42
588.127	7986.19
588.487	7981.67
588.846	8031.61
589.206	7975.57
589.565	7975.57
589.925	7965.85
590.284	7958.39
590.643	7920.65
591.003	7948.68
591.362	7978.96
591.721	7949.58
592.08	7912.74
592.44	7932.18
592.799	7946.19
593.158	7962.46
593.517	7865.74
593.876	7885.17
594.235	7870.71
594.593	7900.54
594.952	7890.15
595.311	7876.13
595.67	7830.49
596.029	7831.62
596.387	7910.71
596.746	7851.28
597.104	7844.27
597.463	7849.24
597.822	7849.24
598.18	7823.25
598.538	7739.42
598.897	7814.67
599.255	7743.48
599.613	7900.54
599.972	7813.09
600.33	7832.52
600.688	7714.11
601.046	7793.88
601.404	7818.28
601.762	7769.92
602.12	7831.39
602.478	7846.76
602.836	7844.05
603.194	7749.13
603.552	7731.96
603.91	7739.42
604.268	7767.89
604.625	7856.7
604.983	7846.3
605.341	7691.28
605.698	7792.3
606.056	7735.35
606.413	7731.05
606.771	7755.23
607.128	7750.71
607.485	7766.99
607.843	7705.97
608.2	7766.76
608.557	7765.18
608.914	7754.78
609.272	7760.66
609.629	7756.14
609.986	7852.18
610.343	7782.58
610.7	7772.63
611.057	7766.31
611.414	7842.69
611.771	7766.53
612.127	7828.9
612.484	7819.19
612.841	7851.95
613.198	7802.24
613.554	7817.61
613.911	7804.5
614.267	7849.02
614.624	7853.99
614.98	7824.61
615.337	7848.34
615.693	7790.71
616.05	7811.28
616.406	7882.01
616.762	7765.4
617.118	7850.15
617.475	7850.82
617.831	7899.86
618.187	7859.64
618.543	7894.44
618.899	7973.76
619.255	7853.99
619.611	7822.12
619.967	7948.22
620.323	7915
620.678	7924.5
621.034	7815.12
621.39	7854.21
621.746	7913.2
622.101	7931.05
622.457	7922.91
622.812	7926.53
623.168	7936.02
623.523	7864.38
623.879	7938.28
624.234	7869.13
624.589	7830.03
624.945	7893.31
625.3	7910.48
625.655	7804.5
626.01	7913.65
626.365	7879.07
626.72	7892.18
627.075	7851.05
627.43	7904.61
627.785	7898.96
628.14	7903.7
628.495	7876.81
628.85	7859.19
629.205	7849.24
629.559	7915
629.914	7782.35
630.269	7754.56
630.623	7805.85
630.978	7764.05
631.332	7723.6
631.687	7816.48
632.041	7804.72
632.396	7829.13
632.75	7752.07
633.104	7756.14
633.459	7742.58
633.813	7717.49
634.167	7713.2
634.521	7697.16
634.875	7652.64
635.229	7670.72
635.583	7630.72
635.937	7592.98
636.291	7684.28
636.645	7693.09
636.999	7621.9
637.352	7656.71
637.706	7614.45
638.06	7670.26
638.413	7639.08
638.767	7531.96
639.121	7567.67
639.474	7496.71
639.828	7584.16
640.181	7546.43
640.534	7565.86
640.888	7512.98
641.241	7442.93
641.594	7518.4
641.947	7553.88
642.301	7521.57
642.654	7494.45
643.007	7528.57
643.36	7485.64
643.713	7491.96
644.066	7530.38
644.419	7434.11
644.771	7430.95
645.124	7378.07
645.477	7367.22
645.83	7290.39
646.182	7248.81
646.535	7261.24
646.888	7297.62
647.24	7239.32
647.593	7230.05
647.945	7275.02
648.298	7156.61
648.65	7161.8
649.002	7203.61
649.355	7207.68
649.707	7254.91
650.059	7330.16
650.411	7292.2
650.763	7336.49
651.115	7439.76
651.467	7413.55
651.819	7395.24
652.171	7435.92
652.523	7346.43
652.875	7427.33
653.227	7378.07
653.578	7382.59
653.93	7345.08
654.282	7353.44
654.633	7345.53
654.985	7401.57
655.337	7468.91
655.688	7416.03
656.039	7438.63
656.391	7448.58
656.742	7399.31
657.094	7337.39
657.445	7452.19
657.796	7423.27
658.147	7403.83
658.498	7433.89
658.849	7508.01
659.2	7421.68
659.551	7436.82
659.902	7461
660.253	7459.2
660.604	7456.71
660.955	7366.32
661.306	7446.77
661.656	7403.83
662.007	7503.49
662.358	7442.25
662.708	7533.09
663.059	7471.4
663.409	7391.18
663.76	7484.73
664.11	7480.66
664.461	7476.15
664.811	7505.52
665.161	7441.8
665.511	7492.87
665.862	7467.11
666.212	7490.83
666.562	7475.02
666.912	7488.57
667.262	7462.36
667.612	7474.34
667.962	7511.4
668.312	7482.02
668.662	7502.13
669.011	7453.32
669.361	7475.24
669.711	7486.31
670.06	7448.58
670.41	7456.26
670.76	7458.97
671.109	7480.66
671.459	7521.34
671.808	7433.43
672.157	7422.36
672.507	7374.9
672.856	7390.27
673.205	7403.38
673.554	7464.39
673.904	7383.72
674.253	7413.55
674.602	7434.34
674.951	7330.61
675.3	7264.4
675.649	7392.76
675.998	7351.63
676.346	7379.2
676.695	7432.53
677.044	7394.34
677.393	7382.59
677.741	7377.84
678.09	7301.23
678.438	7309.6
678.787	7299.43
679.135	7322.93
679.484	7236.83
679.832	7312.08
680.181	7243.38
680.529	7233.21
680.877	7237.06
681.225	7254.23
681.573	7224.63
681.922	7219.65
682.27	7173.55
682.618	7160
682.966	7215.36
683.314	7134.91
683.661	7096.72
684.009	7147.57
684.357	7105.99
684.705	7097.17
685.053	7061.01
685.4	7102.82
685.748	7063.5
686.095	7064.63
686.443	6959.77
686.79	7033.22
687.138	7038.19
687.485	6941.92
687.832	6984.41
688.18	6976.27
688.527	6929.27
688.874	6925.2
689.221	6908.93
689.568	6850.4
689.915	6802.04
690.262	6787.35
690.609	6842.72
690.956	6754.58
691.303	6761.59
691.65	6787.35
691.997	6753.9
692.344	6729.05
692.69	6688.6
693.037	6652.21
693.383	6604.98
693.73	6597.52
694.077	6642.95
694.423	6574.47
694.769	6513.23
695.116	6539.45
695.462	6550.52
695.808	6487.7
696.155	6418.55
696.501	6464.19
696.847	6410.86
697.193	6369.06
697.539	6393.46
697.885	6353.46
698.231	6341.26
698.577	6300.13
698.923	6293.8
699.269	6289.06
699.614	6237.53
699.96	6232.79
700.306	6173.35
700.651	6108.05
700.997	6132.68
701.342	6121.83
701.688	6111.44
702.033	6064.43
702.379	6037.76
702.724	6036.18
703.069	6078.22
703.415	5947.37
703.76	5993.92
704.105	5990.53
704.45	5950.76
704.795	5920.25
705.14	5873.7
705.485	5878
705.83	5884.1
706.175	5828.5
706.52	5802.06
706.865	5801.84
707.209	5806.36
707.554	5803.87
707.899	5735.17
708.243	5769.75
708.588	5725.91
708.932	5675.97
709.277	5659.02
709.621	5679.13
709.966	5636.65
710.31	5674.38
710.654	5584.9
710.998	5638.91
711.342	5638.23
711.687	5588.74
712.031	5601.17
712.375	5552.58
712.719	5565.46
713.063	5522.75
713.407	5559.36
713.75	5520.49
714.094	5485.24
714.438	5490.21
714.782	5460.38
715.125	5443.66
715.469	5447.95
715.812	5474.84
716.156	5440.72
716.499	5378.12
716.843	5425.58
717.186	5396.88
717.53	5394.84
717.873	5430.1
718.216	5374.28
718.559	5345.58
718.902	5341.51
719.246	5344
719.589	5319.14
719.932	5266.26
720.275	5335.41
720.617	5334.05
720.96	5322.53
721.303	5276.66
721.646	5347.84
721.989	5296.77
722.331	5338.35
722.674	5316.65
723.016	5320.95
723.359	5288.63
723.701	5313.72
724.044	5235.53
724.386	5259.71
724.729	5266.94
725.071	5251.57
725.413	5191.91
725.755	5225.81
726.097	5213.61
726.439	5259.71
726.782	5282.3
727.124	5260.38
727.465	5229.65
727.807	5204.11
728.149	5221.29
728.491	5195.3
728.833	5214.06
729.175	5198.47
729.516	5210.44
729.858	5222.87
730.199	5203.21
730.541	5192.59
730.882	5191.46
731.224	5204.79
731.565	5214.96
731.906	5241.63
732.248	5206.6
732.589	5220.61
732.93	5197.34
733.271	5211.8
733.612	5242.98
733.953	5222.65
734.294	5215.87
734.635	5213.38
734.976	5257.67
735.317	5264.23
735.658	5217.9
735.999	5264.68
736.339	5266.94
736.68	5246.83
737.021	5296.99
737.361	5262.64
737.702	5301.06
738.042	5304.22
738.383	5271.23
738.723	5275.75
739.063	5295.19
739.404	5355.07
739.744	5273.72
740.084	5329.08
740.424	5367.27
740.764	5325.92
741.104	5373.38
741.444	5369.08
741.784	5360.49
742.124	5394.17
742.464	5403.21
742.804	5459.93
743.143	5452.24
743.483	5462.41
743.823	5502.86
744.162	5531.34
744.502	5501.28
744.841	5554.61
745.181	5616.76
745.52	5630.77
745.86	5621.73
746.199	5653.37
746.538	5697.66
746.877	5755.74
747.216	5785.57
747.556	5818.79
747.895	5864.44
748.234	5905.79
748.573	5939.01
748.911	5977.43
749.25	6059.01
749.589	6089.52
749.928	6171.09
750.267	6271.21
750.605	6325.67
750.944	6363.86
751.283	6386
751.621	6529.73
751.96	6612.89
752.298	6651.53
752.636	6756.16
752.975	6838.2
753.313	6899.21
753.651	7059.88
753.989	7137.17
754.327	7228.24
754.666	7292.42
755.004	7474.79
755.342	7668
755.679	7760.88
756.017	7861.67
756.355	8002.69
756.693	8131.5
757.031	8332.62
757.368	8391.15
757.706	8520.41
758.044	8669.56
758.381	8823.23
758.719	8985.71
759.056	9178.47
759.394	9326.94
759.731	9441.07
760.068	9580.95
760.405	9739.81
760.743	9932.13
761.08	10102.97
761.417	10303.87
761.754	10420.25
762.091	10608.49
762.428	10770.52
762.765	10939.56
763.102	11152.21
763.438	11268.59
763.775	11370.51
764.112	11590.84
764.449	11775.24
764.785	11880.32
765.122	12043.93
765.458	12188.56
765.795	12407.99
766.131	12518.05
766.467	12701.32
766.804	12916.23
