Data from hue_330_FLMS001491_70.txt Node
Date: Mon Feb 06 15:45:45 GMT 2017
User: dcchb
Spectrometer: FLMS00149
Trigger mode: 0
Integration Time (sec): 2.000000E-2
Scans to average: 10
Electric dark correction enabled: true
Nonlinearity correction enabled: false
Boxcar width: 0
XAxis mode: Wavelengths
Number of Pixels in Spectrum: 2048
>>>>>Begin Spectral Data<<<<<
341.393	-17.63
341.776	-17.63
342.16	-17.63
342.543	-65.08
342.927	-47.23
343.31	-81.13
343.693	-86.55
344.077	-38.87
344.46	-67.34
344.843	-57.63
345.226	-40
345.61	-29.6
345.993	-16.72
346.376	11.75
346.759	-4.29
347.142	20.56
347.525	49.94
347.908	51.75
348.291	86.55
348.674	90.85
349.057	110.73
349.44	100.56
349.823	148.24
350.206	164.29
350.588	184.63
350.971	200.9
351.354	230.73
351.737	251.74
352.119	249.94
352.502	249.48
352.884	273.89
353.267	283.16
353.65	307.79
354.032	292.87
354.414	307.34
354.797	297.85
355.179	320.22
355.562	323.61
355.944	336.71
356.326	329.71
356.709	337.39
357.091	349.37
357.473	351.63
357.855	326.55
358.238	341.46
358.62	327.67
359.002	350.05
359.384	333.55
359.766	345.08
360.148	338.97
360.53	323.16
360.912	324.06
361.294	323.83
361.676	317.73
362.057	320.22
362.439	308.92
362.821	334.91
363.203	328.8
363.584	310.95
363.966	326.55
364.348	331.52
364.729	314.79
365.111	319.09
365.493	332.87
365.874	316.38
366.256	321.12
366.637	326.77
367.019	290.84
367.4	305.3
367.781	298.75
368.163	293.78
368.544	291.52
368.925	297.17
369.306	302.82
369.688	301.01
370.069	318.86
370.45	303.72
370.831	324.74
371.212	310.73
371.593	317.96
371.974	295.13
372.355	319.54
372.736	317.05
373.117	309.14
373.498	307.34
373.879	304.85
374.26	314.57
374.641	324.06
375.021	314.12
375.402	340.33
375.783	297.17
376.163	304.4
376.544	323.16
376.925	315.02
377.305	293.78
377.686	325.19
378.066	340.1
378.447	330.61
378.827	321.57
379.208	326.32
379.588	325.19
379.968	317.73
380.349	332.65
380.729	321.8
381.109	337.39
381.489	321.12
381.87	350.95
382.25	327.45
382.63	349.14
383.01	325.64
383.39	330.39
383.77	323.83
384.15	317.73
384.53	337.17
384.91	346.43
385.29	328.13
385.67	367.45
386.049	363.83
386.429	353.89
386.809	336.26
387.189	329.26
387.568	352.08
387.948	346.43
388.328	355.7
388.707	345.53
389.087	339.43
389.466	372.87
389.846	373.32
390.225	338.07
390.605	354.57
390.984	364.06
391.363	369.93
391.743	353.89
392.122	369.48
392.501	348.01
392.881	354.11
393.26	371.74
393.639	363.15
394.018	378.07
394.397	376.94
394.776	377.17
395.155	378.52
395.534	392.76
395.913	383.49
396.292	362.93
396.671	369.71
397.05	385.53
397.429	376.94
397.808	391.18
398.186	400.44
398.565	394.34
398.944	375.58
399.323	395.47
399.701	404.96
400.08	389.14
400.458	398.86
400.837	404.06
401.215	389.59
401.594	373.1
401.972	390.95
402.351	393.89
402.729	399.99
403.107	391.18
403.486	409.25
403.864	411.51
404.242	410.61
404.62	415.81
404.999	424.62
405.377	412.64
405.755	408.8
406.133	414.45
406.511	424.17
406.889	440.21
407.267	429.82
407.645	406.54
408.023	449.25
408.401	424.62
408.779	435.24
409.156	465.3
409.534	438.63
409.912	453.55
410.29	430.05
410.667	449.25
411.045	466.88
411.422	477.28
411.8	461.68
412.178	477.28
412.555	500.1
412.933	491.74
413.31	472.08
413.687	491.29
414.065	500.78
414.442	506.2
414.819	514.79
415.197	505.3
415.574	511.85
415.951	537.61
416.328	534.9
416.705	526.09
417.082	537.39
417.46	548.23
417.837	568.8
418.214	560.89
418.591	582.36
418.967	560.44
419.344	565.41
419.721	578.97
420.098	592.53
420.475	591.85
420.852	602.47
421.228	609.7
421.605	633.2
421.982	625.52
422.358	608.57
422.735	630.04
423.111	633.88
423.488	628.01
423.864	651.28
424.241	627.33
424.617	654.45
424.994	640.89
425.37	654.9
425.746	636.82
426.123	666.2
426.499	669.13
426.875	671.17
427.251	678.85
427.627	695.35
428.003	698.74
428.379	715.24
428.756	694.67
429.132	715.69
429.507	735.57
429.883	729.92
430.259	749.58
430.635	736.7
431.011	753.2
431.387	776.48
431.763	784.84
432.138	784.84
432.514	806.76
432.89	780.54
433.265	780.77
433.641	816.48
434.016	798.4
434.392	836.36
434.767	834.78
435.143	863.93
435.518	846.31
435.894	864.38
436.269	868.9
436.644	901.67
437.02	890.82
437.395	902.58
437.77	919.52
438.145	901.45
438.52	916.36
438.895	912.52
439.271	903.48
439.646	933.76
440.021	918.39
440.395	943.03
440.77	949.81
441.145	947.77
441.52	976.02
441.895	948.22
442.27	967.21
442.645	990.48
443.019	977.6
443.394	950.26
443.769	959.3
444.143	975.79
444.518	987.77
444.892	992.52
445.267	1011.95
445.641	1028.22
446.016	1007.88
446.39	998.39
446.764	1008.79
447.139	1016.92
447.513	1043.59
447.887	1033.19
448.262	1030.26
448.636	1020.54
449.01	1059.41
449.384	1042.46
449.758	1069.58
450.132	1071.61
450.506	1051.95
450.88	1076.36
451.254	1070.48
451.628	1098.28
452.002	1091.27
452.376	1086.3
452.75	1109.8
453.123	1096.02
453.497	1109.35
453.871	1113.19
454.244	1136.47
454.618	1176.24
454.992	1126.07
455.365	1138.28
455.739	1154.55
456.112	1169.91
456.486	1204.49
456.859	1213.75
457.232	1215.11
457.606	1198.39
457.979	1176.01
458.352	1229.57
458.725	1213.75
459.099	1247.65
459.472	1263.24
459.845	1283.13
460.218	1277.93
460.591	1294.66
460.964	1265.05
461.337	1308.89
461.71	1326.29
462.083	1340.53
462.456	1303.47
462.829	1320.42
463.201	1370.36
463.574	1350.7
463.947	1328.55
464.32	1402.67
464.692	1378.95
465.065	1387.76
465.438	1418.49
465.81	1418.27
466.183	1435.89
466.555	1451.04
466.928	1474.09
467.3	1457.59
467.672	1489.68
468.045	1538.49
468.417	1487.19
468.789	1510.47
469.161	1532.39
469.534	1528.1
469.906	1514.31
470.278	1568.09
470.65	1565.38
471.022	1605.61
471.394	1646.28
471.766	1649.22
472.138	1657.58
472.51	1670.01
472.882	1699.84
473.253	1727.19
473.625	1728.54
473.997	1789.56
474.369	1770.35
474.74	1787.75
475.112	1798.37
475.484	1817.58
475.855	1877.01
476.227	1839.05
476.598	1925.83
476.97	1912.04
477.341	1948.42
477.713	1958.37
478.084	1961.98
478.455	2025.03
478.827	2035.2
479.198	2050.34
479.569	2062.09
479.94	2074.52
480.311	2147.06
480.682	2164.91
481.053	2207.17
481.424	2215.76
481.795	2225.93
482.166	2276.55
482.537	2316.78
482.908	2308.41
483.279	2347.96
483.65	2395.87
484.021	2419.37
484.391	2453.95
484.762	2476.77
485.133	2460.95
485.503	2505.02
485.874	2542.53
486.244	2537.33
486.615	2581.63
486.985	2629.76
487.356	2658.46
487.726	2696.2
488.097	2723.32
488.467	2732.36
488.837	2769.19
489.207	2811.23
489.578	2823.65
489.948	2820.04
490.318	2910.21
490.688	2889.42
491.058	2926.93
491.428	2967.38
491.798	3035.17
492.168	3043.08
492.538	3020.49
492.908	3093.48
493.278	3124.21
493.648	3059.58
494.017	3159.69
494.387	3162.63
494.757	3182.29
495.126	3217.32
495.496	3215.51
495.866	3232.91
496.235	3252.12
496.605	3252.34
496.974	3307.94
497.344	3335.05
497.713	3310.87
498.082	3295.28
498.452	3389.97
498.821	3392.45
499.19	3374.37
499.559	3393.36
499.928	3461.6
500.298	3485.33
500.667	3451.66
501.036	3483.52
501.405	3451.66
501.774	3504.54
502.143	3525.78
502.512	3551.32
502.88	3559.23
503.249	3568.72
503.618	3602.39
503.987	3544.54
504.356	3612.79
504.724	3626.57
505.093	3612.79
505.462	3635.16
505.83	3662.73
506.199	3670.19
506.567	3682.16
506.936	3714.7
507.304	3728.04
507.672	3733.24
508.041	3746.57
508.409	3766.68
508.777	3794.02
509.145	3835.38
509.514	3806.91
509.882	3848.26
510.25	3800.58
510.618	3842.61
510.986	3831.09
511.354	3880.35
511.722	3901.14
512.09	3935.72
512.458	3913.12
512.826	3940.24
513.193	3935.04
513.561	3943.4
513.929	3957.64
514.297	4008.26
514.664	3995.15
515.032	3992.44
515.4	4020.46
515.767	4004.64
516.135	4044.19
516.502	4033.79
516.869	4092.1
517.237	4073.57
517.604	4047.13
517.972	4106.33
518.339	4127.12
518.706	4122.15
519.073	4064.3
519.44	4116.05
519.808	4173
520.175	4147.24
520.542	4151.3
520.909	4190.62
521.276	4179.78
521.643	4211.19
522.009	4219.55
522.376	4224.75
522.743	4277.4
523.11	4238.31
523.477	4344.07
523.843	4349.49
524.21	4389.49
524.577	4334.35
524.943	4353.33
525.31	4340.9
525.676	4389.04
526.043	4407.57
526.409	4472.2
526.776	4481.92
527.142	4533.89
527.508	4527.34
527.874	4534.12
528.241	4585.64
528.607	4589.48
528.973	4622.93
529.339	4648.69
529.705	4661.12
530.071	4680.33
530.437	4704.06
530.803	4711.29
531.169	4739.31
531.535	4718.75
531.901	4753.77
532.267	4753.77
532.632	4800.33
532.998	4816.14
533.364	4863.6
533.73	4829.03
534.095	4852.53
534.461	4883.49
534.826	4905.63
535.192	4925.97
535.557	4958.74
535.923	5002.81
536.288	4980.21
536.653	5005.07
537.019	4998.74
537.384	5032.18
537.749	5053.43
538.114	5074.44
538.479	5097.72
538.845	5070.83
539.21	5124.84
539.575	5145.63
539.94	5089.81
540.305	5216.81
540.67	5177.72
541.034	5275.57
541.399	5256.13
541.764	5242.35
542.129	5271.27
542.494	5299.52
542.858	5363.02
543.223	5346.75
543.587	5420.42
543.952	5428.78
544.316	5461.33
544.681	5433.53
545.045	5478.05
545.41	5487.99
545.774	5509.69
546.138	5488.67
546.503	5562.57
546.867	5523.92
547.231	5627.42
547.595	5562.11
547.959	5639.4
548.324	5626.52
548.688	5607.76
549.052	5644.82
549.416	5649.34
549.779	5662
550.143	5683.01
550.507	5724.37
550.871	5787.64
551.235	5737.02
551.599	5822.67
551.962	5807.76
552.326	5877.81
552.689	5827.42
553.053	5851.37
553.417	5856.34
553.78	5960.52
554.143	5917.13
554.507	5942.22
554.87	5981.31
555.234	6040.75
555.597	5994.64
555.96	5972.27
556.323	6033.51
556.686	6038.03
557.05	6043.46
557.413	6045.49
557.776	6071.93
558.139	6136.79
558.502	6133.4
558.865	6185.83
559.228	6183.79
559.59	6219.95
559.953	6167.52
560.316	6253.39
560.679	6280.51
561.041	6292.26
561.404	6277.35
561.767	6333.84
562.129	6317.12
562.492	6407.29
562.854	6360.74
563.217	6382.66
563.579	6422.2
563.941	6452.94
564.304	6432.6
564.666	6499.04
565.028	6476.67
565.39	6517.34
565.753	6520.28
566.115	6574.74
566.477	6530.9
566.839	6649.09
567.201	6664.01
567.563	6638.92
567.925	6683.67
568.287	6649.54
568.648	6675.3
569.01	6793.72
569.372	6794.17
569.734	6774.74
570.095	6853.38
570.457	6906.94
570.819	6917.78
571.18	6846.6
571.542	6969.99
571.903	6978.57
572.265	6987.39
572.626	7029.19
572.987	7088.63
573.349	7112.58
573.71	7150.32
574.071	7202.3
574.432	7192.35
574.794	7300.37
575.155	7343.08
575.516	7324.33
575.877	7478.67
576.238	7537.2
576.599	7535.62
576.96	7663.08
577.32	7671.44
577.681	7764.09
578.042	7901.49
578.403	7909.4
578.763	7956.4
579.124	8094.02
579.485	8186
579.845	8227.58
580.206	8395.71
580.566	8488.59
580.927	8559.32
581.287	8640.45
581.648	8772.88
582.008	8920.9
582.368	9087.67
582.728	9184.17
583.089	9333.54
583.449	9484.72
583.809	9678.84
584.169	9811.27
584.529	9944.6
584.889	10226.85
585.249	10283.8
585.609	10448.09
585.969	10685.82
586.329	10914.52
586.688	11107.96
587.048	11300.27
587.408	11491
587.768	11656.87
588.127	11931.89
588.487	12161.04
588.846	12430.63
589.206	12535.26
589.565	12891.64
589.925	13172.76
590.284	13329.82
590.643	13660.43
591.003	13901.33
591.362	14184.03
591.721	14424.93
592.08	14685.94
592.44	15015.2
592.799	15222.2
593.158	15558.91
593.517	15805.01
593.876	16168.61
594.235	16299.23
594.593	16614.93
594.952	16906.67
595.311	17176.5
595.67	17539.43
596.029	17910.94
596.387	18214.21
596.746	18528.1
597.104	18720.64
597.463	18988.43
597.822	19346.61
598.18	19532.37
598.538	19788.18
598.897	20240.15
599.255	20326.92
599.613	20864.54
599.972	20962.84
600.33	21314.02
600.688	21515.59
601.046	21914.9
601.404	22287.32
601.762	22314.22
602.12	22811.38
602.478	22972.28
602.836	23358.71
603.194	23456.78
603.552	23706.95
603.91	24014.06
604.268	24288.85
604.625	24437.32
604.983	24788.5
605.341	24783.76
605.698	25277.3
606.056	25465.77
606.413	25851.07
606.771	26125.64
607.128	26348.01
607.485	26421.9
607.843	26747.55
608.2	27046.29
608.557	27285.16
608.914	27376
609.272	27686.5
609.629	27928.98
609.986	28196.32
610.343	28255.53
610.7	28679.25
611.057	28824.78
611.414	28957.88
611.771	29267.25
612.127	29457.98
612.484	29570.07
612.841	29929.61
613.198	29891.42
613.554	30206.21
613.911	30453.44
614.267	30512.19
614.624	30611.85
614.98	30915.57
615.337	31169.58
615.693	31256.35
616.05	31265.39
616.406	31701.54
616.762	31768.2
617.118	31887.98
617.475	31961.19
617.831	32148.08
618.187	32363.67
618.543	32506.94
618.899	32802.75
619.255	32862.64
619.611	33016.31
619.967	33155.06
620.323	33188.73
620.678	33264.66
621.034	33309.63
621.39	33280.93
621.746	33433.02
622.101	33929.5
622.457	33734.25
622.812	33929.05
623.168	34028.94
623.523	34159.33
623.879	34386.21
624.234	34119.1
624.589	34369.72
624.945	34445.2
625.3	34541.46
625.655	34579.43
626.01	34660.78
626.365	34864.17
626.72	34871.85
627.075	34943.04
627.43	34900.55
627.785	34875.47
628.14	35204.5
628.495	35170.6
628.85	35267.55
629.205	35147.78
629.559	35403.81
629.914	35398.39
630.269	35413.08
630.623	35318.85
630.978	35513.87
631.332	35510.48
631.687	35646.97
632.041	35442.23
632.396	35640.64
632.75	35468.9
633.104	35628.89
633.459	35465.06
633.813	35487.65
634.167	35484.49
634.521	35453.31
634.875	35612.17
635.229	35646.07
635.583	35550.03
635.937	35596.8
636.291	35509.12
636.645	35585.05
636.999	35552.51
637.352	35693.75
637.706	35631.15
638.06	35798.61
638.413	35705.95
638.767	35580.99
639.121	35592.74
639.474	35431.16
639.828	35567.43
640.181	35627.31
640.534	35550.48
640.888	35700.53
641.241	35373.53
641.594	35414.21
641.947	35609.01
642.301	35544.6
642.654	35467.99
643.007	35714.32
643.36	35517.03
643.713	35499.86
644.066	35618.72
644.419	35312.97
644.771	35270.26
645.124	34859.65
645.477	34796.15
645.83	34731.29
646.182	34674.12
646.535	34411.07
646.888	34576.72
647.24	34478.42
647.593	34620.78
647.945	34430.73
648.298	34443.61
648.65	34306.89
649.002	34309.61
649.355	34324.97
649.707	34392.32
650.059	34534.23
650.411	34882.47
650.763	34917.73
651.115	35323.59
651.467	35126.76
651.819	35268.68
652.171	35137.16
652.523	35268.45
652.875	35143.93
653.227	34964.05
653.578	35259.64
653.93	35241.11
654.282	35046.08
654.633	34905.97
654.985	35145.52
655.337	35006.31
655.688	35049.25
656.039	35071.39
656.391	34774.68
656.742	34903.26
657.094	34928.35
657.445	34970.15
657.796	35007.22
658.147	34785.53
658.498	34881.34
658.849	34933.77
659.2	34814.45
659.551	34797.28
659.902	34822.14
660.253	34844.28
660.604	34927.22
660.955	34820.1
661.306	34892.19
661.656	34749.59
662.007	34790.05
662.358	34797.28
662.708	34871.85
663.059	34793.89
663.409	34522.26
663.76	34835.92
664.11	34840.21
664.461	34900.1
664.811	34872.76
665.161	34704.17
665.511	34658.3
665.862	34731.52
666.212	34989.81
666.562	34844.73
666.912	34986.88
667.262	34797.5
667.612	34779.88
667.962	34772.19
668.312	34791.4
668.662	34905.3
669.011	34647
669.361	34719.31
669.711	34702.36
670.06	34707.11
670.41	34586.21
670.76	34599.77
671.109	34743.49
671.459	34698.3
671.808	34645.87
672.157	34696.26
672.507	34397.74
672.856	34503.73
673.205	34491.07
673.554	34534.69
673.904	34500.11
674.253	34555.93
674.602	34455.37
674.951	33977.41
675.3	33900.13
675.649	34382.15
675.998	34329.94
676.346	34408.59
676.695	34413.78
677.044	34166.79
677.393	34251.53
677.741	34426.89
678.09	34218.76
678.438	34115.49
678.787	34252.66
679.135	34189.16
679.484	34112.78
679.832	34140.57
680.181	34009.28
680.529	34124.75
680.877	33991.2
681.225	34001.14
681.573	34171.08
681.922	33939.45
682.27	33957.07
682.618	33724.76
682.966	33754.82
683.314	33816.74
683.661	33604.31
684.009	33532.9
684.357	33641.83
684.705	33548.27
685.053	33490.64
685.4	33459.23
685.748	33252.68
686.095	33262.63
686.443	33153.93
686.79	33199.13
687.138	33255.85
687.485	33108.06
687.832	33015.86
688.18	33132.69
688.527	32909.87
688.874	33024.89
689.221	32751.68
689.568	32817.67
689.915	32650.89
690.262	32671.23
690.609	32648.63
690.956	32614.74
691.303	32405.48
691.65	32326.16
691.997	32429.2
692.344	32243.9
692.69	32223.79
693.037	32178.36
693.383	31963.68
693.73	32053.85
694.077	31814.76
694.423	31850.91
694.769	31785.15
695.116	31755.1
695.462	31791.25
695.808	31515.1
696.155	31581.99
696.501	31473.75
696.847	31306.52
697.193	31142.01
697.539	31247.99
697.885	31062.91
698.231	30964.84
698.577	30967.55
698.923	30869.02
699.269	30683.49
699.614	30575.47
699.96	30536.6
700.306	30548.35
700.651	30435.13
700.997	30263.39
701.342	30346.09
701.688	30136.61
702.033	30105.88
702.379	30109.04
702.724	30107.46
703.069	30124.63
703.415	29687.81
703.76	29792.89
704.105	29770.06
704.45	29655.72
704.795	29531.43
705.14	29512.9
705.485	29471.99
705.83	29348.15
706.175	29443.75
706.52	29269.51
706.865	29199.68
707.209	28984.1
707.554	29063.19
707.899	29203.53
708.243	28902.29
708.588	28926.25
708.932	28668.17
709.277	28818.68
709.621	28626.14
709.966	28563.32
710.31	28568.74
710.654	28421.4
710.998	28444.68
711.342	28394.06
711.687	28316.09
712.031	28175.3
712.375	28112.26
712.719	28093.05
713.063	28072.93
713.407	28230.22
713.75	27900.51
714.094	27978.7
714.438	27788.2
714.782	27913.16
715.125	27727.18
715.469	27793.17
715.812	27656.45
716.156	27572.83
716.499	27443.8
716.843	27705.71
717.186	27406.96
717.53	27379.39
717.873	27570.57
718.216	27502.78
718.559	27346.17
718.902	27149.12
719.246	27138.04
719.589	27216.69
719.932	26991.38
720.275	26974.21
720.617	26931.72
720.96	26749.35
721.303	26935.11
721.646	26858.95
721.989	26739.41
722.331	26734.44
722.674	26727.43
723.016	26801.33
723.359	26653.54
723.701	26724.27
724.044	26490.38
724.386	26360.21
724.729	26414.45
725.071	26329.7
725.413	26340.32
725.755	26439.76
726.097	26199.09
726.439	26148.01
726.782	26237.73
727.124	26268.69
727.465	26181.23
727.807	26068.02
728.149	26007.45
728.491	25980.33
728.833	25969.03
729.175	25885.65
729.516	25842.71
729.858	25910.96
730.199	25855.82
730.541	25783.95
730.882	25709.38
731.224	25831.86
731.565	25617.63
731.906	25604.52
732.248	25588.03
732.589	25476.84
732.93	25475.26
733.271	25529.95
733.612	25404.3
733.953	25409.5
734.294	25416.05
734.635	25350.07
734.976	25334.93
735.317	25237.3
735.658	25251.99
735.999	25151.43
736.339	25132.67
736.68	25177.64
737.021	25091.77
737.361	25017.2
737.702	24997.53
738.042	25007.48
738.383	24934.71
738.723	24976.74
739.063	24790.53
739.404	24955.95
739.744	24776.3
740.084	24647.04
740.424	24801.38
740.764	24742.4
741.104	24617.21
741.444	24540.82
741.784	24463.31
742.124	24511.67
742.464	24538.79
742.804	24430.54
743.143	24472.8
743.483	24468.28
743.823	24211.79
744.162	24254.28
744.502	24407.72
744.841	24284.11
745.181	24230.78
745.52	24137.67
745.86	24301.28
746.199	24243.66
746.538	24140.61
746.877	24179.93
747.216	24075.75
747.556	23998.47
747.895	24139.25
748.234	24042.53
748.573	23980.61
748.911	23788.75
749.25	23825.36
749.589	23747.62
749.928	23740.84
750.267	23765.7
750.605	23731.58
750.944	23655.2
751.283	23572.94
751.621	23632.82
751.96	23450.46
752.298	23461.76
752.636	23530.45
752.975	23371.59
753.313	23196
753.651	23338.6
753.989	23198.49
754.327	23297.92
754.666	23113.52
755.004	23101.31
755.342	23181.99
755.679	23016.34
756.017	22894.77
756.355	22947.65
756.693	22749.68
757.031	22930.02
757.368	22725.05
757.706	22650.03
758.044	22709.46
758.381	22613.64
758.719	22548.56
759.056	22560.31
759.394	22471.5
759.731	22342.24
760.068	22379.52
