Data from hue_10_FLMS001491_60.txt Node
Date: Mon Feb 06 15:32:10 GMT 2017
User: dcchb
Spectrometer: FLMS00149
Trigger mode: 0
Integration Time (sec): 2.000000E-2
Scans to average: 10
Electric dark correction enabled: true
Nonlinearity correction enabled: false
Boxcar width: 0
XAxis mode: Wavelengths
Number of Pixels in Spectrum: 2048
>>>>>Begin Spectral Data<<<<<
341.393	-17.49
341.776	-17.49
342.16	-17.49
342.543	-72.85
342.927	-71.04
343.31	-83.7
343.693	-59.29
344.077	-55.9
344.46	-61.55
344.843	-64.94
345.226	-37.37
345.61	-26.75
345.993	-28.56
346.376	4.21
346.759	1.5
347.142	16.86
347.525	31.78
347.908	71.78
348.291	74.04
348.674	99.57
349.057	118.33
349.44	120.36
349.823	135.96
350.206	165.33
350.588	200.14
350.971	200.36
351.354	226.58
351.737	231.32
352.119	250.3
352.502	255.5
352.884	263.41
353.267	298.44
353.65	278.78
354.032	289.17
354.414	299.34
354.797	320.36
355.179	321.49
355.562	324.65
355.944	320.81
356.326	332.34
356.709	338.21
357.091	323.52
357.473	339.79
357.855	345.89
358.238	343.64
358.62	333.01
359.002	344.99
359.384	342.73
359.766	338.21
360.148	317.2
360.53	321.49
360.912	329.4
361.294	326.69
361.676	333.24
362.057	340.02
362.439	312.22
362.821	323.97
363.203	304.54
363.584	334.14
363.966	341.6
364.348	328.04
364.729	304.99
365.111	320.36
365.493	314.94
365.874	300.25
366.256	308.61
366.637	300.25
367.019	304.99
367.4	303.18
367.781	283.3
368.163	326.01
368.544	312.45
368.925	299.12
369.306	319.23
369.688	295.95
370.069	321.71
370.45	314.71
370.831	297.31
371.212	298.44
371.593	309.29
371.974	316.07
372.355	304.54
372.736	323.07
373.117	312.45
373.498	305.9
373.879	295.5
374.26	317.42
374.641	307.7
375.021	312.9
375.402	328.27
375.783	339.79
376.163	307.48
376.544	300.25
376.925	299.34
377.305	333.92
377.686	347.93
378.066	328.72
378.447	338.89
378.827	312.68
379.208	334.82
379.588	325.1
379.968	328.49
380.349	321.94
380.729	320.13
381.109	330.98
381.489	352.9
381.87	344.31
382.25	305.44
382.63	319.45
383.01	334.82
383.39	351.32
383.77	332.56
384.15	334.37
384.53	333.92
384.91	328.49
385.29	331.43
385.67	318.78
386.049	353.58
386.429	352.9
386.809	361.49
387.189	350.19
387.568	342.28
387.948	351.32
388.328	328.95
388.707	351.32
389.087	359.23
389.466	342.28
389.846	357.19
390.225	359
390.605	363.52
390.984	334.37
391.363	356.06
391.743	339.12
392.122	357.42
392.501	352.9
392.881	354.48
393.26	356.52
393.639	356.74
394.018	352.22
394.397	355.39
394.776	345.44
395.155	378.44
395.534	359.91
395.913	359.45
396.292	353.13
396.671	363.3
397.05	364.65
397.429	392
397.808	361.26
398.186	370.98
398.565	368.95
398.944	367.36
399.323	368.04
399.701	376.18
400.08	373.69
400.458	394.93
400.837	383.18
401.215	394.93
401.594	369.17
401.972	406.01
402.351	382.73
402.729	379.79
403.107	390.87
403.486	394.03
403.864	380.92
404.242	402.16
404.62	399.45
404.999	401.49
405.377	418.21
405.755	399.9
406.133	384.31
406.511	387.7
406.889	427.02
407.267	392.45
407.645	408.72
408.023	427.93
408.401	403.97
408.779	426.8
409.156	414.59
409.534	415.72
409.912	410.75
410.29	425.44
410.667	436.97
411.045	446.23
411.422	405.1
411.8	411.66
412.178	430.41
412.555	425.21
412.933	454.14
413.31	458.43
413.687	429.06
414.065	443.75
414.442	452.78
414.819	428.6
415.197	445.55
415.574	466.34
415.951	461.6
416.328	458.66
416.705	457.98
417.082	465.89
417.46	453.01
417.837	448.72
418.214	453.01
418.591	489.85
418.967	455.04
419.344	488.72
419.721	496.63
420.098	473.58
420.475	493.01
420.852	486.91
421.228	472.67
421.605	508.83
421.982	486
422.358	501.15
422.735	515.38
423.111	510.64
423.488	516.06
423.864	497.53
424.241	527.36
424.617	510.18
424.994	533.46
425.37	524.87
425.746	529.39
426.123	530.75
426.499	540.24
426.875	533.01
427.251	537.3
427.627	544.99
428.003	533.69
428.379	548.6
428.756	552.9
429.132	554.25
429.507	563.97
429.883	559.9
430.259	577.08
430.635	573.91
431.011	576.85
431.387	595.38
431.763	585.66
432.138	594.93
432.514	586.11
432.89	596.96
433.265	591.31
433.641	612.1
434.016	605.32
434.392	615.94
434.767	624.08
435.143	599.67
435.518	638.32
435.894	636.51
436.269	627.92
436.644	634.47
437.02	651.88
437.395	646
437.77	626.34
438.145	653.68
438.52	660.01
438.895	659.78
439.271	669.95
439.646	670.41
440.021	700.01
440.395	675.15
440.77	688.94
441.145	688.26
441.52	734.81
441.895	692.1
442.27	698.43
442.645	693
443.019	713.79
443.394	706.11
443.769	715.6
444.143	731.42
444.518	701.14
444.892	727.81
445.267	726.68
445.641	718.54
446.016	738.43
446.39	729.84
446.764	725.77
447.139	740.23
447.513	737.52
447.887	750.18
448.262	736.17
448.636	760.8
449.01	762.38
449.384	780.91
449.758	762.38
450.132	787.24
450.506	768.48
450.88	775.71
451.254	777.3
451.628	798.09
452.002	789.5
452.376	785.43
452.75	815.26
453.123	804.41
453.497	838.54
453.871	826.33
454.244	839.89
454.618	801.25
454.992	850.06
455.365	869.04
455.739	852.77
456.112	861.81
456.486	880.34
456.859	892.77
457.232	878.99
457.606	864.07
457.979	909.95
458.352	916.5
458.725	898.65
459.099	917.63
459.472	942.72
459.845	951.53
460.218	972.77
460.591	957.18
460.964	960.79
461.337	989.72
461.71	989.49
462.083	994.92
462.456	1013.45
462.829	992.21
463.201	1008.02
463.574	1032.88
463.947	1014.13
464.32	1053.45
464.692	1049.83
465.065	1041.47
465.438	1095.48
465.81	1091.86
466.183	1077.4
466.555	1117.63
466.928	1110.62
467.3	1146.1
467.672	1139.77
468.045	1158.75
468.417	1161.01
468.789	1175.48
469.161	1212.76
469.534	1210.96
469.906	1240.33
470.278	1244.4
470.65	1222.71
471.022	1271.75
471.394	1317.39
471.766	1292.08
472.138	1319.43
472.51	1337.06
472.882	1402.59
473.253	1390.84
473.625	1391.52
473.997	1423.15
474.369	1449.59
474.74	1460.67
475.112	1505.64
475.484	1499.99
475.855	1524.39
476.227	1547.67
476.598	1557.84
476.97	1602.58
477.341	1603.71
477.713	1651.17
478.084	1662.47
478.455	1735.01
478.827	1738.63
479.198	1779.98
479.569	1816.59
479.94	1820.66
480.311	1831.05
480.682	1884.39
481.053	1925.06
481.424	1961.45
481.795	2004.61
482.166	2025.4
482.537	2044.61
482.908	2100.2
483.279	2117.6
483.65	2146.53
484.021	2200.08
484.391	2217.71
484.762	2260.65
485.133	2282.79
485.503	2309.46
485.874	2382
486.244	2378.38
486.615	2423.58
486.985	2467.42
487.356	2515.56
487.726	2552.39
488.097	2580.86
488.467	2630.81
488.837	2670.13
489.207	2701.31
489.578	2780.63
489.948	2807.98
490.318	2810.69
490.688	2820.63
491.058	2876
491.428	2921.42
491.798	2995.32
492.168	3037.58
492.538	3056.33
492.908	3109.21
493.278	3098.59
493.648	3127.06
494.017	3178.36
494.387	3209.1
494.757	3243.45
495.126	3264.91
495.496	3285.48
495.866	3291.13
496.235	3381.52
496.605	3376.1
496.974	3422.42
497.344	3437.79
497.713	3468.98
498.082	3505.36
498.452	3562.76
498.821	3553.49
499.19	3583.32
499.559	3617
499.928	3644.34
500.298	3634.85
500.667	3729.31
501.036	3696.54
501.405	3754.39
501.774	3712.59
502.143	3746.26
502.512	3788.97
502.88	3839.14
503.249	3870.77
503.618	3867.38
503.987	3879.81
504.356	3908.97
504.724	3905.12
505.093	3901.51
505.462	3937.66
505.83	3973.82
506.199	3976.08
506.567	4007.72
506.936	4068.96
507.304	4133.82
507.672	4085.23
508.041	4140.37
508.409	4149.41
508.777	4182.18
509.145	4207.04
509.514	4186.25
509.882	4203.65
510.25	4213.59
510.618	4220.6
510.986	4309.86
511.354	4301.5
511.722	4305.11
512.09	4325.68
512.458	4336.3
512.826	4382.85
513.193	4392.12
513.561	4394.6
513.929	4456.3
514.297	4428.27
514.664	4503.3
515.032	4523.41
515.4	4550.76
515.767	4514.82
516.135	4532.68
516.502	4552.79
516.869	4548.72
517.237	4550.53
517.604	4573.58
517.972	4643.63
518.339	4661.71
518.706	4625.78
519.073	4687.7
519.44	4668.95
519.808	4738.32
520.175	4695.84
520.542	4747.81
520.909	4796.63
521.276	4792.11
521.643	4845.89
522.009	4826.68
522.376	4873.91
522.743	4892.22
523.11	4943.29
523.477	4938.54
523.843	4989.84
524.21	5018.77
524.577	5018.31
524.943	5071.42
525.31	4987.58
525.676	5058.77
526.043	5120.23
526.409	5178.54
526.776	5207.24
527.142	5189.61
527.508	5227.8
527.874	5288.82
528.241	5293.34
528.607	5305.31
528.973	5343.05
529.339	5367.01
529.705	5402.26
530.071	5505.99
530.437	5451.98
530.803	5457.62
531.169	5557.28
531.535	5544.63
531.901	5503.95
532.267	5549.6
532.632	5650.16
532.998	5594.57
533.364	5671.18
533.73	5650.16
534.095	5714.12
534.461	5681.35
534.826	5664.63
535.192	5755.92
535.557	5819.42
535.923	5872.53
536.288	5883.83
536.653	5864.85
537.019	5861
537.384	5900.33
537.749	5932.19
538.114	5924.51
538.479	5983.49
538.845	5998.63
539.21	6005.41
539.575	5990.27
539.94	6063.26
540.305	6105.52
540.67	6091.28
541.034	6086.76
541.399	6107.33
541.764	6157.49
542.129	6211.05
542.494	6169.92
542.858	6223.03
543.223	6218.28
543.587	6255.34
543.952	6252.41
544.316	6392.52
544.681	6333.99
545.045	6417.6
545.41	6432.51
545.774	6374.44
546.138	6387.77
546.503	6462.57
546.867	6476.13
547.231	6521.33
547.595	6570.59
547.959	6519.97
548.324	6584.37
548.688	6614.66
549.052	6633.41
549.416	6678.61
549.779	6699.17
550.143	6665.95
550.507	6696.01
550.871	6731.94
551.235	6776.69
551.599	6808.32
551.962	6865.27
552.326	6817.14
552.689	6877.02
553.053	6839.74
553.417	6863.69
553.78	6979.39
554.143	6882.9
554.507	6955.89
554.87	7001.77
555.234	7023.69
555.597	6976.91
555.96	7009
556.323	7089.22
556.686	7096.45
557.05	7101.2
557.413	7135.77
557.776	7159.05
558.139	7175.77
558.502	7162.89
558.865	7229.78
559.228	7278.82
559.59	7265.03
559.953	7303.68
560.316	7374.41
560.679	7337.12
561.041	7397.46
561.404	7393.17
561.767	7476.1
562.129	7411.92
562.492	7521.53
562.854	7554.29
563.217	7497.8
563.579	7574.18
563.941	7572.6
564.304	7662.54
564.666	7646.49
565.028	7704.12
565.39	7665.7
565.753	7718.36
566.115	7680.62
566.477	7799.94
566.839	7829.54
567.201	7832.03
567.563	7827.05
567.925	7917.22
568.287	7993.6
568.648	7955.64
569.01	7976.43
569.372	8066.37
569.734	8038.8
570.095	8074.73
570.457	8108.18
570.819	8141.17
571.18	8179.14
571.542	8221.39
571.903	8309.08
572.265	8299.58
572.626	8338.23
572.987	8359.92
573.349	8441.73
573.71	8495.96
574.071	8519.01
574.432	8580.93
574.794	8713.81
575.155	8653.25
575.516	8646.92
575.877	8782.06
576.238	8826.58
576.599	8868.61
576.96	8876.97
577.32	8936.18
577.681	9071.77
578.042	9131.65
578.403	9184.53
578.763	9294.36
579.124	9333
579.485	9487.35
579.845	9578.19
580.206	9614.35
580.566	9715.59
580.927	9765.76
581.287	9931.18
581.648	9998.75
582.008	10146.99
582.368	10288.01
582.728	10400.09
583.089	10510.37
583.449	10662.69
583.809	10778.84
584.169	10965.28
584.529	11002.34
584.889	11243.01
585.249	11294.76
585.609	11471.93
585.969	11735.43
586.329	11857.46
586.688	12019.71
587.048	12208.63
587.408	12435.29
587.768	12617.44
588.127	12859.01
588.487	13006.58
588.846	13348.72
589.206	13425.1
589.565	13696.5
589.925	13950.51
590.284	14095.14
590.643	14421.23
591.003	14644.05
591.362	14840.2
591.721	15105.96
592.08	15346.63
592.44	15633.63
592.799	15870.23
593.158	16108.42
593.517	16354.29
593.876	16623.43
594.235	16797.67
594.593	17226.13
594.952	17382.51
595.311	17634.48
595.67	17957.64
596.029	18340.22
596.387	18504.74
596.746	18816.14
597.104	19083.03
597.463	19385.85
597.822	19687.76
598.18	19861.77
598.538	20129.78
598.897	20495.87
599.255	20509.88
599.613	21133.37
599.972	21295.4
600.33	21638.44
600.688	21730.87
601.046	22087.24
601.404	22465.09
601.762	22623.28
602.12	22993.21
602.478	23268.46
602.836	23515.91
603.194	23643.36
603.552	23954.31
603.91	24073.41
604.268	24517.46
604.625	24581.64
604.983	24879.04
605.341	25051.69
605.698	25342.75
606.056	25652.57
606.413	25859.12
606.771	26126.69
607.128	26377.53
607.485	26550.86
607.843	26815.93
608.2	27063.16
608.557	27287.33
608.914	27590.6
609.272	27852.29
609.629	27947.43
609.986	28225.84
610.343	28317.14
610.7	28726.84
611.057	28829.67
611.414	28963.45
611.771	29113.95
612.127	29421.51
612.484	29607.72
612.841	29813.14
613.198	29874.38
613.554	30061.95
613.911	30508.72
614.267	30537.64
614.624	30627.58
614.98	30770.63
615.337	31070.51
615.693	31191.86
616.05	31281.35
616.406	31588.46
616.762	31582.36
617.118	31747.78
617.475	31984.38
617.831	32007.89
618.187	32339.18
618.543	32397.03
618.899	32650.36
619.255	32664.82
619.611	32745.95
619.967	32967.41
620.323	32926.28
620.678	33044.02
621.034	33001.08
621.39	33174.18
621.746	33278.59
622.101	33895.75
622.457	33406.72
622.812	33731.23
623.168	33900.49
623.523	34003.31
623.879	34209.64
624.234	34009.87
624.589	34260.71
624.945	34352.91
625.3	34497.99
625.655	34500.48
626.01	34604.43
626.365	34813.01
626.72	34688.95
627.075	34778.44
627.43	34908.38
627.785	34787.02
628.14	34880.58
628.495	34964.19
628.85	34987.24
629.205	34908.15
629.559	35250.06
629.914	35090.74
630.269	35169.84
630.623	35131.42
630.978	35035.6
631.332	35249.16
631.687	35345.2
632.041	35190.85
632.396	35300
632.75	35195.37
633.104	35351.3
633.459	35230.85
633.813	35311.3
634.167	35355.37
634.521	35460.68
634.875	35441.24
635.229	35496.84
635.583	35325.99
635.937	35387.01
636.291	35239.89
636.645	35446.21
636.999	35470.17
637.352	35418.42
637.706	35406.89
638.06	35401.02
638.413	35325.31
638.767	35320.57
639.121	35402.6
639.474	35254.58
639.828	35273.34
640.181	35378.65
640.534	35403.05
640.888	35208.93
641.241	35073.8
641.594	35243.06
641.947	35434.92
642.301	35215.49
642.654	35231.31
643.007	35221.59
643.36	35242.83
643.713	35247.8
644.066	35336.61
644.419	35121.7
644.771	35025.43
645.124	34654.37
645.477	34643.07
645.83	34456.86
646.182	34349.75
646.535	34245.34
646.888	34261.39
647.24	34170.09
647.593	34325.11
647.945	34317.66
648.298	34011.45
648.65	34079.7
649.002	34034.05
649.355	34117.44
649.707	33960.6
650.059	34168.28
650.411	34581.15
650.763	34658.44
651.115	35018.88
651.467	34781.15
651.819	34869.73
652.171	34762.39
652.523	34847.36
652.875	34808.72
653.227	34721.71
653.578	34890.75
653.93	34850.98
654.282	34614.6
654.633	34757.19
654.985	34773.46
655.337	34748.61
655.688	34749.96
656.039	34813.46
656.391	34482.17
656.742	34578.22
657.094	34569.63
657.445	34801.94
657.796	34639
658.147	34622.28
658.498	34545
658.849	34586.12
659.2	34651.43
659.551	34570.53
659.902	34669.96
660.253	34738.66
660.604	34631.32
660.955	34362.4
661.306	34488.95
661.656	34367.6
662.007	34510.19
662.358	34475.17
662.708	34480.14
663.059	34363.53
663.409	34279.69
663.76	34528.95
664.11	34549.74
664.461	34534.15
664.811	34492.34
665.161	34368.96
665.511	34429.52
665.862	34301.61
666.212	34645.56
666.562	34506.13
666.912	34433.59
667.262	34328.28
667.612	34377.99
667.962	34408.95
668.312	34384.77
668.662	34451.66
669.011	34434.04
669.361	34429.52
669.711	34382.74
670.06	34380.71
670.41	34242.18
670.76	34246.92
671.109	34390.65
671.459	34333.48
671.808	34249.86
672.157	34313.14
672.507	34040.6
672.856	34059.13
673.205	34240.6
673.554	34183.88
673.904	34149.53
674.253	34367.15
674.602	34218.68
674.951	33717.45
675.3	33493.05
675.649	34032.24
675.998	34059.58
676.346	34012.13
676.695	34111.33
677.044	33904.56
677.393	34028.63
677.741	33990.89
678.09	33893.94
678.438	33828.86
678.787	33906.82
679.135	33965.58
679.484	33683.78
679.832	33973.49
680.181	33648.3
680.529	33773.49
680.877	33732.59
681.225	33603.1
681.573	33795.64
681.922	33507.73
682.27	33603.1
682.618	33581.86
682.966	33441.75
683.314	33389.55
683.661	33405.59
684.009	33261.19
684.357	33215.77
684.705	33058.03
685.053	33207.4
685.4	33060.51
685.748	32949.33
686.095	32983.91
686.443	32844.7
686.79	32779.84
687.138	32811.26
687.485	32868.43
687.832	32872.72
688.18	32721.09
688.527	32528.78
688.874	32566.74
689.221	32376.01
689.568	32486.97
689.915	32343.47
690.262	32424.37
690.609	32269.35
690.956	32133.99
691.303	32084.5
691.65	32018.28
691.997	32112.74
692.344	31778.06
692.69	31688.12
693.037	31743.94
693.383	31470.95
693.73	31615.13
694.077	31376.94
694.423	31406.55
694.769	31274.57
695.116	31182.15
695.462	31167.68
695.808	31097.18
696.155	31108.48
696.501	30936.95
696.847	30846.34
697.193	30799.78
697.539	30862.83
697.885	30556.85
698.231	30404.31
698.577	30498.32
698.923	30501.26
699.269	30308.5
699.614	30176.3
699.96	30133.36
700.306	30172.91
700.651	29898.34
700.997	29936.53
701.342	29839.36
701.688	29855.85
702.033	29748.51
702.379	29769.75
702.724	29581.96
703.069	29775.18
703.415	29298.81
703.76	29385.81
704.105	29425.36
704.45	29224.01
704.795	29187.4
705.14	28980.85
705.485	29035.31
705.83	28881.87
706.175	28949.89
706.52	28873.73
706.865	28744.47
707.209	28791.25
707.554	28589.45
707.899	28769.33
708.243	28537.92
708.588	28496.12
708.932	28297.93
709.277	28316.91
709.621	28405.95
709.966	28129.8
710.31	28151.49
710.654	27979.74
710.998	28014.55
711.342	27971.16
711.687	27808
712.031	27806.42
712.375	27736.59
712.719	27754.44
713.063	27648.23
713.407	27825.17
713.75	27522.13
714.094	27470.15
714.438	27428.35
714.782	27436.48
715.125	27340.21
715.469	27366.43
715.812	27309.25
716.156	27129.37
716.499	27135.02
716.843	27127.79
717.186	27022.26
717.53	27054.12
717.873	27078.53
718.216	26977.29
718.559	26847.12
718.902	26743.62
719.246	26715.6
719.589	26615.03
719.932	26571.87
720.275	26580.69
720.617	26574.58
720.96	26481.48
721.303	26543.4
721.646	26434.47
721.989	26371.65
722.331	26312.67
722.674	26175.72
723.016	26336.4
723.359	26215.95
723.701	26290.98
724.044	26086.01
724.386	25956.97
724.729	26108.16
725.071	25982.06
725.413	25979.35
725.755	25923.98
726.097	25829.74
726.439	25653.03
726.782	25662.07
727.124	25838.11
727.465	25747.94
727.807	25724.21
728.149	25576.42
728.491	25654.38
728.833	25635.63
729.175	25572.58
729.516	25529.64
729.858	25360.83
730.199	25371.23
730.541	25322.64
730.882	25301.85
731.224	25402.64
731.565	25095.3
731.906	25150.89
732.248	25162.42
732.589	25142.31
732.93	25013.72
733.271	25067.05
733.612	25125.13
733.953	24966.94
734.294	24874.06
734.635	24931.01
734.976	24879.26
735.317	24822.54
735.658	24896.89
735.999	24848.53
736.339	24798.36
736.68	24907.06
737.021	24726.95
737.361	24648.76
737.702	24722.2
738.042	24615.31
738.383	24688.76
738.723	24737.12
739.063	24611.7
739.404	24617.57
739.744	24499.38
740.084	24510.01
740.424	24458.26
740.764	24301.65
741.104	24526.28
741.444	24315.89
741.784	24193.18
742.124	24264.36
742.464	24246.51
742.804	24090.58
743.143	24105.72
743.483	24101.43
743.823	24022.11
744.162	23968.32
744.502	24071.15
744.841	23953.18
745.181	24025.05
745.52	23939.17
745.86	23993.18
746.199	23832.51
746.538	23861.43
746.877	23858.95
747.216	23794.54
747.556	23829.8
747.895	23851.72
748.234	23700.76
748.573	23699.63
748.911	23683.36
749.25	23584.38
749.589	23553.87
749.928	23544.83
750.267	23487.66
750.605	23384.16
750.944	23408.11
751.283	23278.63
751.621	23318.17
751.96	23166.31
752.298	23241.11
752.636	23264.61
752.975	23054.22
753.313	23016.94
753.651	23151.4
753.989	23004.06
754.327	22989.14
754.666	22856.72
755.004	22920.44
755.342	22816.49
755.679	22810.39
756.017	22672.31
756.355	22874.12
756.693	22733.55
757.031	22744.85
757.368	22639.09
757.706	22553.45
758.044	22564.97
758.381	22491.3
758.719	22437.97
759.056	22485.2
759.394	22366.33
759.731	22197.3
760.068	22253.57
760.405	22095.61
760.743	22143.06
761.08	22214.7
761.417	21986.23
