Data from hue_220_FLMS001491_00018.txt Node
Date: Tue Feb 07 16:38:36 GMT 2017
User: dcchb
Spectrometer: FLMS00149
Trigger mode: 0
Integration Time (sec): 2.000000E-2
Scans to average: 10
Electric dark correction enabled: true
Nonlinearity correction enabled: false
Boxcar width: 0
XAxis mode: Wavelengths
Number of Pixels in Spectrum: 2048
>>>>>Begin Spectral Data<<<<<
341.393	8.06
341.776	8.06
342.16	8.06
342.543	-76.45
342.927	-70.8
343.31	-82.1
343.693	-62.44
344.077	-55.89
344.46	-63.12
344.843	-54.76
345.226	-42.56
345.61	-32.16
345.993	-13.63
346.376	-13.18
346.759	28.63
347.142	17.78
347.525	33.15
347.908	51.45
348.291	80.15
348.674	105.24
349.057	103.43
349.44	121.96
349.823	137.33
350.206	142.3
350.588	200.15
350.971	207.83
351.354	188.62
351.737	220.71
352.119	248.06
352.502	252.13
352.884	253.93
353.267	287.38
353.65	279.47
354.032	297.55
354.414	306.36
354.797	300.49
355.179	314.72
355.562	320.6
355.944	306.59
356.326	329.19
356.709	332.12
357.091	320.6
357.473	332.12
357.855	358.11
358.238	318.11
358.62	316.31
359.002	323.54
359.384	309.07
359.766	341.39
360.148	330.54
360.53	334.84
360.912	329.19
361.294	318.34
361.676	352.91
362.057	330.54
362.439	329.19
362.821	331.67
363.203	329.19
363.584	327.6
363.966	322.41
364.348	318.34
364.729	339.81
365.111	326.47
365.493	295.06
365.874	295.74
366.256	312.92
366.637	281.73
367.019	314.5
367.4	304.33
367.781	328.96
368.163	303.88
368.544	288.06
368.925	294.16
369.306	327.15
369.688	311.33
370.069	314.95
370.45	321.73
370.831	307.72
371.212	310.88
371.593	314.5
371.974	309.75
372.355	318.79
372.736	319.92
373.117	293.71
373.498	323.54
373.879	303.42
374.26	307.94
374.641	314.5
375.021	304.78
375.402	323.76
375.783	303.2
376.163	318.79
376.544	342.29
376.925	314.05
377.305	322.63
377.686	321.5
378.066	326.47
378.447	319.92
378.827	331.22
379.208	318.11
379.588	319.47
379.968	327.6
380.349	329.64
380.729	331.9
381.109	308.17
381.489	333.25
381.87	313.82
382.25	335.51
382.63	350.88
383.01	338.9
383.39	328.96
383.77	350.2
384.15	341.62
384.53	334.84
384.91	327.6
385.29	344.78
385.67	357.66
386.049	336.19
386.429	333.25
386.809	361.5
387.189	362.63
387.568	339.13
387.948	326.7
388.328	355.17
388.707	341.39
389.087	358.56
389.466	342.07
389.846	366.02
390.225	357.43
390.605	349.98
390.984	360.6
391.363	357.21
391.743	378
392.122	377.09
392.501	369.19
392.881	384.55
393.26	376.87
393.639	359.24
394.018	364.89
394.397	371.45
394.776	366.7
395.155	382.52
395.534	403.76
395.913	392.24
396.292	379.13
396.671	375.74
397.05	403.99
397.429	392.46
397.808	401.73
398.186	405.12
398.565	395.17
398.944	401.5
399.323	399.92
399.701	396.98
400.08	404.44
400.458	404.21
400.837	411.44
401.215	415.06
401.594	416.42
401.972	412.57
402.351	409.18
402.729	402.63
403.107	430.88
403.486	427.04
403.864	426.81
404.242	428.17
404.62	446.7
404.999	451.89
405.377	450.09
405.755	433.59
406.133	435.85
406.511	431.33
406.889	457.32
407.267	478.79
407.645	467.49
408.023	492.12
408.401	471.1
408.779	503.19
409.156	483.08
409.534	488.73
409.912	497.54
410.29	515.85
410.667	505.23
411.045	505.9
411.422	514.49
411.8	523.53
412.178	551.1
412.555	548.16
412.933	566.47
413.31	567.37
413.687	572.34
414.065	588.39
414.442	603.08
414.819	591.78
415.197	607.6
415.574	612.79
415.951	641.27
416.328	625
416.705	632.68
417.082	643.08
417.46	633.13
417.837	631.33
418.214	670.87
418.591	650.53
418.967	670.87
419.344	690.76
419.721	713.58
420.098	671.78
420.475	713.58
420.852	730.53
421.228	720.36
421.605	764.66
421.982	759.01
422.358	760.81
422.735	768.27
423.111	777.76
423.488	810.53
423.864	791.55
424.241	841.72
424.617	861.15
424.994	822.51
425.37	855.05
425.746	890.75
426.123	903.41
426.499	900.02
426.875	912.67
427.251	916.29
427.627	930.98
428.003	958.77
428.379	930.53
428.756	962.39
429.132	975.04
429.507	989.96
429.883	1001.03
430.259	1024.08
430.635	1022.5
431.011	1033.57
431.387	1047.36
431.763	1114.93
432.138	1100.24
432.514	1117.41
432.89	1132.1
433.265	1149.5
433.641	1142.27
434.016	1161.71
434.392	1197.19
434.767	1224.08
435.143	1196.06
435.518	1238.09
435.894	1258.43
436.269	1289.84
436.644	1355.15
437.02	1321.25
437.395	1363.96
437.77	1401.25
438.145	1422.94
438.52	1413
438.895	1416.39
439.271	1458.42
439.646	1483.96
440.021	1517.4
440.395	1533.67
440.77	1527.12
441.145	1522.15
441.52	1580.45
441.895	1595.37
442.27	1577.97
442.645	1590.62
443.019	1658.64
443.394	1680.34
443.769	1668.81
444.143	1666.78
444.518	1698.64
444.892	1685.76
445.267	1702.03
445.641	1753.56
446.016	1750.39
446.39	1764.4
446.764	1769.6
447.139	1758.3
447.513	1816.15
447.887	1810.5
448.262	1819.77
448.636	1838.3
449.01	1841.91
449.384	1891.18
449.758	1889.37
450.132	1896.38
450.506	1914.68
450.88	1938.18
451.254	1931.63
451.628	1963.04
452.002	1995.36
452.376	1965.08
452.75	2021.35
453.123	2025.41
453.497	2046.88
453.871	2029.93
454.244	2130.49
454.618	2129.59
454.992	2123.49
455.365	2132.98
455.739	2191.74
456.112	2192.64
456.486	2222.7
456.859	2255.69
457.232	2270.83
457.606	2279.64
457.979	2311.73
458.352	2360.32
458.725	2384.95
459.099	2386.76
459.472	2399.87
459.845	2445.51
460.218	2454.78
460.591	2489.81
460.964	2511.05
461.337	2546.98
461.71	2607.32
462.083	2610.48
462.456	2643.7
462.829	2638.96
463.201	2674.66
463.574	2658.62
463.947	2727.32
464.32	2778.61
464.692	2796.47
465.065	2834.88
465.438	2842.79
465.81	2895.22
466.183	2909.23
466.555	2977.48
466.928	3005.5
467.3	2939.06
467.672	3033.3
468.045	3086.4
468.417	3098.38
468.789	3115.78
469.161	3146.97
469.534	3191.71
469.906	3287.53
470.278	3269
470.65	3282.55
471.022	3354.87
471.394	3427.18
471.766	3447.07
472.138	3440.97
472.51	3524.36
472.882	3585.37
473.253	3575.88
473.625	3640.51
473.997	3716.22
474.369	3754.18
474.74	3782.43
475.112	3840.73
475.484	3867.85
475.855	3922.31
476.227	4006.15
476.598	4029.43
476.97	4100.39
477.341	4148.97
477.713	4209.31
478.084	4265.58
478.455	4371.79
478.827	4373.15
479.198	4485.69
479.569	4502.86
479.94	4567.04
480.311	4646.81
480.682	4684.55
481.053	4788.5
481.424	4856.07
481.795	4893.81
482.166	4957.77
482.537	4970.42
482.908	5081.83
483.279	5122.28
483.65	5185.56
484.021	5306.23
484.391	5350.75
484.762	5363.18
485.133	5430.3
485.503	5448.83
485.874	5595.71
486.244	5604.98
486.615	5700.12
486.985	5768.14
487.356	5842.04
487.726	5922.49
488.097	5996.61
488.467	6028.47
488.837	6135.81
489.207	6207.68
489.578	6167
489.948	6287.67
490.318	6359.31
490.688	6394.34
491.058	6416.03
491.428	6491.51
491.798	6591.39
492.168	6626.87
492.538	6671.17
492.908	6696.7
493.278	6777.83
493.648	6810.15
494.017	6918.84
494.387	6887.66
494.757	6980.99
495.126	7039.07
495.496	7044.94
495.866	7025.73
496.235	7095.56
496.605	7171.94
496.974	7186.63
497.344	7199.29
497.713	7244.26
498.082	7318.61
498.452	7419.17
498.821	7362.9
499.19	7371.94
499.559	7463.46
499.928	7494.87
500.298	7477.47
500.667	7565.61
501.036	7526.51
501.405	7625.49
501.774	7580.07
502.143	7638.37
502.512	7676.56
502.88	7721.31
503.249	7735.77
503.618	7705.04
503.987	7793.62
504.356	7753.4
504.724	7903.45
505.093	7842.44
505.462	7808.76
505.83	7832.94
506.199	7958.14
506.567	7984.58
506.936	7937.57
507.304	8024.58
507.672	8068.87
508.041	8100.06
508.409	8091.24
508.777	8100.51
509.145	8132.6
509.514	8125.14
509.882	8101.86
510.25	8187.96
510.618	8200.39
510.986	8157.23
511.354	8275.64
511.722	8251.01
512.09	8360.84
512.458	8208.53
512.826	8331.46
513.193	8307.96
513.561	8322.2
513.929	8342.76
514.297	8375.75
514.664	8404.68
515.032	8407.62
515.4	8428.63
515.767	8435.64
516.135	8488.07
516.502	8357
516.869	8508.18
517.237	8444.45
517.604	8394.28
517.972	8453.49
518.339	8441.97
518.706	8469.54
519.073	8497.56
519.44	8513.15
519.808	8508.63
520.175	8494.85
520.542	8609.65
520.909	8554.73
521.276	8570.55
521.643	8639.48
522.009	8629.31
522.376	8588.18
522.743	8616.88
523.11	8651.23
523.477	8708.4
523.843	8698.23
524.21	8725.58
524.577	8709.53
524.943	8733.03
525.31	8711.79
525.676	8744.33
526.043	8824.1
526.409	8714.95
526.776	8862.3
527.142	8769.64
527.508	8772.81
527.874	8754.28
528.241	8882.86
528.607	8827.49
528.973	8840.37
529.339	8807.61
529.705	8784.33
530.071	8878.34
530.437	8847.61
530.803	8869.75
531.169	8873.59
531.535	8799.25
531.901	8852.58
532.267	8852.8
532.632	8822.97
532.998	8792.92
533.364	8861.84
533.73	8770.32
534.095	8807.16
534.461	8844.44
534.826	8806.48
535.192	8811.68
535.557	8814.61
535.923	8726.03
536.288	8734.39
536.653	8735.97
537.019	8727.16
537.384	8709.53
537.749	8679.25
538.114	8757.21
538.479	8600.61
538.845	8658.23
539.21	8616.43
539.575	8578.23
539.94	8566.03
540.305	8636.09
540.67	8538.24
541.034	8557.44
541.399	8495.98
541.764	8475.41
542.129	8461.85
542.494	8476.77
542.858	8487.39
543.223	8413.27
543.587	8464.79
543.952	8472.02
544.316	8400.61
544.681	8397.9
545.045	8429.76
545.41	8354.06
545.774	8320.39
546.138	8335.76
546.503	8264.12
546.867	8278.36
547.231	8289.65
547.595	8257.57
547.959	8267.28
548.324	8257.57
548.688	8231.8
549.052	8190.9
549.416	8187.28
549.779	8139.38
550.143	8125.59
550.507	8144.57
550.871	8225.02
551.235	8098.02
551.599	8048.31
551.962	8070.23
552.326	8065.71
552.689	8104.58
553.053	7997.69
553.417	8048.98
553.78	8092.6
554.143	7993.39
554.507	7962.66
554.87	7971.7
555.234	7990.23
555.597	7947.07
555.96	7931.25
556.323	7986.16
556.686	7950.91
557.05	7907.52
557.413	7929.89
557.776	7922.66
558.139	7926.27
558.502	7904.58
558.865	7980.51
559.228	7945.48
559.59	7941.87
559.953	7946.16
560.316	7987.74
560.679	7954.3
561.041	7940.74
561.404	7918.37
561.767	8042.88
562.129	7912.26
562.492	7948.65
562.854	8015.31
563.217	7964.47
563.579	7988.19
563.941	7981.87
564.304	8000.62
564.666	8044.24
565.028	8018.93
565.39	8051.02
565.753	8022.54
566.115	8048.76
566.477	8089.66
566.839	8067.97
567.201	8099.83
567.563	8121.98
567.925	8171.01
568.287	8123.33
568.648	8087.63
569.01	8100.96
569.372	8215.53
569.734	8201.3
570.095	8185.93
570.457	8152.48
570.819	8214.85
571.18	8200.17
571.542	8238.58
571.903	8312.93
572.265	8261.41
572.626	8331.01
572.987	8255.98
573.349	8299.15
573.71	8337.34
574.071	8323.78
574.432	8355.19
574.794	8411.69
575.155	8355.42
575.516	8437
575.877	8348.18
576.238	8458.46
576.599	8459.37
576.96	8483.32
577.32	8462.53
577.681	8469.99
578.042	8514.51
578.403	8502.08
578.763	8588.63
579.124	8540.95
579.485	8588.86
579.845	8609.42
580.206	8495.3
580.566	8620.04
580.927	8617.56
581.287	8644
581.648	8632.47
582.008	8610.78
582.368	8615.75
582.728	8734.39
583.089	8758.12
583.449	8763.09
583.809	8709.08
584.169	8745.91
584.529	8800.83
584.889	8775.29
585.249	8719.25
585.609	8766.93
585.969	8799.7
586.329	8758.8
586.688	8841.96
587.048	8784.11
587.408	8887.38
587.768	8856.65
588.127	8857.55
588.487	8929.41
588.846	8908.17
589.206	8873.82
589.565	8865.01
589.925	8981.84
590.284	8977.09
590.643	8956.3
591.003	8991.33
591.362	8992.24
591.721	8999.01
592.08	9048.28
592.44	9002.86
592.799	9065.68
593.158	9028.39
593.517	9078.56
593.876	9079.92
594.235	9011.44
594.593	9055.96
594.952	9073.82
595.311	9034.04
595.67	9088.73
596.029	9197.65
596.387	9153.59
596.746	9158.11
597.104	9157.2
597.463	9164.21
597.822	9253.92
598.18	9118.56
598.538	9085.34
598.897	9163.98
599.255	9071.56
599.613	9223.87
599.972	9215.96
600.33	9178.67
600.688	9162.85
601.046	9225.45
601.404	9213.02
601.762	9248.73
602.12	9274.04
602.478	9227.26
602.836	9277.65
603.194	9174.83
603.552	9206.24
603.91	9222.29
604.268	9302.51
604.625	9250.08
604.983	9251.89
605.341	9291.66
605.698	9262.06
606.056	9373.92
606.413	9324.66
606.771	9278.33
607.128	9352.9
607.485	9334.6
607.843	9353.81
608.2	9365.11
608.557	9363.75
608.914	9348.84
609.272	9407.59
609.629	9359.68
609.986	9434.48
610.343	9375.28
610.7	9405.33
611.057	9415.05
611.414	9399.68
611.771	9383.41
612.127	9443.97
612.484	9444.65
612.841	9454.82
613.198	9445.56
613.554	9469.74
613.911	9456.86
614.267	9409.4
614.624	9467.7
614.98	9531.2
615.337	9483.07
615.693	9520.58
616.05	9499.79
616.406	9573.69
616.762	9520.13
617.118	9517.87
617.475	9521.94
617.831	9637.42
618.187	9519.91
618.543	9587.93
618.899	9656.62
619.255	9628.15
619.611	9577.76
619.967	9636.74
620.323	9621.15
620.678	9685.55
621.034	9618.89
621.39	9564.65
621.746	9545.67
622.101	9683.74
622.457	9613.91
622.812	9648.72
623.168	9659.34
623.523	9678.77
623.879	9667.25
624.234	9621.15
624.589	9632.22
624.945	9604.65
625.3	9688.94
625.655	9664.53
626.01	9662.27
626.365	9634.03
626.72	9624.76
627.075	9638.32
627.43	9627.02
627.785	9620.92
628.14	9650.52
628.495	9657.75
628.85	9665.89
629.205	9569.85
629.559	9574.14
629.914	9608.04
630.269	9595.16
630.623	9566.23
630.978	9516.97
631.332	9608.49
631.687	9622.28
632.041	9550.19
632.396	9539.57
632.75	9518.1
633.104	9537.31
633.459	9488.72
633.813	9449.4
634.167	9482.39
634.521	9435.61
634.875	9537.31
635.229	9438.1
635.583	9410.08
635.937	9333.47
636.291	9408.04
636.645	9421.38
636.999	9363.98
637.352	9401.72
637.706	9356.97
638.06	9395.39
638.413	9385.22
638.767	9355.84
639.121	9406.46
639.474	9338.44
639.828	9298.89
640.181	9305.67
640.534	9308.84
640.888	9260.02
641.241	9296.18
641.594	9285.11
641.947	9278.56
642.301	9254.6
642.654	9291.21
643.007	9246.69
643.36	9196.75
643.713	9248.5
644.066	9220.7
644.419	9203.76
644.771	9172.8
645.124	9093.02
645.477	9057.54
645.83	9043.53
646.182	8996.53
646.535	8910.2
646.888	8936.87
647.24	8936.42
647.593	8933.48
647.945	8954.72
648.298	8869.53
648.65	8891.45
649.002	8885.12
649.355	8900.71
649.707	8910.43
650.059	8995.4
650.411	8944.1
650.763	9028.62
651.115	9083.98
651.467	9116.75
651.819	9127.15
652.171	9125.34
652.523	9072.91
652.875	9140.25
653.227	9105.45
653.578	9073.59
653.93	9043.08
654.282	8991.78
654.633	8986.36
654.985	9041.95
655.337	9077.43
655.688	9100.48
656.039	9129.18
656.391	9083.98
656.742	9081.27
657.094	9084.44
657.445	9054.61
657.796	9078.11
658.147	9109.75
658.498	9080.59
658.849	9079.01
659.2	9131.89
659.551	9078.56
659.902	9079.69
660.253	9117.88
660.604	9146.36
660.955	9123.76
661.306	9149.75
661.656	9050.99
662.007	9144.77
662.358	9148.62
662.708	9059.8
663.059	9187.71
663.409	9060.26
663.76	9112.01
664.11	9182.74
664.461	9160.59
664.811	9168.5
665.161	9145
665.511	9122.85
665.862	9062.29
666.212	9198.56
666.562	9162.63
666.912	9153.14
667.262	9061.61
667.612	9178.22
667.962	9147.26
668.312	9182.51
668.662	9131.67
669.011	9185.45
669.361	9199.24
669.711	9096.87
670.06	9160.14
670.41	9070.2
670.76	9114.27
671.109	9141.16
671.459	9123.98
671.808	9017.09
672.157	9121.95
672.507	9030.65
672.856	9107.26
673.205	9107.71
673.554	9033.82
673.904	9046.25
674.253	9076.3
674.602	8994.5
674.951	8908.17
675.3	8921.05
675.649	9038.79
675.998	9009.64
676.346	9032.46
676.695	9048.96
677.044	8974.61
677.393	8966.02
677.741	9013.48
678.09	8992.01
678.438	8944.1
678.787	8942.97
679.135	8929.86
679.484	8853.93
679.832	8917.89
680.181	8861.39
680.529	8854.61
680.877	8832.92
681.225	8812.35
681.573	8854.84
681.922	8836.99
682.27	8822.75
682.618	8832.92
682.966	8783.65
683.314	8759.02
683.661	8714.5
684.009	8729.87
684.357	8668.4
684.705	8653.04
685.053	8683.99
685.4	8675.63
685.748	8631.79
686.095	8604.22
686.443	8551.57
686.79	8598.8
687.138	8563.55
687.485	8596.54
687.832	8580.72
688.18	8477.67
688.527	8483.32
688.874	8472.7
689.221	8383.21
689.568	8427.28
689.915	8415.98
690.262	8401.29
690.609	8332.37
690.956	8305.7
691.303	8293.95
691.65	8246.04
691.997	8282.42
692.344	8160.17
692.69	8214.63
693.037	8125.82
693.383	8080.62
693.73	8118.81
694.077	8050.11
694.423	8062.09
694.769	8048.53
695.116	8022.54
695.462	8031.81
695.808	7952.71
696.155	7982.77
696.501	7860.97
696.847	7819.38
697.193	7818.93
697.539	7841.31
697.885	7800.4
698.231	7792.72
698.577	7761.08
698.923	7729.22
699.269	7669.78
699.614	7658.71
699.96	7654.87
700.306	7530.35
700.651	7600.41
700.997	7571.26
701.342	7562.22
701.688	7482.44
702.033	7472.73
702.379	7399.28
702.724	7368.32
703.069	7414.88
703.415	7401.32
703.76	7257.59
704.105	7286.52
704.45	7263.47
704.795	7249.23
705.14	7198.61
705.485	7258.95
705.83	7203.81
706.175	7185.05
706.52	7213.07
706.865	7155.9
707.209	7132.62
707.554	7109.12
707.899	7101.44
708.243	7050.14
708.588	7101.66
708.932	6985.28
709.277	6987.32
709.621	7031.16
709.966	6984.83
710.31	6959.52
710.654	6887.43
710.998	6894.44
711.342	6931.27
711.687	6883.36
712.031	6904.15
712.375	6874.55
712.719	6895.79
713.063	6822.8
713.407	6822.57
713.75	6775.34
714.094	6768.79
714.438	6735.57
714.782	6823.7
715.125	6730.15
715.469	6785.06
715.812	6711.84
716.156	6698.74
716.499	6664.61
716.843	6662.81
717.186	6667.32
717.53	6695.8
717.873	6674.33
718.216	6644.73
718.559	6636.59
718.902	6582.13
719.246	6555.69
719.589	6531.96
719.932	6535.58
720.275	6606.54
720.617	6630.26
720.96	6540.77
721.303	6551.4
721.646	6536.48
721.989	6499.87
722.331	6553.43
722.674	6526.54
723.016	6495.8
723.359	6489.48
723.701	6543.26
724.044	6477.73
724.386	6439.76
724.729	6424.85
725.071	6455.8
725.413	6446.09
725.755	6444.05
726.097	6465.75
726.439	6410.61
726.782	6390.27
727.124	6416.71
727.465	6428.69
727.807	6418.97
728.149	6388.69
728.491	6406.77
728.833	6345.07
729.175	6385.07
729.516	6409.93
729.858	6362.93
730.199	6402.02
730.541	6336.49
730.882	6350.27
731.224	6390.27
731.565	6374.9
731.906	6397.5
732.248	6391.63
732.589	6370.61
732.93	6398.41
733.271	6415.35
733.612	6336.94
733.953	6428.01
734.294	6377.61
734.635	6386.43
734.976	6357.73
735.317	6376.48
735.658	6378.97
735.999	6407.67
736.339	6385.52
736.68	6434.56
737.021	6363.15
737.361	6363.38
737.702	6433.88
738.042	6405.86
738.383	6435.01
738.723	6451.74
739.063	6376.71
739.404	6432.08
739.744	6449.03
740.084	6471.85
740.424	6425.52
740.764	6535.58
741.104	6481.79
741.444	6499.87
741.784	6489.02
742.124	6526.99
742.464	6553.2
742.804	6517.95
743.143	6533.32
743.483	6605.18
743.823	6533.09
744.162	6576.03
744.502	6629.13
744.841	6635.69
745.181	6714.1
745.52	6670.26
745.86	6750.71
746.199	6780.54
746.538	6771.95
746.877	6854.66
747.216	6888.79
747.556	6977.6
747.895	6976.24
748.234	7037.71
748.573	7041.55
748.911	7118.16
749.25	7128.33
749.589	7153.19
749.928	7223.24
750.267	7282.45
750.605	7335.33
750.944	7409.9
751.283	7487.42
751.621	7505.04
751.96	7621.42
752.298	7762.44
752.636	7856.67
752.975	7906.61
753.313	7933.51
753.651	8093.28
753.989	8163.33
754.327	8287.17
754.666	8361.07
755.004	8464.34
755.342	8629.76
755.679	8674.73
756.017	8747.95
756.355	8970.99
756.693	8989.75
757.031	9151.78
757.368	9294.37
757.706	9444.65
758.044	9547.7
758.381	9765.1
758.719	9851.2
759.056	10065.43
759.394	10189.04
759.731	10290.96
760.068	10396.49
760.405	10579.09
760.743	10788.57
761.08	10971.62
761.417	11078.51
761.754	11242.35
762.091	11382.45
762.428	11562.11
762.765	11603.24
763.102	11821.09
763.438	12047.75
763.775	12210.23
764.112	12377.91
764.449	12578.36
764.785	12731.12
765.122	12760.5
765.458	12998.01
765.795	13126.59
766.131	13363.87
766.467	13448.84
766.804	13550.76
767.14	13726.57
767.476	13898.1
767.812	13982.39
768.148	14136.51
768.485	14309.38
768.821	14402.26
