Data from hue_22_FLMS001491_00072.txt Node
Date: Tue Feb 07 17:10:37 GMT 2017
User: dcchb
Spectrometer: FLMS00149
Trigger mode: 0
Integration Time (sec): 2.000000E-2
Scans to average: 10
Electric dark correction enabled: true
Nonlinearity correction enabled: false
Boxcar width: 0
XAxis mode: Wavelengths
Number of Pixels in Spectrum: 2048
>>>>>Begin Spectral Data<<<<<
341.393	-14.28
341.776	-14.28
342.16	-14.28
342.543	-56.54
342.927	-46.82
343.31	-63.54
343.693	-66.03
344.077	-64.22
344.46	-72.81
344.843	-52.7
345.226	-58.12
345.61	-29.19
345.993	-20.61
346.376	8.32
346.759	3.35
347.142	37.7
347.525	49.45
347.908	65.27
348.291	70.46
348.674	89.22
349.057	103.46
349.44	133.06
349.823	118.37
350.206	169.67
350.588	200.18
350.971	202.89
351.354	224.36
351.737	233.62
352.119	253.28
352.502	262.55
352.884	267.07
353.267	282.89
353.65	270.68
354.032	293.28
354.414	299.84
354.797	308.88
355.179	324.24
355.562	312.04
355.944	318.82
356.326	314.3
356.709	348.42
357.091	359.04
357.473	350.68
357.855	330.34
358.238	329.44
358.62	358.37
359.002	344.81
359.384	325.6
359.766	347.75
360.148	338.71
360.53	340.29
360.912	327.18
361.294	329.67
361.676	324.02
362.057	343.68
362.439	314.3
362.821	307.29
363.203	314.98
363.584	335.77
363.966	317.46
364.348	340.51
364.729	338.25
365.111	317.24
365.493	321.53
365.874	316.79
366.256	307.07
366.637	311.36
367.019	327.41
367.4	333.73
367.781	319.5
368.163	315.88
368.544	299.61
368.925	303.68
369.306	311.36
369.688	317.92
370.069	300.74
370.45	301.42
370.831	298.03
371.212	299.84
371.593	310.46
371.974	326.28
372.355	297.8
372.736	309.55
373.117	305.03
373.498	316.33
373.879	325.15
374.26	325.82
374.641	304.58
375.021	307.75
375.402	306.39
375.783	312.94
376.163	299.38
376.544	321.31
376.925	322.66
377.305	314.75
377.686	327.86
378.066	305.49
378.447	338.03
378.827	331.93
379.208	335.09
379.588	336.9
379.968	324.69
380.349	330.34
380.729	323.56
381.109	319.27
381.489	364.47
381.87	331.93
382.25	324.02
382.63	342.32
383.01	314.75
383.39	334.86
383.77	326.95
384.15	312.72
384.53	339.84
384.91	321.98
385.29	345.26
385.67	336.9
386.049	348.88
386.429	333.28
386.809	347.07
387.189	344.13
387.568	352.94
387.948	354.75
388.328	347.29
388.707	363.79
389.087	368.76
389.466	355.43
389.846	354.3
390.225	332.15
390.605	356.11
390.984	369.89
391.363	352.72
391.743	373.06
392.122	374.41
392.501	368.31
392.881	369.89
393.26	349.1
393.639	367.18
394.018	365.15
394.397	380.51
394.776	369.67
395.155	374.19
395.534	373.73
395.913	379.61
396.292	380.29
396.671	370.8
397.05	387.07
397.429	392.49
397.808	389.78
398.186	398.37
398.565	386.61
398.944	379.16
399.323	395.88
399.701	392.72
400.08	367.41
400.458	394.75
400.837	387.74
401.215	416.44
401.594	418.7
401.972	380.06
402.351	395.43
402.729	401.3
403.107	418.48
403.486	401.53
403.864	401.53
404.242	383.45
404.62	419.38
404.999	404.01
405.377	403.56
405.755	406.5
406.133	407.4
406.511	420.06
406.889	416.9
407.267	434.3
407.645	433.84
408.023	428.42
408.401	426.84
408.779	442.88
409.156	434.97
409.534	418.93
409.912	450.34
410.29	439.04
410.667	437.01
411.045	437.46
411.422	456.22
411.8	466.84
412.178	441.08
412.555	451.02
412.933	461.41
413.31	455.09
413.687	462.32
414.065	448.31
414.442	475.43
414.819	501.64
415.197	489.66
415.574	469.55
415.951	489.44
416.328	479.04
416.705	472.71
417.082	488.76
417.46	488.98
417.837	488.53
418.214	515.2
418.591	495.99
418.967	504.13
419.344	505.71
419.721	477.91
420.098	500.96
420.475	509.55
420.852	501.64
421.228	524.01
421.605	512.26
421.982	526.72
422.358	514.97
422.735	533.05
423.111	549.77
423.488	549.1
423.864	513.16
424.241	552.94
424.617	559.49
424.994	524.92
425.37	548.19
425.746	524.92
426.123	544.35
426.499	563.56
426.875	568.08
427.251	571.24
427.627	597.68
428.003	573.73
428.379	582.77
428.756	570.34
429.132	577.57
429.507	586.83
429.883	593.16
430.259	611.92
430.635	594.52
431.011	599.04
431.387	613.95
431.763	602.88
432.138	614.4
432.514	632.03
432.89	657.34
433.265	633.39
433.641	656.21
434.016	668.87
434.392	648.75
434.767	657.34
435.143	647.62
435.518	687.85
435.894	661.64
436.269	670.22
436.644	685.14
437.02	679.71
437.395	683.78
437.77	691.69
438.145	711.8
438.52	698.92
438.895	697.11
439.271	708.87
439.646	705.48
440.021	724.91
440.395	731.92
440.77	719.26
441.145	727.62
441.52	734.63
441.895	725.81
442.27	752.93
442.645	734.18
443.019	754.29
443.394	750.45
443.769	784.57
444.143	780.95
444.518	771.69
444.892	776.21
445.267	765.36
445.641	777.56
446.016	789.99
446.39	784.8
446.764	817.56
447.139	798.35
447.513	805.81
447.887	786.83
448.262	808.98
448.636	792.93
449.01	819.37
449.384	826.38
449.758	803.78
450.132	835.19
450.506	851.23
450.88	847.62
451.254	857.11
451.628	863.66
452.002	864.12
452.376	846.72
452.75	888.3
453.123	856.43
453.497	897.11
453.871	881.06
454.244	905.24
454.618	894.62
454.992	935.98
455.365	937.79
455.739	921.97
456.112	962.42
456.486	966.26
456.859	988.41
457.232	968.29
457.606	973.49
457.979	1001.74
458.352	1008.52
458.725	1018.01
459.099	1019.82
459.472	1036.77
459.845	1045.35
460.218	1043.55
460.591	1060.49
460.964	1054.85
461.337	1097.56
461.71	1127.16
462.083	1089.87
462.456	1112.92
462.829	1122.19
463.201	1134.39
463.574	1127.39
463.947	1150.66
464.32	1171
464.692	1166.25
465.065	1174.84
465.438	1208.29
465.81	1231.79
466.183	1264.11
466.555	1256.2
466.928	1279.92
467.3	1260.72
467.672	1301.62
468.045	1326.48
468.417	1334.61
468.789	1340.94
469.161	1342.97
469.534	1382.52
469.906	1415.97
470.278	1401.05
470.65	1426.13
471.022	1456.42
471.394	1467.94
471.766	1486.25
472.138	1490.77
472.51	1530.54
472.882	1546.36
473.253	1587.71
473.625	1564.66
473.997	1634.49
474.369	1624.32
474.74	1650.76
475.112	1727.82
475.484	1720.59
475.855	1759.01
476.227	1765.56
476.598	1843.98
476.97	1806.69
477.341	1854.37
477.713	1874.03
478.084	1943.64
478.455	1983.18
478.827	1985.89
479.198	2060.02
479.569	2034.93
479.94	2106.79
480.311	2149.28
480.682	2180.24
481.053	2237.41
481.424	2267.92
481.795	2303.17
482.166	2338.65
482.537	2378.88
482.908	2378.2
483.279	2428.82
483.65	2533.45
484.021	2569.83
484.391	2620
484.762	2601.25
485.133	2632.66
485.503	2706.78
485.874	2758.3
486.244	2823.16
486.615	2860.67
486.985	2902.03
487.356	2980.67
487.726	2956.26
488.097	3036.71
488.467	3059.31
488.837	3138.86
489.207	3165.3
489.578	3223.83
489.948	3282.36
490.318	3339.76
490.688	3316.48
491.058	3351.06
491.428	3414.11
491.798	3448.68
492.168	3528.23
492.538	3553.99
492.908	3560.32
493.278	3630.82
493.648	3676.02
494.017	3759.41
494.387	3773.42
494.757	3790.59
495.126	3847.31
495.496	3881.44
495.866	3872.4
496.235	3908.33
496.605	3968.44
496.974	3975.22
497.344	4068.55
497.713	4068.33
498.082	4122.79
498.452	4129.34
498.821	4130.7
499.19	4192.62
499.559	4205.95
499.928	4242.11
500.298	4285.72
500.667	4321.65
501.036	4325.95
501.405	4373.85
501.774	4371.59
502.143	4432.84
502.512	4432.84
502.88	4477.58
503.249	4499.27
503.618	4554.19
503.987	4549.22
504.356	4547.41
504.724	4587.41
505.093	4642.55
505.462	4605.03
505.83	4672.6
506.199	4661.98
506.567	4746.95
506.936	4720.06
507.304	4747.86
507.672	4786.27
508.041	4800.28
508.409	4810.45
508.777	4860.62
509.145	4878.93
509.514	4917.57
509.882	4954.4
510.25	4950.79
510.618	4969.77
510.986	5019.03
511.354	5014.74
511.722	5068.75
512.09	5092.71
512.458	5140.16
512.826	5168.64
513.193	5180.84
513.561	5149.65
513.929	5185.36
514.297	5235.75
514.664	5260.61
515.032	5279.14
515.4	5310.33
515.767	5339.7
516.135	5373.83
516.502	5346.71
516.869	5392.36
517.237	5445.01
517.604	5398.46
517.972	5435.29
518.339	5453.6
518.706	5499.93
519.073	5485.24
519.44	5551.45
519.808	5501.06
520.175	5561.17
520.542	5654.5
520.909	5663.31
521.276	5654.72
521.643	5680.03
522.009	5693.59
522.376	5733.59
522.743	5771.11
523.11	5842.52
523.477	5865.79
523.843	5837.77
524.21	5895.85
524.577	5991.21
524.943	6044.54
525.31	6004.77
525.676	6073.92
526.043	6077.76
526.409	6118.89
526.776	6186.46
527.142	6168.38
527.508	6197.76
527.874	6237.53
528.241	6346.68
528.607	6330.41
528.973	6334.93
529.339	6357.08
529.705	6384.42
530.071	6440.69
530.437	6502.84
530.803	6472.56
531.169	6535.38
531.535	6544.87
531.901	6558.43
532.267	6637.75
532.632	6613.12
532.998	6648.82
533.364	6697.41
533.73	6685.66
534.095	6716.17
534.461	6821.47
534.826	6843.39
535.192	6852.66
535.557	6897.86
535.923	6902.6
536.288	6895.6
536.653	6988.25
537.019	6938.08
537.384	6976.72
537.749	7058.3
538.114	7026.44
538.479	7058.3
538.845	7105.08
539.21	7084.97
539.575	7120.9
539.94	7141.24
540.305	7188.02
540.67	7172.42
541.034	7259.2
541.399	7317.51
541.764	7325.87
542.129	7324.74
542.494	7314.57
542.858	7395.24
543.223	7383.94
543.587	7512.75
543.952	7450.84
544.316	7544.39
544.681	7491.96
545.045	7537.84
545.41	7631.4
545.774	7631.62
546.138	7622.81
546.503	7616.03
546.867	7682.47
547.231	7748
547.595	7802.24
547.959	7780.77
548.324	7762.24
548.688	7789.81
549.052	7865.29
549.416	7816.25
549.779	7904.38
550.143	7905.06
550.507	7977.6
550.871	7995.23
551.235	8035.23
551.599	8016.92
551.962	8057.82
552.326	8109.8
552.689	8106.19
553.053	8072.06
553.417	8099.18
553.78	8250.81
554.143	8226.86
554.507	8251.27
554.87	8295.33
555.234	8376.01
555.597	8338.5
555.96	8379.4
556.323	8378.95
556.686	8322
557.05	8374.65
557.413	8464.82
557.776	8513.18
558.139	8545.5
558.502	8527.42
558.865	8564.48
559.228	8598.83
559.59	8664.81
559.953	8700.29
560.316	8750.24
560.679	8748.65
561.041	8763.12
561.404	8847.63
561.767	8879.05
562.129	8848.99
562.492	8874.3
562.854	8848.54
563.217	8901.19
563.579	8893.96
563.941	8984.35
564.304	9026.16
564.666	9053.73
565.028	9114.75
565.39	9137.12
565.753	9136.21
566.115	9187.74
566.477	9277.91
566.839	9221.41
567.201	9294.85
567.563	9359.49
567.925	9394.96
568.287	9364.91
568.648	9427.96
569.01	9419.14
569.372	9506.15
569.734	9517.45
570.095	9599.03
570.457	9665.47
570.819	9704.11
571.18	9682.41
571.542	9696.43
571.903	9801.73
572.265	9817.1
572.626	9896.65
572.987	9933.71
573.349	9996.98
573.71	9958.11
574.071	9944.1
574.432	10114.49
574.794	10192.23
575.155	10243.53
575.516	10227.94
575.877	10380.48
576.238	10311.32
576.599	10401.94
576.96	10559.23
577.32	10583.63
577.681	10673.35
578.042	10720.35
578.403	10882.38
578.763	10899.33
579.124	10991.76
579.485	11098.87
579.845	11192.66
580.206	11296.61
580.566	11367.12
580.927	11517.62
581.287	11587.22
581.648	11669.48
582.008	11961.45
582.368	11995.35
582.728	12102.46
583.089	12225.17
583.449	12473.53
583.809	12563.24
584.169	12747.87
584.529	12917.81
584.889	13145.37
585.249	13261.08
585.609	13417.91
585.969	13672.37
586.329	13774.28
586.688	14019.7
587.048	14227.38
587.408	14485.68
587.768	14624.43
588.127	14858.32
588.487	15117.3
588.846	15425.31
589.206	15576.27
589.565	15853.78
589.925	16141.23
590.284	16334.67
590.643	16605.85
591.003	16896.69
591.362	17297.36
591.721	17464.81
592.08	17686.72
592.44	18026.83
592.799	18334.62
593.158	18641.28
593.517	18807.15
593.876	19239
594.235	19462.95
594.593	19822.71
594.952	20098.64
595.311	20395.58
595.67	20672.63
596.029	21087.54
596.387	21332.73
596.746	21789.44
597.104	21930.68
597.463	22326.6
597.822	22692.47
598.18	22985.34
598.538	23286.8
598.897	23613.8
599.255	23679.11
599.613	24391.63
599.972	24611.51
600.33	24871.85
600.688	25088.11
601.046	25479.29
601.404	25879.96
601.762	26117.91
602.12	26608.3
602.478	26738.92
602.836	27091
603.194	27223.65
603.552	27678.78
603.91	27801.94
604.268	28269.95
604.625	28405.31
604.983	28809.6
605.341	28900.21
605.698	29459.75
606.056	29626.75
606.413	29903.8
606.771	30153.74
607.128	30504.24
607.485	30655.87
607.843	30896.77
608.2	31278.01
608.557	31490.43
608.914	31709.63
609.272	32052.9
609.629	32283.4
609.986	32670.96
610.343	32792.32
610.7	33171.29
611.057	33450.38
611.414	33493.77
611.771	33734.89
612.127	34015.11
612.484	34207.42
612.841	34586.17
613.198	34598.82
613.554	34881.07
613.911	35215.98
614.267	35445.81
614.624	35500.95
614.98	35708.85
615.337	35924.21
615.693	36128.05
616.05	36294.37
616.406	36524.65
616.762	36707.69
617.118	36813
617.475	36923.28
617.831	37306.32
618.187	37448.69
618.543	37556.03
618.899	37899.07
619.255	37871.28
619.611	38029.47
619.967	38315.33
620.323	38430.36
620.678	38465.39
621.034	38500.19
621.39	38664.7
621.746	38692.73
622.101	39268.3
622.457	38985.15
622.812	39299.26
623.168	39397.79
623.523	39483.21
623.879	39682.98
624.234	39534.74
624.589	39823.54
624.945	39941.51
625.3	39924.56
625.655	39981.28
626.01	39993.48
626.365	40125.23
626.72	40133.59
627.075	40231.89
627.43	40217.66
627.785	40466.92
628.14	40446.13
628.495	40557.54
628.85	40579.91
629.205	40628.49
629.559	40801.37
629.914	40703.52
630.269	40754.82
630.623	40753.91
630.978	40748.26
631.332	40891.76
631.687	40959.11
632.041	40863.74
632.396	41019.67
632.75	40993
633.104	40990.07
633.459	40960.46
633.813	41083.4
634.167	40924.76
634.521	41116.39
634.875	41172.66
635.229	41237.74
635.583	41008.6
635.937	41105.54
636.291	41129.95
636.645	41135.37
636.999	41039.78
637.352	41203.39
637.706	40906.9
638.06	41209.27
638.413	41125.43
638.767	41012.89
639.121	41173.34
639.474	40980.8
639.828	41094.47
640.181	40932.44
640.534	41154.36
640.888	41034.36
641.241	40926.57
641.594	41112.77
641.947	41155.94
642.301	41023.29
642.654	41064.19
643.007	41048.37
643.36	40964.76
643.713	40995.04
644.066	41148.25
644.419	40963.85
644.771	40715.72
645.124	40383.08
645.477	40357.77
645.83	40001.84
646.182	39947.38
646.535	39892.69
646.888	40051.79
647.24	39722.08
647.593	39947.83
647.945	39866.25
648.298	39723.88
648.65	39694.96
649.002	39645.24
649.355	39790.32
649.707	39772.25
650.059	39986.93
650.411	40402.96
650.763	40404.54
651.115	40738.32
651.467	40731.77
651.819	40645.89
652.171	40644.09
652.523	40496.29
652.875	40574.03
653.227	40412.68
653.578	40694.03
653.93	40635.95
654.282	40481.83
654.633	40356.86
654.985	40366.81
655.337	40559.57
655.688	40532.23
656.039	40628.72
656.391	40237.54
656.742	40421.27
657.094	40468.27
657.445	40529.74
657.796	40344.89
658.147	40359.57
658.498	40390.53
658.849	40562.05
659.2	40443.19
659.551	40309.63
659.902	40518.21
660.253	40335.85
660.604	40472.79
660.955	40255.85
661.306	40456.3
661.656	40268.05
662.007	40454.71
662.358	40330.42
662.708	40322.97
663.059	40270.76
663.409	40043.42
663.76	40262.85
664.11	40356.41
664.461	40358.67
664.811	40375.62
665.161	40169.75
665.511	40133.82
665.862	40139.02
666.212	40346.24
666.562	40437.76
666.912	40116.19
667.262	40183.08
667.612	40145.12
667.962	40224.44
668.312	40230.09
668.662	40357.31
669.011	40167.94
669.361	40182.63
669.711	40045.23
670.06	40158.9
670.41	40029.19
670.76	40011.79
671.109	40181.27
671.459	40100.82
671.808	40008.4
672.157	40020.6
672.507	39864.22
672.856	39877.55
673.205	40140.37
673.554	40167.49
673.904	39828.06
674.253	40106.47
674.602	39995.74
674.951	39448.64
675.3	39246.38
675.649	39912.58
675.998	39919.13
676.346	39814.05
676.695	39901.06
677.044	39741.06
677.393	39759.82
677.741	39923.65
678.09	39640.95
678.438	39502.87
678.787	39709.65
679.135	39597.11
679.484	39430.79
679.832	39678.01
680.181	39258.13
680.529	39452.93
680.877	39399.83
681.225	39376.78
681.573	39503.1
681.922	39177.46
682.27	39203.22
682.618	39192.15
682.966	38994.86
683.314	39124.13
683.661	38880.07
684.009	38956.45
684.357	38837.81
684.705	38773.85
685.053	38740.41
685.4	38738.15
685.748	38625.38
686.095	38555.33
686.443	38445.95
686.79	38316.46
687.138	38346.07
687.485	38503.13
687.832	38305.17
688.18	38472.84
688.527	38149.01
688.874	38056.36
689.221	37984.27
689.568	37865.85
689.915	37841.9
690.262	37888
690.609	37761.9
690.956	37513.77
691.303	37497.28
691.65	37469.93
691.997	37522.59
692.344	37211.41
692.69	37150.39
693.037	37071.53
693.383	36936.84
693.73	37067.91
694.077	36840.12
694.423	36857.75
694.769	36726
695.116	36637.64
695.462	36585.44
695.808	36611.42
696.155	36543.18
696.501	36266.57
696.847	36226.58
697.193	36006.69
697.539	36267.93
697.885	35885.34
698.231	35819.35
698.577	35875.85
698.923	35703.43
699.269	35474.96
699.614	35373.94
699.96	35320.61
700.306	35380.04
700.651	35296.43
700.997	34956.78
701.342	35073.84
701.688	35038.81
702.033	35032.48
702.379	34899.38
702.724	34735.54
703.069	34836.56
703.415	34329
703.76	34598.14
704.105	34620.06
704.45	34453.29
704.795	34244.25
705.14	34188.66
705.485	34204.03
705.83	33948.44
706.175	33983.7
706.52	33831.38
706.865	33833.42
707.209	33896.47
707.554	33674.78
707.899	33673.42
708.243	33432.75
708.588	33423.03
708.932	33284.96
709.277	33174
709.621	33259.2
709.966	33049.71
710.31	33051.97
710.654	32819.89
710.998	32924.97
711.342	32867.12
711.687	32760
712.031	32603.62
712.375	32474.36
712.719	32529.72
713.063	32539.22
713.407	32593.9
713.75	32255.38
714.094	32380.58
714.438	32259
714.782	32431.87
715.125	32231.88
715.469	32279.56
715.812	32045.89
716.156	31842.06
716.499	31885.22
716.843	31880.7
717.186	31741.5
717.53	31896.52
717.873	31936.97
718.216	31819.46
718.559	31614.27
718.902	31419.02
719.246	31575.17
719.589	31433.93
719.932	31391
720.275	31350.55
720.617	31253.37
720.96	31261.51
721.303	31074.62
721.646	31170.89
721.989	30923.21
722.331	31060.38
722.674	30977.45
723.016	30911.24
723.359	30903.78
723.701	30850.22
724.044	30633.73
724.386	30589.89
724.729	30626.95
725.071	30647.97
725.413	30499.49
725.755	30485.48
726.097	30369.33
726.439	30139.05
726.782	30239.61
727.124	30475.77
727.465	30113.29
727.807	30327.07
728.149	30128.43
728.491	30057.02
728.833	30165.04
729.175	30132.5
729.516	29985.61
729.858	29961.66
730.199	29974.08
730.541	29912.84
730.882	29898.83
731.224	29965.27
731.565	29658.61
731.906	29776.8
732.248	29688.89
732.589	29648.9
732.93	29604.38
733.271	29529.35
733.612	29563.02
733.953	29530.48
734.294	29348.56
734.635	29356.47
734.976	29422.23
735.317	29168.91
735.658	29281.45
735.999	29221.79
736.339	29184.73
736.68	29320.09
737.021	29151.51
737.361	29099.98
737.702	29213.65
738.042	28966.2
738.383	29062.47
738.723	28929.82
739.063	28861.57
739.404	29019.53
739.744	28911.29
740.084	28811.4
740.424	28705.19
740.764	28679.66
741.104	28807.11
741.444	28446.67
741.784	28459.1
742.124	28639.88
742.464	28467.91
742.804	28506.78
743.143	28357.4
743.483	28444.41
743.823	28195.15
744.162	28214.36
744.502	28287.12
744.841	28297.52
745.181	28329.61
745.52	28122.83
745.86	28189.27
746.199	28195.6
746.538	28161.93
746.877	28153.57
747.216	28016.62
747.556	28031.99
747.895	28101.37
748.234	27926.45
748.573	27874.93
748.911	27796.97
749.25	27789.28
749.589	27763.07
749.928	27765.33
750.267	27807.14
750.605	27696.18
750.944	27620.7
751.283	27552.23
751.621	27528.73
751.96	27330.09
752.298	27482.17
752.636	27296.19
752.975	27362.85
753.313	27142.75
753.651	27397.2
753.989	27239.02
754.327	27054.84
754.666	26947.27
755.004	27019.81
755.342	27033.37
755.679	26968.74
756.017	26922.64
756.355	26888.74
756.693	26731.01
757.031	26889.65
757.368	26672.48
757.706	26579.6
758.044	26492.14
758.381	26623.66
758.719	26414.4
759.056	26397.46
759.394	26310.45
759.731	26298.7
760.068	26269.55
760.405	26150.68
