Data from hue_310_FLMS001491_46.txt Node
Date: Mon Feb 06 15:49:45 GMT 2017
User: dcchb
Spectrometer: FLMS00149
Trigger mode: 0
Integration Time (sec): 2.000000E-2
Scans to average: 10
Electric dark correction enabled: true
Nonlinearity correction enabled: false
Boxcar width: 0
XAxis mode: Wavelengths
Number of Pixels in Spectrum: 2048
>>>>>Begin Spectral Data<<<<<
341.393	-20.18
341.776	-20.18
342.16	-20.18
342.543	-55.89
342.927	-54.76
343.31	-69.9
343.693	-56.11
344.077	-65.38
344.46	-65.38
344.843	-54.31
345.226	-33.97
345.61	-36.23
345.993	-36.68
346.376	-11.82
346.759	2.87
347.142	31.34
347.525	38.8
347.908	65.69
348.291	74.28
348.674	103.66
349.057	113.15
349.44	126.71
349.823	129.87
350.206	156.99
350.588	196.76
350.971	221.62
351.354	227.04
351.737	219.58
352.119	242.63
352.502	250.32
352.884	279.02
353.267	269.07
353.65	268.85
354.032	304.55
354.414	291.22
354.797	316.53
355.179	320.82
355.562	313.59
355.944	324.21
356.326	335.51
356.709	339.58
357.091	357.43
357.473	350.88
357.855	352.69
358.238	331.45
358.62	351.33
359.002	315.63
359.384	356.3
359.766	335.97
360.148	361.05
360.53	332.12
360.912	319.02
361.294	330.32
361.676	342.07
362.057	337.77
362.439	319.02
362.821	343.2
363.203	318.11
363.584	334.16
363.966	323.99
364.348	323.76
364.729	320.82
365.111	319.47
365.493	319.02
365.874	319.69
366.256	323.31
366.637	335.29
367.019	305.68
367.4	312.92
367.781	301.62
368.163	326.47
368.544	318.57
368.925	317.66
369.306	321.73
369.688	321.05
370.069	313.82
370.45	320.37
370.831	308.4
371.212	308.62
371.593	307.27
371.974	306.36
372.355	332.12
372.736	309.53
373.117	306.81
373.498	299.81
373.879	323.08
374.26	318.11
374.641	327.15
375.021	302.52
375.402	316.08
375.783	322.41
376.163	332.12
376.544	331.9
376.925	356.53
377.305	328.06
377.686	342.97
378.066	326.7
378.447	340.71
378.827	349.98
379.208	330.99
379.588	330.32
379.968	312.92
380.349	328.06
380.729	330.54
381.109	332.8
381.489	345.91
381.87	341.62
382.25	318.34
382.63	357.66
383.01	341.62
383.39	334.84
383.77	362.86
384.15	337.1
384.53	354.27
384.91	353.14
385.29	331.67
385.67	330.09
386.049	345.23
386.429	351.78
386.809	347.72
387.189	362.86
387.568	343.42
387.948	333.25
388.328	357.66
388.707	357.89
389.087	358.34
389.466	365.34
389.846	370.09
390.225	370.54
390.605	352.69
390.984	367.6
391.363	383.42
391.743	354.72
392.122	377.77
392.501	384.33
392.881	377.09
393.26	375.06
393.639	371.67
394.018	358.34
394.397	373.25
394.776	381.39
395.155	395.63
395.534	380.26
395.913	397.21
396.292	392.91
396.671	382.29
397.05	368.51
397.429	398.11
397.808	409.18
398.186	391.11
398.565	378
398.944	401.05
399.323	373.7
399.701	399.92
400.08	403.99
400.458	408.96
400.837	392.46
401.215	403.53
401.594	380.26
401.972	403.31
402.351	438.79
402.729	425.91
403.107	409.41
403.486	424.33
403.864	432.91
404.242	402.86
404.62	428.17
404.999	417.55
405.377	424.78
405.755	428.39
406.133	439.24
406.511	472.01
406.889	461.39
407.267	463.42
407.645	460.48
408.023	450.54
408.401	478.11
408.779	466.13
409.156	490.76
409.534	496.87
409.912	465
410.29	493.25
410.667	493.25
411.045	481.95
411.422	526.47
411.8	511.78
412.178	525.57
412.555	512.91
412.933	537.77
413.31	543.87
413.687	556.75
414.065	545.45
414.442	570.08
414.819	559.46
415.197	561.95
415.574	570.31
415.951	578.9
416.328	593.59
416.705	608.73
417.082	616.86
417.46	617.54
417.837	605.11
418.214	612.79
418.591	649.86
418.967	607.15
419.344	643.98
419.721	659.35
420.098	662.74
420.475	656.64
420.852	668.61
421.228	690.53
421.605	674.71
421.982	708.39
422.358	712.45
422.735	706.58
423.111	716.97
423.488	726.69
423.864	749.29
424.241	764.43
424.617	751.32
424.994	752.68
425.37	757.65
425.746	754.49
426.123	787.03
426.499	796.52
426.875	807.14
427.251	829.74
427.627	808.72
428.003	826.35
428.379	825.44
428.756	853.01
429.132	868.16
429.507	848.72
429.883	857.99
430.259	909.96
430.635	899.34
431.011	902.05
431.387	925.33
431.763	923.29
432.138	944.99
432.514	935.72
432.89	931.88
433.265	987.93
433.641	993.12
434.016	963.29
434.392	990.86
434.767	999
435.143	1029.51
435.518	1010.98
435.894	1050.98
436.269	1029.51
436.644	1069.73
437.02	1069.51
437.395	1039
437.77	1081.48
438.145	1093.46
438.52	1112.22
438.895	1133.23
439.271	1102.27
439.646	1154.93
440.021	1140.92
440.395	1146.34
440.77	1137.3
441.145	1140.46
441.52	1183.85
441.895	1187.92
442.27	1164.64
442.645	1185.89
443.019	1197.41
443.394	1198.09
443.769	1211.2
444.143	1207.36
444.518	1208.71
444.892	1215.49
445.267	1224.53
445.641	1186.11
446.016	1227.69
446.39	1222.27
446.764	1212.33
447.139	1250.52
447.513	1260.91
447.887	1232.89
448.262	1262.04
448.636	1256.85
449.01	1289.61
449.384	1306.34
449.758	1294.13
450.132	1279.67
450.506	1313.34
450.88	1285.77
451.254	1286.9
451.628	1325.32
452.002	1323.96
452.376	1318.99
452.75	1316.96
453.123	1354.92
453.497	1366
453.871	1335.71
454.244	1375.49
454.618	1358.31
454.992	1403.96
455.365	1363.06
455.739	1439.44
456.112	1404.19
456.486	1430.85
456.859	1431.53
457.232	1461.59
457.606	1420.68
457.979	1463.85
458.352	1474.01
458.725	1494.13
459.099	1506.33
459.472	1509.72
459.845	1527.12
460.218	1519.89
460.591	1548.59
460.964	1542.04
461.337	1564.63
461.71	1574.35
462.083	1601.24
462.456	1625.2
462.829	1602.37
463.201	1604.63
463.574	1592.2
463.947	1624.29
464.32	1627.91
464.692	1682.82
465.065	1665.42
465.438	1688.7
465.81	1713.33
466.183	1713.33
466.555	1750.84
466.928	1764.85
467.3	1703.61
467.672	1768.7
468.045	1817.06
468.417	1802.14
468.789	1811.63
469.161	1817.96
469.534	1825.64
469.906	1879.43
470.278	1874.91
470.65	1853.67
471.022	1910.16
471.394	1961.01
471.766	1949.03
472.138	1978.18
472.51	1974.11
472.882	1996.71
473.253	2003.72
473.625	2042.81
473.997	2074.9
474.369	2049.37
474.74	2097.05
475.112	2096.82
475.484	2139.53
475.855	2168.46
476.227	2196.93
476.598	2208.01
476.97	2205.75
477.341	2248.68
477.713	2300.21
478.084	2310.15
478.455	2339.08
478.827	2351.73
479.198	2374.78
479.569	2352.86
479.94	2448.9
480.311	2467.66
480.682	2449.36
481.053	2490.26
481.424	2524.61
481.795	2602.12
482.166	2599.41
482.537	2576.36
482.908	2643.7
483.279	2662.01
483.65	2699.07
484.021	2756.69
484.391	2786.75
484.762	2770.03
485.133	2773.19
485.503	2849.12
485.874	2813.19
486.244	2894.99
486.615	2932.51
486.985	2934.32
487.356	2941.55
487.726	2989.68
488.097	3033.3
488.467	3047.08
488.837	3079.62
489.207	3096.8
489.578	3139.96
489.948	3167.98
490.318	3152.84
490.688	3174.08
491.058	3229.9
491.428	3238.71
491.798	3286.62
492.168	3310.35
492.538	3332.05
492.908	3336.11
493.278	3384.7
493.648	3407.98
494.017	3424.47
494.387	3438.03
494.757	3486.39
495.126	3459.95
495.496	3487.97
495.866	3509.89
496.235	3538.59
496.605	3548.76
496.974	3566.62
497.344	3588.54
497.713	3665.37
498.082	3598.93
498.452	3640.74
498.821	3675.76
499.19	3662.88
499.559	3698.14
499.928	3692.71
500.298	3740.62
500.667	3745.82
501.036	3736.33
501.405	3733.16
501.774	3782.2
502.143	3802.77
502.512	3790.79
502.88	3821.3
503.249	3829.89
503.618	3852.94
503.987	3850.45
504.356	3865.36
504.724	3909.88
505.093	3906.72
505.462	3946.04
505.83	3962.99
506.199	3955.08
506.567	3983.1
506.936	3985.59
507.304	4017
507.672	4023.55
508.041	4040.95
508.409	4049.31
508.777	4028.3
509.145	4143.55
509.514	4046.38
509.882	4056.32
510.25	4052.48
510.618	4112.82
510.986	4092.03
511.354	4169.99
511.722	4146.26
512.09	4175.19
512.458	4201.85
512.826	4193.94
513.193	4219.48
513.561	4203.21
513.929	4214.51
514.297	4210.67
514.664	4273.94
515.032	4265.35
515.4	4263.09
515.767	4329.76
516.135	4299.93
516.502	4285.01
516.869	4373.6
517.237	4346.26
517.604	4332.47
517.972	4320.04
518.339	4347.39
518.706	4385.12
519.073	4394.16
519.44	4385.12
519.808	4412.24
520.175	4365.24
520.542	4443.2
520.909	4448.17
521.276	4457.44
521.643	4480.04
522.009	4483.43
522.376	4538.12
522.743	4494.73
523.11	4558
523.477	4563.2
523.843	4598.68
524.21	4623.08
524.577	4649.75
524.943	4664.89
525.31	4715.29
525.676	4707.83
526.043	4750.54
526.409	4714.38
526.776	4739.69
527.142	4798.67
527.508	4837.77
527.874	4866.92
528.241	4845.23
528.607	4821.5
528.973	4929.07
529.339	4887.26
529.705	4944.88
530.071	4995.28
530.437	4999.12
530.803	5008.61
531.169	5077.08
531.535	5032.57
531.901	5020.14
532.267	5082.96
532.632	5049.74
532.998	5097.65
533.364	5123.64
533.73	5162.28
534.095	5196.18
534.461	5198.66
534.826	5262.16
535.192	5252.67
535.557	5261.03
535.923	5316.4
536.288	5294.03
536.653	5338.77
537.019	5300.58
537.384	5324.31
537.749	5362.73
538.114	5381.03
538.479	5452.44
538.845	5437.3
539.21	5455.38
539.575	5487.47
539.94	5525.66
540.305	5519.11
540.67	5509.62
541.034	5583.96
541.399	5548.48
541.764	5601.82
542.129	5641.59
542.494	5647.01
542.858	5666.45
543.223	5714.81
543.587	5772.21
543.952	5729.27
544.316	5734.02
544.681	5743.73
545.045	5804.75
545.41	5840.91
545.774	5829.15
546.138	5802.49
546.503	5867.8
546.867	5887.01
547.231	5933.78
547.595	5961.35
547.959	5998.42
548.324	6025.31
548.688	6033.44
549.052	6074.12
549.416	6042.03
549.779	6081.35
550.143	6079.77
550.507	6130.62
550.871	6174.91
551.235	6160.45
551.599	6230.95
551.962	6260.33
552.326	6219.43
552.689	6216.04
553.053	6207.9
553.417	6220.33
553.78	6328.58
554.143	6338.07
554.507	6356.37
554.87	6337.16
555.234	6361.8
555.597	6342.59
555.96	6410.61
556.323	6428.69
556.686	6442.25
557.05	6453.55
557.413	6465.52
557.776	6448.8
558.139	6509.14
558.502	6498.06
558.865	6546.88
559.228	6618.96
559.59	6616.48
559.953	6608.8
560.316	6660.09
560.679	6671.17
561.041	6725.4
561.404	6714.56
561.767	6727.66
562.129	6706.42
562.492	6752.97
562.854	6756.14
563.217	6752.29
563.579	6810.6
563.941	6861.22
564.304	6883.59
564.666	6901.44
565.028	6912.97
565.39	6882.91
565.753	7005.39
566.115	6989.35
566.477	6955.9
566.839	7041.78
567.201	7105.05
567.563	7088.33
567.925	7072.51
568.287	7102.79
568.648	7080.65
569.01	7131.27
569.372	7218.72
569.734	7211.27
570.095	7279.51
570.457	7287.2
570.819	7341.88
571.18	7397.25
571.542	7379.17
571.903	7431.6
572.265	7475.89
572.626	7488.77
572.987	7542.78
573.349	7583.46
573.71	7651.03
574.071	7657.36
574.432	7677.02
574.794	7775.09
575.155	7760.4
575.516	7905.94
575.877	7933.05
576.238	8006.72
576.599	8063.22
576.96	8098.47
577.32	8161.07
577.681	8304.57
578.042	8392.7
578.403	8397.45
578.763	8478.12
579.124	8639.7
579.485	8732.81
579.845	8854.84
580.206	8976.19
580.566	9046.02
580.927	9086.02
581.287	9339.12
581.648	9405.56
582.008	9552.67
582.368	9647.36
582.728	9782.72
583.089	9884.19
583.449	10114.47
583.809	10299.32
584.169	10445.08
584.529	10568.01
584.889	10855.01
585.249	10967.32
585.609	11136.13
585.969	11422.23
586.329	11633.75
586.688	11813.63
587.048	12036.22
587.408	12176.56
587.768	12581.75
588.127	12704.23
588.487	12987.38
588.846	13244.33
589.206	13372.01
589.565	13637.99
589.925	13976.06
590.284	14141.25
590.643	14492.66
591.003	14806.77
591.362	15091.06
591.721	15304.61
592.08	15609.69
592.44	15954.31
592.799	16195.66
593.158	16483.56
593.517	16681.75
593.876	16961.97
594.235	17281.73
594.593	17542.74
594.952	17931.21
595.311	18106.8
595.67	18440.57
596.029	18788.81
596.387	19097.96
596.746	19471.28
597.104	19646.87
597.463	19846.64
597.822	20278.94
598.18	20453.4
598.538	20753.96
598.897	21160.73
599.255	21211.58
599.613	21849.75
599.972	22031.44
600.33	22269.85
600.688	22490.64
601.046	22860.8
601.404	23187.12
601.762	23499.88
602.12	23733.77
602.478	23927.66
602.836	24380.76
603.194	24521.32
603.552	24748.66
603.91	24866.62
604.268	25243.79
604.625	25459.6
604.983	25702.3
605.341	25949.98
605.698	26187.49
606.056	26536.63
606.413	26753.12
606.771	27037.64
607.128	27213.68
607.485	27288.25
607.843	27558.98
608.2	27999.65
608.557	28267.89
608.914	28324.83
609.272	28722.34
609.629	28864.48
609.986	29238.93
610.343	29179.28
610.7	29626.95
611.057	29688.64
611.414	29875.75
611.771	30105.13
612.127	30337.66
612.484	30488.85
612.841	30817.88
613.198	30818.55
613.554	31016.51
613.911	31250.41
614.267	31370.63
614.624	31531.08
614.98	31766.1
615.337	32078.86
615.693	32043.38
616.05	32178.29
616.406	32408.57
616.762	32393.2
617.118	32576.93
617.475	32770.82
617.831	33000.64
618.187	33166.74
618.543	33394.53
618.899	33550.91
619.255	33643.56
619.611	33708.2
619.967	33860.06
620.323	34098.47
620.678	34114.51
621.034	34131.69
621.39	34215.53
621.746	34430.89
622.101	34836.98
622.457	34599.7
622.812	34849.41
623.168	34905
623.523	34948.61
623.879	35231.32
624.234	34924.21
624.589	35223.18
624.945	35422.5
625.3	35539.33
625.655	35408.49
626.01	35658.88
626.365	35694.13
626.72	35649.16
627.075	35786.79
627.43	35718.54
627.785	35820.23
628.14	36069.94
628.495	35991.98
628.85	35964.86
629.205	36086.89
629.559	36218.41
629.914	36144.52
630.269	36130.28
630.623	36073.33
630.978	36158.98
631.332	36435.36
631.687	36350.84
632.041	36307.22
632.396	36405.75
632.75	36340.89
633.104	36571.85
633.459	36323.72
633.813	36351.74
634.167	36476.71
634.521	36394.45
634.875	36523.94
635.229	36561.91
635.583	36250.73
635.937	36319.43
636.291	36399.65
636.645	36531.62
636.999	36406.66
637.352	36661.34
637.706	36261.57
638.06	36500.89
638.413	36598.06
638.767	36487.78
639.121	36397.39
639.474	36344.06
639.828	36431.74
640.181	36470.38
640.534	36358.52
640.888	36312.65
641.241	36286.88
641.594	36473.32
641.947	36503.38
642.301	36312.19
642.654	36386.54
643.007	36332.99
643.36	36305.19
643.713	36332.08
644.066	36592.64
644.419	36323.49
644.771	35947.68
645.124	35714.47
645.477	35708.37
645.83	35454.82
646.182	35480.35
646.535	35293.46
646.888	35364.65
647.24	35294.59
647.593	35416.63
647.945	35307.93
648.298	35246.23
648.65	35236.52
649.002	35113.81
649.355	35283.3
649.707	35343.41
650.059	35345.67
650.411	35691.42
650.763	35867.23
651.115	36239.43
651.467	36042.37
651.819	36013.45
652.171	35959.21
652.523	35804.64
652.875	35961.24
653.227	35730.74
653.578	36076.72
653.93	36031.75
654.282	35867.23
654.633	35859.78
654.985	35828.82
655.337	35875.6
655.688	35829.04
656.039	35949.04
656.391	35701.14
656.742	35684.41
657.094	35842.38
657.445	35832.21
657.796	35834.69
658.147	35682.83
658.498	35718.09
658.849	35834.02
659.2	35706.56
659.551	35651.42
659.902	35934.58
660.253	35609.16
660.604	35753.57
660.955	35429.51
661.306	35668.37
661.656	35547.24
662.007	35699.56
662.358	35736.16
662.708	35601.48
663.059	35595.83
663.409	35389.06
663.76	35710.85
664.11	35589.73
664.461	35746.11
664.811	35699.1
665.161	35625.43
665.511	35534.81
665.862	35659.33
666.212	35776.16
666.562	35716.96
666.912	35570.07
667.262	35530.75
667.612	35511.76
667.962	35560.12
668.312	35517.87
668.662	35609.39
669.011	35584.76
669.361	35478.77
669.711	35522.61
670.06	35506.11
670.41	35400.35
670.76	35399.22
671.109	35459.11
671.459	35486.68
671.808	35389.28
672.157	35483.52
672.507	35190.19
672.856	35423.86
673.205	35315.16
673.554	35477.19
673.904	35209.4
674.253	35547.7
674.602	35189.06
674.951	34764.89
675.3	34713.82
675.649	35286.46
675.998	35164.2
676.346	35319.9
676.695	35283.97
677.044	35053.02
677.393	35192.45
677.741	35286.01
678.09	35267.25
678.438	35065
678.787	35175.28
679.135	35235.84
679.484	34926.69
679.832	35132.79
680.181	34810.99
680.529	34932.34
680.877	34883.98
681.225	34852.12
681.573	34955.85
681.922	34818.9
682.27	34592.92
682.618	34677.89
682.966	34608.06
683.314	34666.14
683.661	34614.16
684.009	34442.64
684.357	34474.5
684.705	34277.22
685.053	34253.72
685.4	34372.36
685.748	34166.04
686.095	34091.01
686.443	34052.59
686.79	34060.5
687.138	34056.21
687.485	33970.79
687.832	33859.15
688.18	33964.69
688.527	33780.74
688.874	33849.66
689.221	33706.39
689.568	33645.82
689.915	33448.99
690.262	33493.51
690.609	33466.17
690.956	33215.55
691.303	33319.05
691.65	33135.56
691.997	33123.8
692.344	32892.62
692.69	32938.05
693.037	33018.04
693.383	32708
693.73	32830.93
694.077	32594.78
694.423	32746.19
694.769	32685.4
695.116	32426.42
695.462	32523.82
695.808	32318.18
696.155	32476.82
696.501	32228.91
696.847	32211.96
697.193	31905.08
697.539	32038.41
697.885	31806.78
698.231	31643.39
698.577	31750.06
698.923	31779.66
699.269	31547.57
699.614	31494.92
699.96	31260.12
700.306	31332.66
700.651	31280.69
700.997	31093.8
701.342	31126.12
701.688	31018.77
702.033	30925.67
702.379	30792.11
702.724	30902.17
703.069	30929.06
703.415	30539.69
703.76	30551.44
704.105	30476.87
704.45	30410.2
704.795	30198.23
705.14	30274.39
705.485	30154.16
705.83	30168.4
706.175	30179.7
706.52	29997.56
706.865	29902.65
707.209	29884.79
707.554	29672.37
707.899	29742.88
708.243	29683.44
708.588	29615.2
708.932	29434.86
709.277	29390.8
709.621	29422.66
709.966	29136.11
710.31	29263.11
710.654	29120.52
710.998	29153.97
711.342	28998.26
711.687	29119.62
712.031	28980.86
712.375	28849.79
712.719	28925.5
713.063	28820.87
713.407	28817.48
713.75	28762.56
714.094	28635.56
714.438	28534.09
714.782	28641.89
715.125	28489.12
715.469	28524.38
715.812	28372.52
716.156	28323.7
716.499	28248.23
716.843	28292.07
717.186	28178.4
717.53	28288.68
717.873	28198.96
718.216	28141.56
718.559	28005.07
718.902	27785.19
719.246	27924.39
719.589	27872.42
719.932	27739.31
720.275	27715.81
720.617	27697.96
720.96	27691.4
721.303	27604.18
721.646	27717.39
721.989	27516.27
722.331	27546.55
722.674	27467
723.016	27383.16
723.359	27473.78
723.701	27283.51
724.044	27239.21
724.386	27081.93
724.729	27280.57
725.071	27116.96
725.413	27241.02
725.755	27116.96
726.097	26978.66
726.439	26788.83
726.782	26862.95
727.124	26826.79
727.465	26820.47
727.807	26809.17
728.149	26644.88
728.491	26752.9
728.833	26817.98
729.175	26697.76
729.516	26548.38
729.858	26424.09
730.199	26622.28
730.541	26381.61
730.882	26433.81
731.224	26417.54
731.565	26246.02
731.906	26413.02
732.248	26307.49
732.589	26164.21
732.93	26077.66
733.271	26098.45
733.612	26220.03
733.953	26164.67
734.294	26041.05
734.635	25922.64
734.976	26067.72
735.317	25848.52
735.658	25946.37
735.999	25946.82
736.339	25825.69
736.68	25850.78
737.021	25764.22
737.361	25603.78
737.702	25771.68
738.042	25642.42
738.383	25694.62
738.723	25572.82
739.063	25470.22
739.404	25499.15
739.744	25586.15
740.084	25413.72
740.424	25417.79
740.764	25383.22
741.104	25427.51
741.444	25305.03
741.784	25216.22
742.124	25227.51
742.464	25197.01
742.804	25076.11
743.143	24947.52
743.483	25088.99
743.823	25024.36
744.162	25022.55
744.502	24980.74
744.841	24911.14
745.181	24973.96
745.52	24897.81
745.86	24884.47
746.199	24816.68
746.538	24752.95
746.877	24790.24
747.216	24788.88
747.556	24671.6
747.895	24619.17
748.234	24577.59
748.573	24622.56
748.911	24425.95
749.25	24474.31
749.589	24314.32
749.928	24333.98
750.267	24493.52
750.605	24326.97
750.944	24241.78
751.283	24196.36
751.621	24235.9
751.96	24056.25
752.298	24009.24
752.636	24094.21
752.975	23862.35
753.313	23748.68
753.651	23964.27
753.989	23790.94
754.327	23907.1
754.666	23721.34
755.004	23808.34
755.342	23697.39
755.679	23562.25
756.017	23483.15
756.355	23578.07
756.693	23350.73
757.031	23466.21
757.368	23211.97
757.706	23320.45
758.044	23142.6
758.381	23179.21
758.719	23152.77
759.056	23166.78
759.394	23020.79
