Data from hue_32_FLMS001491_00094.txt Node
Date: Tue Feb 07 17:24:16 GMT 2017
User: dcchb
Spectrometer: FLMS00149
Trigger mode: 0
Integration Time (sec): 2.000000E-2
Scans to average: 10
Electric dark correction enabled: true
Nonlinearity correction enabled: false
Boxcar width: 0
XAxis mode: Wavelengths
Number of Pixels in Spectrum: 2048
>>>>>Begin Spectral Data<<<<<
341.393	-26.68
341.776	-26.68
342.16	-26.68
342.543	-66.68
342.927	-58.77
343.31	-68.26
343.693	-98.54
344.077	-76.17
344.46	-57.64
344.843	-40.47
345.226	-49.5
345.61	-38.88
345.993	-0.47
346.376	-19.67
346.759	15.8
347.142	22.13
347.525	33.21
347.908	74.56
348.291	83.15
348.674	98.97
349.057	121.79
349.44	118.63
349.823	144.16
350.206	148.23
350.588	213.31
350.971	214.22
351.354	214.9
351.737	222.58
352.119	268.45
352.502	253.09
352.884	266.19
353.267	278.85
353.65	296.25
354.032	305.51
354.414	308.23
354.797	293.99
355.179	301.22
355.562	316.59
355.944	324.72
356.326	344.61
356.709	359.52
357.091	337.6
357.473	343.03
357.855	336.25
358.238	312.07
358.62	341.22
359.002	344.84
359.384	341.9
359.766	352.97
360.148	343.03
360.53	351.84
360.912	338.06
361.294	353.42
361.676	335.57
362.057	321.79
362.439	342.35
362.821	324.27
363.203	326.53
363.584	325.4
363.966	330.37
364.348	337.83
364.729	315.68
365.111	317.94
365.493	319.98
365.874	324.05
366.256	326.3
366.637	328.11
367.019	304.38
367.4	317.04
367.781	305.29
368.163	319.3
368.544	306.19
368.925	334.67
369.306	327.43
369.688	308
370.069	323.37
370.45	323.82
370.831	318.62
371.212	317.94
371.593	323.59
371.974	317.27
372.355	314.1
372.736	317.94
373.117	323.59
373.498	329.47
373.879	317.27
374.26	321.33
374.641	324.5
375.021	305.74
375.402	309.13
375.783	333.08
376.163	338.51
376.544	322.92
376.925	311.62
377.305	326.08
377.686	329.69
378.066	336.02
378.447	344.61
378.827	345.97
379.208	336.25
379.588	336.02
379.968	336.25
380.349	335.57
380.729	353.87
381.109	333.54
381.489	329.24
381.87	321.11
382.25	352.97
382.63	319.75
383.01	333.76
383.39	346.64
383.77	336.02
384.15	339.19
384.53	326.3
384.91	356.59
385.29	349.81
385.67	339.41
386.049	363.59
386.429	338.28
386.809	372.63
387.189	347.77
387.568	373.31
387.948	368.56
388.328	364.72
388.707	359.3
389.087	369.69
389.466	365.85
389.846	366.76
390.225	370.6
390.605	367.66
390.984	382.12
391.363	369.02
391.743	351.84
392.122	375.8
392.501	374.44
392.881	371.73
393.26	381.44
393.639	373.31
394.018	380.31
394.397	366.98
394.776	382.35
395.155	360.2
395.534	377.15
395.913	397.72
396.292	368.56
396.671	424.38
397.05	402.46
397.429	374.21
397.808	374.67
398.186	388.22
398.565	370.37
398.944	384.38
399.323	402.46
399.701	421.22
400.08	403.37
400.458	401.56
400.837	419.64
401.215	397.04
401.594	409.01
401.972	402.69
402.351	394.33
402.729	407.43
403.107	431.84
403.486	411.73
403.864	403.59
404.242	422.35
404.62	426.19
404.999	438.84
405.377	412.63
405.755	432.52
406.133	416.02
406.511	450.14
406.889	450.14
407.267	442.46
407.645	424.38
408.023	431.16
408.401	458.5
408.779	444.49
409.156	449.69
409.534	437.71
409.912	432.52
410.29	428.9
410.667	471.16
411.045	452.86
411.422	468.22
411.8	446.98
412.178	476.36
412.555	459.86
412.933	471.16
413.31	462.12
413.687	476.81
414.065	479.3
414.442	489.01
414.819	481.56
415.197	497.83
415.574	494.44
415.951	514.55
416.328	500.54
416.705	499.41
417.082	497.6
417.46	504.61
417.837	536.69
418.214	530.14
418.591	537.6
418.967	523.59
419.344	526.75
419.721	542.12
420.098	554.1
420.475	532.63
420.852	536.02
421.228	542.8
421.605	524.27
421.982	552.74
422.358	534.44
422.735	566.3
423.111	550.93
423.488	535.79
423.864	549.8
424.241	564.72
424.617	561.1
424.994	569.69
425.37	567.2
425.746	587.77
426.123	570.37
426.499	562.46
426.875	580.54
427.251	587.77
427.627	587.09
428.003	590.03
428.379	605.17
428.756	605.85
429.132	595.68
429.507	623.47
429.883	614.66
430.259	614.88
430.635	602.91
431.011	623.47
431.387	658.73
431.763	640.2
432.138	650.82
432.514	631.38
432.89	646.97
433.265	657.82
433.641	661.21
434.016	669.12
434.392	691.49
434.767	700.98
435.143	697.59
435.518	697.37
435.894	701.44
436.269	709.35
436.644	697.37
437.02	700.53
437.395	720.42
437.77	715.45
438.145	736.69
438.52	747.08
438.895	738.05
439.271	753.86
439.646	779.85
440.021	770.14
440.395	760.64
440.77	756.12
441.145	753.64
441.52	774.65
441.895	764.94
442.27	777.59
442.645	774.65
443.019	781.21
443.394	794.77
443.769	785.73
444.143	810.59
444.518	800.19
444.892	821.43
445.267	838.61
445.641	821.21
446.016	843.13
446.39	825.5
446.764	839.51
447.139	812.85
447.513	844.48
447.887	834.31
448.262	854.88
448.636	878.38
449.01	860.53
449.384	883.13
449.758	887.42
450.132	891.26
450.506	900.53
450.88	914.99
451.254	883.35
451.628	886.52
452.002	917.93
452.376	931.26
452.75	918.15
453.123	920.41
453.497	927.65
453.871	922.9
454.244	975.55
454.618	980.07
454.992	976.23
455.365	953.86
455.739	994.54
456.112	1032.28
456.486	1001.77
456.859	1013.07
457.232	1063.69
457.606	1052.16
457.979	1057.81
458.352	1051.48
458.725	1060.3
459.099	1092.16
459.472	1108.66
459.845	1110.69
460.218	1123.57
460.591	1149.11
460.964	1119.28
461.337	1167.86
461.71	1169.45
462.083	1177.81
462.456	1199.73
462.829	1164.48
463.201	1217.81
463.574	1208.77
463.947	1247.18
464.32	1251.25
464.692	1246.28
465.065	1287.86
465.438	1304.36
465.81	1321.53
466.183	1344.81
466.555	1320.4
466.928	1368.31
467.3	1348.42
467.672	1390.23
468.045	1427.29
468.417	1443.11
468.789	1446.28
469.161	1487.18
469.534	1459.61
469.906	1535.54
470.278	1536.67
470.65	1533.96
471.022	1561.75
471.394	1598.59
471.766	1644.46
472.138	1626.84
472.51	1675.2
472.882	1695.99
473.253	1746.61
473.625	1747.28
473.997	1824.57
474.369	1828.41
474.74	1822.76
475.112	1879.71
475.484	1909.31
475.855	1972.36
476.227	1967.84
476.598	2076.77
476.97	2066.6
477.341	2119.25
477.713	2152.7
478.084	2196.99
478.455	2256.65
478.827	2300.94
479.198	2363.99
479.569	2414.61
479.94	2480.82
480.311	2475.18
480.682	2562.63
481.053	2632.01
481.424	2682.63
481.795	2740.25
482.166	2776.86
482.537	2863.41
482.908	2885.11
483.279	2977.31
483.65	3065.44
484.021	3126.01
484.391	3190.18
484.762	3233.35
485.133	3302.5
485.503	3334.81
485.874	3475.37
486.244	3500.01
486.615	3595.15
486.985	3690.06
487.356	3772.09
487.726	3814.12
488.097	3969.82
488.467	3967.11
488.837	4102.48
489.207	4188.8
489.578	4231.06
489.948	4259.99
490.318	4365.97
490.688	4457.04
491.058	4525.52
491.428	4639.41
491.798	4707.43
492.168	4805.96
492.538	4877.37
492.908	4959.4
493.278	5043.02
493.648	5088.89
494.017	5186.74
494.387	5282.78
494.757	5355.1
495.126	5383.12
495.496	5494.76
495.866	5530.24
496.235	5615.88
496.605	5704.69
496.974	5725.71
497.344	5837.12
497.713	5897.91
498.082	5926.16
498.452	6078.24
498.821	6151.01
499.19	6131.8
499.559	6231.46
499.928	6265.36
500.298	6391.23
500.667	6383.09
501.036	6438.23
501.405	6588.29
501.774	6574.5
502.143	6657.21
502.512	6713.48
502.88	6720.49
503.249	6777.66
503.618	6856.08
503.987	6892.91
504.356	6983.98
504.724	7024.89
505.093	7071.89
505.462	7125.67
505.83	7201.6
506.199	7230.08
506.567	7337.65
506.936	7350.98
507.304	7459
507.672	7466.68
508.041	7491.99
508.409	7515.49
508.777	7600.69
509.145	7741.25
509.514	7696.28
509.882	7823.96
510.25	7825.32
510.618	7860.34
510.986	7966.1
511.354	8019.21
511.722	8001.58
512.09	8144.4
512.458	8163.39
512.826	8186.89
513.193	8281.58
513.561	8256.49
513.929	8344.85
514.297	8394.57
514.664	8419.43
515.032	8486.09
515.4	8602.7
515.767	8556.6
516.135	8683.37
516.502	8591.62
516.869	8699.87
517.237	8738.74
517.604	8693.77
517.972	8873.65
518.339	8853.31
518.706	8921.11
519.073	8973.31
519.44	8982.12
519.808	9135.11
520.175	9066.87
520.542	9172.4
520.909	9226.18
521.276	9231.38
521.643	9331.94
522.009	9309.57
522.376	9336.46
522.743	9431.6
523.11	9573.52
523.477	9634.53
523.843	9554.99
524.21	9686.51
524.577	9761.54
524.943	9840.41
525.31	9911.59
525.676	10016.67
526.043	9966.73
526.409	10101.87
526.776	10164.46
527.142	10136.67
527.508	10230.45
527.874	10323.78
528.241	10419.82
528.607	10369.66
528.973	10483.33
529.339	10422.08
529.705	10619.59
530.071	10697.11
530.437	10703.43
530.803	10763.09
531.169	10867.72
531.535	10820.49
531.901	10886.25
532.267	10914.73
532.632	10992.47
532.998	10984.1
533.364	11085.12
533.73	11133.7
534.095	11191.56
534.461	11205.34
534.826	11309.74
535.192	11331.89
535.557	11444.66
535.923	11420.25
536.288	11509.29
536.653	11555.16
537.019	11451.21
537.384	11599.45
537.749	11609.85
538.114	11622.51
538.479	11704.99
538.845	11757.87
539.21	11742.95
539.575	11876.51
539.94	11926.45
540.305	11933.91
540.67	11907.47
541.034	11994.25
541.399	12116.96
541.764	12119.89
542.129	12206.9
542.494	12314.01
542.858	12217.52
543.223	12316.95
543.587	12322.83
543.952	12415.93
544.316	12458.87
544.681	12529.83
545.045	12485.53
545.41	12637.39
545.774	12599.65
546.138	12650.27
546.503	12739.99
546.867	12725.98
547.231	12885.52
547.595	12851.63
547.959	12885.3
548.324	12868.8
548.688	12965.97
549.052	13098.17
549.416	13083.26
549.779	13087.33
550.143	13110.15
550.507	13180.43
550.871	13250.03
551.235	13195.57
551.599	13362.35
551.962	13405.96
552.326	13484.6
552.689	13523.02
553.053	13487.31
553.417	13566.86
553.78	13651.6
554.143	13625.39
554.507	13664.49
554.87	13734.31
555.234	13821.09
555.597	13781.09
555.96	13847.31
556.323	13852.05
556.686	13978.6
557.05	14050.92
557.413	14079.62
557.776	14176.34
558.139	14212.95
558.502	14224.92
558.865	14210.46
559.228	14275.99
559.59	14375.65
559.953	14449.55
560.316	14561.86
560.679	14443.9
561.041	14566.61
561.404	14647.96
561.767	14775.64
562.129	14752.59
562.492	14856.32
562.854	14838.24
563.217	14779.94
563.579	14873.95
563.941	14976.54
564.304	15035.52
564.666	15137.89
565.028	15217.66
565.39	15095.18
565.753	15241.62
566.115	15260.15
566.477	15350.54
566.839	15459.01
567.201	15538.11
567.563	15565.68
567.925	15660.82
568.287	15637.99
568.648	15703.75
569.01	15717.31
569.372	15877.99
569.734	15798.67
570.095	15923.63
570.457	15972.67
570.819	16013.12
571.18	16006.34
571.542	16211.31
571.903	16275.94
572.265	16330.4
572.626	16453.11
572.987	16453.79
573.349	16508.7
573.71	16543.73
574.071	16684.07
574.432	16731.52
574.794	17012.19
575.155	17014.91
575.516	17006.77
575.877	17136.71
576.238	17213.32
576.599	17406.08
576.96	17454.22
577.32	17527.43
577.681	17707.77
578.042	17771.27
578.403	17829.57
578.763	17944.37
579.124	18162.9
579.485	18201.77
579.845	18502.55
580.206	18504.13
580.566	18679.49
580.927	18856.89
581.287	19069.31
581.648	19065.7
582.008	19407.84
582.368	19463.2
582.728	19687.15
583.089	19827.49
583.449	19997.88
583.809	20168.95
584.169	20301.6
584.529	20541.37
584.889	20919.21
585.249	21084.86
585.609	21170.95
585.969	21553.77
586.329	21510.38
586.688	21930.71
587.048	22089.8
587.408	22263.36
587.768	22457.47
588.127	22718.26
588.487	22944.69
588.846	23360.95
589.206	23441.18
589.565	23674.39
589.925	24022.18
590.284	24221.72
590.643	24536.97
591.003	24770.41
591.362	25118.2
591.721	25332.43
592.08	25512.76
592.44	25905.29
592.799	26191.61
593.158	26401.33
593.517	26628.66
593.876	26972.61
594.235	27173.96
594.593	27477
594.952	27747.28
595.311	27986.82
595.67	28266.36
596.029	28688.5
596.387	28857.98
596.746	29223.85
597.104	29356.95
597.463	29581.13
597.822	29954.23
598.18	30045.07
598.538	30331.84
598.897	30711.49
599.255	30797.82
599.613	31485.49
599.972	31416.56
600.33	31799.83
600.688	31802.77
601.046	32198.24
601.404	32471
601.762	32682.29
602.12	32961.38
602.478	33265.78
602.836	33516.62
603.194	33440.01
603.552	33713
603.91	33741.92
604.268	34242.25
604.625	34271.63
604.983	34620.32
605.341	34701.67
605.698	34938.05
606.056	35284.93
606.413	35441.54
606.771	35571.03
607.128	35866.16
607.485	35887.4
607.843	36095.99
608.2	36495.52
608.557	36706.14
608.914	36748.4
609.272	37107.94
609.629	37306.35
609.986	37476.51
610.343	37448.49
610.7	37902.04
611.057	37992.89
611.414	38096.61
611.771	38281.01
612.127	38636.03
612.484	38619.31
612.841	38896.14
613.198	38876.7
613.554	39002.35
613.911	39284.83
614.267	39358.72
614.624	39440.76
614.98	39679.17
615.337	39812.72
615.693	39785.61
616.05	39882.33
616.406	40215.43
616.762	40148.53
617.118	40309.66
617.475	40273.5
617.831	40857.89
618.187	40851.79
618.543	40819.48
618.899	41214.72
619.255	41140.83
619.611	41313.7
619.967	41451.33
620.323	41667.14
620.678	41622.62
621.034	41437.09
621.39	41714.14
621.746	41728.38
622.101	42105.09
622.457	42000.92
622.812	42166.11
623.168	42319.78
623.523	42194.36
623.879	42414.24
624.234	42174.92
624.589	42424.41
624.945	42525.42
625.3	42702.14
625.655	42454.01
626.01	42661.01
626.365	42651.29
626.72	42793.44
627.075	42855.81
627.43	42768.58
627.785	42781.23
628.14	42861.23
628.495	42969.25
628.85	43055.12
629.205	42737.62
629.559	43076.59
629.914	43029.59
630.269	43139.19
630.623	42961.12
630.978	43058.97
631.332	43152.52
631.687	43254.22
632.041	43111.17
632.396	43274.1
632.75	43121.34
633.104	43294.67
633.459	43025.75
633.813	43091.06
634.167	43166.31
634.521	43040.44
634.875	43175.12
635.229	43178.06
635.583	43091.06
635.937	43035.46
636.291	42987.1
636.645	42939.65
636.999	43024.39
637.352	43064.62
637.706	43031.62
638.06	43070.94
638.413	43140.55
638.767	42960.44
639.121	43035.24
639.474	42825.98
639.828	42929.03
640.181	43074.79
640.534	42994.79
640.888	42821.23
641.241	42871.18
641.594	42773.78
641.947	43079.76
642.301	42862.14
642.654	42959.08
643.007	42861.01
643.36	42944.17
643.713	42843.38
644.066	42926.31
644.419	42700.11
644.771	42581.01
645.124	42120.91
645.477	41990.75
645.83	41974.7
646.182	41717.08
646.535	41661.72
646.888	41722.96
647.24	41428.73
647.593	41704.2
647.945	41612.45
648.298	41444.32
648.65	41401.38
649.002	41296.53
649.355	41501.49
649.707	41374.94
650.059	41618.55
650.411	42121.59
650.763	42042.5
651.115	42467.12
651.467	42216.05
651.819	42336.95
652.171	42315.94
652.523	42244.75
652.875	42260.8
653.227	42138.09
653.578	42219.89
653.93	42187.8
654.282	42155.49
654.633	42025.32
654.985	42135.6
655.337	42122.04
655.688	42195.94
656.039	42332.43
656.391	41926.79
656.742	42100.35
657.094	42113.68
657.445	42247.01
657.796	42057.19
658.147	42053.34
658.498	42039.78
658.849	42185.54
659.2	42003.18
659.551	41873.24
659.902	42193.23
660.253	41988.94
660.604	42019.67
660.955	41877.75
661.306	41951.65
661.656	41904.42
662.007	42082.95
662.358	41882.73
662.708	41927.47
663.059	41928.6
663.409	41754.82
663.76	42024.64
664.11	41988.71
664.461	41934.25
664.811	42003.63
665.161	41964.53
665.511	41874.14
665.862	41873.69
666.212	41925.21
666.562	41777.64
666.912	41770.41
667.262	41630.53
667.612	41757.31
667.962	41713.69
668.312	41633.92
668.662	41838.66
669.011	41794.14
669.361	41683.18
669.711	41684.99
670.06	41640.02
670.41	41673.24
670.76	41462.4
671.109	41773.12
671.459	41721.15
671.808	41642.05
672.157	41715.27
672.507	41396.86
672.856	41504.88
673.205	41470.76
673.554	41652.22
673.904	41480.25
674.253	41728.61
674.602	41522.96
674.951	40944.67
675.3	40806.37
675.649	41491.32
675.998	41419.01
676.346	41426.92
676.695	41522.74
677.044	41158
677.393	41368.16
677.741	41395.28
678.09	41421.5
678.438	41176.76
678.787	41356.19
679.135	41275.51
679.484	41121.62
679.832	41144.44
680.181	40987.38
680.529	41168.62
680.877	40927.95
681.225	40876.88
681.573	41156.42
681.922	40894.73
682.27	40816.77
682.618	40874.62
682.966	40659.26
683.314	40786.03
683.661	40629.43
684.009	40521.63
684.357	40332.03
684.705	40331.13
685.053	40505.81
685.4	40311.47
685.748	40157.35
686.095	40100.63
686.443	40017.46
686.79	39823.8
687.138	40024.02
687.485	40034.19
687.832	39851.59
688.18	40059.72
688.527	39707.64
688.874	39812.27
689.221	39663.8
689.568	39496.35
689.915	39463.58
690.262	39410.02
690.609	39331.61
690.956	39250.25
691.303	39102.69
691.65	38938.17
691.997	39077.83
692.344	38717.84
692.69	38717.84
693.037	38722.13
693.383	38412.99
693.73	38478.97
694.077	38333.44
694.423	38382.03
694.769	38157.17
695.116	38166.44
695.462	38127.8
695.808	38018.2
696.155	37984.98
696.501	37803.96
696.847	37781.37
697.193	37559.68
697.539	37863.85
697.885	37444.43
698.231	37326.91
698.577	37365.11
698.923	37221.38
699.269	37056.19
699.614	36845.57
699.96	36924.66
700.306	36851.9
700.651	36706.59
700.997	36639.93
701.342	36594.28
701.688	36485.58
702.033	36455.52
702.379	36325.13
702.724	36194.29
703.069	36310.9
703.415	35965.59
703.76	36009.43
704.105	35922.66
704.45	35835.2
704.795	35705.04
705.14	35615.32
705.485	35584.13
705.83	35516.11
706.175	35499.17
706.52	35320.64
706.865	35283.8
707.209	35244.71
707.554	35100.53
707.899	35285.16
708.243	34916.13
708.588	34891.05
708.932	34769.92
709.277	34645.63
709.621	34724.72
709.966	34576.25
710.31	34541
710.654	34352.75
710.998	34262.59
711.342	34381.23
711.687	34136.26
712.031	34126.09
712.375	33918.19
712.719	34093.78
713.063	33913.22
713.407	34119.99
713.75	33825.31
714.094	33870.06
714.438	33700.12
714.782	33697.86
715.125	33544.64
715.469	33731.3
715.812	33296.51
716.156	33164.76
716.499	33287.02
716.843	33368.6
717.186	33168.15
717.53	33161.15
717.873	33248.38
718.216	33169.96
718.559	33041.6
718.902	32749.41
719.246	32835.51
719.589	32759.58
719.932	32579.47
720.275	32634.38
720.617	32595.96
720.96	32543.31
721.303	32549.41
721.646	32454.73
721.989	32441.84
722.331	32327.05
722.674	32370.89
723.016	32310.77
723.359	32306.71
723.701	32300.15
724.044	32116.88
724.386	31859.94
724.729	32053.83
725.071	31932.71
725.413	31978.13
725.755	31791.47
726.097	31688.19
726.439	31577.23
726.782	31659.49
727.124	31629.66
727.465	31664.01
727.807	31550.57
728.149	31259.95
728.491	31348.09
728.833	31434.41
729.175	31295.43
729.516	31392.15
729.858	31261.76
730.199	31293.63
730.541	31235.1
730.882	31198.04
731.224	31290.91
731.565	30955.33
731.906	30973.18
732.248	31041.2
732.589	30748.56
732.93	30732.29
733.271	30739.06
733.612	30859.06
733.953	30790.81
734.294	30690.03
734.635	30714.66
734.976	30654.32
735.317	30578.84
735.658	30566.19
735.999	30563.93
736.339	30489.81
736.68	30473.76
737.021	30471.05
737.361	30315.8
737.702	30430.6
738.042	30319.64
738.383	30154.9
738.723	30304.5
739.063	30185.18
739.404	30102.25
739.744	30084.62
740.084	29886.21
740.424	29976.82
740.764	29886.66
741.104	30030.83
741.444	29761.46
741.784	29701.8
742.124	29816.15
742.464	29825.87
742.804	29672.65
743.143	29585.65
743.483	29598.53
743.823	29402.38
744.162	29498.42
744.502	29542.71
744.841	29467.01
745.181	29554.46
745.52	29374.81
745.86	29463.84
746.199	29460.23
746.538	29264.3
746.877	29346.11
747.216	29159.45
747.556	29149.05
747.895	29227.24
748.234	29093.68
748.573	29000.58
748.911	29021.14
749.25	28884.88
749.589	28919.68
749.928	28905.44
750.267	28849.85
750.605	28668.84
750.944	28698.21
751.283	28651.21
751.621	28648.05
751.96	28529.86
752.298	28644.88
752.636	28577.99
752.975	28426.81
753.313	28318.11
753.651	28373.03
753.989	28165.57
754.327	28122.64
754.666	28046.25
755.004	28096.65
755.342	28192.01
755.679	28129.42
756.017	27892.59
756.355	28036.54
756.693	27782.08
757.031	27786.15
757.368	27602.2
