Data from hue_160_FLMS001491_00068.txt Node
Date: Tue Feb 07 16:51:32 GMT 2017
User: dcchb
Spectrometer: FLMS00149
Trigger mode: 0
Integration Time (sec): 2.000000E-2
Scans to average: 10
Electric dark correction enabled: true
Nonlinearity correction enabled: false
Boxcar width: 0
XAxis mode: Wavelengths
Number of Pixels in Spectrum: 2048
>>>>>Begin Spectral Data<<<<<
341.393	-1.37
341.776	-1.37
342.16	-1.37
342.543	-74.81
342.927	-62.84
343.31	-67.13
343.693	-75.27
344.077	-49.5
344.46	-66.23
344.843	-47.47
345.226	-37.3
345.61	-35.72
345.993	-0.01
346.376	-11.54
346.759	11.29
347.142	-13.35
347.525	37.5
347.908	57.16
348.291	82.24
348.674	92.41
349.057	122.92
349.44	113.66
349.823	115.24
350.206	155.01
350.588	195.91
350.971	203.82
351.354	235.69
351.737	244.5
352.119	238.85
352.502	263.48
352.884	271.39
353.267	278.4
353.65	296.7
354.032	300.54
354.414	317.49
354.797	319.3
355.179	312.97
355.562	324.5
355.944	337.6
356.326	336.7
356.709	332.63
357.091	344.38
357.473	344.38
357.855	317.27
358.238	336.7
358.62	343.25
359.002	340.54
359.384	352.74
359.766	343.93
360.148	350.71
360.53	315.01
360.912	359.3
361.294	328.11
361.676	335.34
362.057	323.59
362.439	325.85
362.821	338.51
363.203	317.49
363.584	322.24
363.966	328.11
364.348	321.33
364.729	321.79
365.111	315.68
365.493	329.24
365.874	313.88
366.256	309.36
366.637	302.12
367.019	302.8
367.4	314.1
367.781	331.28
368.163	300.54
368.544	317.72
368.925	292.86
369.306	329.69
369.688	305.29
370.069	321.56
370.45	322.01
370.831	320.2
371.212	329.69
371.593	306.87
371.974	311.16
372.355	297.61
372.736	314.55
373.117	345.06
373.498	325.85
373.879	328.56
374.26	321.79
374.641	308.45
375.021	322.92
375.402	326.3
375.783	319.53
376.163	335.34
376.544	324.72
376.925	345.06
377.305	326.08
377.686	310.03
378.066	341.67
378.447	329.02
378.827	327.89
379.208	345.06
379.588	337.38
379.968	328.56
380.349	326.98
380.729	351.39
381.109	350.03
381.489	345.51
381.87	329.92
382.25	335.12
382.63	338.96
383.01	338.06
383.39	347.55
383.77	345.06
384.15	340.32
384.53	345.74
384.91	337.6
385.29	347.55
385.67	332.63
386.049	347.1
386.429	360.65
386.809	368.79
387.189	347.1
387.568	346.19
387.948	361.56
388.328	366.53
388.707	345.97
389.087	365.4
389.466	364.72
389.846	371.73
390.225	352.52
390.605	372.63
390.984	360.2
391.363	360.88
391.743	371.5
392.122	371.95
392.501	373.99
392.881	357.26
393.26	391.39
393.639	378.96
394.018	351.39
394.397	395.23
394.776	371.73
395.155	384.83
395.534	372.63
395.913	379.41
396.292	383.03
396.671	388.45
397.05	390.94
397.429	401.33
397.808	407.43
398.186	393.42
398.565	393.65
398.944	386.42
399.323	403.59
399.701	389.58
400.08	387.32
400.458	405.17
400.837	385.74
401.215	397.26
401.594	413.31
401.972	411.95
402.351	406.98
402.729	420.77
403.107	439.97
403.486	418.73
403.864	433.65
404.242	420.54
404.62	415.57
404.999	435
405.377	415.79
405.755	416.7
406.133	404.72
406.511	444.27
406.889	450.82
407.267	431.61
407.645	447.43
408.023	428.68
408.401	433.19
408.779	449.24
409.156	453.76
409.534	455.34
409.912	455.34
410.29	472.52
410.667	477.26
411.045	463.7
411.422	474.32
411.8	471.61
412.178	487.2
412.555	475.23
412.933	469.8
413.31	495.11
413.687	493.53
414.065	483.14
414.442	503.7
414.819	495.57
415.197	507.09
415.574	520.65
415.951	511.84
416.328	528.11
416.705	507.09
417.082	513.19
417.46	539.63
417.837	520.88
418.214	526.53
418.591	529.69
418.967	508
419.344	527.88
419.721	539.86
420.098	516.58
420.475	547.54
420.852	549.8
421.228	548.9
421.605	563.13
421.982	573.53
422.358	582.57
422.735	593.64
423.111	554.55
423.488	599.07
423.864	589.8
424.241	599.97
424.617	591.16
424.994	588.22
425.37	608.56
425.746	616.47
426.123	649.46
426.499	622.34
426.875	629.35
427.251	629.57
427.627	632.51
428.003	625.96
428.379	645.62
428.756	644.94
429.132	650.59
429.507	661.66
429.883	658.05
430.259	677.03
430.635	672.51
431.011	680.19
431.387	693.53
431.763	700.53
432.138	703.7
432.514	699.18
432.89	705.96
433.265	716.8
433.641	737.37
434.016	716.58
434.392	745.28
434.767	739.85
435.143	747.99
435.518	760.42
435.894	754.77
436.269	788.21
436.644	771.49
437.02	779.17
437.395	781.89
437.77	812.17
438.145	833.18
438.52	823.47
438.895	807.42
439.271	823.69
439.646	822.56
440.021	846.29
440.395	833.18
440.77	864.14
441.145	870.7
441.52	867.08
441.895	892.17
442.27	868.66
442.645	886.52
443.019	872.28
443.394	866.86
443.769	900.3
444.143	893.75
444.518	894.65
444.892	922
445.267	925.39
445.641	931.71
446.016	922.67
446.39	951.83
446.764	945.27
447.139	953.63
447.513	958.38
447.887	957.47
448.262	981.88
448.636	952.5
449.01	973.75
449.384	996.34
449.758	1015.33
450.132	1018.04
450.506	1021.88
450.88	1020.3
451.254	1023.46
451.628	1052.39
452.002	1050.35
452.376	1061.2
452.75	1064.82
453.123	1049.22
453.497	1102.1
453.871	1093.97
454.244	1114.53
454.618	1107.3
454.992	1128.32
455.365	1157.47
455.739	1160.63
456.112	1176.23
456.486	1176
456.859	1179.39
457.232	1206.51
457.606	1226.85
457.979	1261.2
458.352	1265.26
458.725	1279.05
459.099	1286.51
459.472	1297.35
459.845	1290.35
460.218	1336
460.591	1359.5
460.964	1359.5
461.337	1379.84
461.71	1397.46
462.083	1417.8
462.456	1457.12
462.829	1457.57
463.201	1451.93
463.574	1496.22
463.947	1491.7
464.32	1519.72
464.692	1534.63
465.065	1526.73
465.438	1573.96
465.81	1609.89
466.183	1599.27
466.555	1670.68
466.928	1692.6
467.3	1681.52
467.672	1732.6
468.045	1766.49
468.417	1783.44
468.789	1787.51
469.161	1819.83
469.534	1859.15
469.906	1888.52
470.278	1931.91
470.65	1954.51
471.022	1998.8
471.394	2061.4
471.766	2088.52
472.138	2099.37
472.51	2177.78
472.882	2160.16
473.253	2246.71
473.625	2274.95
473.997	2380.04
474.369	2368.74
474.74	2427.27
475.112	2476.98
475.484	2519.47
475.855	2581.39
476.227	2627.26
476.598	2726.69
476.97	2753.36
477.341	2857.54
477.713	2914.71
478.084	2930.08
478.455	3086.23
478.827	3123.75
479.198	3230.86
479.569	3261.37
479.94	3382.5
480.311	3405.55
480.682	3540.23
481.053	3688.93
481.424	3764.63
481.795	3795.37
482.166	3890.05
482.537	3963.95
482.908	4107.22
483.279	4162.14
483.65	4309.03
484.021	4454.78
484.391	4511.51
484.762	4619.53
485.133	4702.69
485.503	4786.3
485.874	4987.2
486.244	5063.13
486.615	5171.15
486.985	5319.17
487.356	5407.3
487.726	5546.05
488.097	5725.94
488.467	5764.35
488.837	5946.72
489.207	6066.49
489.578	6234.4
489.948	6279.59
490.318	6478.69
490.688	6508.06
491.058	6714.61
491.428	6795.51
491.798	6939.01
492.168	7110.08
492.538	7191.89
492.908	7352.33
493.278	7526.57
493.648	7589.16
494.017	7690.18
494.387	7932.43
494.757	7942.83
495.126	8120.45
495.496	8211.3
495.866	8343.27
496.235	8465.53
496.605	8565.86
496.974	8663.71
497.344	8796.14
497.713	8811.73
498.082	8941.67
498.452	9063.02
498.821	9176.24
499.19	9218.73
499.559	9359.06
499.928	9398.61
500.298	9555.21
500.667	9688.54
501.036	9700.07
501.405	9853.74
501.774	9893.29
502.143	9948.65
502.512	10073.17
502.88	10163.33
503.249	10196.55
503.618	10227.29
503.987	10345.7
504.356	10413.72
504.724	10510.9
505.093	10546.83
505.462	10610.33
505.83	10706.82
506.199	10819.81
506.567	10844.45
506.936	10933.94
507.304	11088.28
507.672	11050.77
508.041	11095.06
508.409	11179.8
508.777	11211.67
509.145	11370.31
509.514	11378.22
509.882	11439.46
510.25	11471.55
510.618	11533.24
510.986	11486.69
511.354	11650.3
511.722	11679.9
512.09	11835.15
512.458	11717.19
512.826	11911.54
513.193	11892.78
513.561	11873.8
513.929	11956.73
514.297	12111.08
514.664	12082.15
515.032	12171.42
515.4	12237.63
515.767	12129.38
516.135	12251.42
516.502	12191.3
516.869	12359.21
517.237	12347.01
517.604	12332.09
517.972	12447.34
518.339	12450.05
518.706	12434.24
519.073	12437.62
519.44	12537.96
519.808	12542.93
520.175	12527.79
520.542	12653.89
520.909	12668.13
521.276	12647.34
521.643	12832.64
522.009	12783.15
522.376	12880.33
522.743	12856.82
523.11	12900.21
523.477	13011.85
523.843	13008.46
524.21	13128.45
524.577	13065.86
524.943	13094.78
525.31	13110.6
525.676	13193.76
526.043	13223.82
526.409	13249.58
526.776	13280.77
527.142	13229.92
527.508	13274.67
527.874	13354.66
528.241	13249.81
528.607	13295
528.973	13336.81
529.339	13298.62
529.705	13378.62
530.071	13332.52
530.437	13428.79
530.803	13437.82
531.169	13459.29
531.535	13410.48
531.901	13395.79
532.267	13363.93
532.632	13348.79
532.998	13356.7
533.364	13343.82
533.73	13311.95
534.095	13383.14
534.461	13343.82
534.826	13286.42
535.192	13315.34
535.557	13264.72
535.923	13303.59
536.288	13245.06
536.653	13308.79
537.019	13197.38
537.384	13251.84
537.749	13164.61
538.114	13226.3
538.479	13129.36
538.845	13116.7
539.21	13038.29
539.575	12989.47
539.94	12977.95
540.305	13046.2
540.67	12970.49
541.034	12907.22
541.399	12912.19
541.764	12884.62
542.129	12851.17
542.494	12789.93
542.858	12825.41
543.223	12799.42
543.587	12808.91
543.952	12728.01
544.316	12730.05
544.681	12645.98
545.045	12713.55
545.41	12591.52
545.774	12594.68
546.138	12516.04
546.503	12506.55
546.867	12524.18
547.231	12483.5
547.595	12556.94
547.959	12487.12
548.324	12363.95
548.688	12341.13
549.052	12419.09
549.416	12235.14
549.779	12340.68
550.143	12258.42
550.507	12289.38
550.871	12245.31
551.235	12129.38
551.599	12131.42
551.962	12179.55
552.326	12092.32
552.689	12130.29
553.053	11991.76
553.417	12022.27
553.78	12161.47
554.143	12022.95
554.507	11994.92
554.87	12005.32
555.234	12027.92
555.597	11964.42
555.96	12046.45
556.323	11965.32
556.686	11946.79
557.05	11944.53
557.413	11865.21
557.776	11845.32
558.139	11932.33
558.502	11958.32
558.865	11791.54
559.228	11874.02
559.59	11823.4
559.953	11842.84
560.316	12004.42
560.679	11911.54
561.041	11880.8
561.404	11890.07
561.767	12022.49
562.129	11923.97
562.492	11988.37
562.854	11982.95
563.217	11912.22
563.579	11933.23
563.941	12040.12
564.304	12080.12
564.666	12034.25
565.028	12010.97
565.39	12043.96
565.753	12045.32
566.115	12114.7
566.477	12111.08
566.839	12068.6
567.201	12136.39
567.563	12029.5
567.925	12196.28
568.287	12246.9
568.648	12199.67
569.01	12140.91
569.372	12171.19
569.734	12161.47
570.095	12297.06
570.457	12220.23
570.819	12152.89
571.18	12252.09
571.542	12277.86
571.903	12273.56
572.265	12301.58
572.626	12302.04
572.987	12305.65
573.349	12378.64
573.71	12341.81
574.071	12312.43
574.432	12324.18
574.794	12439.88
575.155	12340.23
575.516	12401.47
575.877	12400.56
576.238	12350.85
576.599	12433.11
576.96	12354.46
577.32	12412.77
577.681	12459.32
578.042	12443.95
578.403	12481.47
578.763	12347.01
579.124	12387.46
579.485	12417.74
579.845	12460
580.206	12438.98
580.566	12434.46
580.927	12427.91
581.287	12443.5
581.648	12466.78
582.008	12482.6
582.368	12363.5
582.728	12436.95
583.089	12375.25
583.449	12420.22
583.809	12424.29
584.169	12417.74
584.529	12412.54
584.889	12521.01
585.249	12383.16
585.609	12317.63
585.969	12398.53
586.329	12348.36
586.688	12378.42
587.048	12388.59
587.408	12271.53
587.768	12328.93
588.127	12281.47
588.487	12178.42
588.846	12310.85
589.206	12281.02
589.565	12268.14
589.925	12355.14
590.284	12243.05
590.643	12265.2
591.003	12319.21
591.362	12342.26
591.721	12227.23
592.08	12243.05
592.44	12268.36
592.799	12296.84
593.158	12269.04
593.517	12309.94
593.876	12331.19
594.235	12223.62
594.593	12195.37
594.952	12255.71
595.311	12195.6
595.67	12234.24
596.029	12295.93
596.387	12303.62
596.746	12306.33
597.104	12220
597.463	12202.15
597.822	12242.6
598.18	12107.46
598.538	12172.32
598.897	12185.43
599.255	12080.57
599.613	12279.21
599.972	12218.87
600.33	12240.12
600.688	12107.92
601.046	12188.14
601.404	12240.79
601.762	12251.19
602.12	12245.09
602.478	12210.29
602.836	12264.75
603.194	12192.43
603.552	12173.9
603.91	12248.48
604.268	12094.81
604.625	12161.93
604.983	12202.38
605.341	12131.19
605.698	12246.67
606.056	12261.58
606.413	12198.31
606.771	12237.4
607.128	12313.79
607.485	12223.85
607.843	12179.78
608.2	12300.45
608.557	12319.89
608.914	12225.88
609.272	12376.16
609.629	12323.05
609.986	12408.47
610.343	12304.75
610.7	12420.22
611.057	12425.42
611.414	12341.36
611.771	12288.25
612.127	12396.27
612.484	12382.03
612.841	12435.14
613.198	12304.75
613.554	12400.11
613.911	12431.98
614.267	12496.83
614.624	12448.47
614.98	12475.59
615.337	12499.54
615.693	12513.56
616.05	12458.87
616.406	12559.2
616.762	12401.69
617.118	12481.92
617.475	12476.27
617.831	12531.41
618.187	12566.66
618.543	12543.16
618.899	12581.8
619.255	12512.88
619.611	12483.5
619.967	12514.01
620.323	12624.06
620.678	12561.24
621.034	12497.28
621.39	12503.84
621.746	12545.87
622.101	12665.19
622.457	12582.03
622.812	12513.56
623.168	12626.77
623.523	12613.21
623.879	12561.69
624.234	12563.5
624.589	12556.49
624.945	12563.05
625.3	12636.49
625.655	12624.96
626.01	12523.95
626.365	12599.2
626.72	12631.52
627.075	12582.48
627.43	12605.53
627.785	12548.58
628.14	12587.45
628.495	12629.94
628.85	12605.08
629.205	12560.79
629.559	12625.87
629.914	12641.46
630.269	12565.76
630.623	12551.52
630.978	12427.91
631.332	12541.35
631.687	12571.86
632.041	12447.34
632.396	12424.97
632.75	12432.43
633.104	12431.3
633.459	12416.83
633.813	12427.68
634.167	12408.25
634.521	12330.06
634.875	12355.82
635.229	12412.09
635.583	12295.26
635.937	12270.62
636.291	12342.03
636.645	12273.34
636.999	12297.29
637.352	12243.05
637.706	12173.68
638.06	12275.14
638.413	12237.4
638.767	12276.27
639.121	12223.17
639.474	12120.12
639.828	12158.99
640.181	12236.05
640.534	12102.27
640.888	12167.8
641.241	12074.92
641.594	12125.77
641.947	12142.27
642.301	12050.06
642.654	12112.44
643.007	12050.74
643.36	12061.82
643.713	12052.55
644.066	12124.64
644.419	12017.75
644.771	11890.52
645.124	11790.64
645.477	11814.36
645.83	11666.8
646.182	11670.19
646.535	11690.3
646.888	11702.5
647.24	11592
647.593	11732.11
647.945	11691.43
648.298	11622.28
648.65	11602.39
649.002	11575.73
649.355	11572.79
649.707	11592
650.059	11629.28
650.411	11822.05
650.763	11822.05
651.115	11890.07
651.467	11849.62
651.819	11798.55
652.171	11857.75
652.523	11749.73
652.875	11830.41
653.227	11793.8
653.578	11888.71
653.93	11851.43
654.282	11794.03
654.633	11765.78
654.985	11841.26
655.337	11810.3
655.688	11830.64
656.039	11891.42
656.391	11809.17
656.742	11770.3
657.094	11811.65
657.445	11835.38
657.796	11833.35
658.147	11826.57
658.498	11812.33
658.849	11899.56
659.2	11913.12
659.551	11823.18
659.902	11873.57
660.253	11872.44
660.604	11810.75
660.955	11873.57
661.306	11860.92
661.656	11893.01
662.007	11906.57
662.358	11940.69
662.708	11858.21
663.059	11948.37
663.409	11870.86
663.76	11886.9
664.11	11864.08
664.461	11919.22
664.811	11864.08
665.161	11958.77
665.511	11874.93
665.862	11883.29
666.212	11820.47
666.562	11975.26
666.912	11820.24
667.262	11906.34
667.612	11880.35
667.962	11909.05
668.312	11849.62
668.662	11904.53
669.011	11788.6
669.361	11904.08
669.711	11849.84
670.06	11798.09
670.41	11801.48
670.76	11719
671.109	11824.76
671.459	11843.74
671.808	11843.29
672.157	11807.36
672.507	11778.66
672.856	11759.68
673.205	11753.12
673.554	11864.53
673.904	11716.97
674.253	11867.92
674.602	11818.43
674.951	11603.97
675.3	11564.65
675.649	11708.6
675.998	11739.34
676.346	11733.46
676.695	11800.81
677.044	11622.28
677.393	11718.32
677.741	11672.22
678.09	11663.18
678.438	11658.44
678.787	11628.38
679.135	11590.19
679.484	11578.66
679.832	11530.98
680.181	11499.57
680.529	11589.51
680.877	11515.84
681.225	11535.73
681.573	11520.13
681.922	11458.44
682.27	11412.79
682.618	11372.12
682.966	11357.65
683.314	11436.75
683.661	11369.63
684.009	11331.21
684.357	11303.87
684.705	11360.37
685.053	11301.84
685.4	11286.47
685.748	11206.47
686.095	11203.76
686.443	11119.47
686.79	11085.8
687.138	11160.37
687.485	11172.57
687.832	11112.01
688.18	11105.46
688.527	11045.12
688.874	11021.39
689.221	11087.15
689.568	10968.06
689.915	10911.56
690.262	10991.79
690.609	10875.86
690.956	10859.14
691.303	10794.28
691.65	10735.52
691.997	10751.12
692.344	10756.77
692.69	10634.06
693.037	10664.11
693.383	10544.79
693.73	10636.32
694.077	10482.42
694.423	10484.46
694.769	10465.47
695.116	10425.93
695.462	10426.15
695.808	10353.61
696.155	10469.09
696.501	10231.58
696.847	10282.2
697.193	10215.31
697.539	10238.13
697.885	10120.17
698.231	10119.27
698.577	10131.47
698.923	10065.48
699.269	10028.65
699.614	9905.49
699.96	9927.18
700.306	9942.78
700.651	9832.95
700.997	9863
701.342	9820.97
701.688	9863
702.033	9813.51
702.379	9782.55
702.724	9673.18
703.069	9772.61
703.415	9589.34
703.76	9616.46
704.105	9601.09
704.45	9512.28
704.795	9570.81
705.14	9517.48
705.485	9491.71
705.83	9417.59
706.175	9459.4
706.52	9403.81
706.865	9339.85
707.209	9387.54
707.554	9313.87
707.899	9378.95
708.243	9291.49
708.588	9244.71
708.932	9192.06
709.277	9184.38
709.621	9130.59
709.966	9086.98
710.31	9124.04
710.654	9076.81
710.998	9021.22
711.342	9059.18
711.687	8991.39
712.031	8996.81
712.375	8926.08
712.719	8995.68
713.063	8944.84
713.407	8921.56
713.75	8864.39
714.094	8934.44
714.438	8897.15
714.782	8858.74
715.125	8776.48
715.469	8830.04
715.812	8885.18
716.156	8802.69
716.499	8780.32
716.843	8820.77
717.186	8695.35
717.53	8801.11
717.873	8751.85
718.216	8683.37
718.559	8693.99
718.902	8707.55
719.246	8592.53
719.589	8639.53
719.932	8594.11
720.275	8569.7
720.617	8599.76
720.96	8649.93
721.303	8598.63
721.646	8599.76
721.989	8497.16
722.331	8597.73
722.674	8613.54
723.016	8585.97
723.359	8498.75
723.701	8561.34
724.044	8435.7
724.386	8381.23
724.729	8510.04
725.071	8503.94
725.413	8442.7
725.755	8452.64
726.097	8412.65
726.439	8428.01
726.782	8354.34
727.124	8444.51
727.465	8428.92
727.807	8371.29
728.149	8372.87
728.491	8365.87
728.833	8396.38
729.175	8427.11
729.516	8388.69
729.858	8376.04
730.199	8434.57
730.541	8425.08
730.882	8428.92
731.224	8422.36
731.565	8327.9
731.906	8367.45
732.248	8332.87
732.589	8417.62
732.93	8340.78
733.271	8282.03
733.612	8320.9
733.953	8334.68
734.294	8344.63
734.635	8345.98
734.976	8296.04
735.317	8235.7
735.658	8263.27
735.999	8328.81
736.339	8285.87
736.68	8311.41
737.021	8258.3
737.361	8321.35
737.702	8382.59
738.042	8359.54
738.383	8308.69
738.723	8332.2
739.063	8331.29
739.404	8389.6
739.744	8376.94
740.084	8350.5
740.424	8335.81
740.764	8401.12
741.104	8452.42
741.444	8339.65
741.784	8379.43
742.124	8381.23
742.464	8463.49
742.804	8484.06
743.143	8478.18
743.483	8511.85
743.823	8448.35
744.162	8532.64
744.502	8554.11
744.841	8482.02
745.181	8574.68
745.52	8618.29
745.86	8678.85
746.199	8664.16
746.538	8708.46
746.877	8745.29
747.216	8844.27
747.556	8826.87
747.895	8842.92
748.234	8847.66
748.573	8917.72
748.911	8957.49
749.25	9070.71
749.589	9080.88
749.928	9150.71
750.267	9211.5
750.605	9207.43
750.944	9310.7
751.283	9465.73
751.621	9507.53
751.96	9509.34
752.298	9608.32
752.636	9754.08
752.975	9721.09
753.313	9876.34
753.651	10021.64
753.989	10008.76
754.327	10133.73
754.666	10232.03
755.004	10382.76
755.342	10463.21
755.679	10658.69
756.017	10712.7
756.355	10905.46
756.693	10938.46
757.031	11143.87
757.368	11206.47
757.706	11361.95
758.044	11472.45
758.381	11620.7
758.719	11844.65
759.056	11945.21
759.394	12059.33
