Data from hue_32_FLMS001491_00022.txt Node
Date: Tue Feb 07 17:23:06 GMT 2017
User: dcchb
Spectrometer: FLMS00149
Trigger mode: 0
Integration Time (sec): 2.000000E-2
Scans to average: 10
Electric dark correction enabled: true
Nonlinearity correction enabled: false
Boxcar width: 0
XAxis mode: Wavelengths
Number of Pixels in Spectrum: 2048
>>>>>Begin Spectral Data<<<<<
341.393	-20.25
341.776	-20.25
342.16	-20.25
342.543	-66.13
342.927	-71.55
343.31	-77.88
343.693	-65.9
344.077	-59.57
344.46	-62.74
344.843	-56.86
345.226	-18.9
345.61	-20.93
345.993	-27.49
346.376	-3.76
346.759	2.34
347.142	19.75
347.525	30.37
347.908	50.7
348.291	102.45
348.674	102.23
349.057	86.18
349.44	120.99
349.823	150.82
350.206	170.48
350.588	178.84
350.971	210.02
351.354	219.97
351.737	232.4
352.119	233.98
352.502	264.71
352.884	251.6
353.267	282.11
353.65	311.49
354.032	298.16
354.414	322.34
354.797	310.36
355.179	309.46
355.562	333.41
355.944	325.27
356.326	330.02
356.709	334.99
357.091	340.87
357.473	356.01
357.855	351.26
358.238	323.47
358.62	344.71
359.002	325.5
359.384	358.04
359.766	360.08
360.148	339.74
360.53	344.03
360.912	339.06
361.294	327.99
361.676	330.7
362.057	328.44
362.439	329.12
362.821	334.09
363.203	316.69
363.584	334.99
363.966	327.99
364.348	331.38
364.729	329.34
365.111	325.73
365.493	324.37
365.874	304.94
366.256	318.27
366.637	314.43
367.019	326.86
367.4	318.72
367.781	297.7
368.163	322.79
368.544	313.97
368.925	325.5
369.306	327.99
369.688	320.53
370.069	309.91
370.45	323.47
370.831	302.68
371.212	319.4
371.593	304.26
371.974	324.14
372.355	313.07
372.736	340.19
373.117	342
373.498	333.18
373.879	305.39
374.26	326.86
374.641	331.15
375.021	333.64
375.402	319.85
375.783	328.21
376.163	339.06
376.544	311.94
376.925	329.79
377.305	326.63
377.686	318.04
378.066	331.6
378.447	329.79
378.827	339.06
379.208	336.12
379.588	337.25
379.968	335.67
380.349	340.64
380.729	339.96
381.109	336.12
381.489	333.41
381.87	352.39
382.25	335.44
382.63	338.38
383.01	354.2
383.39	335.67
383.77	330.7
384.15	346.06
384.53	359.4
384.91	335.67
385.29	353.3
385.67	334.31
386.049	346.52
386.429	355.33
386.809	356.69
387.189	373.18
387.568	372.96
387.948	355.1
388.328	353.75
388.707	360.75
389.087	361.21
389.466	349
389.846	359.85
390.225	377.7
390.605	375.89
390.984	357.14
391.363	359.85
391.743	350.58
392.122	372.5
392.501	373.41
392.881	393.52
393.26	376.57
393.639	382.9
394.018	385.84
394.397	377.02
394.776	384.48
395.155	368.21
395.534	391.94
395.913	411.37
396.292	390.81
396.671	400.07
397.05	383.8
397.429	393.07
397.808	403.01
398.186	424.48
398.565	389.91
398.944	413.41
399.323	384.26
399.701	391.71
400.08	421.77
400.458	391.49
400.837	403.69
401.215	389.23
401.594	419.51
401.972	420.41
402.351	413.63
402.729	409.57
403.107	423.8
403.486	424.48
403.864	395.55
404.242	448.21
404.62	411.37
404.999	429.9
405.377	424.03
405.755	434.88
406.133	445.04
406.511	443.91
406.889	436.23
407.267	457.47
407.645	429.45
408.023	451.15
408.401	459.96
408.779	456.12
409.156	444.59
409.534	451.6
409.912	470.13
410.29	467.42
410.667	488.66
411.045	456.12
411.422	462.22
411.8	480.07
412.178	482.33
412.555	482.33
412.933	463.8
413.31	504.03
413.687	478.94
414.065	475.55
414.442	507.42
414.819	495.44
415.197	499.51
415.574	521.88
415.951	517.13
416.328	522.1
416.705	526.85
417.082	505.38
417.46	505.61
417.837	517.81
418.214	513.07
418.591	534.08
418.967	513.07
419.344	527.08
419.721	554.87
420.098	540.64
420.475	551.03
420.852	545.38
421.228	536.57
421.605	539.73
421.982	554.42
422.358	559.17
422.735	578.37
423.111	554.42
423.488	548.77
423.864	574.08
424.241	597.13
424.617	579.5
424.994	600.75
425.37	600.29
425.746	578.37
426.123	597.13
426.499	577.7
426.875	581.76
427.251	611.82
427.627	605.72
428.003	606.62
428.379	621.99
428.756	629.67
429.132	627.86
429.507	639.16
429.883	661.76
430.259	646.85
430.635	650.01
431.011	652.5
431.387	653.63
431.763	652.72
432.138	663.34
432.514	665.15
432.89	666.73
433.265	692.95
433.641	664.93
434.016	704.02
434.392	706.05
434.767	692.5
435.143	726.17
435.518	718.03
435.894	725.49
436.269	744.92
436.644	727.98
437.02	729.11
437.395	740.4
437.77	722.78
438.145	747.64
438.52	734.08
438.895	752.61
439.271	763.23
439.646	775.66
440.021	769.78
440.395	773.4
440.77	787.63
441.145	798.71
441.52	774.53
441.895	792.15
442.27	799.84
442.645	819.5
443.019	806.39
443.394	835.32
443.769	830.57
444.143	831.25
444.518	843.68
444.892	838.03
445.267	821.76
445.641	852.94
446.016	869.44
446.39	889.1
446.764	874.19
447.139	861.98
447.513	876.22
447.887	861.08
448.262	856.56
448.636	893.85
449.01	909.67
449.384	908.54
449.758	903.34
450.132	901.76
450.506	914.64
450.88	910.57
451.254	957.57
451.628	928.2
452.002	951.7
452.376	945.14
452.75	964.35
453.123	973.84
453.497	965.48
453.871	975.2
454.244	990.57
454.618	989.89
454.992	997.57
455.365	995.99
455.739	1035.76
456.112	1035.54
456.486	1032.37
456.859	1036.89
457.232	1074.18
457.606	1095.65
457.979	1112.37
458.352	1125.25
458.725	1133.39
459.099	1108.3
459.472	1142.88
459.845	1148.53
460.218	1184.23
460.591	1189.43
460.964	1166.61
461.337	1215.87
461.71	1220.39
462.083	1247.06
462.456	1242.54
462.829	1243.89
463.201	1255.87
463.574	1263.33
463.947	1278.02
464.32	1306.72
464.692	1320.95
465.065	1326.83
465.438	1337.22
465.81	1380.84
466.183	1351.91
466.555	1426.04
466.928	1422.65
467.3	1419.71
467.672	1461.74
468.045	1461.52
468.417	1486.15
468.789	1520.95
469.161	1525.92
469.534	1540.38
469.906	1574.96
470.278	1577.9
470.65	1605.92
471.022	1646.6
471.394	1629.65
471.766	1695.86
472.138	1679.81
472.51	1747.16
472.882	1775.18
473.253	1788.51
473.625	1829.87
473.997	1866.48
474.369	1920.26
474.74	1928.4
475.112	1951.45
475.484	2002.74
475.855	2019.47
476.227	2070.54
476.598	2148.73
476.97	2171.78
477.341	2212.23
477.713	2249.07
478.084	2291.32
478.455	2370.19
478.827	2401.38
479.198	2496.52
479.569	2510.08
479.94	2535.61
480.311	2609.51
480.682	2701.48
481.053	2715.72
481.424	2808.37
481.795	2865.55
482.166	2902.61
482.537	3007.24
482.908	3090.17
483.279	3124.52
483.65	3193.9
484.021	3278.42
484.391	3360.67
484.762	3425.53
485.133	3495.13
485.503	3562.7
485.874	3639.31
486.244	3683.83
486.615	3818.06
486.985	3874.33
487.356	3981.9
487.726	4000.66
488.097	4098.96
488.467	4203.82
488.837	4307.54
489.207	4405.17
489.578	4491.72
489.948	4532.85
490.318	4611.71
490.688	4701.43
491.058	4752.5
491.428	4879.05
491.798	4968.54
492.168	5031.14
492.538	5136.45
492.908	5228.65
493.278	5306.39
493.648	5357.23
494.017	5496.44
494.387	5571.24
494.757	5618.92
495.126	5703.44
495.496	5798.12
495.866	5812.81
496.235	5905.92
496.605	5947.05
496.974	6084.44
497.344	6163.76
497.713	6203.31
498.082	6267.72
498.452	6354.72
498.821	6434.27
499.19	6408.05
499.559	6571.89
499.928	6611.44
500.298	6695.28
500.667	6735.95
501.036	6748.16
501.405	6891.65
501.774	6904.54
502.143	6963.29
502.512	7067.47
502.88	7147.92
503.249	7124.87
503.618	7239.67
503.987	7274.92
504.356	7318.76
504.724	7390.85
505.093	7438.53
505.462	7495.25
505.83	7524.86
506.199	7662.93
506.567	7753.33
506.936	7763.95
507.304	7839.65
507.672	7862.25
508.041	7931.63
508.409	7958.97
508.777	8021.57
509.145	8105.41
509.514	8142.47
509.882	8169.36
510.25	8209.13
510.618	8329.81
510.986	8318.74
511.354	8464.27
511.722	8505.17
512.09	8534.55
512.458	8513.76
512.826	8587.66
513.193	8699.52
513.561	8714.21
513.929	8743.13
514.297	8855.22
514.664	8874.88
515.032	8845.5
515.4	9013.18
515.767	9042.56
516.135	9087.76
516.502	9104.03
516.869	9156.23
517.237	9181.54
517.604	9216.57
517.972	9273.06
518.339	9363.23
518.706	9379.5
519.073	9365.49
519.44	9496.11
519.808	9486.84
520.175	9477.12
520.542	9681.41
520.909	9703.11
521.276	9694.75
521.643	9784.91
522.009	9841.63
522.376	9951.24
522.743	9953.5
523.11	10047.96
523.477	10116.2
523.843	10142.19
524.21	10275.52
524.577	10350.55
524.943	10340.38
525.31	10360.72
525.676	10477.1
526.043	10529.75
526.409	10519.13
526.776	10731.33
527.142	10709.63
527.508	10692.23
527.874	10868.27
528.241	10885.67
528.607	10919.12
528.973	11042.28
529.339	10988.5
529.705	11153.69
530.071	11212.67
530.437	11278.21
530.803	11346.23
531.169	11401.59
531.535	11387.81
531.901	11464.42
532.267	11475.72
532.632	11542.15
532.998	11588.25
533.364	11751.87
533.73	11727.23
534.095	11813.11
534.461	11849.04
534.826	11957.96
535.192	11919.32
535.557	12027.34
535.923	12062.59
536.288	12137.39
536.653	12144.4
537.019	12101.46
537.384	12140.1
537.749	12302.13
538.114	12299.42
538.479	12278.18
538.845	12374.9
539.21	12454.45
539.575	12500.77
539.94	12485.41
540.305	12624.39
540.67	12553.2
541.034	12661.9
541.399	12763.14
541.764	12705.97
542.129	12795.91
542.494	12847.2
542.858	12863.25
543.223	12830.48
543.587	13060.31
543.952	12988.9
544.316	13115.9
544.681	13162.68
545.045	13268.44
545.41	13210.13
545.774	13231.38
546.138	13356.57
546.503	13375.78
546.867	13432.95
547.231	13538.71
547.595	13604.92
547.959	13598.6
548.324	13673.4
548.688	13681.08
549.052	13666.84
549.416	13733.51
549.779	13771.93
550.143	13805.6
550.507	14002.88
550.871	13978.02
551.235	13928.98
551.599	14075.87
551.962	14056.21
552.326	14153.61
552.689	14266.15
553.053	14216.43
553.417	14279.26
553.78	14445.35
554.143	14298.01
554.507	14416.65
554.87	14452.13
555.234	14617.55
555.597	14504.11
555.96	14589.31
556.323	14614.84
556.686	14656.65
557.05	14710.21
557.413	14780.71
557.776	14855.74
558.139	14966.02
558.502	14929.41
558.865	15031.55
559.228	15109.29
559.59	15054.83
559.953	15107.03
560.316	15274.26
560.679	15316.74
561.041	15323.3
561.404	15459.57
561.767	15525.33
562.129	15512.67
562.492	15659.33
562.854	15554.03
563.217	15653.01
563.579	15743.63
563.941	15807.8
564.304	15837.86
564.666	15933.45
565.028	15943.39
565.39	15950.85
565.753	16052.32
566.115	16094.12
566.477	16151.52
566.839	16127.57
567.201	16413.21
567.563	16411.18
567.925	16531.63
568.287	16490.95
568.648	16445.98
569.01	16657.95
569.372	16740.44
569.734	16727.55
570.095	16857.49
570.457	16875.12
570.819	16998.73
571.18	16945.4
571.542	17093.65
571.903	17163.7
572.265	17200.54
572.626	17246.18
572.987	17352.85
573.349	17360.53
573.71	17527.31
574.071	17626.97
574.432	17642.56
574.794	17930.69
575.155	17823.34
575.516	17889.11
575.877	18102.66
576.238	18148.31
576.599	18096.33
576.96	18428.75
577.32	18505.36
577.681	18613.38
578.042	18750.55
578.403	18779.25
578.763	19043.2
579.124	19099.92
579.485	19347.6
579.845	19532.23
580.206	19551.89
580.566	19741.26
580.927	19910.3
581.287	20063.29
581.648	20150.06
582.008	20384.86
582.368	20473.22
582.728	20661.46
583.089	20792.98
583.449	21115.24
583.809	21265.74
584.169	21528.11
584.529	21630.48
584.889	21824.82
585.249	22152.27
585.609	22168.99
585.969	22537.8
586.329	22856.88
586.688	22982.08
587.048	23276.31
587.408	23422.52
587.768	23568.73
588.127	23854.82
588.487	24051.43
588.846	24354.92
589.206	24529.84
589.565	24741.36
589.925	25094.11
590.284	25325.97
590.643	25529.58
591.003	25878.73
591.362	26170.02
591.721	26478.48
592.08	26633.73
592.44	27059.71
592.799	27225.58
593.158	27440.27
593.517	27747.83
593.876	28070.99
594.235	28203.18
594.593	28537.19
594.952	28790.74
595.311	29003.39
595.67	29360.67
596.029	29640.89
596.387	29894.21
596.746	30132.85
597.104	30365.16
597.463	30578.94
597.822	30933.73
598.18	31075.65
598.538	31245.82
598.897	31704.11
599.255	31697.56
599.613	32370.08
599.972	32373.24
600.33	32714.93
600.688	32698.89
601.046	33075.6
601.404	33510.39
601.762	33636.49
602.12	33939.08
602.478	34064.95
602.836	34351.05
603.194	34328.45
603.552	34657.7
603.91	34590.36
604.268	35153.06
604.625	35217.46
604.983	35386.95
605.341	35503.78
605.698	35865.81
606.056	36022.19
606.413	36277.77
606.771	36555.73
607.128	36621.04
607.485	36729.29
607.843	36830.98
608.2	37223.96
608.557	37556.39
608.914	37571.53
609.272	37973.78
609.629	37989.82
609.986	38372.64
610.343	38280.21
610.7	38714.55
611.057	38653.76
611.414	38802
611.771	39044.26
612.127	39228.21
612.484	39376.45
612.841	39648.99
613.198	39560.63
613.554	39640.4
613.911	39899.37
614.267	40051.69
614.624	40206.26
614.98	40300.95
615.337	40445.57
615.693	40595.18
616.05	40584.78
616.406	40892.12
616.762	40914.49
617.118	40996.52
617.475	41152.45
617.831	41330.75
618.187	41447.13
618.543	41613.68
618.899	41655.94
619.255	41803.05
619.611	41798.53
619.967	42149.03
620.323	42281.91
620.678	42287.79
621.034	42187.22
621.39	42255.7
621.746	42279.65
622.101	42841.22
622.457	42602.35
622.812	42619.76
623.168	42737.72
623.523	42900.88
623.879	43064.72
624.234	42733.42
624.589	42964.6
624.945	43107.65
625.3	43179.97
625.655	43175.9
626.01	43328.21
626.365	43379.96
626.72	43336.57
627.075	43331.6
627.43	43486.85
627.785	43278.95
628.14	43387.64
628.495	43553.52
628.85	43526.85
629.205	43494.08
629.559	43776.11
629.914	43569.56
630.269	43747.64
630.623	43633.97
630.978	43567.3
631.332	43777.69
631.687	43839.16
632.041	43673.29
632.396	43793.28
632.75	43714.19
633.104	43772.04
633.459	43623.12
633.813	43603.46
634.167	43640.29
634.521	43571.14
634.875	43740.63
635.229	43621.76
635.583	43512.39
635.937	43611.59
636.291	43734.75
636.645	43691.82
636.999	43559.84
637.352	43742.89
637.706	43458.6
638.06	43745.83
638.413	43565.27
638.767	43491.37
639.121	43521.88
639.474	43504.93
639.828	43468.09
640.181	43494.31
640.534	43499.28
640.888	43324.82
641.241	43188.33
641.594	43236.91
641.947	43380.41
642.301	43204.37
642.654	43292.28
643.007	43304.71
643.36	43179.97
643.713	43144.04
644.066	43320.98
644.419	43056.13
644.771	43049.12
645.124	42559.42
645.477	42605.07
645.83	42232.42
646.182	42210.05
646.535	42033.1
646.888	42218.86
647.24	42032.65
647.593	42383.38
647.945	42070.39
648.298	41963.05
648.65	41932.99
649.002	41751.3
649.355	42005.53
649.707	41966.44
650.059	42210.27
650.411	42631.51
650.763	42566.88
651.115	43063.81
651.467	42809.81
651.819	42882.12
652.171	42854.55
652.523	42718.06
652.875	42698.17
653.227	42514.22
653.578	42885.28
653.93	42713.09
654.282	42585.86
654.633	42506.54
654.985	42561.9
655.337	42648
655.688	42472.87
656.039	42753.76
656.391	42390.61
656.742	42527.78
657.094	42625.86
657.445	42671.96
657.796	42534.79
658.147	42392.19
658.498	42642.35
658.849	42540.66
659.2	42504.05
659.551	42316.03
659.902	42528.23
660.253	42455.47
660.604	42561.68
660.955	42305.87
661.306	42432.87
661.656	42415.24
662.007	42329.59
662.358	42422.92
662.708	42311.97
663.059	42404.62
663.409	42036.27
663.76	42385.18
664.11	42310.16
664.461	42442.58
664.811	42434.22
665.161	42301.12
665.511	42307.9
665.862	42291.85
666.212	42380.21
666.562	42487.56
666.912	42343.15
667.262	42308.12
667.612	42135.7
667.962	42399.65
668.312	42177.73
668.662	42441
669.011	42292.76
669.361	42202.36
669.711	42182.25
670.06	42212.31
670.41	42253.66
670.76	42078.07
671.109	42332.76
671.459	42100.22
671.808	42089.37
672.157	42138.64
672.507	41854.58
672.856	41903.62
673.205	42031.52
673.554	42216.38
673.904	41851.64
674.253	42198.07
674.602	42198.52
674.951	41450.07
675.3	41287.81
675.649	41869.72
675.998	41950.39
676.346	41911.53
676.695	41983.84
677.044	41739.78
677.393	41829.72
677.741	41916.72
678.09	41711.3
678.438	41679.67
678.787	41740.23
679.135	41785.88
679.484	41505.43
679.832	41717.63
680.181	41511.08
680.529	41579.56
680.877	41396.96
681.225	41323.97
681.573	41589.5
681.922	41263.86
682.27	41294.59
682.618	41227.7
682.966	41163.75
683.314	41237.19
683.661	41103.64
684.009	40901.16
684.357	40849.86
684.705	40820.25
685.053	40953.13
685.4	40756.75
685.748	40561.73
686.095	40698.22
686.443	40476.53
686.79	40478.57
687.138	40493.71
687.485	40328.06
687.832	40346.14
688.18	40328.97
688.527	40185.92
688.874	40111.12
689.221	40038.81
689.568	39982.08
689.915	39908.64
690.262	39775.99
690.609	39644.92
690.956	39647.86
691.303	39474.08
691.65	39524.92
691.997	39403.34
692.344	39267.75
692.69	39272.27
693.037	39153.86
693.383	38885.84
693.73	39048.55
694.077	38764.72
694.423	38730.82
694.769	38604.95
695.116	38620.31
695.462	38753.87
695.808	38575.57
696.155	38426.87
696.501	38190.72
696.847	38299.19
697.193	38046.09
697.539	38123.83
697.885	38004.28
698.231	37742.82
698.577	37796.15
698.923	37739.66
699.269	37566.78
699.614	37439.55
699.96	37332.21
700.306	37340.12
700.651	37165.21
700.997	37153.91
701.342	36983.52
701.688	36950.07
702.033	36766.58
702.379	36723.41
702.724	36788.04
703.069	36809.51
703.415	36410.43
703.76	36332.69
704.105	36427.6
704.45	36170.21
704.795	36168.4
705.14	36022.19
705.485	35897.22
705.83	35832.36
706.175	35872.14
706.52	35782.87
706.865	35630.11
707.209	35548.98
707.554	35417.23
707.899	35457.46
708.243	35337.46
708.588	35334.07
708.932	35064.93
709.277	35175.21
709.621	35190.57
709.966	34895.66
710.31	34968.43
710.654	34749.91
710.998	34781.77
711.342	34684.14
711.687	34665.84
712.031	34538.61
712.375	34369.12
712.719	34485.05
713.063	34316.47
713.407	34456.35
713.75	34156.93
714.094	34130.26
714.438	34067.66
714.782	34125.29
715.125	33881.68
715.469	34048
715.812	33912.87
716.156	33703.15
716.499	33773.89
716.843	33724.4
717.186	33489.6
717.53	33764.85
717.873	33797.39
718.216	33433.78
718.559	33368.7
718.902	33120.57
719.246	33215.93
719.589	33180.23
719.932	32949.27
720.275	33093.45
720.617	33021.82
720.96	32967.81
721.303	32812.78
721.646	32996.73
721.989	32599.45
722.331	32849.84
722.674	32812.78
723.016	32704.08
723.359	32595.39
723.701	32728.72
724.044	32442.4
724.386	32312.91
724.729	32469.06
725.071	32408.27
725.413	32366.92
725.755	32274.72
726.097	32171.67
726.439	31893.71
726.782	32053.03
727.124	32143.87
727.465	31970.77
727.807	31967.15
728.149	31917.21
728.491	31852.35
728.833	31778.23
729.175	31752.24
729.516	31654.39
729.858	31653.04
730.199	31544.57
730.541	31694.39
730.882	31492.59
731.224	31593.83
731.565	31378.69
731.906	31435.64
732.248	31449.88
732.589	31317.91
732.93	31037.23
733.271	31164.92
733.612	31219.38
733.953	31252.6
734.294	31024.13
734.635	30971.25
734.976	31026.84
735.317	30872.95
735.658	30909.33
735.999	30880.63
736.339	30739.62
736.68	30828.65
737.021	30639.28
737.361	30652.39
737.702	30804.92
738.042	30747.98
738.383	30568.32
738.723	30683.12
739.063	30456.01
739.404	30582.33
739.744	30445.16
740.084	30404.03
740.424	30435.67
740.764	30355.67
741.104	30611.26
741.444	30189.8
741.784	30199.74
742.124	30270.02
742.464	30047.43
742.804	30037.94
743.143	29943.7
743.483	30004.04
743.823	29920.65
744.162	29947.55
744.502	29914.78
744.841	29760.66
745.181	29739.19
745.52	29824.16
745.86	29831.62
746.199	29719.76
746.538	29669.81
746.877	29721.79
747.216	29616.26
747.556	29667.55
747.895	29536.26
748.234	29482.25
748.573	29461.23
748.911	29374.68
749.25	29285.64
749.589	29207
749.928	29298.3
750.267	29266.21
750.605	29120.22
750.944	29209.71
751.283	29003.84
751.621	29041.36
751.96	28848.82
752.298	28934.01
752.636	28804.3
752.975	28657.18
753.313	28506
753.651	28820.57
753.989	28518.43
754.327	28472.1
754.666	28383.97
755.004	28488.38
755.342	28537.87
755.679	28362.5
756.017	28315.05
756.355	28265.33
756.693	28233.47
757.031	28261.26
757.368	28063.53
