Data from hue_26_FLMS001491_00006.txt Node
Date: Tue Feb 07 17:13:29 GMT 2017
User: dcchb
Spectrometer: FLMS00149
Trigger mode: 0
Integration Time (sec): 2.000000E-2
Scans to average: 10
Electric dark correction enabled: true
Nonlinearity correction enabled: false
Boxcar width: 0
XAxis mode: Wavelengths
Number of Pixels in Spectrum: 2048
>>>>>Begin Spectral Data<<<<<
341.393	1.41
341.776	1.41
342.16	1.41
342.543	-67.51
342.927	-65.03
343.31	-70.45
343.693	-59.38
344.077	-56.67
344.46	-61.86
344.843	-39.26
345.226	-32.49
345.61	-29.32
345.993	-32.49
346.376	-41.3
346.759	5.03
347.142	18.14
347.525	42.54
347.908	57.23
348.291	77.79
348.674	110.34
349.057	112.14
349.44	116.66
349.823	122.99
350.206	184.68
350.588	206.83
350.971	209.77
351.354	236.89
351.737	231.46
352.119	264.68
352.502	259.94
352.884	266.94
353.267	289.31
353.65	301.52
354.032	294.06
354.414	302.2
354.797	331.35
355.179	315.75
355.562	324.34
355.944	337.67
356.326	322.76
356.709	358.24
357.091	354.17
357.473	348.52
357.855	351.46
358.238	341.97
358.62	336.77
359.002	331.35
359.384	351.01
359.766	341.74
360.148	334.06
360.53	360.72
360.912	355.98
361.294	319.6
361.676	353.49
362.057	335.19
362.439	313.95
362.821	333.16
363.203	332.03
363.584	318.47
363.966	336.54
364.348	331.57
364.729	324.57
365.111	327.51
365.493	329.99
365.874	329.77
366.256	316.66
366.637	337.9
367.019	311.23
367.4	327.28
367.781	335.19
368.163	325.7
368.544	334.74
368.925	296.55
369.306	330.44
369.688	299.48
370.069	288.64
370.45	317.56
370.831	329.54
371.212	313.04
371.593	317.11
371.974	307.17
372.355	312.82
372.736	291.35
373.117	308.3
373.498	332.93
373.879	313.72
374.26	332.25
374.641	320.73
375.021	313.27
375.402	335.64
375.783	331.8
376.163	343.32
376.544	343.78
376.925	346.71
377.305	329.54
377.686	328.64
378.066	348.3
378.447	329.99
378.827	308.3
379.208	317.34
379.588	329.31
379.968	342.42
380.349	346.26
380.729	338.58
381.109	346.94
381.489	334.06
381.87	337.22
382.25	328.64
382.63	340.61
383.01	338.35
383.39	349.65
383.77	329.99
384.15	346.71
384.53	331.8
384.91	358.69
385.29	360.5
385.67	336.77
386.049	358.47
386.429	356.66
386.809	350.56
387.189	356.88
387.568	375.64
387.948	355.75
388.328	362.08
388.707	348.3
389.087	391.91
389.466	353.72
389.846	358.24
390.225	365.47
390.605	368.86
390.984	374.74
391.363	366.15
391.743	366.15
392.122	354.85
392.501	379.71
392.881	370.67
393.26	367.05
393.639	367.05
394.018	382.19
394.397	394.62
394.776	375.64
395.155	391.91
395.534	381.06
395.913	374.06
396.292	382.42
396.671	378.8
397.05	380.61
397.429	381.29
397.808	386.04
398.186	382.19
398.565	382.87
398.944	404.57
399.323	404.57
399.701	403.21
400.08	427.84
400.458	415.64
400.837	407.5
401.215	408.41
401.594	410.22
401.972	406.6
402.351	391.46
402.729	395.3
403.107	396.66
403.486	411.8
403.864	421.51
404.242	414.96
404.62	426.03
404.999	407.96
405.377	434.4
405.755	442.08
406.133	426.03
406.511	440.27
406.889	425.36
407.267	435.07
407.645	442.08
408.023	433.27
408.401	431.23
408.779	448.41
409.156	440.72
409.534	430.1
409.912	439.59
410.29	459.03
410.667	458.35
411.045	449.54
411.422	454.06
411.8	477.11
412.178	446.82
412.555	455.64
412.933	471.91
413.31	498.35
413.687	475.3
414.065	482.76
414.442	485.69
414.819	480.27
415.197	479.37
415.574	473.04
415.951	496.99
416.328	493.6
416.705	493.15
417.082	494.73
417.46	466.48
417.837	493.15
418.214	512.13
418.591	532.47
418.967	508.97
419.344	505.13
419.721	520.04
420.098	529.31
420.475	503.77
420.852	525.69
421.228	521.62
421.605	536.77
421.982	523.88
422.358	543.55
422.735	538.12
423.111	537.67
423.488	546.48
423.864	539.93
424.241	542.19
424.617	514.85
424.994	542.87
425.37	539.03
425.746	565.69
426.123	576.54
426.499	566.37
426.875	564.34
427.251	587.39
427.627	568.63
428.003	575.86
428.379	595.07
428.756	588.74
429.132	610.66
429.507	620.38
429.883	592.81
430.259	620.38
430.635	627.84
431.011	643.88
431.387	631
431.763	632.36
432.138	631.68
432.514	638.91
432.89	639.36
433.265	642.75
433.641	661.51
434.016	682.98
434.392	649.98
434.767	691.11
435.143	682.75
435.518	688.17
435.894	695.41
436.269	697.44
436.644	702.64
437.02	705.57
437.395	701.73
437.77	700.38
438.145	722.07
438.52	724.11
438.895	711.9
439.271	754.61
439.646	746.25
440.021	745.57
440.395	735.18
440.77	744.9
441.145	739.47
441.52	753.93
441.895	752.81
442.27	751.68
442.645	749.19
443.019	786.48
443.394	766.14
443.769	777.89
444.143	751.68
444.518	775.63
444.892	779.02
445.267	791.9
445.641	812.69
446.016	801.17
446.39	807.72
446.764	811.79
447.139	814.05
447.513	826.48
447.887	826.93
448.262	828.06
448.636	820.6
449.01	837.77
449.384	835.74
449.758	842.07
450.132	826.7
450.506	868.06
450.88	862.41
451.254	838.9
451.628	852.24
452.002	887.26
452.376	890.65
452.75	891.11
453.123	904.44
453.497	909.19
453.871	911.44
454.244	921.39
454.618	916.42
454.992	942.63
455.365	955.06
455.739	948.28
456.112	971.78
456.486	991.89
456.859	994.61
457.232	972.91
457.606	998.67
457.979	1015.17
458.352	1048.16
458.725	1025.57
459.099	1031.22
459.472	1051.55
459.845	1065.11
460.218	1080.93
460.591	1096.07
460.964	1080.03
461.337	1108.95
461.71	1127.48
462.083	1119.35
462.456	1137.2
462.829	1116.64
463.201	1169.52
463.574	1179.23
463.947	1186.01
464.32	1181.04
464.692	1200.48
465.065	1198.22
465.438	1218.1
465.81	1234.6
466.183	1260.59
466.555	1311.66
466.928	1303.98
467.3	1307.14
467.672	1308.95
468.045	1342.85
468.417	1334.48
468.789	1334.26
469.161	1395.95
469.534	1383.3
469.906	1408.38
470.278	1442.96
470.65	1452.67
471.022	1447.48
471.394	1482.28
471.766	1481.37
472.138	1531.77
472.51	1567.92
472.882	1593.46
473.253	1588.94
473.625	1621.48
473.997	1663.74
474.369	1675.72
474.74	1694.7
475.112	1737.86
475.484	1745.32
475.855	1762.95
476.227	1792.33
476.598	1853.12
476.97	1856.05
477.341	1902.83
477.713	1952.77
478.084	1947.35
478.455	1989.38
478.827	2009.95
479.198	2077.29
479.569	2097.85
479.94	2135.59
480.311	2185.31
480.682	2242.26
481.053	2280.45
481.424	2328.58
481.795	2358.86
482.166	2385.08
482.537	2385.3
482.908	2458.97
483.279	2541.23
483.65	2565.64
484.021	2644.28
484.391	2639.99
484.762	2706.43
485.133	2741.45
485.503	2799.53
485.874	2851.05
486.244	2834.56
486.615	2904.39
486.985	3000.2
487.356	3025.51
487.726	3070.48
488.097	3150.48
488.467	3189.35
488.837	3224.38
489.207	3290.37
489.578	3298.27
489.948	3348.89
490.318	3373.08
490.688	3439.51
491.058	3490.59
491.428	3561.54
491.798	3589.34
492.168	3678.83
492.538	3688.55
492.908	3764.03
493.278	3792.73
493.648	3772.84
494.017	3876.79
494.387	3913.85
494.757	3951.82
495.126	4008.31
495.496	4011.25
495.866	4074.98
496.235	4144.13
496.605	4145.94
496.974	4185.71
497.344	4298.25
497.713	4310.23
498.082	4272.03
498.452	4367.17
498.821	4382.77
499.19	4411.24
499.559	4460.28
499.928	4488.07
500.298	4509.77
500.667	4575.53
501.036	4528.3
501.405	4593.61
501.774	4614.17
502.143	4700.95
502.512	4697.11
502.88	4764.45
503.249	4772.13
503.618	4780.5
503.987	4852.81
504.356	4842.87
504.724	4858.01
505.093	4871.11
505.462	4903.66
505.83	4965.35
506.199	4996.31
506.567	5067.49
506.936	5039.02
507.304	5127.83
507.672	5121.5
508.041	5117.44
508.409	5173.03
508.777	5172.12
509.145	5271.1
509.514	5238.34
509.882	5272.23
510.25	5267.49
510.618	5349.75
510.986	5340.93
511.354	5418.67
511.722	5431.33
512.09	5468.84
512.458	5463.87
512.826	5453.92
513.193	5512.68
513.561	5513.13
513.929	5537.54
514.297	5620.93
514.664	5642.39
515.032	5641.26
515.4	5709.51
515.767	5679
516.135	5718.78
516.502	5698.66
516.869	5850.98
517.237	5833.35
517.604	5777.98
517.972	5855.72
518.339	5847.36
518.706	5871.09
519.073	5931.88
519.44	5933.46
519.808	5969.62
520.175	5985.66
520.542	6031.76
520.909	6096.39
521.276	6067.02
521.643	6137.07
522.009	6196.73
522.376	6192.44
522.743	6207.58
523.11	6222.72
523.477	6303.39
523.843	6322.38
524.21	6352.88
524.577	6364.41
524.943	6427.46
525.31	6442.37
525.676	6504.29
526.043	6561.24
526.409	6513.56
526.776	6650.96
527.142	6611.86
527.508	6746.55
527.874	6711.52
528.241	6757.62
528.607	6784.51
528.973	6851.85
529.339	6853.89
529.705	6881.46
530.071	6923.49
530.437	6940.44
530.803	7046.42
531.169	7004.17
531.535	7005.97
531.901	7124.61
532.267	7108.34
532.632	7194.67
532.998	7164.61
533.364	7273.31
533.73	7237.83
534.095	7282.35
534.461	7323.25
534.826	7316.02
535.192	7371.39
535.557	7464.27
535.923	7424.27
536.288	7436.25
536.653	7431.95
537.019	7443.93
537.384	7518.73
537.749	7608.9
538.114	7597.6
538.479	7588.56
538.845	7673.3
539.21	7618.84
539.575	7647.09
539.94	7741.55
540.305	7790.13
540.67	7790.13
541.034	7817.7
541.399	7867.65
541.764	7865.16
542.129	7977.7
542.494	7910.36
542.858	7937.7
543.223	7939.06
543.587	8012.73
543.952	8052.27
544.316	8082.56
544.681	8107.41
545.045	8088.43
545.41	8148.99
545.774	8220.41
546.138	8227.86
546.503	8285.49
546.867	8290.01
547.231	8374.75
547.595	8379.5
547.959	8407.75
548.324	8443.45
548.688	8443.22
549.052	8599.6
549.416	8538.14
549.779	8589.89
550.143	8570.9
550.507	8630.34
550.871	8649.32
551.235	8709.88
551.599	8706.72
551.962	8741.07
552.326	8696.33
552.689	8820.62
553.053	8746.72
553.417	8816.32
553.78	8924.34
554.143	8872.14
554.507	8938.8
554.87	8900.39
555.234	8981.29
555.597	8961.4
555.96	9007.28
556.323	9006.6
556.686	9117.78
557.05	9174.05
557.413	9155.97
557.776	9185.35
558.139	9219.7
558.502	9297.67
558.865	9313.71
559.228	9359.81
559.59	9328.4
559.953	9366.36
560.316	9459.02
560.679	9491.56
561.041	9483.65
561.404	9570.43
561.767	9574.95
562.129	9611.56
562.492	9725.68
562.854	9646.13
563.217	9615.62
563.579	9683.64
563.941	9722.74
564.304	9742.4
564.666	9859.91
565.028	9896.97
565.39	9930.64
565.753	9933.81
566.115	9956.18
566.477	10055.39
566.839	10015.39
567.201	10113.46
567.563	10109.85
567.925	10138.1
568.287	10151.65
568.648	10188.49
569.01	10217.64
569.372	10365.43
569.734	10333.34
570.095	10393.68
570.457	10441.82
570.819	10487.01
571.18	10504.87
571.542	10532.43
571.903	10552.1
572.265	10670.51
572.626	10640.45
572.987	10750.06
573.349	10783.95
573.71	10849.94
574.071	10854.69
574.432	10983.04
574.794	11066.43
575.155	11068.47
575.516	11082.7
575.877	11150.05
576.238	11290.16
576.599	11352.75
576.96	11409.7
577.32	11458.96
577.681	11617.38
578.042	11716.81
578.403	11703.93
578.763	11845.39
579.124	11958.84
579.485	12016.92
579.845	12179.85
580.206	12177.36
580.566	12334.42
580.927	12510.24
581.287	12738.93
581.648	12785.71
582.008	12900.96
582.368	13058.24
582.728	13232.02
583.089	13315.64
583.449	13493.04
583.809	13707.04
584.169	13865.91
584.529	14024.55
584.889	14321.04
585.249	14334.14
585.609	14532.56
585.969	14836.28
586.329	15095.48
586.688	15268.81
587.048	15494.79
587.408	15535.02
587.768	15804.61
588.127	16043.48
588.487	16304.71
588.846	16702.22
589.206	16741.76
589.565	16955.99
589.925	17381.29
590.284	17666.03
590.643	17855.41
591.003	18243.64
591.362	18454.94
591.721	18732.45
592.08	18995.72
592.44	19321.81
592.799	19568.36
593.158	19860.1
593.517	20119.08
593.876	20406.98
594.235	20630.93
594.593	21059.62
594.952	21338.48
595.311	21500.96
595.67	21827.28
596.029	22345.91
596.387	22599.91
596.746	22904.54
597.104	23111.99
597.463	23501.59
597.822	23877.39
598.18	23985.19
598.538	24334.56
598.897	24732.29
599.255	24811.61
599.613	25433.06
599.972	25503.34
600.33	25940.84
600.688	26078.01
601.046	26517.33
601.404	26915.28
601.762	27063.75
602.12	27563.63
602.478	27779.44
602.836	28032.54
603.194	28199.77
603.552	28526.31
603.91	28720.88
604.268	29103.92
604.625	29272.51
604.983	29794.3
605.341	29780.74
605.698	30274.97
606.056	30528.29
606.413	30630.44
606.771	31041.5
607.128	31223.64
607.485	31295.96
607.843	31682.16
608.2	31987.46
608.557	32413.89
608.914	32355.36
609.272	32841.9
609.629	33082.8
609.986	33302.01
610.343	33486.86
610.7	33750.58
611.057	34000.52
611.414	34297.46
611.771	34384.01
612.127	34692.93
612.484	34835.07
612.841	35121.17
613.198	35127.72
613.554	35317.77
613.911	35627.82
614.267	35766.12
614.624	35962.73
614.98	36178.54
615.337	36453.34
615.693	36567.68
616.05	36696.27
616.406	36917.5
616.762	36969.93
617.118	37123.6
617.475	37365.18
617.831	37676.35
618.187	37774.66
618.543	37848.1
618.899	38230.46
619.255	38283.8
619.611	38415.77
619.967	38537.12
620.323	38714.52
620.678	38666.38
621.034	38648.31
621.39	38890.11
621.746	38951.12
622.101	39580.94
622.457	39244
622.812	39470.66
623.168	39584.55
623.523	39567.83
623.879	39834.94
624.234	39564.44
624.589	39922.85
624.945	40041.04
625.3	40273.35
625.655	40119.45
626.01	40238.09
626.365	40398.99
626.72	40503.62
627.075	40473.57
627.43	40508.14
627.785	40588.82
628.14	40696.16
628.495	40786.33
628.85	40678.53
629.205	40687.8
629.559	40969.6
629.914	40846.44
630.269	40890.05
630.623	40835.59
630.978	41053.21
631.332	41088.24
631.687	41111.52
632.041	41052.99
632.396	41191.74
632.75	41130.5
633.104	41173.66
633.459	41162.14
633.813	41059.99
634.167	41120.56
634.521	41185.19
634.875	41269.25
635.229	41132.53
635.583	41015.48
635.937	41188.58
636.291	41073.78
636.645	41248.69
636.999	41031.29
637.352	41325.52
637.706	41082.82
638.06	41240.1
638.413	41030.84
638.767	41131.63
639.121	41218.86
639.474	40937.74
639.828	41112.65
640.181	41212.31
640.534	41166.21
640.888	41145.87
641.241	40957.62
641.594	41146.77
641.947	41130.73
642.301	41115.13
642.654	41200.1
643.007	41193.55
643.36	41200.33
643.713	40974.8
644.066	41187.45
644.419	40947
644.771	40817.29
645.124	40241.94
645.477	40242.84
645.83	40015.5
646.182	39805.79
646.535	39830.2
646.888	39960.36
647.24	39718.56
647.593	39865.45
647.945	39821.83
648.298	39718.33
648.65	39687.15
649.002	39692.12
649.355	39859.12
649.707	39795.62
650.059	39989.97
650.411	40388.37
650.763	40374.81
651.115	40845.08
651.467	40683.73
651.819	40746.56
652.171	40674.24
652.523	40530.52
652.875	40484.19
653.227	40478.31
653.578	40672.21
653.93	40625.65
654.282	40558.76
654.633	40472.44
654.985	40560.12
655.337	40439.9
655.688	40482.16
656.039	40721.7
656.391	40232.67
656.742	40295.72
657.094	40464.53
657.445	40602.6
657.796	40490.52
658.147	40495.49
658.498	40481.7
658.849	40452.55
659.2	40497.07
659.551	40280.13
659.902	40501.82
660.253	40276.74
660.604	40396.73
660.955	40185.67
661.306	40431.99
661.656	40419.56
662.007	40248.72
662.358	40204.42
662.708	40306.12
663.059	40264.53
663.409	40042.39
663.76	40293.69
664.11	40297.75
664.461	40333.01
664.811	40223.86
665.161	40306.79
665.511	40194.93
665.862	40201.49
666.212	40277.42
666.562	40225.67
666.912	40145.44
667.262	40143.41
667.612	40057.53
667.962	40206
668.312	40117.65
668.662	40406.23
669.011	40174.37
669.361	40193.35
669.711	39994.94
670.06	40123.75
670.41	39965.33
670.76	39962.17
671.109	40105.22
671.459	40047.82
671.808	39958.78
672.157	40056.63
672.507	39821.83
672.856	39940.48
673.205	39955.62
673.554	40107.02
673.904	39879.91
674.253	40051.21
674.602	39893.47
674.951	39429.08
675.3	39216.88
675.649	39825.68
675.998	39705.91
676.346	39787.03
676.695	39951.32
677.044	39603.99
677.393	39830.65
677.741	39712.68
678.09	39578.22
678.438	39543.88
678.787	39681.95
679.135	39643.76
679.484	39426.36
679.832	39615.29
680.181	39265.24
680.529	39565.57
680.877	39279.02
681.225	39329.42
681.573	39429.75
681.922	39121.74
682.27	39131.68
682.618	39152.93
682.966	39018.47
683.314	39117.45
683.661	38973.95
684.009	38841.52
684.357	38861.63
684.705	38761.98
685.053	38888.98
685.4	38712.94
685.748	38592.26
686.095	38570.34
686.443	38553.85
686.79	38474.3
687.138	38418.26
687.485	38499.84
687.832	38238.6
688.18	38420.52
688.527	38112.73
688.874	38152.5
689.221	38127.42
689.568	37959.96
689.915	37805.16
690.262	37900.53
690.609	37604.04
690.956	37591.84
691.303	37624.6
691.65	37335.12
691.997	37453.76
692.344	37247.21
692.69	37231.85
693.037	37319.53
693.383	36865.53
693.73	36980.55
694.077	36931.29
694.423	36931.29
694.769	36786.89
695.116	36618.75
695.462	36635.03
695.808	36472.54
696.155	36549.15
696.501	36400.91
696.847	36301.02
697.193	36077.53
697.539	36173.12
697.885	35960.47
698.231	36055.61
698.577	35815.39
698.923	35901.94
699.269	35705.56
699.614	35465.79
699.96	35517.54
700.306	35406.13
700.651	35229.64
700.997	35214.95
701.342	35254.04
701.688	35126.14
702.033	34944.22
702.379	34904.9
702.724	34895.41
703.069	34889.08
703.415	34592.14
703.76	34520.96
704.105	34577.45
704.45	34486.38
704.795	34276.22
705.14	34252.94
705.485	34213.39
705.83	34075.54
706.175	34058.82
706.52	33951.25
706.865	33918.26
707.209	33859.05
707.554	33798.49
707.899	33863.12
708.243	33629
708.588	33539.51
708.932	33385.39
709.277	33403.25
709.621	33406.86
709.966	33114.21
710.31	33153.08
710.654	32844.16
710.998	32984.73
711.342	32837.61
711.687	32847.55
712.031	32706.77
712.375	32620.22
712.719	32715.81
713.063	32649.37
713.407	32712.64
713.75	32347.68
714.094	32407.57
714.438	32266.1
714.782	32336.16
715.125	32129.61
715.469	32214.58
715.812	32041.47
716.156	31900.46
716.499	31969.16
716.843	32029.5
717.186	31838.32
717.53	31994.02
717.873	31956.28
718.216	31759.45
718.559	31676.51
718.902	31451.21
719.246	31483.07
719.589	31430.42
719.932	31421.38
720.275	31348.84
720.617	31401.04
720.96	31186.13
721.303	31160.37
721.646	31264.55
721.989	30967.15
722.331	31060.48
722.674	31090.99
723.016	31081.05
723.359	31032.23
723.701	31014.61
724.044	30857.32
724.386	30602.64
724.729	30872.01
725.071	30766.03
725.413	30617.78
725.755	30499.14
726.097	30578.24
726.439	30373.04
726.782	30392.03
727.124	30633.83
727.465	30281.52
727.807	30461.85
728.149	30306.83
728.491	30186.83
728.833	30225.02
729.175	30162.2
729.516	30034.97
729.858	30039.27
730.199	30083.11
730.541	30011.7
730.882	29951.81
731.224	29948.87
731.565	29713.85
731.906	29850.12
732.248	29835.66
732.589	29561.99
732.93	29570.35
733.271	29637.02
733.612	29500.3
733.953	29652.16
734.294	29387.08
734.635	29463.91
734.976	29579.39
735.317	29376.46
735.658	29358.83
735.999	29366.52
736.339	29274.54
736.68	29325.61
737.021	29141.21
737.361	29115.45
737.702	29231.15
738.042	29012.63
738.383	29049.69
738.723	29122.23
739.063	29094.21
739.404	28987.54
739.744	29062.8
740.084	28940.99
740.424	28929.69
740.764	28753.2
741.104	29003.14
741.444	28737.15
741.784	28617.84
742.124	28633.88
742.464	28582.58
742.804	28582.81
743.143	28518.18
743.483	28555.92
743.823	28410.16
744.162	28323.38
744.502	28402.47
744.841	28264.85
745.181	28492.19
745.52	28256.94
745.86	28363.6
746.199	28050.17
746.538	28112.76
746.877	28152.08
747.216	28154.8
747.556	27966.55
747.895	28084.97
748.234	27975.59
748.573	27870.06
748.911	27972.43
749.25	27843.84
749.589	27783.96
749.928	27786.22
750.267	27879.55
750.605	27760
750.944	27694.47
751.283	27568.82
751.621	27588.26
751.96	27491.76
752.298	27447.02
752.636	27467.81
752.975	27432.78
753.313	27273.46
753.651	27272.33
753.989	27277.31
754.327	27082.06
754.666	27054.26
755.004	27174.03
755.342	27159.12
755.679	27092.68
756.017	26914.6
756.355	26921.16
756.693	26805.68
757.031	26842.29
757.368	26659.92
757.706	26712.35
758.044	26719.13
758.381	26553.71
758.719	26434.16
759.056	26529.3
759.394	26394.84
759.731	26143.1
