Data from hue_60_FLMS001491_4.txt Node
Date: Mon Feb 06 15:11:50 GMT 2017
User: dcchb
Spectrometer: FLMS00149
Trigger mode: 0
Integration Time (sec): 2.000000E-2
Scans to average: 10
Electric dark correction enabled: true
Nonlinearity correction enabled: false
Boxcar width: 0
XAxis mode: Wavelengths
Number of Pixels in Spectrum: 2048
>>>>>Begin Spectral Data<<<<<
341.393	-6.44
341.776	-6.44
342.16	-6.44
342.543	-61.13
342.927	-45.99
343.31	-61.13
343.693	-69.26
344.077	-58.87
344.46	-53.22
344.843	-40.11
345.226	-33.11
345.61	-40.34
345.993	-44.18
346.376	4.41
346.759	8.25
347.142	39.89
347.525	34.46
347.908	62.48
348.291	50.73
348.674	100.9
349.057	99.09
349.44	129.38
349.823	142.03
350.206	180.67
350.588	199.66
350.971	225.87
351.354	248.47
351.737	254.12
352.119	264.74
352.502	274
352.884	308.81
353.267	294.79
353.65	319.43
354.032	303.38
354.414	312.2
354.797	334.79
355.179	325.53
355.562	339.31
355.944	341.8
356.326	344.28
356.709	322.59
357.091	357.39
357.473	367.33
357.855	366.43
358.238	348.35
358.62	352.65
359.002	328.69
359.384	340.44
359.766	346.54
360.148	361.69
360.53	361.91
360.912	330.95
361.294	363.27
361.676	363.49
362.057	344.06
362.439	368.24
362.821	330.05
363.203	364.62
363.584	320.78
363.966	323.95
364.348	343.61
364.729	323.72
365.111	321.23
365.493	310.61
365.874	314.91
366.256	323.04
366.637	318.07
367.019	335.47
367.4	300.67
367.781	330.05
368.163	337.73
368.544	314
368.925	322.82
369.306	330.05
369.688	308.35
370.069	315.58
370.45	328.47
370.831	320.78
371.212	313.55
371.593	309.26
371.974	319.43
372.355	301.12
372.736	321.01
373.117	317.84
373.498	334.34
373.879	324.85
374.26	316.94
374.641	318.97
375.021	315.58
375.402	313.33
375.783	325.08
376.163	326.43
376.544	309.03
376.925	328.24
377.305	325.75
377.686	339.31
378.066	330.5
378.447	350.16
378.827	318.3
379.208	329.6
379.588	363.04
379.968	347.67
380.349	357.84
380.729	343.61
381.109	369.59
381.489	364.4
381.87	346.77
382.25	325.98
382.63	342.48
383.01	346.54
383.39	360.78
383.77	348.35
384.15	333.66
384.53	356.94
384.91	343.61
385.29	330.73
385.67	350.39
386.049	346.54
386.429	354.23
386.809	356.49
387.189	356.26
387.568	361.46
387.948	349.03
388.328	369.59
388.707	353.1
389.087	347
389.466	380.67
389.846	378.86
390.225	361.46
390.605	370.72
390.984	388.35
391.363	393.32
391.743	360.56
392.122	392.65
392.501	372.08
392.881	361.69
393.26	378.86
393.639	371.63
394.018	368.46
394.397	374.79
394.776	384.06
395.155	381.57
395.534	382.93
395.913	392.65
396.292	380.22
396.671	385.64
397.05	374.79
397.429	401.01
397.808	397.84
398.186	413.89
398.565	392.65
398.944	387.22
399.323	390.39
399.701	398.29
400.08	408.69
400.458	400.55
400.837	404.4
401.215	419.09
401.594	403.27
401.972	412.08
402.351	388.13
402.729	426.54
403.107	419.54
403.486	399.88
403.864	415.24
404.242	413.89
404.62	424.28
404.999	427.45
405.377	434
405.755	403.49
406.133	416.15
406.511	423.15
406.889	420.89
407.267	423.15
407.645	408.01
408.023	442.59
408.401	442.59
408.779	433.1
409.156	414.57
409.534	436.49
409.912	429.71
410.29	445.53
410.667	462.93
411.045	457.05
411.422	449.37
411.8	459.54
412.178	462.25
412.555	462.47
412.933	474.45
413.31	462.25
413.687	485.98
414.065	475.35
414.442	474.9
414.819	482.59
415.197	497.73
415.574	493.21
415.951	501.34
416.328	490.27
416.705	525.52
417.082	504.05
417.46	514.68
417.837	492.3
418.214	517.61
418.591	510.83
418.967	512.19
419.344	521.23
419.721	518.52
420.098	536.6
420.475	511.29
420.852	520.55
421.228	516.03
421.605	519.65
421.982	538.63
422.358	542.25
422.735	544.05
423.111	553.32
423.488	562.36
423.864	570.49
424.241	546.54
424.617	566.43
424.994	535.24
425.37	564.84
425.746	564.84
426.123	562.36
426.499	575.24
426.875	575.92
427.251	584.73
427.627	560.32
428.003	580.66
428.379	591.51
428.756	624.5
429.132	603.03
429.507	611.17
429.883	591.28
430.259	638.97
430.635	629.47
431.011	609.14
431.387	623.83
431.763	653.66
432.138	655.01
432.514	656.14
432.89	631.28
433.265	669.7
433.641	658.63
434.016	669.02
434.392	666.08
434.767	669.25
435.143	675.8
435.518	683.03
435.894	681.9
436.269	692.07
436.644	697.27
437.02	711.73
437.395	715.57
437.77	709.25
438.145	728.23
438.52	717.83
438.895	719.64
439.271	734.1
439.646	742.24
440.021	736.36
440.395	747.66
440.77	735.46
441.145	739.98
441.52	780.21
441.895	762.58
442.27	758.51
442.645	778.17
443.019	772.97
443.394	763.71
443.769	789.24
444.143	783.6
444.518	802.13
444.892	792.86
445.267	789.92
445.641	775.01
446.016	810.04
446.39	809.13
446.764	808.45
447.139	826.53
447.513	831.5
447.887	826.53
448.262	829.7
448.636	835.12
449.01	829.24
449.384	822.92
449.758	828.34
450.132	847.32
450.506	869.47
450.88	880.09
451.254	878.06
451.628	869.24
452.002	890.03
452.376	908.56
452.75	886.19
453.123	901.56
453.497	949.92
453.871	915.12
454.244	937.72
454.618	918.05
454.992	944.95
455.365	972.74
455.739	978.62
456.112	971.61
456.486	959.86
456.859	1002.8
457.232	993.76
457.606	1006.41
457.979	1019.52
458.352	1042.57
458.725	1048.45
459.099	1037.83
459.472	1047.09
459.845	1085.73
460.218	1088.22
460.591	1092.97
460.964	1064.04
461.337	1123.7
461.71	1128.22
462.083	1144.72
462.456	1149.69
462.829	1182.45
463.201	1175.9
463.574	1189.69
463.947	1208.89
464.32	1207.54
464.692	1266.52
465.065	1247.54
465.438	1294.32
465.81	1296.58
466.183	1339.06
466.555	1325.95
466.928	1359.4
467.3	1346.52
467.672	1375.67
468.045	1422.9
468.417	1440.08
468.789	1452.28
469.161	1483.69
469.534	1519.17
469.906	1540.19
470.278	1573.86
470.65	1568.89
471.022	1601.65
471.394	1635.55
471.766	1658.37
472.138	1681.88
472.51	1758.94
472.882	1795.09
473.253	1838.26
473.625	1854.75
473.997	1918.71
474.369	1927.75
474.74	1978.59
475.112	2022.88
475.484	2077.8
475.855	2097.46
476.227	2180.39
476.598	2253.39
476.97	2297.45
477.341	2325.02
477.713	2414.29
478.084	2461.52
478.455	2581.74
478.827	2607.28
479.198	2699.03
479.569	2741.28
479.94	2811.11
480.311	2908.51
480.682	2971.56
481.053	3149.86
481.424	3182.63
481.795	3286.13
482.166	3360.48
482.537	3489.96
482.908	3614.71
483.279	3653.35
483.65	3781.48
484.021	3954.59
484.391	4004.98
484.762	4132.89
485.133	4219.66
485.503	4297.63
485.874	4523.16
486.244	4573.78
486.615	4784.85
486.985	4874.79
487.356	4995.69
487.726	5117.94
488.097	5314.55
488.467	5411.04
488.837	5626.18
489.207	5768.1
489.578	5898.26
489.948	6048.99
490.318	6226.62
490.688	6328.76
491.058	6537.12
491.428	6679.94
491.798	6891.01
492.168	7088.97
492.538	7180.72
492.908	7386.59
493.278	7519.01
493.648	7649.63
494.017	7913.13
494.387	8032.44
494.757	8222.04
495.126	8371.64
495.496	8569.38
495.866	8689.83
496.235	8892.31
496.605	9106.99
496.974	9185.86
497.344	9408.68
497.713	9508.34
498.082	9733.64
498.452	9851.61
498.821	10068.1
499.19	10195.78
499.559	10357.13
499.928	10521.19
500.298	10749.89
500.667	10855.19
501.036	10957.56
501.405	11168.63
501.774	11222.42
502.143	11486.14
502.512	11579.7
502.88	11847.49
503.249	12004.32
503.618	12121.15
503.987	12300.13
504.356	12408.6
504.724	12549.39
505.093	12780.79
505.462	12831.41
505.83	13034.57
506.199	13235.25
506.567	13350.95
506.936	13495.8
507.304	13677.95
507.672	13869.58
508.041	13993.87
508.409	14133.3
508.777	14372.39
509.145	14518.6
509.514	14578.26
509.882	14811.02
510.25	14932.15
510.618	15059.15
510.986	15255.98
511.354	15352.48
511.722	15560.61
512.09	15824.78
512.458	15768.74
512.826	16067.04
513.193	16110.42
513.561	16181.83
513.929	16449.4
514.297	16599.9
514.664	16800.12
515.032	16936.16
515.4	17050.06
515.767	17158.98
516.135	17364.85
516.502	17328.02
516.869	17652.53
517.237	17783.37
517.604	17868.12
517.972	18002.8
518.339	18197.83
518.706	18277.37
519.073	18412.28
519.44	18644.37
519.808	18829.45
520.175	18938.37
520.542	19210.68
520.909	19302.2
521.276	19330.45
521.643	19577.68
522.009	19824.45
522.376	19888.63
522.743	20010.66
523.11	20258.79
523.477	20472.12
523.843	20584.2
524.21	20944.2
524.577	20920.47
524.943	21101.25
525.31	21276.16
525.676	21430.28
526.043	21708.69
526.409	21779.2
526.776	21893.77
527.142	21963.15
527.508	22167.44
527.874	22457.83
528.241	22492.4
528.607	22566.53
528.973	22776.69
529.339	22877.25
529.705	23140.97
530.071	23207.64
530.437	23371.48
530.803	23540.06
531.169	23680.17
531.535	23794.06
531.901	23798.13
532.267	23990.44
532.632	24081.06
532.998	24171
533.364	24409.41
533.73	24442.18
534.095	24622.52
534.461	24733.25
534.826	24814.38
535.192	24823.64
535.557	25143.18
535.923	25153.58
536.288	25318.09
536.653	25377.75
537.019	25420.46
537.384	25513.11
537.749	25615.94
538.114	25684.41
538.479	25766.22
538.845	26000.56
539.21	25919.43
539.575	26064.74
539.94	26111.74
540.305	26374.11
540.67	26286.65
541.034	26445.75
541.399	26563.26
541.764	26654.1
542.129	26712.4
542.494	26803.93
542.858	26937.71
543.223	26979.97
543.587	27168.89
543.952	27034.43
544.316	27144.94
544.681	27203.69
545.045	27503.57
545.41	27557.35
545.774	27596
546.138	27661.98
546.503	27793.51
546.867	27751.47
547.231	28008.64
547.595	27985.37
547.959	28131.58
548.324	28176.32
548.688	28254.51
549.052	28308.3
549.416	28478.01
549.779	28447.05
550.143	28559.59
550.507	28661.96
550.871	28856.3
551.235	28840.26
551.599	29110.31
551.962	29168.39
552.326	29263.75
552.689	29416.97
553.053	29281.38
553.417	29555.95
553.78	29843.62
554.143	29666.23
554.507	29832.1
554.87	29914.13
555.234	30104.86
555.597	30024.18
555.96	30235.48
556.323	30293.33
556.686	30446.32
557.05	30618.74
557.413	30755.46
557.776	30732.64
558.139	31124.04
558.502	31107.32
558.865	31115.68
559.228	31425.5
559.59	31467.99
559.953	31602.9
560.316	31927.18
560.679	31977.58
561.041	32046.95
561.404	32241.07
561.767	32368.3
562.129	32353.61
562.492	32742.08
562.854	32589.31
563.217	32787.05
563.579	32879.02
563.941	33171.44
564.304	33204.89
564.666	33497.31
565.028	33519.91
565.39	33634.93
565.753	33756.06
566.115	33923.51
566.477	34063.85
566.839	34091.87
567.201	34386.78
567.563	34364.18
567.925	34538.64
568.287	34717.62
568.648	34780.22
569.01	34931.62
569.372	35042.36
569.734	35014.79
570.095	35266.98
570.457	35434.66
570.819	35465.17
571.18	35500.42
571.542	35842.56
571.903	35723.24
572.265	35982.9
572.626	36079.39
572.987	36018.37
573.349	36222.44
573.71	36469.21
574.071	36501.07
574.432	36626.27
574.794	36783.55
575.155	36666.49
575.516	36637.79
575.877	36896.32
576.238	37037.11
576.599	37117.78
576.96	37082.08
577.32	36995.75
577.681	37136.54
578.042	37313.26
578.403	37397.32
578.763	37508.73
579.124	37454.04
579.485	37644.32
579.845	37784.2
580.206	37725.22
580.566	37682.06
580.927	37766.58
581.287	38044.99
581.648	37901.94
582.008	38006.57
582.368	37934.48
582.728	38058.77
583.089	37965.44
583.449	37906.46
583.809	38085.89
584.169	38142.61
584.529	38044.54
584.889	38329.27
585.249	38090.41
585.609	38011.32
585.969	38305.09
586.329	38150.97
586.688	38255.83
587.048	38329.5
587.408	38225.1
587.768	38253.12
588.127	38241.59
588.487	38154.14
588.846	38471.19
589.206	38251.31
589.565	38343.06
589.925	38523.62
590.284	38486.33
590.643	38421.48
591.003	38656.95
591.362	38592.32
591.721	38580.12
592.08	38585.99
592.44	38711.41
592.799	38670.73
593.158	38653.11
593.517	38726.78
593.876	38733.56
594.235	38737.85
594.593	38722.03
594.952	38738.76
595.311	38804.29
595.67	38872.54
596.029	38997.51
596.387	39125.64
596.746	39069.82
597.104	38950.95
597.463	39005.87
597.822	39100.33
598.18	39043.83
598.538	38948.69
598.897	39136.94
599.255	38934.68
599.613	39314.11
599.972	39314.11
600.33	39373.09
600.688	39325.63
601.046	39381.22
601.404	39613.31
601.762	39422.58
602.12	39625.29
602.478	39587.32
602.836	39557.94
603.194	39470.49
603.552	39599.3
603.91	39404.27
604.268	39763.81
604.625	39597.72
604.983	39787.32
605.341	39759.75
605.698	39800.2
606.056	40009.91
606.413	39974.2
606.771	40082
607.128	40165.84
607.485	39990.47
607.843	40077.03
608.2	40358.15
608.557	40418.94
608.914	40369.67
609.272	40658.03
609.629	40615.54
609.986	40764.01
610.343	40579.84
610.7	40942.77
611.057	40844.69
611.414	40766.95
611.771	40877.91
612.127	41018.47
612.484	41063.89
612.841	41142.08
613.198	40902.77
613.554	41147.28
613.911	41423.2
614.267	41321.06
614.624	41268.18
614.98	41472.24
615.337	41545.91
615.693	41536.42
616.05	41563.31
616.406	41785.91
616.762	41781.61
617.118	41654.16
617.475	41682.41
617.831	41802.86
618.187	41814.83
618.543	41893.02
618.899	42156.74
619.255	42217.99
619.611	42149.06
619.967	42401.71
620.323	42439.45
620.678	42249.85
621.034	42203.98
621.39	42233.58
621.746	42206.69
622.101	42694.13
622.457	42375.5
622.812	42452.78
623.168	42553.12
623.523	42465.89
623.879	42621.82
624.234	42354.93
624.589	42550.86
624.945	42628.37
625.3	42559.67
625.655	42723.28
626.01	42721.25
626.365	42774.36
626.72	42758.54
627.075	42596.28
627.43	42697.75
627.785	42673.57
628.14	42858.87
628.495	42864.75
628.85	42611.42
629.205	42585.21
629.559	42765.09
629.914	42643.96
630.269	42700.69
630.623	42630.4
630.978	42531.65
631.332	42760.34
631.687	42786.11
632.041	42591.99
632.396	42772.55
632.75	42486.68
633.104	42557.41
633.459	42339.79
633.813	42482.16
634.167	42577.3
634.521	42463.4
634.875	42479.45
635.229	42380.47
635.583	42180.47
635.937	42226.57
636.291	42356.51
636.645	42334.37
636.999	42190.19
637.352	42396.74
637.706	42185.44
638.06	42306.8
638.413	42217.08
638.767	42058.22
639.121	42210.75
639.474	41813.25
639.828	41957.88
640.181	42059.35
640.534	42156.29
640.888	41927.6
641.241	41747.26
641.594	41975.73
641.947	41960.37
642.301	41738.68
642.654	41846.92
643.007	41764.89
643.36	41735.29
643.713	41718.34
644.066	41852.35
644.419	41555.18
644.771	41164.23
645.124	40954.74
645.477	40853.73
645.83	40717.46
646.182	40481.76
646.535	40387.3
646.888	40469.11
647.24	40288.77
647.593	40553.4
647.945	40457.13
648.298	40303.91
648.65	40204.03
649.002	40215.55
649.355	40357.92
649.707	40058.27
650.059	40441.31
650.411	40887.85
650.763	40845.14
651.115	41162.42
651.467	41099.6
651.819	41010.56
652.171	40975.31
652.523	40884.69
652.875	40963.78
653.227	40731.92
653.578	40979.37
653.93	41024.12
654.282	40810.57
654.633	40590.68
654.985	40786.61
655.337	40695.09
655.688	40752.49
656.039	40968.98
656.391	40420.52
656.742	40597.92
657.094	40626.39
657.445	40642.66
657.796	40610.12
658.147	40615.54
658.498	40465.72
658.849	40592.49
659.2	40477.69
659.551	40318.83
659.902	40598.59
660.253	40463.23
660.604	40533.28
660.955	40395.44
661.306	40584.81
661.656	40364.7
662.007	40421.88
662.358	40522.21
662.708	40383.23
663.059	40298.26
663.409	40355.89
663.76	40405.38
664.11	40408.09
664.461	40420.97
664.811	40417.81
665.161	40342.56
665.511	40270.01
665.862	40300.3
666.212	40357.02
666.562	40459.39
666.912	40340.52
667.262	40223.46
667.612	40333.52
667.962	40361.31
668.312	40155.89
668.662	40426.17
669.011	40265.04
669.361	40039.96
669.711	40166.29
670.06	40145.05
670.41	40039.06
670.76	40045.61
671.109	40086.97
671.459	40008.33
671.808	40079.74
672.157	40184.59
672.507	39898.72
672.856	39832.96
673.205	39897.14
673.554	39903.47
673.904	39813.98
674.253	40190.02
674.602	39835.68
674.951	39366.31
675.3	39214.45
675.649	39935.56
675.998	39717.03
676.346	39872.28
676.695	39984.37
677.044	39456.7
677.393	39681.1
677.741	39861.21
678.09	39634.55
678.438	39558.62
678.787	39785.73
679.135	39760.65
679.484	39387.1
679.832	39567.66
680.181	39331.51
680.529	39332.64
680.877	39293.77
681.225	39401.56
681.573	39349.36
681.922	39184.39
682.27	39021.69
682.618	39140.33
682.966	39068.92
683.314	39130.16
683.661	39015.36
684.009	38817.62
684.357	38788.02
684.705	38718.42
685.053	38795.25
685.4	38653.56
685.748	38372.89
686.095	38515.94
686.443	38491.08
686.79	38434.58
687.138	38332.21
687.485	38421.25
687.832	38189.39
688.18	38200.69
688.527	37968.15
688.874	38070.3
689.221	37852.45
689.568	37796.41
689.915	37692.23
690.262	37677.77
690.609	37689.97
690.956	37434.38
691.303	37529.52
691.65	37253.6
691.997	37175.86
692.344	37104
692.69	37107.84
693.037	37103.32
693.383	36777
693.73	37014.06
694.077	36706.94
694.423	36779.71
694.769	36667.17
695.116	36499.49
695.462	36426.27
695.808	36207.75
696.155	36384.69
696.501	36009.11
696.847	36119.39
697.193	35863.8
697.539	35824.71
697.885	35726.18
698.231	35643.47
698.577	35651.6
698.923	35542
699.269	35495.68
699.614	35257.72
699.96	35323.03
700.306	35204.16
700.651	35138.17
700.997	35080.77
701.342	35100.21
701.688	34949.02
702.033	34808.92
702.379	34859.76
702.724	34625.42
703.069	34718.52
703.415	34415.93
703.76	34451.41
704.105	34517.4
704.45	34258.65
704.795	34175.03
705.14	34076.28
705.485	34005.32
705.83	33853.23
706.175	33846.68
706.52	33728.94
706.865	33656.86
707.209	33761.03
707.554	33436.97
707.899	33544.32
708.243	33390.42
708.588	33348.16
708.932	33162.4
709.277	33121.5
709.621	33098.45
709.966	32838.35
710.31	32927.83
710.654	32775.52
710.998	32784.56
711.342	32714.51
711.687	32571.23
712.031	32528.3
712.375	32443.55
712.719	32535.53
713.063	32279.94
713.407	32593.83
713.75	32255.31
714.094	32203.56
714.438	32055.77
714.782	32106.84
715.125	31783.46
715.469	31930.35
715.812	31845.83
716.156	31720.86
716.499	31593.18
716.843	31759.5
717.186	31408.1
717.53	31756.79
717.873	31620.52
718.216	31527.42
718.559	31415.56
718.902	31226.18
719.246	31329.68
719.589	31240.2
719.932	31012.18
720.275	31046.75
720.617	31129.69
720.96	31031.16
721.303	31067.09
721.646	30942.35
721.989	30837.27
722.331	30810.6
722.674	30708.46
723.016	30816.03
723.359	30676.37
723.701	30718.4
724.044	30437.5
724.386	30305.53
724.729	30517.5
725.071	30444.74
725.413	30310.28
725.755	30368.81
726.097	30166.78
726.439	30133.11
726.782	29953.22
727.124	30241.8
727.465	30078.87
727.807	30004.97
728.149	29987.57
728.491	29811.53
728.833	29959.78
729.175	29891.76
729.516	29636.62
729.858	29661.25
730.199	29740.35
730.541	29589.17
730.882	29661.03
731.224	29641.59
731.565	29428.94
731.906	29447.47
732.248	29496.29
732.589	29282.73
732.93	29231.43
733.271	29187.37
733.612	29186.01
733.953	29186.46
734.294	29144.21
734.635	28964.55
734.976	29230.3
735.317	28997.32
735.658	28921.84
735.999	28880.71
736.339	28975.4
736.68	28970.88
737.021	28867.83
737.361	28695.86
737.702	28821.73
738.042	28786.47
738.383	28631.22
738.723	28584.22
739.063	28721.17
739.404	28715.74
739.744	28522.75
740.084	28314.85
740.424	28482.3
740.764	28328.41
741.104	28463.77
741.444	28217.68
741.784	28212.7
742.124	28242.76
742.464	28145.14
742.804	28113.95
743.143	27936.1
743.483	28026.95
743.823	27898.14
744.162	27896.78
744.502	27788.76
744.841	27713.73
745.181	27843.67
745.52	27723.45
745.86	27757.8
746.199	27706.96
746.538	27618.82
746.877	27608.2
747.216	27612.72
747.556	27527.75
747.895	27574.98
748.234	27388.09
748.573	27312.84
748.911	27283.46
749.25	27278.27
749.589	27025.17
749.928	27119.4
750.267	27240.07
750.605	27183.13
750.944	27045.73
751.283	26896.58
751.621	27112.39
751.96	26850.25
752.298	26796.92
752.636	26899.74
752.975	26729.35
753.313	26711.28
753.651	26779.07
753.989	26520.55
754.327	26518.51
754.666	26422.47
755.004	26497.5
755.342	26324.84
755.679	26355.8
756.017	26202.36
756.355	26175.47
