Data from hue_170_FLMS001491_00039.txt Node
Date: Tue Feb 07 16:48:37 GMT 2017
User: dcchb
Spectrometer: FLMS00149
Trigger mode: 0
Integration Time (sec): 2.000000E-2
Scans to average: 10
Electric dark correction enabled: true
Nonlinearity correction enabled: false
Boxcar width: 0
XAxis mode: Wavelengths
Number of Pixels in Spectrum: 2048
>>>>>Begin Spectral Data<<<<<
341.393	4.31
341.776	4.31
342.16	4.31
342.543	-60.55
342.927	-76.14
343.31	-63.04
343.693	-57.84
344.077	-74.79
344.46	-72.75
344.843	-51.51
345.226	-24.39
345.61	-30.72
345.993	-29.14
346.376	-19.19
346.759	20.13
347.142	46.57
347.525	31.43
347.908	64.42
348.291	73.46
348.674	90.86
349.057	96.51
349.44	109.16
349.823	150.74
350.206	139.45
350.588	200.23
350.971	218.99
351.354	226
351.737	206.56
352.119	235.04
352.502	247.24
352.884	261.93
353.267	278.42
353.65	288.14
354.032	296.5
354.414	278.65
354.797	305.77
355.179	322.49
355.562	331.08
355.944	340.8
356.326	337.63
356.709	333.79
357.091	317.97
357.473	349.38
357.855	323.17
358.238	323.4
358.62	340.8
359.002	338.76
359.384	334.02
359.766	322.49
360.148	310.97
360.53	327.46
360.912	351.19
361.294	339.67
361.676	309.16
362.057	324.75
362.439	331.08
362.821	324.3
363.203	336.28
363.584	336.5
363.966	288.82
364.348	316.16
364.729	325.66
365.111	288.82
365.493	313
365.874	313.68
366.256	309.84
366.637	315.49
367.019	299.22
367.4	322.49
367.781	317.52
368.163	313.45
368.544	307.12
368.925	294.02
369.306	309.38
369.688	317.07
370.069	332.43
370.45	313.9
370.831	310.51
371.212	280.46
371.593	313.9
371.974	320.91
372.355	308.48
372.736	310.74
373.117	302.38
373.498	325.88
373.879	300.12
374.26	316.62
374.641	325.2
375.021	335.15
375.402	302.38
375.783	306.45
376.163	313.9
376.544	336.05
376.925	346.67
377.305	313.68
377.686	324.98
378.066	330.85
378.447	316.84
378.827	329.95
379.208	340.57
379.588	309.16
379.968	327.24
380.349	330.4
380.729	320.91
381.109	334.92
381.489	347.58
381.87	329.72
382.25	319.33
382.63	350.51
383.01	343.28
383.39	354.58
383.77	346.45
384.15	331.98
384.53	335.37
384.91	345.99
385.29	348.93
385.67	350.51
386.049	355.49
386.429	356.61
386.809	334.92
387.189	343.06
387.568	339.21
387.948	358.87
388.328	357.52
388.707	369.5
389.087	353.9
389.466	366.11
389.846	345.77
390.225	339.67
390.605	379.89
390.984	363.62
391.363	357.52
391.743	371.08
392.122	357.52
392.501	380.12
392.881	376.73
393.26	385.99
393.639	372.66
394.018	375.82
394.397	393.68
394.776	362.94
395.155	384.41
395.534	367.24
395.913	373.11
396.292	394.58
396.671	387.8
397.05	370.17
397.429	392.77
397.808	401.81
398.186	405.65
398.565	399.33
398.944	399.78
399.323	394.81
399.701	400.68
400.08	378.99
400.458	402.49
400.837	396.39
401.215	411.98
401.594	409.95
401.972	393.45
402.351	395.48
402.729	411.75
403.107	423.28
403.486	414.47
403.864	425.99
404.242	416.5
404.62	413.79
404.999	413.34
405.377	436.84
405.755	432.09
406.133	446.1
406.511	448.14
406.889	436.84
407.267	438.65
407.645	433
408.023	447.91
408.401	465.09
408.779	490.85
409.156	487.91
409.534	450.62
409.912	475.71
410.29	472.09
410.667	474.35
411.045	468.7
411.422	482.71
411.8	485.88
412.178	499.21
412.555	505.76
412.933	524.52
413.31	522.49
413.687	506.67
414.065	537.63
414.442	512.32
414.819	549.15
415.197	511.87
415.574	541.69
415.951	557.06
416.328	551.19
416.705	569.26
417.082	566.78
417.46	571.98
417.837	582.6
418.214	575.59
418.591	592.54
418.967	593.67
419.344	588.25
419.721	613.11
420.098	594.12
420.475	601.81
420.852	611.07
421.228	641.58
421.605	617.17
421.982	637.29
422.358	623.27
422.735	675.48
423.111	636.38
423.488	654.91
423.864	674.8
424.241	674.57
424.617	667.12
424.994	681.13
425.37	694.01
425.746	701.92
426.123	715.7
426.499	723.84
426.875	685.87
427.251	729.71
427.627	743.5
428.003	744.63
428.379	764.29
428.756	753.89
429.132	771.75
429.507	771.52
429.883	762.48
430.259	820.33
430.635	802.03
431.011	794.57
431.387	813.1
431.763	818.07
432.138	826.89
432.514	847.68
432.89	847.45
433.265	862.82
433.641	868.69
434.016	866.88
434.392	907.79
434.767	912.53
435.143	927.67
435.518	948.69
435.894	949.82
436.269	941.91
436.644	960.67
437.02	945.07
437.395	968.58
437.77	979.88
438.145	1027.78
438.52	995.02
438.895	1034.79
439.271	1034.11
439.646	1044.51
440.021	1065.52
440.395	1061
440.77	1070.49
441.145	1090.61
441.52	1118.85
441.895	1094.9
442.27	1115.01
442.645	1117.05
443.019	1129.48
443.394	1155.01
443.769	1149.59
444.143	1154.56
444.518	1167.67
444.892	1167.67
445.267	1175.35
445.641	1185.07
446.016	1186.2
446.39	1196.37
446.764	1211.96
447.139	1233.65
447.513	1235.69
447.887	1244.05
448.262	1246.99
448.636	1249.47
449.01	1282.47
449.384	1284.27
449.758	1306.65
450.132	1306.65
450.506	1339.19
450.88	1331.05
451.254	1328.11
451.628	1330.83
452.002	1368.57
452.376	1389.58
452.75	1386.19
453.123	1394.78
453.497	1405.17
453.871	1436.59
454.244	1462.57
454.618	1491.27
454.992	1479.07
455.365	1500.54
455.739	1525.4
456.112	1529.92
456.486	1546.41
456.859	1582.12
457.232	1582.8
457.606	1604.27
457.979	1630.03
458.352	1656.69
458.725	1657.15
459.099	1679.52
459.472	1741.21
459.845	1729.46
460.218	1744.15
460.591	1745.96
460.964	1761.55
461.337	1810.14
461.71	1850.13
462.083	1874.54
462.456	1872.06
462.829	1873.64
463.201	1940.3
463.574	1929
463.947	1987.08
464.32	2022.79
464.692	2040.86
465.065	2071.6
465.438	2078.15
465.81	2121.54
466.183	2144.59
466.555	2161.09
466.928	2195.21
467.3	2256
467.672	2252.61
468.045	2338.94
468.417	2350.23
468.789	2373.96
469.161	2415.32
469.534	2486.28
469.906	2505.03
470.278	2541.42
470.65	2597.46
471.022	2653.96
471.394	2687.63
471.766	2708.64
472.138	2774.18
472.51	2834.06
472.882	2907.28
473.253	2939.15
473.625	3003.1
473.997	3031.57
474.369	3091.68
474.74	3125.13
475.112	3207.61
475.484	3285.58
475.855	3353.37
476.227	3449.87
476.598	3521.5
476.97	3561.28
477.341	3679.92
477.713	3712.46
478.084	3785.23
478.455	3901.83
478.827	3961.49
479.198	4102.73
479.569	4128.95
479.94	4315.38
480.311	4332.56
480.682	4460.46
481.053	4553.34
481.424	4668.37
481.795	4750.17
482.166	4903.84
482.537	4946.1
482.908	5106.77
483.279	5185.19
483.65	5290.27
484.021	5438.97
484.391	5589.47
484.762	5639.19
485.133	5698.85
485.503	5783.82
485.874	5972.06
486.244	6090.48
486.615	6249.34
486.985	6343.35
487.356	6418.15
487.726	6545.15
488.097	6725.71
488.467	6761.64
488.837	6996.21
489.207	7156.66
489.578	7226.49
489.948	7388.29
490.318	7486.6
490.688	7541.28
491.058	7729.53
491.428	7848.62
491.798	7949.41
492.168	8179.23
492.538	8216.97
492.908	8340.59
493.278	8451.77
493.648	8544.87
494.017	8659.45
494.387	8802.27
494.757	8935.37
495.126	9027.35
495.496	9083.62
495.866	9135.37
496.235	9289.26
496.605	9397.73
496.974	9485.87
497.344	9599.54
497.713	9644.73
498.082	9751.4
498.452	9899.41
498.821	9853.54
499.19	9964.95
499.559	10039.52
499.928	10222.12
500.298	10219.41
500.667	10313.87
501.036	10371.04
501.405	10473.86
501.774	10514.77
502.143	10610.58
502.512	10675.67
502.88	10687.64
503.249	10713.4
503.618	10934.64
503.987	10890.35
504.356	10975.77
504.724	11000.85
505.093	11087.41
505.462	11056.67
505.83	11093.73
506.199	11238.36
506.567	11391.13
506.936	11404.01
507.304	11484.68
507.672	11564.91
508.041	11613.95
508.409	11599.26
508.777	11763.32
509.145	11717.9
509.514	11750.21
509.882	11849.87
510.25	11767.84
510.618	11886.03
510.986	11854.39
511.354	11965.12
511.722	12051.67
512.09	12145.46
512.458	12079.02
512.826	12175.29
513.193	12230.2
513.561	12256.87
513.929	12312.68
514.297	12396.52
514.664	12290.76
515.032	12457.77
515.4	12434.94
515.767	12446.92
516.135	12492.57
516.502	12403.98
516.869	12645.11
517.237	12610.3
517.604	12559.23
517.972	12710.41
518.339	12707.7
518.706	12628.61
519.073	12712.45
519.44	12771.88
519.808	12866.34
520.175	12832.67
520.542	12874.25
520.909	12960.35
521.276	12849.17
521.643	12899.34
522.009	12992.21
522.376	13006.23
522.743	12994.93
523.11	13083.06
523.477	13112.44
523.843	13181.81
524.21	13237.63
524.577	13274.92
524.943	13261.81
525.31	13304.75
525.676	13388.81
526.043	13368.93
526.409	13389.27
526.776	13376.61
527.142	13448.47
527.508	13422.03
527.874	13468.13
528.241	13507.91
528.607	13451.19
528.973	13456.84
529.339	13415.48
529.705	13489.15
530.071	13530.73
530.437	13536.61
530.803	13507.68
531.169	13501.13
531.535	13446.89
531.901	13555.14
532.267	13438.3
532.632	13476.95
532.998	13415.25
533.364	13474.24
533.73	13463.61
534.095	13464.52
534.461	13418.42
534.826	13477.17
535.192	13435.14
535.557	13440.34
535.923	13342.71
536.288	13392.43
536.653	13365.31
537.019	13260.23
537.384	13273.56
537.749	13283.73
538.114	13235.15
538.479	13127.8
538.845	13162.61
539.21	13061.59
539.575	13081.93
539.94	13003.97
540.305	12951.99
540.67	13049.84
541.034	12961.26
541.399	12993.8
541.764	12814.82
542.129	12822.73
542.494	12812.11
542.858	12793.35
543.223	12761.26
543.587	12766.01
543.952	12707.7
544.316	12692.79
544.681	12641.94
545.045	12626.8
545.41	12599.91
545.774	12631.32
546.138	12520.14
546.503	12488.95
546.867	12445.79
547.231	12458.44
547.595	12356.53
547.959	12389.74
548.324	12303.65
548.688	12350.42
549.052	12359.69
549.416	12251.22
549.779	12217.55
550.143	12065.91
550.507	12127.15
550.871	12097.55
551.235	11992.92
551.599	12152.46
551.962	11971.9
552.326	11974.61
552.689	12013.48
553.053	11872.7
553.417	11865.24
553.78	11961.96
554.143	11877.22
554.507	11858.91
554.87	11815.97
555.234	11920.38
555.597	11746.15
555.96	11817.56
556.323	11759.93
556.686	11732.36
557.05	11777.11
557.413	11754.28
557.776	11723.1
558.139	11707.28
558.502	11721.06
558.865	11634.28
559.228	11710.67
559.59	11670.22
559.953	11669.31
560.316	11684.45
560.679	11794.28
561.041	11651.91
561.404	11665.7
561.767	11729.88
562.129	11630.44
562.492	11714.06
562.854	11677.45
563.217	11582.76
563.579	11664.11
563.941	11680.84
564.304	11741.63
564.666	11721.06
565.028	11640.16
565.39	11708.41
565.753	11679.03
566.115	11745.02
566.477	11765.35
566.839	11717.9
567.201	11809.65
567.563	11756.32
567.925	11796.54
568.287	11789.99
568.648	11768.97
569.01	11825.01
569.372	11856.65
569.734	11804.68
570.095	11852.58
570.457	11805.81
570.819	11820.72
571.18	11770.78
571.542	11814.17
571.903	11839.93
572.265	11818.69
572.626	11811.68
572.987	11856.88
573.349	11873.83
573.71	11973.94
574.071	11879.48
574.432	11936.42
574.794	11967.16
575.155	11953.15
575.516	11881.74
575.877	11942.3
576.238	11938.91
576.599	11934.16
576.96	11936.42
577.32	11960.6
577.681	12011.9
578.042	11909.76
578.403	11886.03
578.763	11925.35
579.124	11905.24
579.485	11973.71
579.845	12015.29
580.206	11988.85
580.566	11868.85
580.927	11928.97
581.287	11897.1
581.648	11855.52
582.008	11909.31
582.368	11917.21
582.728	11896.2
583.089	11864.56
583.449	11816.65
583.809	11905.24
584.169	11843.09
584.529	11891.23
584.889	11909.31
585.249	11804.45
585.609	11809.87
585.969	11787.73
586.329	11820.27
586.688	11799.25
587.048	11794.96
587.408	11755.19
587.768	11845.58
588.127	11759.7
588.487	11710.89
588.846	11768.74
589.206	11742.98
589.565	11730.1
589.925	11730.55
590.284	11702.53
590.643	11739.37
591.003	11678.35
591.362	11731.91
591.721	11754.28
592.08	11679.48
592.44	11694.17
592.799	11690.1
593.158	11637
593.517	11611.46
593.876	11629.54
594.235	11670.67
594.593	11626.6
594.952	11654.4
595.311	11606.49
595.67	11605.36
596.029	11699.59
596.387	11673.83
596.746	11689.65
597.104	11624.57
597.463	11574.63
597.822	11706.15
598.18	11576.88
598.538	11529.88
598.897	11570.56
599.255	11568.07
599.613	11618.69
599.972	11604
600.33	11661.85
600.688	11628.63
601.046	11591.57
601.404	11651.23
601.762	11595.19
602.12	11644.23
602.478	11601.29
602.836	11559.94
603.194	11502.08
603.552	11510.22
603.91	11507.06
604.268	11575.75
604.625	11481.07
604.983	11552.7
605.341	11528.98
605.698	11472.93
606.056	11578.69
606.413	11549.09
606.771	11548.19
607.128	11577.34
607.485	11524
607.843	11584.34
608.2	11618.92
608.557	11587.96
608.914	11578.24
609.272	11627.51
609.629	11657.11
609.986	11601.29
610.343	11586.83
610.7	11724.9
611.057	11717.45
611.414	11673.61
611.771	11666.6
612.127	11708.63
612.484	11752.25
612.841	11685.58
613.198	11723.32
613.554	11684.23
613.911	11698.46
614.267	11731.91
614.624	11664.11
614.98	11779.59
615.337	11759.03
615.693	11691.91
616.05	11756.54
616.406	11789.76
616.762	11725.58
617.118	11779.59
617.475	11728.07
617.831	11813.49
618.187	11837.89
618.543	11866.82
618.899	11861.85
619.255	11813.04
619.611	11903.43
619.967	11910.44
620.323	11945.46
620.678	11860.95
621.034	11793.38
621.39	11820.49
621.746	11795.18
622.101	11925.12
622.457	11811.45
622.812	11861.62
623.168	11809.42
623.523	11862.98
623.879	11824.79
624.234	11814.84
624.589	11865.69
624.945	11804
625.3	11903.66
625.655	11824.56
626.01	11861.85
626.365	11858.23
626.72	11779.59
627.075	11848.74
627.43	11810.78
627.785	11818.23
628.14	11884
628.495	11860.04
628.85	11762.87
629.205	11826.82
629.559	11870.21
629.914	11763.09
630.269	11741.17
630.623	11741.17
630.978	11695.53
631.332	11772.81
631.687	11714.73
632.041	11700.5
632.396	11834.28
632.75	11620.95
633.104	11692.14
633.459	11617.79
633.813	11625.92
634.167	11639.26
634.521	11599.03
634.875	11661.63
635.229	11667.96
635.583	11538.47
635.937	11571.69
636.291	11567.62
636.645	11491.01
636.999	11551.12
637.352	11551.57
637.706	11436.32
638.06	11488.3
638.413	11448.07
638.767	11436.78
639.121	11417.57
639.474	11375.31
639.828	11365.59
640.181	11406.27
640.534	11461.18
640.888	11376.21
641.241	11352.03
641.594	11375.08
641.947	11382.77
642.301	11383.9
642.654	11411.24
643.007	11438.58
643.36	11412.6
643.713	11292.37
644.066	11404.46
644.419	11319.94
644.771	11283.11
645.124	11128.54
645.477	11132.38
645.83	11066.84
646.182	11019.84
646.535	11024.81
646.888	11013.28
647.24	10999.5
647.593	11059.84
647.945	11000.85
648.298	10928.99
648.65	10957.24
649.002	10956.56
649.355	11014.64
649.707	10928.77
650.059	10987.52
650.411	11105.26
650.763	11183.67
651.115	11270.9
651.467	11164.92
651.819	11145.71
652.171	11205.14
652.523	11199.95
652.875	11193.62
653.227	11111.59
653.578	11206.73
653.93	11193.17
654.282	11161.3
654.633	11123.56
654.985	11186.16
655.337	11120.85
655.688	11101.42
656.039	11267.06
656.391	11152.72
656.742	11077.24
657.094	11147.52
657.445	11271.13
657.796	11193.62
658.147	11191.81
658.498	11177.12
658.849	11190.68
659.2	11222.77
659.551	11135.09
659.902	11161.08
660.253	11199.49
660.604	11208.31
660.955	11202.43
661.306	11227.29
661.656	11221.87
662.007	11169.89
662.358	11201.53
662.708	11257.35
663.059	11246.5
663.409	11186.16
663.76	11327.17
664.11	11220.74
664.461	11311.13
664.811	11231.58
665.161	11272.94
665.511	11257.8
665.862	11263.45
666.212	11267.06
666.562	11260.96
666.912	11290.79
667.262	11271.13
667.612	11226.61
667.962	11270.45
668.312	11293.73
668.662	11303.45
669.011	11242.88
669.361	11220.06
669.711	11217.8
670.06	11216.44
670.41	11175.09
670.76	11208.98
671.109	11232.26
671.459	11191.36
671.808	11204.24
672.157	11217.57
672.507	11144.35
672.856	11120.4
673.205	11087.18
673.554	11222.54
673.904	11153.17
674.253	11176.67
674.602	11151.59
674.951	10949.33
675.3	10942.1
675.649	11161.3
675.998	11152.72
676.346	11027.52
676.695	11080.85
677.044	10963.34
677.393	11089.21
677.741	11057.58
678.09	10998.82
678.438	10978.93
678.787	11009.89
679.135	11076.79
679.484	10936
679.832	10987.07
680.181	10855.32
680.529	10946.39
680.877	10906.62
681.225	10924.92
681.573	10911.14
681.922	10828.66
682.27	10758.6
682.618	10804.7
682.966	10813.74
683.314	10882.67
683.661	10692.16
684.009	10691.71
684.357	10681.32
684.705	10688.55
685.053	10616.46
685.4	10674.76
685.748	10544.14
686.095	10535.33
686.443	10521.55
686.79	10526.07
687.138	10576.91
687.485	10516.12
687.832	10484.26
688.18	10564.71
688.527	10381.21
688.874	10422.79
689.221	10387.09
689.568	10294.21
689.915	10313.42
690.262	10275.22
690.609	10324.71
690.956	10231.84
691.303	10206.75
691.65	10112.29
691.997	10168.56
692.344	10067.09
692.69	10064.61
693.037	10095.79
693.383	9956.14
693.73	10040.2
694.077	9889.02
694.423	9934.67
694.769	9884.95
695.116	9833.43
695.462	9821
695.808	9792.3
696.155	9784.84
696.501	9756.59
696.847	9681.57
697.193	9609.48
697.539	9601.57
697.885	9561.57
698.231	9547.56
698.577	9486.09
698.923	9462.14
699.269	9445.64
699.614	9362.93
699.96	9338.53
700.306	9382.59
700.651	9267.57
700.997	9323.38
701.342	9268.92
701.688	9242.48
702.033	9140.79
702.379	9141.24
702.724	9147.34
703.069	9096.05
703.415	8963.39
703.76	8962.26
704.105	9001.59
704.45	8942.6
704.795	8949.38
705.14	8947.12
705.485	8870.97
705.83	8894.7
706.175	8824.87
706.52	8768.15
706.865	8800.46
707.209	8782.38
707.554	8691.09
707.899	8740.35
708.243	8653.35
708.588	8684.76
708.932	8656.74
709.277	8537.87
709.621	8576.51
709.966	8542.84
710.31	8590.75
710.654	8451.77
710.998	8412.67
711.342	8500.81
711.687	8411.09
712.031	8407.02
712.375	8436.63
712.719	8404.09
713.063	8402.73
713.407	8372.68
713.75	8291.55
714.094	8291.1
714.438	8296.97
714.782	8284.09
715.125	8241.83
715.469	8247.03
715.812	8211.1
716.156	8162.06
716.499	8143.53
716.843	8149.18
717.186	8146.92
717.53	8161.16
717.873	8149.86
718.216	8144.88
718.559	8117.77
718.902	8050.88
719.246	8005.23
719.589	8076.41
719.932	8075.28
720.275	8086.36
720.617	7970.2
720.96	7978.79
721.303	8012.46
721.646	7988.96
721.989	7970.2
722.331	7942.63
722.674	7976.3
723.016	7993.7
723.359	7981.5
723.701	8021.72
724.044	7918.9
724.386	7934.72
724.729	7971.1
725.071	7964.55
725.413	7895.63
725.755	7923.65
726.097	7858.79
726.439	7828.51
726.782	7883.2
727.124	7918.22
727.465	7870.54
727.807	7927.72
728.149	7837.55
728.491	7811.11
728.833	7859.47
729.175	7884.33
729.516	7798.23
729.858	7817.44
730.199	7816.76
730.541	7790.09
730.882	7840.71
731.224	7719.36
731.565	7721.17
731.906	7769.08
732.248	7805.01
732.589	7793.71
732.93	7739.25
733.271	7773.37
733.612	7838.45
733.953	7830.09
734.294	7799.81
734.635	7753.26
734.976	7770.21
735.317	7816.08
735.658	7738.34
735.999	7794.39
736.339	7810.88
736.68	7850.88
737.021	7769.53
737.361	7761.62
737.702	7842.75
738.042	7874.16
738.383	7821.96
738.723	7913.25
739.063	7821.5
739.404	8011.33
739.744	7881.16
740.084	7875.74
740.424	7892.69
740.764	7946.92
741.104	7906.7
741.444	7901.73
741.784	7917.77
742.124	7980.14
742.464	7992.8
742.804	7979.47
743.143	8008.84
743.483	8053.36
743.823	8008.62
744.162	8069.41
744.502	8198.67
744.841	8110.08
745.181	8163.87
745.52	8171.78
745.86	8220.14
746.199	8288.16
746.538	8261.27
746.877	8389.85
747.216	8411.54
747.556	8443.18
747.895	8509.85
748.234	8478.66
748.573	8586.23
748.911	8672.78
749.25	8704.64
749.589	8704.64
749.928	8809.05
750.267	8862.83
750.605	8975.37
750.944	8970.63
751.283	9115.93
751.621	9166.78
751.96	9177.85
752.298	9354.57
752.636	9428.92
752.975	9549.37
753.313	9601.34
753.651	9765.63
753.989	9775.58
754.327	9983.25
754.666	9916.59
755.004	10183.02
755.342	10267.54
755.679	10377.37
756.017	10432.51
756.355	10766.51
756.693	10779.84
757.031	10866.17
757.368	11012.83
757.706	11101.19
758.044	11325.37
758.381	11450.33
758.719	11523.78
759.056	11688.52
