Data from hue_90_FLMS001491_3.txt Node
Date: Mon Feb 06 15:24:35 GMT 2017
User: dcchb
Spectrometer: FLMS00149
Trigger mode: 0
Integration Time (sec): 2.000000E-2
Scans to average: 10
Electric dark correction enabled: true
Nonlinearity correction enabled: false
Boxcar width: 0
XAxis mode: Wavelengths
Number of Pixels in Spectrum: 2048
>>>>>Begin Spectral Data<<<<<
341.393	3.76
341.776	3.76
342.16	3.76
342.543	-48.9
342.927	-66.75
343.31	-55.9
343.693	-67.88
344.077	-58.16
344.46	-57.03
344.843	-65.17
345.226	-34.89
345.61	-16.36
345.993	-10.71
346.376	-15
346.759	9.18
347.142	7.6
347.525	35.17
347.908	59.35
348.291	79.24
348.674	71.55
349.057	119.01
349.44	122.85
349.823	170.31
350.206	160.59
350.588	197.88
350.971	201.94
351.354	234.71
351.737	227.03
352.119	249.63
352.502	266.8
352.884	251.21
353.267	282.17
353.65	294.14
354.032	306.12
354.414	306.35
354.797	326.46
355.179	305.9
355.562	323.52
355.944	330.08
356.326	329.62
356.709	326.23
357.091	333.01
357.473	321.49
357.855	333.47
358.238	335.27
358.62	360.36
359.002	355.39
359.384	367.14
359.766	318.78
360.148	329.85
360.53	347.02
360.912	322.84
361.294	331.66
361.676	328.27
362.057	335.73
362.439	329.85
362.821	335.73
363.203	330.3
363.584	324.88
363.966	339.12
364.348	331.88
364.729	332.11
365.111	340.47
365.493	321.26
365.874	322.84
366.256	314.26
366.637	306.12
367.019	306.12
367.4	319.45
367.781	306.8
368.163	322.39
368.544	323.52
368.925	309.51
369.306	305.67
369.688	309.74
370.069	294.14
370.45	306.8
370.831	315.61
371.212	311.32
371.593	317.87
371.974	346.35
372.355	316.29
372.736	309.51
373.117	322.84
373.498	321.94
373.879	311.77
374.26	317.65
374.641	330.53
375.021	322.62
375.402	337.31
375.783	320.81
376.163	333.47
376.544	325.1
376.925	323.3
377.305	326.91
377.686	334.6
378.066	307.7
378.447	317.87
378.827	316.29
379.208	332.34
379.588	330.98
379.968	333.92
380.349	323.3
380.729	326.01
381.109	353.8
381.489	342.28
381.87	361.04
382.25	332.34
382.63	342.05
383.01	347.7
383.39	342.73
383.77	348.38
384.15	340.7
384.53	346.35
384.91	353.58
385.29	337.99
385.67	355.16
386.049	354.03
386.429	350.64
386.809	355.39
387.189	353.35
387.568	368.72
387.948	349.06
388.328	354.48
388.707	364.43
389.087	359.91
389.466	370.75
389.846	372.11
390.225	375.5
390.605	354.26
390.984	360.58
391.363	364.2
391.743	376.18
392.122	366.69
392.501	359.23
392.881	388.83
393.26	360.58
393.639	385.67
394.018	378.21
394.397	378.89
394.776	383.41
395.155	385.89
395.534	372.33
395.913	384.31
396.292	388.83
396.671	366.91
397.05	396.74
397.429	412.79
397.808	394.71
398.186	370.3
398.565	392.67
398.944	405.78
399.323	371.43
399.701	405.1
400.08	381.83
400.458	410.3
400.837	429.06
401.215	413.69
401.594	403.97
401.972	399
402.351	405.33
402.729	417.98
403.107	424.08
403.486	436.74
403.864	412.56
404.242	407.36
404.62	417.08
404.999	431.32
405.377	419.34
405.755	443.52
406.133	421.15
406.511	433.35
406.889	433.35
407.267	450.52
407.645	447.36
408.023	436.51
408.401	458.43
408.779	436.29
409.156	441.26
409.534	453.24
409.912	450.3
410.29	440.13
410.667	469.96
411.045	440.36
411.422	463.18
411.8	439.68
412.178	468.83
412.555	478.77
412.933	477.64
413.31	466.8
413.687	469.06
414.065	476.29
414.442	498.89
414.819	486.91
415.197	506.12
415.574	500.02
415.951	497.76
416.328	499.11
416.705	515.16
417.082	534.59
417.46	528.71
417.837	502.95
418.214	504.08
418.591	513.8
418.967	510.86
419.344	516.74
419.721	517.19
420.098	524.87
420.475	525.33
420.852	540.92
421.228	531.65
421.605	547.25
421.982	551.31
422.358	509.05
422.735	528.04
423.111	545.89
423.488	581.37
423.864	549.05
424.241	563.29
424.617	563.06
424.994	563.97
425.37	566.68
425.746	563.97
426.123	576.4
426.499	577.98
426.875	585.44
427.251	603.74
427.627	603.97
428.003	583.85
428.379	589.05
428.756	596.74
429.132	614.59
429.507	611.65
429.883	609.62
430.259	632.44
430.635	614.81
431.011	634.93
431.387	659.56
431.763	661.37
432.138	646.23
432.514	660.24
432.89	649.84
433.265	670.41
433.641	677.41
434.016	682.61
434.392	669.28
434.767	700.69
435.143	677.86
435.518	705.43
435.894	708.6
436.269	710.86
436.644	729.39
437.02	726.9
437.395	717.86
437.77	737.75
438.145	719.9
438.52	727.13
438.895	713.34
439.271	773.91
439.646	749.05
440.021	764.41
440.395	760.8
440.77	749.73
441.145	789.95
441.52	797.18
441.895	802.83
442.27	806.22
442.645	789.5
443.019	781.36
443.394	814.36
443.769	810.06
444.143	835.15
444.518	829.95
444.892	825.88
445.267	850.51
445.641	827.01
446.016	807.58
446.39	840.12
446.764	831.98
447.139	827.69
447.513	841.93
447.887	861.81
448.262	851.64
448.636	876.05
449.01	897.07
449.384	884.86
449.758	878.99
450.132	893.9
450.506	903.62
450.88	899.1
451.254	933.22
451.628	938.87
452.002	963.05
452.376	939.78
452.75	963.51
453.123	934.81
453.497	960.12
453.871	957.18
454.244	964.41
454.618	985.43
454.992	998.53
455.365	992.43
455.739	998.99
456.112	1044.18
456.486	1031.98
456.859	1038.98
457.232	1039.66
457.606	1061.58
457.979	1093.67
458.352	1091.19
458.725	1100.9
459.099	1103.62
459.472	1135.93
459.845	1167.12
460.218	1146.1
460.591	1165.53
460.964	1159.66
461.337	1167.79
461.71	1202.37
462.083	1224.06
462.456	1212.54
462.829	1234.91
463.201	1279.43
463.574	1248.47
463.947	1248.92
464.32	1331.18
464.692	1325.53
465.065	1336.38
465.438	1353.33
465.81	1376.15
466.183	1414.79
466.555	1431.06
466.928	1438.3
467.3	1436.04
467.672	1452.31
468.045	1521.23
468.417	1516.94
468.789	1539.31
469.161	1544.73
469.534	1589.7
469.906	1620.21
470.278	1605.3
470.65	1631.28
471.022	1715.8
471.394	1723.71
471.766	1720.1
472.138	1779.08
472.51	1809.59
472.882	1900.43
473.253	1901.79
473.625	1922.35
473.997	1961.22
474.369	1950.15
474.74	2013.65
475.112	2064.95
475.484	2096.81
475.855	2166.41
476.227	2209.57
476.598	2276.24
476.97	2305.84
477.341	2377.03
477.713	2444.82
478.084	2436.24
478.455	2540.19
478.827	2584.48
479.198	2680.97
479.569	2697.02
479.94	2772.72
480.311	2825.38
480.682	2926.62
481.053	3019.27
481.424	3125.26
481.795	3157.8
482.166	3269.89
482.537	3299.94
482.908	3427.85
483.279	3483.21
483.65	3579.03
484.021	3706.71
484.391	3756.88
484.762	3817.89
485.133	3927.95
485.503	3992.58
485.874	4153.7
486.244	4219.92
486.615	4370.65
486.985	4441.61
487.356	4613.13
487.726	4651.32
488.097	4811.54
488.467	4861.71
488.837	5025.09
489.207	5102.61
489.578	5259.44
489.948	5305.54
490.318	5469.6
490.688	5544.18
491.058	5683.38
491.428	5821.46
491.798	5910.27
492.168	6099.42
492.538	6151.62
492.908	6290.82
493.278	6444.49
493.648	6529.46
494.017	6587.09
494.387	6682
494.757	6822.33
495.126	6922.9
495.496	7012.39
495.866	7159.28
496.235	7286.05
496.605	7370.79
496.974	7483.33
497.344	7571.02
497.713	7646.49
498.082	7786.38
498.452	7935.75
498.821	7984.11
499.19	8088.52
499.559	8119.02
499.928	8287.38
500.298	8359.92
500.667	8522.18
501.036	8476.75
501.405	8627.94
501.774	8693.25
502.143	8848.04
502.512	8826.35
502.88	8966.69
503.249	9024.08
503.618	9160.58
503.987	9185.21
504.356	9280.12
504.724	9310.63
505.093	9400.57
505.462	9436.96
505.83	9536.61
506.199	9628.14
506.567	9707.91
506.936	9725.08
507.304	9834.68
507.672	9928.24
508.041	9947.45
508.409	10024.06
508.777	10212.3
509.145	10155.35
509.514	10182.92
509.882	10283.94
510.25	10358.51
510.618	10397.16
510.986	10417.49
511.354	10613.42
511.722	10640.09
512.09	10666.75
512.458	10562.35
512.826	10757.37
513.193	10791.04
513.561	10779.07
513.929	10754.21
514.297	10876.01
514.664	11001.21
515.032	10950.36
515.4	11088.66
515.767	11088.44
516.135	11145.61
516.502	11084.6
516.869	11163.46
517.237	11161.88
517.604	11201.43
517.972	11254.31
518.339	11351.93
518.706	11331.37
519.073	11358.26
519.44	11386.96
519.808	11502.44
520.175	11460.86
520.542	11509.44
520.909	11579.72
521.276	11587.18
521.643	11614.53
522.009	11659.95
522.376	11728.19
522.743	11737.91
523.11	11836.67
523.477	11843.67
523.843	11905.36
524.21	11955.99
524.577	12013.38
524.943	12024.23
525.31	12033.72
525.676	12061.52
526.043	12021.52
526.409	12130.67
526.776	12165.47
527.142	12129.54
527.508	12248.63
527.874	12189.43
528.241	12255.64
528.607	12207.28
528.973	12319.82
529.339	12276.65
529.705	12281.63
530.071	12317.78
530.437	12275.52
530.803	12301.74
531.169	12387.61
531.535	12299.25
531.901	12258.58
532.267	12323.88
532.632	12358.91
532.998	12344.68
533.364	12316.65
533.73	12285.69
534.095	12344.68
534.461	12359.82
534.826	12339.7
535.192	12343.77
535.557	12428.74
535.923	12302.19
536.288	12346.94
536.653	12289.76
537.019	12184.45
537.384	12239.14
537.749	12207.5
538.114	12238.69
538.479	12144.68
538.845	12065.59
539.21	12114.4
539.575	12169.54
539.94	12102.65
540.305	12114.62
540.67	12035.08
541.034	12109.43
541.399	12049.09
541.764	12089.77
542.129	12063.1
542.494	12005.48
542.858	11996.44
543.223	11914.86
543.587	11958.02
543.952	11852.48
544.316	11877.8
544.681	11816.1
545.045	11870.79
545.41	11821.07
545.774	11866.95
546.138	11770.68
546.503	11755.76
546.867	11711.47
547.231	11676.22
547.595	11629.67
547.959	11650.46
548.324	11626.73
548.688	11573.85
549.052	11605.26
549.416	11603.45
549.779	11552.83
550.143	11474.87
550.507	11510.12
550.871	11511.93
551.235	11453.4
551.599	11506.28
551.962	11464.92
552.326	11464.7
552.689	11418.15
553.053	11309.45
553.417	11333.4
553.78	11463.57
554.143	11371.37
554.507	11351.03
554.87	11325.95
555.234	11451.14
555.597	11326.85
555.96	11325.04
556.323	11361.88
556.686	11230.35
557.05	11266.74
557.413	11315.32
557.776	11305.38
558.139	11305.83
558.502	11278.26
558.865	11222.67
559.228	11302.67
559.59	11348.32
559.953	11344.93
560.316	11349
560.679	11283.46
561.041	11357.58
561.404	11324.36
561.767	11410.24
562.129	11309.22
562.492	11399.16
562.854	11369.11
563.217	11319.39
563.579	11337.02
563.941	11383.8
564.304	11404.36
564.666	11400.75
565.028	11377.47
565.39	11494.08
565.753	11433.51
566.115	11479.84
566.477	11512.61
566.839	11543.34
567.201	11485.94
567.563	11560.97
567.925	11615.88
568.287	11536.34
568.648	11566.62
569.01	11554.19
569.372	11642.1
569.734	11643.45
570.095	11624.69
570.457	11719.38
570.819	11720.96
571.18	11720.74
571.542	11714.41
571.903	11760.06
572.265	11727.74
572.626	11713.28
572.987	11799.6
573.349	11739.27
573.71	11798.93
574.071	11783.56
574.432	11825.82
574.794	11910.34
575.155	11832.82
575.516	11705.14
575.877	11832.82
576.238	11855.87
576.599	11880.73
576.96	11802.54
577.32	11769.32
577.681	11861.98
578.042	11922.54
578.403	11902.65
578.763	11894.29
579.124	11883.44
579.485	11908.98
579.845	11901.07
580.206	11858.59
580.566	11909.21
580.927	11885.7
581.287	11884.8
581.648	11804.8
582.008	11921.41
582.368	11886.16
582.728	11836.89
583.089	11940.17
583.449	11875.54
583.809	11850
584.169	11837.57
584.529	11872.6
584.889	11900.39
585.249	11845.03
585.609	11745.14
585.969	11794.41
586.329	11852.03
586.688	11833.28
587.048	11741.98
587.408	11808.64
587.768	11798.25
588.127	11799.15
588.487	11765.03
588.846	11811.81
589.206	11697.91
589.565	11804.58
589.925	11759.38
590.284	11687.97
590.643	11758.48
591.003	11708.99
591.362	11746.05
591.721	11737.69
592.08	11650
592.44	11754.63
592.799	11751.92
593.158	11711.25
593.517	11688.87
593.876	11711.25
594.235	11621.76
594.593	11691.59
594.952	11750.34
595.311	11678.03
595.67	11710.79
596.029	11706.27
596.387	11785.37
596.746	11739.04
597.104	11719.16
597.463	11622.21
597.822	11718.25
598.18	11632.83
598.538	11619.72
598.897	11674.18
599.255	11638.03
599.613	11775.65
599.972	11732.94
600.33	11743.56
600.688	11688.65
601.046	11668.31
601.404	11654.75
601.762	11728.19
602.12	11610.23
602.478	11691.59
602.836	11761.87
603.194	11700.85
603.552	11667.86
603.91	11689.1
604.268	11711.25
604.625	11664.24
604.983	11713.96
605.341	11590.8
605.698	11665.37
606.056	11819.94
606.413	11719.83
606.771	11692.72
607.128	11732.49
607.485	11610.68
607.843	11657.24
608.2	11734.75
608.557	11730.68
608.914	11759.38
609.272	11738.36
609.629	11822.88
609.986	11845.48
610.343	11769.55
610.7	11873.95
611.057	11838.7
611.414	11780.85
611.771	11848.87
612.127	11834.41
612.484	11813.62
612.841	11890
613.198	11814.75
613.554	11862.2
613.911	11960.73
614.267	11910.56
614.624	11898.36
614.98	11907.85
615.337	11954.4
615.693	11824.69
616.05	11960.5
616.406	12005.48
616.762	11912.6
617.118	11922.54
617.475	11875.08
617.831	11977
618.187	11938.81
618.543	11998.02
618.899	12025.14
619.255	12043.67
619.611	12018.13
619.967	12078.69
620.323	12165.92
620.678	12035.53
621.034	11994.63
621.39	12008.19
621.746	12010.9
622.101	12038.24
622.457	12025.59
622.812	12030.56
623.168	12109.65
623.523	12007.51
623.879	12069.2
624.234	12038.24
624.589	12021.29
624.945	12083.44
625.3	12127.96
625.655	12126.6
626.01	12168.86
626.365	12081.63
626.72	11962.09
627.075	12031.01
627.43	12043.89
627.785	11991.46
628.14	12065.59
628.495	11993.72
628.85	11960.05
629.205	11988.98
629.559	12056.55
629.914	12000.05
630.269	11972.03
630.623	11947.17
630.978	11964.57
631.332	12004.35
631.687	11960.73
632.041	11946.04
632.396	11899.72
632.75	11877.57
633.104	11941.3
633.459	11875.54
633.813	11777.46
634.167	11826.5
634.521	11878.25
634.875	11862.88
635.229	11761.87
635.583	11855.2
635.937	11720.29
636.291	11776.1
636.645	11754.18
636.999	11662.89
637.352	11715.99
637.706	11710.79
638.06	11814.75
638.413	11695.2
638.767	11662.43
639.121	11689.1
639.474	11621.53
639.828	11676.67
640.181	11710.34
640.534	11651.81
640.888	11520.97
641.241	11601.42
641.594	11586.96
641.947	11640.97
642.301	11573.17
642.654	11549.22
643.007	11550.57
643.36	11541.98
643.713	11471.7
644.066	11525.49
644.419	11562.55
644.771	11369.79
645.124	11321.43
645.477	11336.79
645.83	11232.84
646.182	11146.06
646.535	11143.8
646.888	11207.53
647.24	11095.44
647.593	11181.09
647.945	11128.89
648.298	11158.72
648.65	11048.21
649.002	11097.7
649.355	11094.76
649.707	11150.36
650.059	11147.19
650.411	11195.1
650.763	11278.94
651.115	11451.14
651.467	11360.97
651.819	11363.23
652.171	11449.56
652.523	11370.92
652.875	11302.67
653.227	11266.06
653.578	11345.38
653.93	11329.56
654.282	11324.59
654.633	11312.39
654.985	11310.58
655.337	11335.21
655.688	11311.48
656.039	11312.84
656.391	11313.29
656.742	11345.83
657.094	11316.68
657.445	11335.89
657.796	11304.02
658.147	11312.84
658.498	11309.45
658.849	11289.11
659.2	11298.38
659.551	11281.88
659.902	11355.55
660.253	11275.32
660.604	11303.35
660.955	11272.61
661.306	11360.07
661.656	11288.21
662.007	11337.02
662.358	11294.76
662.708	11327.75
663.059	11286.85
663.409	11248.21
663.76	11338.15
664.11	11289.56
664.461	11393.74
664.811	11380.41
665.161	11264.48
665.511	11369.11
665.862	11377.24
666.212	11357.81
666.562	11406.85
666.912	11375.66
667.262	11343.57
667.612	11454.76
667.962	11375.66
668.312	11295.44
668.662	11415.66
669.011	11290.47
669.361	11269.68
669.711	11388.09
670.06	11363.23
670.41	11348.77
670.76	11273.07
671.109	11279.39
671.459	11314.19
671.808	11339.96
672.157	11245.5
672.507	11233.97
672.856	11229
673.205	11284.14
673.554	11339.5
673.904	11202.33
674.253	11318.04
674.602	11262.44
674.951	11066.29
675.3	11046.63
675.649	11221.54
675.998	11207.3
676.346	11243.46
676.695	11211.37
677.044	11118.49
677.393	11144.25
677.741	11192.62
678.09	11105.39
678.438	11095.22
678.787	11127.31
679.135	11084.82
679.484	10999.17
679.832	11082.34
680.181	11064.03
680.529	11077.14
680.877	11059.96
681.225	10972.73
681.573	11080.98
681.922	10944.49
682.27	10957.37
682.618	10867.2
682.966	10821.78
683.314	10932.51
683.661	10832.4
684.009	10770.25
684.357	10824.04
684.705	10786.52
685.053	10748.11
685.4	10715.11
685.748	10730.71
686.095	10722.8
686.443	10614.33
686.79	10684.38
687.138	10629.69
687.485	10586.3
687.832	10638.05
688.18	10579.98
688.527	10452.07
688.874	10488.45
689.221	10456.59
689.568	10417.27
689.915	10385.86
690.262	10366.42
690.609	10437.15
690.956	10326.2
691.303	10311.28
691.65	10259.31
691.997	10263.83
692.344	10180.44
692.69	10221.79
693.037	10197.84
693.383	10102.25
693.73	10154.9
694.077	10113.77
694.423	10067.45
694.769	10114.68
695.116	10003.04
695.462	9963.95
695.808	9942.93
696.155	9907.68
696.501	9829.94
696.847	9801.01
697.193	9825.42
697.539	9723.73
697.885	9706.78
698.231	9671.75
698.577	9625.2
698.923	9647.35
699.269	9616.39
699.614	9542.94
699.96	9506.11
700.306	9515.82
700.651	9472.89
700.997	9384.75
701.342	9443.06
701.688	9368.93
702.033	9373
702.379	9293.46
702.724	9344.53
703.069	9297.52
703.415	9231.54
703.76	9203.52
704.105	9154.48
704.45	9182.72
704.795	9091.88
705.14	9119.45
705.485	9067.25
705.83	9051.65
706.175	8966.69
706.52	8912.68
706.865	8909.06
707.209	8917.42
707.554	8885.11
707.899	8937.53
708.243	8853.69
708.588	8815.95
708.932	8766.92
709.277	8755.62
709.621	8725.34
709.966	8739.35
710.31	8711.32
710.654	8672
710.998	8673.81
711.342	8677.43
711.687	8693.47
712.031	8598.79
712.375	8551.33
712.719	8570.09
713.063	8544.78
713.407	8548.17
713.75	8547.71
714.094	8506.13
714.438	8528.05
714.782	8530.54
715.125	8417.55
715.469	8478.56
715.812	8447.83
716.156	8385.01
716.499	8378.45
716.843	8389.98
717.186	8382.52
717.53	8398.56
717.873	8371.9
718.216	8401.28
718.559	8310.43
718.902	8257.1
719.246	8334.61
719.589	8221.85
719.932	8208.29
720.275	8182.52
720.617	8216.2
720.96	8192.92
721.303	8219.36
721.646	8205.35
721.989	8152.47
722.331	8209.64
722.674	8218.23
723.016	8161.51
723.359	8150.89
723.701	8179.36
724.044	8118.57
724.386	8139.14
724.729	8166.93
725.071	8114.5
725.413	8118.8
725.755	8089.19
726.097	8161.28
726.439	8027.05
726.782	8048.97
727.124	8184.33
727.465	8059.59
727.807	8065.69
728.149	8048.07
728.491	8040.16
728.833	8011.46
729.175	8021.63
729.516	8029.08
729.858	8006.48
730.199	7955.41
730.541	7967.84
730.882	7961.51
731.224	8030.66
731.565	7966.94
731.906	7955.19
732.248	8010.1
732.589	7965.58
732.93	7933.49
733.271	7943.89
733.612	7959.03
733.953	7971.91
734.294	7985.02
734.635	7948.86
734.976	7938.01
735.317	7875.64
735.658	7941.4
735.999	7996.77
736.339	8015.75
736.68	7997.9
737.021	8006.03
737.361	7908.18
737.702	7953.6
738.042	7940.5
738.383	7962.64
738.723	7980.27
739.063	7958.8
739.404	7994.06
739.744	8029.08
740.084	7957.45
740.424	8069.99
740.764	8006.94
741.104	8035.41
741.444	7977.33
741.784	8019.37
742.124	8080.15
742.464	8098.46
742.804	8017.56
743.143	8101.4
743.483	8128.74
743.823	8047.84
744.162	8148.63
744.502	8181.85
744.841	8126.48
745.181	8201.96
745.52	8192.02
745.86	8274.5
746.199	8273.82
746.538	8295.74
746.877	8420.94
747.216	8333.03
747.556	8357.89
747.895	8417.55
748.234	8437.89
748.573	8500.48
748.911	8571.67
749.25	8607.15
749.589	8611.44
749.928	8664.77
750.267	8728.05
750.605	8827.03
750.944	8841.49
751.283	8879.91
751.621	8935.27
751.96	9050.07
752.298	9137.53
752.636	9218.43
752.975	9237.19
753.313	9300.01
753.651	9440.8
753.989	9418.42
754.327	9608.02
754.666	9599.44
755.004	9750.62
755.342	9895.25
755.679	9947.9
756.017	10044.4
756.355	10215.92
756.693	10235.13
757.031	10455.23
757.368	10490.26
757.706	10590.82
758.044	10696.36
758.381	10852.74
758.719	10905.62
759.056	11165.72
759.394	11196.01
759.731	11299.73
760.068	11466.28
760.405	11515.77
