Data from hue_290_FLMS001491_00007.txt Node
Date: Tue Feb 07 15:52:07 GMT 2017
User: dcchb
Spectrometer: FLMS00149
Trigger mode: 0
Integration Time (sec): 2.000000E-2
Scans to average: 10
Electric dark correction enabled: true
Nonlinearity correction enabled: false
Boxcar width: 0
XAxis mode: Wavelengths
Number of Pixels in Spectrum: 2048
>>>>>Begin Spectral Data<<<<<
341.393	-15.01
341.776	-15.01
342.16	-15.01
342.543	-56.37
342.927	-77.38
343.31	-69.48
343.693	-74.22
344.077	-68.57
344.46	-37.84
344.843	-68.8
345.226	-31.51
345.61	-17.05
345.993	-37.84
346.376	-7.78
346.759	5.78
347.142	21.82
347.525	37.64
347.908	48.04
348.291	75.15
348.674	107.47
349.057	117.19
349.44	117.41
349.823	142.5
350.206	162.61
350.588	189.95
350.971	205.09
351.354	234.02
351.737	240.57
352.119	239.44
352.502	248.03
352.884	274.47
353.267	273.57
353.65	289.84
354.032	297.97
354.414	301.36
354.797	319.89
355.179	328.48
355.562	328.25
355.944	320.34
356.326	324.86
356.709	340.01
357.091	342.04
357.473	333.68
357.855	338.88
358.238	335.26
358.62	356.5
359.002	345.65
359.384	326.67
359.766	320.12
360.148	352.21
360.53	333.23
360.912	359.89
361.294	349.95
361.676	330.29
362.057	329.84
362.439	333.23
362.821	325.32
363.203	331.19
363.584	337.52
363.966	317.18
364.348	329.16
364.729	314.24
365.111	297.07
365.493	305.66
365.874	315.83
366.256	307.24
366.637	300.68
367.019	310.4
367.4	325.99
367.781	313.79
368.163	329.38
368.544	312.21
368.925	295.03
369.306	309.27
369.688	327.8
370.069	303.17
370.45	278.31
370.831	296.16
371.212	323.73
371.593	296.16
371.974	331.19
372.355	316.5
372.736	316.28
373.117	305.88
373.498	314.47
373.879	309.27
374.26	319.44
374.641	305.88
375.021	307.92
375.402	320.57
375.783	318.08
376.163	325.09
376.544	341.81
376.925	334.36
377.305	308.59
377.686	321.7
378.066	333
378.447	331.42
378.827	328.03
379.208	312.89
379.588	315.83
379.968	321.7
380.349	352.43
380.729	344.52
381.109	339.33
381.489	337.75
381.87	342.94
382.25	348.37
382.63	341.36
383.01	317.41
383.39	349.95
383.77	335.26
384.15	334.13
384.53	355.82
384.91	332.77
385.29	331.42
385.67	354.24
386.049	325.32
386.429	340.46
386.809	366.45
387.189	354.47
387.568	351.08
387.948	355.15
388.328	349.5
388.707	348.82
389.087	335.26
389.466	363.06
389.846	369.16
390.225	358.76
390.605	371.64
390.984	367.58
391.363	402.6
391.743	375.48
392.122	382.26
392.501	390.63
392.881	375.71
393.26	380.46
393.639	381.13
394.018	380.91
394.397	391.76
394.776	391.98
395.155	403.73
395.534	403.05
395.913	420.68
396.292	398.76
396.671	412.32
397.05	409.16
397.429	407.8
397.808	411.87
398.186	398.31
398.565	424.07
398.944	415.03
399.323	424.3
399.701	410.96
400.08	408.48
400.458	409.38
400.837	429.72
401.215	437.86
401.594	423.62
401.972	427.69
402.351	437.4
402.729	433.56
403.107	452.09
403.486	442.83
403.864	442.15
404.242	451.41
404.62	450.28
404.999	458.19
405.377	466.33
405.755	472.43
406.133	465.2
406.511	473.34
406.889	469.27
407.267	476.05
407.645	470.4
408.023	480.11
408.401	471.75
408.779	490.96
409.156	497.06
409.534	514.92
409.912	508.36
410.29	502.03
410.667	524.41
411.045	537.51
411.422	537.51
411.8	567.34
412.178	564.18
412.555	558.08
412.933	558.98
413.31	583.39
413.687	576.84
414.065	598.08
414.442	605.53
414.819	617.29
415.197	610.73
415.574	634.69
415.951	629.49
416.328	628.81
416.705	650.28
417.082	648.02
417.46	664.29
417.837	656.61
418.214	657.06
418.591	672.2
418.967	672.2
419.344	665.65
419.721	679.66
420.098	716.04
420.475	737.73
420.852	717.17
421.228	714.46
421.605	758.75
421.982	756.94
422.358	767.34
422.735	780.22
423.111	766.43
423.488	818.18
423.864	784.51
424.241	819.09
424.617	833.55
424.994	849.6
425.37	825.87
425.746	836.04
426.123	848.92
426.499	867
426.875	845.08
427.251	855.47
427.627	886.43
428.003	907.45
428.379	898.18
428.756	894.79
429.132	913.55
429.507	940.89
429.883	944.96
430.259	961.01
430.635	990.84
431.011	943.15
431.387	1004.85
431.763	995.13
432.138	1020.89
432.514	1030.83
432.89	1033.32
433.265	1043.26
433.641	1078.97
434.016	1055.69
434.392	1103.6
434.767	1111.06
435.143	1089.82
435.518	1149.25
435.894	1131.4
436.269	1163.94
436.644	1160.55
437.02	1200.32
437.395	1196.25
437.77	1208.46
438.145	1207.78
438.52	1234.44
438.895	1222.47
439.271	1232.64
439.646	1268.79
440.021	1273.54
440.395	1288.68
440.77	1267.66
441.145	1294.33
441.52	1316.93
441.895	1314.22
442.27	1313.31
442.645	1332.3
443.019	1329.81
443.394	1319.19
443.769	1393.08
444.143	1350.15
444.518	1394.44
444.892	1367.77
445.267	1372.07
445.641	1384.72
446.016	1379.07
446.39	1398.73
446.764	1433.08
447.139	1413.88
447.513	1418.39
447.887	1439.64
448.262	1462.24
448.636	1436.47
449.01	1454.33
449.384	1461.33
449.758	1470.14
450.132	1482.57
450.506	1512.4
450.88	1495.68
451.254	1502.69
451.628	1476.25
452.002	1498.62
452.376	1542.69
452.75	1529.8
453.123	1546.75
453.497	1567.77
453.871	1597.15
454.244	1602.34
454.618	1594.66
454.992	1616.36
455.365	1612.74
455.739	1631.95
456.112	1664.49
456.486	1672.85
456.859	1686.86
457.232	1681.21
457.606	1702.68
457.979	1720.99
458.352	1758.05
458.725	1756.01
459.099	1737.26
459.472	1743.58
459.845	1807.54
460.218	1781.55
460.591	1824.49
460.964	1796.46
461.337	1850.7
461.71	1871.49
462.083	1872.17
462.456	1867.2
462.829	1895.44
463.201	1923.47
463.574	1871.72
463.947	1921.66
464.32	1988.1
464.692	2022.22
465.065	1996.23
465.438	1976.12
465.81	2016.35
466.183	2069
466.555	2079.17
466.928	2096.34
467.3	2074.65
467.672	2127.53
468.045	2172.27
468.417	2164.59
468.789	2177.7
469.161	2181.99
469.534	2235.55
469.906	2272.61
470.278	2296.79
470.65	2277.81
471.022	2283.46
471.394	2335.21
471.766	2333.63
472.138	2345.83
472.51	2405.49
472.882	2454.75
473.253	2467.41
473.625	2486.62
473.997	2534.3
474.369	2503.56
474.74	2547.86
475.112	2595.31
475.484	2621.3
475.855	2621.98
476.227	2675.31
476.598	2714.18
476.97	2708.3
477.341	2787.17
477.713	2814.97
478.084	2804.12
478.455	2881.41
478.827	2896.1
479.198	2959.15
479.569	2941.97
479.94	3002.76
480.311	3061.74
480.682	3045.7
481.053	3131.34
481.424	3188.74
481.795	3205.24
482.166	3227.16
482.537	3246.14
482.908	3298.35
483.279	3303.09
483.65	3367.95
484.021	3390.77
484.391	3438.23
484.762	3438.45
485.133	3475.74
485.503	3517.1
485.874	3576.98
486.244	3574.72
486.615	3654.04
486.985	3659.47
487.356	3738.79
487.726	3719.8
488.097	3760.93
488.467	3809.29
488.837	3854.26
489.207	3900.82
489.578	3926.35
489.948	3977.42
490.318	4014.94
490.688	4004.99
491.058	4072.79
491.428	4101.71
491.798	4094.26
492.168	4201.37
492.538	4221.94
492.908	4266.23
493.278	4316.4
493.648	4265.55
494.017	4288.15
494.387	4379.67
494.757	4385.1
495.126	4444.08
495.496	4432.1
495.866	4438.65
496.235	4484.3
496.605	4521.59
496.974	4496.96
497.344	4529.95
497.713	4558.65
498.082	4593.23
498.452	4639.78
498.821	4636.39
499.19	4643.62
499.559	4713.68
499.928	4709.83
500.298	4701.25
500.667	4768.82
501.036	4738.76
501.405	4809.27
501.774	4821.02
502.143	4835.93
502.512	4818.08
502.88	4869.83
503.249	4843.39
503.618	4917.51
503.987	4919.55
504.356	4937.85
504.724	4946.89
505.093	4950.51
505.462	4961.35
505.83	4998.41
506.199	5014.23
506.567	5068.47
506.936	5108.69
507.304	5143.27
507.672	5096.26
508.041	5091.29
508.409	5187.11
508.777	5118.64
509.145	5180.56
509.514	5206.77
509.882	5215.58
510.25	5232.98
510.618	5284.28
510.986	5260.1
511.354	5322.25
511.722	5364.05
512.09	5358.18
512.458	5407.44
512.826	5399.76
513.193	5390.04
513.561	5403.37
513.929	5399.31
514.297	5439.98
514.664	5495.12
515.032	5436.82
515.4	5581.68
515.767	5557.72
516.135	5603.82
516.502	5505.52
516.869	5613.76
517.237	5603.37
517.604	5587.1
517.972	5657.15
518.339	5645.18
518.706	5649.92
519.073	5652.18
519.44	5637.27
519.808	5722.24
520.175	5737.38
520.542	5776.02
520.909	5784.83
521.276	5774.66
521.643	5806.08
522.009	5870.26
522.376	5846.08
522.743	5939.41
523.11	5924.49
523.477	5933.76
523.843	6005.62
524.21	6050.36
524.577	6025.51
524.943	6091.27
525.31	6095.79
525.676	6143.02
526.043	6108.44
526.409	6137.14
526.776	6176.24
527.142	6187.54
527.508	6236.12
527.874	6282.45
528.241	6274.99
528.607	6358.83
528.973	6381.2
529.339	6370.81
529.705	6415.55
530.071	6469.56
530.437	6449.68
530.803	6453.29
531.169	6490.35
531.535	6505.27
531.901	6546.62
532.267	6570.12
532.632	6649.44
532.998	6557.92
533.364	6651.48
533.73	6615.55
534.095	6681.08
534.461	6689.44
534.826	6714.3
535.192	6711.36
535.557	6743.45
535.923	6815.77
536.288	6800.17
536.653	6877.46
537.019	6811.02
537.384	6888.99
537.749	6858.48
538.114	6870.68
538.479	6982.77
538.845	6935.76
539.21	6885.82
539.575	6977.57
539.94	6967.4
540.305	7051.92
540.67	7044.91
541.034	7016.89
541.399	7092.82
541.764	7100.96
542.129	7064.57
542.494	7078.81
542.858	7129.21
543.223	7152.03
543.587	7135.08
543.952	7147.74
544.316	7234.06
544.681	7231.8
545.045	7274.74
545.41	7333.49
545.774	7321.97
546.138	7336.88
546.503	7410.78
546.867	7384.34
547.231	7374.17
547.595	7400.84
547.959	7362.65
548.324	7379.59
548.688	7434.51
549.052	7493.04
549.416	7502.98
549.779	7475.64
550.143	7532.81
550.507	7559.25
550.871	7574.39
551.235	7560.38
551.599	7594.28
551.962	7612.13
552.326	7649.87
552.689	7667.27
553.053	7638.34
553.417	7707.95
553.78	7730.32
554.143	7716.31
554.507	7672.69
554.87	7749.08
555.234	7827.04
555.597	7714.73
555.96	7835.85
556.323	7857.1
556.686	7851.45
557.05	7883.54
557.413	7919.47
557.776	7905.46
558.139	7975.51
558.502	7940.03
558.865	7955.85
559.228	8069.07
559.59	8013.25
559.953	8025
560.316	8081.27
560.679	8015.96
561.041	8120.14
561.404	8204.43
561.767	8213.47
562.129	8129.4
562.492	8267.93
562.854	8243.75
563.217	8253.02
563.579	8272.9
563.941	8282.4
564.304	8359
564.666	8432.22
565.028	8420.02
565.39	8437.87
565.753	8445.78
566.115	8477.87
566.477	8545.67
566.839	8519.45
567.201	8529.17
567.563	8630.41
567.925	8680.58
568.287	8698.2
568.648	8688.26
569.01	8671.31
569.372	8799.22
569.734	8772.78
570.095	8893.68
570.457	8817.75
570.819	8875.37
571.18	8918.99
571.542	8893
571.903	8988.59
572.265	9020.68
572.626	9059.55
572.987	9081.24
573.349	9136.84
573.71	9184.52
574.071	9171.86
574.432	9228.59
574.794	9312.42
575.155	9353.78
575.516	9375.93
575.877	9373.21
576.238	9415.92
576.599	9514
576.96	9568.01
577.32	9595.13
577.681	9589.48
578.042	9635.13
578.403	9745.86
578.763	9736.37
579.124	9823.15
579.485	9877.61
579.845	10039.41
580.206	10007.55
580.566	10034.89
580.927	10101.56
581.287	10263.81
581.648	10254.09
582.008	10424.03
582.368	10544.48
582.728	10483.47
583.089	10591.71
583.449	10666.97
583.809	10773.86
584.169	10878.26
584.529	10980.4
584.889	11095.43
585.249	11163.9
585.609	11247.29
585.969	11337.46
586.329	11489.77
586.688	11550.56
587.048	11698.8
587.408	11798.46
587.768	11864
588.127	12086.59
588.487	12107.83
588.846	12358.9
589.206	12436.41
589.565	12561.6
589.925	12659
590.284	12713.92
590.643	12923.4
591.003	13085.43
591.362	13257.18
591.721	13388.02
592.08	13444.29
592.44	13693.1
592.799	13808.35
593.158	13930.61
593.517	14010.38
593.876	14182.13
594.235	14306.64
594.593	14348.68
594.952	14526.07
595.311	14678.61
595.67	14732.62
596.029	15016.68
596.387	15152.5
596.746	15326.28
597.104	15276.11
597.463	15432.94
597.822	15628.19
598.18	15670.68
598.538	15743.67
598.897	16016.66
599.255	15982.53
599.613	16361.73
599.972	16368.06
600.33	16482.63
600.688	16618
601.046	16804.21
601.404	16889.17
601.762	17053.69
602.12	17171.2
602.478	17268.15
602.836	17349.28
603.194	17352.89
603.552	17486.45
603.91	17515.82
604.268	17746.78
604.625	17698.42
604.983	17961.69
605.341	17909.94
605.698	18071.06
606.056	18099.09
606.413	18284.62
606.771	18478.51
607.128	18519.87
607.485	18560.32
607.843	18560.77
608.2	18767.77
608.557	18944.71
608.914	18927.09
609.272	19058.84
609.629	19170.24
609.986	19214.54
610.343	19225.16
610.7	19398.04
611.057	19450.46
611.414	19432.38
611.771	19520.29
612.127	19675.32
612.484	19719.83
612.841	19752.6
613.198	19807.06
613.554	19880.06
613.911	20112.59
614.267	20099.49
614.624	20151.24
614.98	20265.81
615.337	20359.82
615.693	20297.45
616.05	20349.2
616.406	20445.92
616.762	20420.61
617.118	20409.08
617.475	20532.47
617.831	20674.84
618.187	20651.34
618.543	20823.53
618.899	20889.52
619.255	21020.37
619.611	20994.6
619.967	20975.17
620.323	20911.67
620.678	21058.56
621.034	20943.08
621.39	21047.48
621.746	21042.51
622.101	21420.13
622.457	21138.1
622.812	21224.43
623.168	21303.07
623.523	21320.92
623.879	21429.85
624.234	21307.82
624.589	21334.93
624.945	21466.91
625.3	21522.5
625.655	21499
626.01	21567.92
626.365	21513.69
626.72	21490.18
627.075	21558.2
627.43	21583.97
627.785	21528.37
628.14	21589.39
628.495	21590.75
628.85	21607.69
629.205	21561.82
629.559	21713.68
629.914	21527.47
630.269	21610.18
630.623	21597.98
630.978	21564.31
631.332	21531.99
631.687	21606.56
632.041	21586.23
632.396	21538.09
632.75	21607.69
633.104	21650.63
633.459	21463.97
633.813	21412.22
634.167	21448.83
634.521	21457.42
634.875	21505.78
635.229	21449.28
635.583	21428.94
635.937	21322.96
636.291	21341.94
636.645	21431.65
636.999	21262.39
637.352	21303.07
637.706	21221.04
638.06	21325.22
638.413	21401.15
638.767	21226.46
639.121	21275.05
639.474	21160.7
639.828	21192.11
640.181	21288.83
640.534	21210.64
640.888	21209.74
641.241	21142.17
641.594	21248.61
641.947	21244.54
642.301	21322.28
642.654	21227.59
643.007	21170.19
643.36	21243.86
643.713	21136.97
644.066	21157.31
644.419	21194.6
644.771	21022.4
645.124	20851.1
645.477	20833.48
645.83	20749.41
646.182	20567.27
646.535	20595.74
646.888	20530.66
647.24	20527.05
647.593	20627.38
647.945	20526.37
648.298	20461.28
648.65	20473.26
649.002	20473.04
649.355	20560.04
649.707	20430.78
650.059	20659.24
650.411	20812.46
650.763	20887.94
651.115	21102.62
651.467	21014.49
651.819	21016.3
652.171	20971.33
652.523	20994.6
652.875	20929.97
653.227	20893.59
653.578	20999.8
653.93	20994.38
654.282	20925.68
654.633	20899.46
654.985	20920.71
655.337	20975.39
655.688	20841.84
656.039	21019.46
656.391	20852.91
656.742	20993.93
657.094	20932.23
657.445	21038.22
657.796	20941.05
658.147	20963.42
658.498	20945.34
658.849	20960.48
659.2	20956.41
659.551	20968.16
659.902	21070.99
660.253	21031.89
660.604	21068.05
660.955	20929.29
661.306	21005
661.656	21004.09
662.007	21047.71
662.358	21139.91
662.708	21100.14
663.059	20976.3
663.409	20864.44
663.76	21094.04
664.11	21114.15
664.461	21233.24
664.811	21080.7
665.161	21119.57
665.511	20968.16
665.862	21094.71
666.212	21110.31
666.562	21127.71
666.912	20937.66
667.262	20987.37
667.612	21043.42
667.962	21030.08
668.312	21009.74
668.662	21090.87
669.011	21108.05
669.361	20944.89
669.711	21042.29
670.06	20969.29
670.41	20883.42
670.76	20840.71
671.109	21111.66
671.459	20917.77
671.808	20957.77
672.157	20954.6
672.507	20790.77
672.856	20916.64
673.205	20849.97
673.554	20870.99
673.904	20797.09
674.253	20882.29
674.602	20940.37
674.951	20539.7
675.3	20519.14
675.649	20774.04
675.998	20772.24
676.346	20779.69
676.695	20772.69
677.044	20651.56
677.393	20764.1
677.741	20681.62
678.09	20749.86
678.438	20650.88
678.787	20756.64
679.135	20706.02
679.484	20535.18
679.832	20573.37
680.181	20430.32
680.529	20513.03
680.877	20386.71
681.225	20509.64
681.573	20562.52
681.922	20426.48
682.27	20353.26
682.618	20389.87
682.966	20322.08
683.314	20300.61
683.661	20212.7
684.009	20125.47
684.357	20083.67
684.705	20115.76
685.053	20080.73
685.4	20055.87
685.748	19968.64
686.095	19877.8
686.443	19890.68
686.79	19784.01
687.138	19907.4
687.485	19879.6
687.832	19777.23
688.18	19776.78
688.527	19655.66
688.874	19608.43
689.221	19645.94
689.568	19601.42
689.915	19441.88
690.262	19417.47
690.609	19308.55
690.956	19250.47
691.303	19327.98
691.65	19134.09
691.997	19221.32
692.344	19094.99
692.69	19077.14
693.037	19014.09
693.383	18946.75
693.73	18979.97
694.077	18822.46
694.423	18831.5
694.769	18747.43
695.116	18723.02
695.462	18682.12
695.808	18594.44
696.155	18641.22
696.501	18376.37
696.847	18485.74
697.193	18348.12
697.539	18311.28
697.885	18216.82
698.231	18178.63
698.577	18121.91
698.923	18122.14
699.269	18000.11
699.614	17992.2
699.96	17850.73
700.306	17777.29
700.651	17627.91
700.997	17685.09
701.342	17631.3
701.688	17676.05
702.033	17521.93
702.379	17539.33
702.724	17427.92
703.069	17432.66
703.415	17360.35
703.76	17291.88
704.105	17225.21
704.45	17176.85
704.795	16995.61
705.14	17052.33
705.485	17030.64
705.83	17008.04
706.175	16951.55
706.52	16889.4
706.865	16747.26
707.209	16784.32
707.554	16678.78
707.899	16697.99
708.243	16689.41
708.588	16680.14
708.932	16532.57
709.277	16494.38
709.621	16504.55
709.966	16325.35
710.31	16447.15
710.654	16147.27
710.998	16265.01
711.342	16252.81
711.687	16173.26
712.031	16255.97
712.375	16136.88
712.719	16121.06
713.063	16163.09
713.407	16132.81
713.75	16084.22
714.094	16029.31
714.438	15998.8
714.782	15942.31
715.125	15897.11
715.469	15915.64
715.812	15792.71
716.156	15752.93
716.499	15700.96
716.843	15692.6
717.186	15609.43
717.53	15703.89
717.873	15703.89
718.216	15652.37
718.559	15560.62
718.902	15441.08
719.246	15608.53
719.589	15385.94
719.932	15503.22
720.275	15409.67
720.617	15310.68
720.96	15385.03
721.303	15387.52
721.646	15354.3
721.989	15288.09
722.331	15442.88
722.674	15361.76
723.016	15401.3
723.359	15288.31
723.701	15329.89
724.044	15212.38
724.386	15251.48
724.729	15243.34
725.071	15144.81
725.413	15140.52
725.755	15101.65
726.097	15124.25
726.439	15027.75
726.782	15087.19
727.124	15106.85
727.465	14922.45
727.807	15046.06
728.149	15001.54
728.491	14992.05
728.833	14966.97
729.175	15027.3
729.516	14889.91
729.858	14892.62
730.199	15006.96
730.541	15063.91
730.882	14958.83
731.224	14964.48
731.565	14891.04
731.906	14902.56
732.248	14890.81
732.589	14824.82
732.93	14762.9
733.271	14792.28
733.612	14870.92
733.953	14943.24
734.294	14870.7
734.635	14850.13
734.976	14873.86
735.317	14766.74
735.658	14808.33
735.999	14810.13
736.339	14823.69
736.68	14813.3
737.021	14790.25
737.361	14840.19
737.702	14890.58
738.042	14822.34
738.383	14855.56
738.723	14855.33
739.063	14830.7
739.404	14989.79
739.744	14870.7
740.084	14800.87
740.424	14878.38
740.764	14806.07
741.104	14980.07
741.444	14884.26
741.784	14862.79
742.124	14907.76
742.464	14882.22
742.804	14977.81
743.143	14921.54
743.483	14947.53
743.823	14911.83
744.162	14916.35
744.502	15013.52
744.841	15038.6
745.181	15101.2
745.52	15038.83
745.86	15129.22
746.199	15137.81
746.538	15138.49
746.877	15235.88
747.216	15366.5
747.556	15363.34
747.895	15380.74
748.234	15290.57
748.573	15318.37
748.911	15432.04
749.25	15503.22
749.589	15550.45
749.928	15624.35
750.267	15784.8
750.605	15797
750.944	15830.9
751.283	15905.7
751.621	16085.35
751.96	15949.54
752.298	16110.66
752.636	16263.65
752.975	16202.19
753.313	16250.32
753.651	16487.83
753.989	16526.92
754.327	16532.12
754.666	16603.08
755.004	16886.24
755.342	16949.96
755.679	17035.61
756.017	17071.09
756.355	17268.15
756.693	17280.8
757.031	17476.5
757.368	17473.79
757.706	17660.68
758.044	17677.63
758.381	17756.04
758.719	17907.68
759.056	18071.06
759.394	18147.22
