Data from hue_38_FLMS001491_00010.txt Node
Date: Tue Feb 07 17:30:59 GMT 2017
User: dcchb
Spectrometer: FLMS00149
Trigger mode: 0
Integration Time (sec): 2.000000E-2
Scans to average: 10
Electric dark correction enabled: true
Nonlinearity correction enabled: false
Boxcar width: 0
XAxis mode: Wavelengths
Number of Pixels in Spectrum: 2048
>>>>>Begin Spectral Data<<<<<
341.393	-11.68
341.776	-11.68
342.16	-11.68
342.543	-51.45
342.927	-68.63
343.31	-78.12
343.693	-67.05
344.077	-60.49
344.46	-58.91
344.843	-65.46
345.226	-28.86
345.61	-27.05
345.993	-26.6
346.376	-12.58
346.759	11.37
347.142	49.11
347.525	49.11
347.908	52.27
348.291	78.49
348.674	89.11
349.057	95.66
349.44	154.42
349.823	149.22
350.206	171.14
350.588	191.25
350.971	219.73
351.354	228.77
351.737	237.58
352.119	252.04
352.502	254.08
352.884	279.16
353.267	284.13
353.65	295.66
354.032	294.53
354.414	301.53
354.797	306.96
355.179	313.28
355.562	324.36
355.944	324.81
356.326	347.41
356.709	340.85
357.091	343.34
357.473	341.3
357.855	325.49
358.238	358.03
358.62	347.18
359.002	339.72
359.384	334.53
359.766	352.83
360.148	344.69
360.53	356.9
360.912	329.1
361.294	345.37
361.676	347.63
362.057	337.24
362.439	344.47
362.821	328.88
363.203	330.01
363.584	320.74
363.966	338.37
364.348	309.44
364.729	311.7
365.111	335.66
365.493	341.76
365.874	314.41
366.256	332.27
366.637	323.9
367.019	331.36
367.4	323
367.781	317.35
368.163	316.22
368.544	321.42
368.925	314.86
369.306	316.22
369.688	320.74
370.069	333.4
370.45	301.53
370.831	296.11
371.212	323.45
371.593	308.31
371.974	323
372.355	315.54
372.736	317.58
373.117	311.02
373.498	334.53
373.879	331.14
374.26	319.61
374.641	318.93
375.021	317.12
375.402	319.38
375.783	337.91
376.163	333.4
376.544	328.88
376.925	306.28
377.305	331.14
377.686	324.13
378.066	333.85
378.447	338.14
378.827	349.21
379.208	328.42
379.588	330.46
379.968	340.4
380.349	341.98
380.729	336.56
381.109	339.27
381.489	346.5
381.87	343.56
382.25	345.37
382.63	372.94
383.01	354.19
383.39	350.34
383.77	366.84
384.15	356.22
384.53	348.54
384.91	367.52
385.29	358.03
385.67	351.25
386.049	334.3
386.429	361.19
386.809	351.02
387.189	359.16
387.568	354.41
387.948	362.09
388.328	354.19
388.707	361.19
389.087	370
389.466	365.48
389.846	355.32
390.225	349.21
390.605	356.9
390.984	393.05
391.363	376.78
391.743	385.6
392.122	355.54
392.501	374.07
392.881	381.98
393.26	371.81
393.639	367.07
394.018	378.82
394.397	380.85
394.776	367.07
395.155	394.41
395.534	384.69
395.913	396.44
396.292	385.82
396.671	372.04
397.05	397.8
397.429	388.08
397.808	394.18
398.186	395.54
398.565	387.41
398.944	409.55
399.323	370.46
399.701	392.83
400.08	411.13
400.458	417.23
400.837	403.68
401.215	395.99
401.594	398.7
401.972	402.55
402.351	417.69
402.729	425.82
403.107	407.74
403.486	407.97
403.864	420.17
404.242	417.23
404.62	433.51
404.999	416.78
405.377	422.66
405.755	416.33
406.133	433.05
406.511	432.15
406.889	413.85
407.267	443.9
407.645	453.17
408.023	455.2
408.401	419.72
408.779	459.04
409.156	460.62
409.534	455.43
409.912	467.85
410.29	479.38
410.667	466.5
411.045	484.13
411.422	473.5
411.8	469.89
412.178	474.41
412.555	463.79
412.933	476.67
413.31	484.35
413.687	490.45
414.065	504.46
414.442	496.33
414.819	494.52
415.197	486.61
415.574	504.46
415.951	515.54
416.328	508.76
416.705	501.07
417.082	498.14
417.46	528.42
417.837	536.1
418.214	522.77
418.591	535.42
418.967	518.7
419.344	536.1
419.721	512.15
420.098	530.9
420.475	552.15
420.852	546.27
421.228	538.81
421.605	541.53
421.982	543.79
422.358	562.99
422.735	538.59
423.111	548.76
423.488	583.78
423.864	575.42
424.241	600.51
424.617	573.16
424.994	587.4
425.37	588.76
425.746	591.47
426.123	589.21
426.499	593.73
426.875	599.15
427.251	608.64
427.627	616.78
428.003	606.38
428.379	612.48
428.756	615.87
429.132	624.01
429.507	635.31
429.883	622.65
430.259	640.73
430.635	667.4
431.011	656.1
431.387	666.27
431.763	666.27
432.138	670.56
432.514	689.54
432.89	665.14
433.265	688.64
433.641	688.87
434.016	716.21
434.392	705.59
434.767	708.3
435.143	698.81
435.518	718.24
435.894	736.77
436.269	718.24
436.644	736.55
437.02	741.75
437.395	728.64
437.77	762.76
438.145	762.54
438.52	758.92
438.895	745.81
439.271	771.12
439.646	784
440.021	798.02
440.395	782.87
440.77	776.77
441.145	792.14
441.52	811.8
441.895	790.33
442.27	788.3
442.645	812.48
443.019	813.16
443.394	826.94
443.769	816.77
444.143	830.33
444.518	833.5
444.892	846.83
445.267	829.43
445.641	869.65
446.016	837.56
446.39	847.96
446.764	900.84
447.139	862.65
447.513	865.58
447.887	884.79
448.262	853.61
448.636	861.06
449.01	896.32
449.384	905.81
449.758	907.17
450.132	904.91
450.506	931.35
450.88	922.76
451.254	926.83
451.628	938.13
452.002	930.44
452.376	950.55
452.75	956.66
453.123	971.12
453.497	975.86
453.871	966.37
454.244	991.91
454.618	992.13
454.992	1007.95
455.365	988.75
455.739	1021.51
456.112	1042.08
456.486	1063.55
456.859	1049.53
457.232	1056.54
457.606	1042.08
457.979	1070.32
458.352	1120.95
458.725	1120.27
459.099	1109.42
459.472	1144.22
459.845	1159.36
460.218	1166.59
460.591	1159.59
460.964	1168.4
461.337	1188.29
461.71	1232.13
462.083	1224.67
462.456	1229.42
462.829	1233.03
463.201	1258.79
463.574	1259.7
463.947	1284.56
464.32	1320.94
464.692	1329.08
465.065	1334.72
465.438	1349.64
465.81	1376.08
466.183	1396.19
466.555	1409.07
466.928	1410.65
467.3	1441.61
467.672	1456.53
468.045	1499.92
468.417	1478.68
468.789	1529.52
469.161	1527.71
469.534	1577.88
469.906	1627.82
470.278	1630.54
470.65	1644.32
471.022	1657.88
471.394	1684.32
471.766	1708.5
472.138	1724.32
472.51	1767.48
472.882	1819.46
473.253	1846.35
473.625	1892.22
473.997	1943.07
474.369	1912.79
474.74	2008.38
475.112	2017.87
475.484	2054.93
475.855	2081.82
476.227	2106
476.598	2172.67
476.97	2261.48
477.341	2266.45
477.713	2350.97
478.084	2417.86
478.455	2460.34
478.827	2486.33
479.198	2539.89
479.569	2582.15
479.94	2691.53
480.311	2747.12
480.682	2781.01
481.053	2890.62
481.424	2950.5
481.795	3003.38
482.166	3075.02
482.537	3127.22
482.908	3211.29
483.279	3293.32
483.65	3373.77
484.021	3476.36
484.391	3520.88
484.762	3620.54
485.133	3694.21
485.503	3752.29
485.874	3889.91
486.244	3935.33
486.615	4061.43
486.985	4146.63
487.356	4222.33
487.726	4297.13
488.097	4439.28
488.467	4510.91
488.837	4611.93
489.207	4723.34
489.578	4853.28
489.948	4895.76
490.318	4981.18
490.688	5062.99
491.058	5250.1
491.428	5318.8
491.798	5426.59
492.168	5560.38
492.538	5600.15
492.908	5744.55
493.278	5830.43
493.648	5920.82
494.017	6008.5
494.387	6159.23
494.757	6220.02
495.126	6300.02
495.496	6365.1
495.866	6476.96
496.235	6601.7
496.605	6680.35
496.974	6714.24
497.344	6838.53
497.713	6939.32
498.082	7034.91
498.452	7148.58
498.821	7194.46
499.19	7262.25
499.559	7395.58
499.928	7486.65
500.298	7589.25
500.667	7689.13
501.036	7688.68
501.405	7808.9
501.774	7841.45
502.143	7951.05
502.512	8007.32
502.88	8153.53
503.249	8140.42
503.618	8292.51
503.987	8352.17
504.356	8403.24
504.724	8484.14
505.093	8491.15
505.462	8613.18
505.83	8680.07
506.199	8794.64
506.567	8942.66
506.936	8979.5
507.304	9058.82
507.672	9150.34
508.041	9166.61
508.409	9250.67
508.777	9348.75
509.145	9477.34
509.514	9499.93
509.882	9570.89
510.25	9601.4
510.618	9682.53
510.986	9728.85
511.354	9817.67
511.722	9985.34
512.09	10011.33
512.458	9972.92
512.826	10101.95
513.193	10144.66
513.561	10230.08
513.929	10341.72
514.297	10476.41
514.664	10473.47
515.032	10495.39
515.4	10605.67
515.767	10687.93
516.135	10755.49
516.502	10702.39
516.869	10869.84
517.237	10922.5
517.604	10900.35
517.972	11052.21
518.339	11126.78
518.706	11161.81
519.073	11202.71
519.44	11268.25
519.808	11516.6
520.175	11432.09
520.542	11609.03
520.909	11575.81
521.276	11645.41
521.643	11740.33
522.009	11806.09
522.376	11873.66
522.743	11958.4
523.11	12101.45
523.477	12162.01
523.843	12293.31
524.21	12344.83
524.577	12455.79
524.943	12490.36
525.31	12540.53
525.676	12715.67
526.043	12724.03
526.409	12775.33
526.776	12952.72
527.142	12929
527.508	12995.89
527.874	13121.08
528.241	13147.52
528.607	13229.1
528.973	13338.02
529.339	13344.35
529.705	13527.17
530.071	13582.76
530.437	13547.74
530.803	13635.19
531.169	13797
531.535	13738.92
531.901	13905.69
532.267	13924.45
532.632	14053.03
532.998	14127.61
533.364	14115.41
533.73	14129.42
534.095	14301.62
534.461	14310.43
534.826	14476.75
535.192	14550.87
535.557	14603.53
535.923	14590.2
536.288	14714.03
536.653	14794.71
537.019	14760.81
537.384	14783.64
537.749	14865.89
538.114	14911.99
538.479	14984.08
538.845	15036.51
539.21	14989.06
539.575	15130.52
539.94	15145.21
540.305	15278.76
540.67	15223.17
541.034	15302.27
541.399	15417.74
541.764	15462.71
542.129	15537.29
542.494	15660.45
542.858	15674.01
543.223	15623.39
543.587	15763.5
543.952	15732.09
544.316	15843.27
544.681	15904.74
545.045	15999.88
545.41	15994.68
545.774	16094.79
546.138	16129.14
546.503	16293.2
546.867	16245.75
547.231	16384.05
547.595	16360.77
547.959	16472.18
548.324	16437.15
548.688	16524.83
549.052	16577.49
549.416	16674.66
549.779	16697.94
550.143	16698.84
550.507	16877.82
550.871	16908.33
551.235	16837.82
551.599	16989.91
551.962	17069.68
552.326	17099.06
552.689	17251.82
553.053	17135.21
553.417	17177.92
553.78	17429.89
554.143	17366.39
554.507	17388.77
554.87	17556.67
555.234	17690.45
555.597	17604.81
555.96	17657.01
556.323	17718.25
556.686	17727.06
557.05	17859.94
557.413	17899.04
557.776	17993.27
558.139	18134.06
558.502	18136.77
558.865	18152.59
559.228	18294.96
559.59	18331.79
559.953	18390.1
560.316	18560.94
560.679	18511.45
561.041	18736.75
561.404	18708.96
561.767	18856.52
562.129	18828.28
562.492	18981.94
562.854	18958.89
563.217	18982.17
563.579	19092.45
563.941	19119.57
564.304	19155.05
564.666	19380.58
565.028	19316.17
565.39	19445.89
565.753	19566.11
566.115	19576.28
566.477	19622.61
566.839	19748.48
567.201	19808.36
567.563	19902.6
567.925	20032.31
568.287	20001.58
568.648	20135.81
569.01	20177.17
569.372	20436.82
569.734	20347.78
570.095	20316.6
570.457	20553.65
570.819	20557.5
571.18	20522.69
571.542	20777.6
571.903	20745.97
572.265	20903.7
572.626	20913.65
572.987	21058.95
573.349	21171.27
573.71	21345.72
574.071	21296.01
574.432	21409.23
574.794	21577.58
575.155	21653.06
575.516	21663
575.877	21832.72
576.238	21913.39
576.599	22092.15
576.96	22195.42
577.32	22306.38
577.681	22445.58
578.042	22570.55
578.403	22690.32
578.763	22779.58
579.124	22912.01
579.485	23134.15
579.845	23256.86
580.206	23308.84
580.566	23401.49
580.927	23656.17
581.287	23707.02
581.648	23802.83
582.008	24222.03
582.368	24248.25
582.728	24475.81
583.089	24534.11
583.449	24660.89
583.809	24866.54
584.169	25011.84
584.529	25196.92
584.889	25504.26
585.249	25557.14
585.609	25566.86
585.969	26222.21
586.329	26136.56
586.688	26319.38
587.048	26609.31
587.408	26628.52
587.768	26858.57
588.127	27082.3
588.487	27280.94
588.846	27685.44
589.206	27753.92
589.565	27931.54
589.925	28268.71
590.284	28357.52
590.643	28548.02
591.003	28984.85
591.362	29175.8
591.721	29375.8
592.08	29438.84
592.44	29758.84
592.799	30003.35
593.158	30023.01
593.517	30392.72
593.876	30557.23
594.235	30782.09
594.593	30996.77
594.952	31240.15
595.311	31383.88
595.67	31726.69
596.029	31909.06
596.387	32310.41
596.746	32438.77
597.104	32451.65
597.463	32650.29
597.822	32988.36
598.18	33090.5
598.538	33164.85
598.897	33597.15
599.255	33508.12
599.613	34041.44
599.972	34105.16
600.33	34348.55
600.688	34261.54
601.046	34656.56
601.404	34833.28
601.762	34929.55
602.12	35136.55
602.478	35351.23
602.836	35520.04
603.194	35595.74
603.552	35602.75
603.91	35740.6
604.268	36063.3
604.625	36165.22
604.983	36408.83
605.341	36448.83
605.698	36727.69
606.056	36974.24
606.413	36920.46
606.771	37120
607.128	37344.63
607.485	37287
607.843	37490.61
608.2	37813.99
608.557	38080.43
608.914	37971.95
609.272	38242
609.629	38333.07
609.986	38633.18
610.343	38530.13
610.7	38855.32
611.057	39012.83
611.414	38978.25
611.771	39082.43
612.127	39361.97
612.484	39430.22
612.841	39703.66
613.198	39574.17
613.554	39629.54
613.911	39971.9
614.267	39950.43
614.624	40056.87
614.98	40221.16
615.337	40342.51
615.693	40282.85
616.05	40396.52
616.406	40820.01
616.762	40543.64
617.118	40848.71
617.475	40793.57
617.831	40925.1
618.187	41116.5
618.543	41107.01
618.899	41413.22
619.255	41365.54
619.611	41355.59
619.967	41600.56
620.323	41797.84
620.678	41766.88
621.034	41585.64
621.39	41775.7
621.746	41704.96
622.101	42246.87
622.457	41912.41
622.812	42000.1
623.168	42328.22
623.523	42227.21
623.879	42429.24
624.234	42071.96
624.589	42252.52
624.945	42339.97
625.3	42470.14
625.655	42473.98
626.01	42502.23
626.365	42682.56
626.72	42478.05
627.075	42664.71
627.43	42611.38
627.785	42606.63
628.14	42701.09
628.495	42832.84
628.85	42683.69
629.205	42456.81
629.559	42836.01
629.914	42632.17
630.269	42845.27
630.623	42684.15
630.978	42677.82
631.332	42825.39
631.687	42909.45
632.041	42826.06
632.396	42844.59
632.75	42732.28
633.104	42869.9
633.459	42731.15
633.813	42774.54
634.167	42727.53
634.521	42727.99
634.875	42938.83
635.229	42798.27
635.583	42719.63
635.937	42657.25
636.291	42647.08
636.645	42656.35
636.999	42551.04
637.352	42763.24
637.706	42445.96
638.06	42580.42
638.413	42513.3
638.767	42429.69
639.121	42646.18
639.474	42439.86
639.828	42316.7
640.181	42449.35
640.534	42408.9
640.888	42337.04
641.241	42178.85
641.594	42258.17
641.947	42598.72
642.301	42244.84
642.654	42236.02
643.007	42386.53
643.36	42295.68
643.713	42135.91
644.066	42492.29
644.419	42218.17
644.771	41873.32
645.124	41495.93
645.477	41479.88
645.83	41275.37
646.182	41129.38
646.535	40968.94
646.888	41149.05
647.24	40897.3
647.593	41199.89
647.945	41114.24
648.298	40807.81
648.65	40805.33
649.002	40707.02
649.355	40869.28
649.707	40912.89
650.059	41193.56
650.411	41681.23
650.763	41598.3
651.115	41963.49
651.467	41739.31
651.819	41812.76
652.171	41704.06
652.523	41641.46
652.875	41643.5
653.227	41422.94
653.578	41711.06
653.93	41660.44
654.282	41406.67
654.633	41448.7
654.985	41460.45
655.337	41453.9
655.688	41435.82
656.039	41650.95
656.391	41330.06
656.742	41257.29
657.094	41500.9
657.445	41623.83
657.796	41546.77
658.147	41456.83
658.498	41427
658.849	41413.9
659.2	41337.97
659.551	41333.45
659.902	41391.98
660.253	41274.69
660.604	41199.21
660.955	41245.09
661.306	41368.02
661.656	41319.44
662.007	41335.48
662.358	41212.32
662.708	41208.25
663.059	41173.45
663.409	40961.03
663.76	41320.34
664.11	41268.59
664.461	41253.22
664.811	41165.09
665.161	41205.31
665.511	41116.96
665.862	41185.2
666.212	41185.65
666.562	41267.69
666.912	41125.32
667.262	41097.3
667.612	41079.44
667.962	41006
668.312	40948.6
668.662	41169.61
669.011	41260.68
669.361	41020.01
669.711	41019.56
670.06	40927.13
670.41	40869.96
670.76	40874.25
671.109	41012.78
671.459	41020.46
671.808	40839.9
672.157	40980.46
672.507	40745.89
672.856	40769.62
673.205	40805.1
673.554	40863.85
673.904	40716.97
674.253	40848.04
674.602	40811.88
674.951	40386.13
675.3	40198.56
675.649	40636.29
675.998	40708.15
676.346	40779.79
676.695	40699.34
677.044	40498.89
677.393	40712.67
677.741	40744.76
678.09	40710.41
678.438	40472.45
678.787	40562.39
679.135	40523.75
679.484	40278.33
679.832	40483.3
680.181	40221.16
680.529	40404.66
680.877	40217.77
681.225	40182.52
681.573	40436.75
681.922	40185.23
682.27	39978.68
682.618	40056.42
682.966	39935.29
683.314	39909.3
683.661	39969.42
684.009	39786.6
684.357	39681.51
684.705	39662.3
685.053	39686.03
685.4	39602.87
685.748	39399.26
686.095	39481.29
686.443	39370.11
686.79	39262.32
687.138	39333.95
687.485	39310.22
687.832	39210.57
688.18	39238.59
688.527	38942.55
688.874	38895.55
689.221	38963.57
689.568	38845.15
689.915	38733.06
690.262	38717.02
690.609	38558.6
690.956	38401.55
691.303	38354.09
691.65	38347.54
691.997	38296.92
692.344	38020.99
692.69	38077.94
693.037	38023.03
693.383	37724.28
693.73	37722.02
694.077	37517.28
694.423	37594.11
694.769	37520.44
695.116	37461.01
695.462	37378.75
695.808	37283.16
696.155	37370.61
696.501	36955.03
696.847	37131.07
697.193	36732.44
697.539	36885.65
697.885	36725.66
698.231	36720.46
698.577	36635.27
698.923	36573.12
699.269	36305.56
699.614	36296.74
699.96	36274.82
700.306	36212.23
700.651	36033.47
700.997	35945.57
701.342	35946.92
701.688	35834.16
702.033	35648.85
702.379	35623.54
702.724	35541.51
703.069	35614.28
703.415	35366.82
703.76	35276.88
704.105	35179.94
704.45	35268.52
704.795	35050.45
705.14	34901.53
705.485	34930.68
705.83	34698.59
706.175	34876.89
706.52	34647.52
706.865	34537.92
707.209	34436.68
707.554	34421.31
707.899	34504.25
708.243	34284.59
708.588	34302.22
708.932	34050.7
709.277	33915.56
709.621	34027.88
709.966	33788.33
710.31	33749.92
710.654	33594.44
710.998	33621.79
711.342	33661.78
711.687	33564.84
712.031	33392.86
712.375	33405.75
712.719	33292.3
713.063	33306.09
713.407	33325.52
713.75	33223.38
714.094	33161.91
714.438	33002.82
714.782	32947.45
715.125	32882.14
715.469	32917.4
715.812	32700
716.156	32623.17
716.499	32713.11
716.843	32648.03
717.186	32316.06
717.53	32588.82
717.873	32518.31
718.216	32443.06
718.559	32354.25
718.902	32099.11
719.246	32158.1
719.589	32069.96
719.932	32016.18
720.275	32094.59
720.617	31836.52
720.96	31844.43
721.303	31960.13
721.646	31906.58
721.989	31648.5
722.331	31696.64
722.674	31678.33
723.016	31731.21
723.359	31608.96
723.701	31638.56
724.044	31407.15
724.386	31245.35
724.729	31432.69
725.071	31264.33
725.413	31247.16
725.755	31194.28
726.097	31121.51
726.439	30927.84
726.782	30982.08
727.124	31200.15
727.465	30944.12
727.807	30893.95
728.149	30778.7
728.491	30792.93
728.833	30759.71
729.175	30721.07
729.516	30638.59
729.858	30643.33
730.199	30641.52
730.541	30562.88
730.882	30484.69
731.224	30550.68
731.565	30300.29
731.906	30411.25
732.248	30387.75
732.589	30204.02
732.93	30067.98
733.271	30173.51
733.612	30287.64
733.953	30234.08
734.294	30220.07
734.635	30012.84
734.976	30102.78
735.317	29834.31
735.658	29883.8
735.999	29868.89
736.339	29848.78
736.68	29933.07
737.021	29806.07
737.361	29589.58
737.702	29734.43
738.042	29745.5
738.383	29479.97
738.723	29667.09
739.063	29465.06
739.404	29432.29
739.744	29449.01
740.084	29407.21
740.424	29459.86
740.764	29361.11
741.104	29255.35
741.444	29103.26
741.784	29004.05
742.124	29284.72
742.464	29215.8
742.804	29047.22
743.143	29019.19
743.483	29031.4
743.823	28857.16
744.162	28965.18
744.502	28953.89
744.841	28726.32
745.181	28898.07
745.52	28722.93
745.86	28801.35
746.199	28760.44
746.538	28580.79
746.877	28564.07
747.216	28678.86
747.556	28429.15
747.895	28426.89
748.234	28367.01
748.573	28317.52
748.911	28274.58
749.25	28279.55
749.589	28253.79
749.928	28222.61
750.267	28191.19
750.605	28140.57
750.944	27959.56
751.283	28044.76
751.621	27907.81
751.96	27762.73
752.298	27786.23
752.636	27847.25
752.975	27641.83
753.313	27582.17
753.651	27750.53
753.989	27636.63
754.327	27572.68
754.666	27440.48
755.004	27540.36
755.342	27507.82
755.679	27393.25
756.017	27213.82
756.355	27329.07
756.693	27176.08
757.031	27244.55
