Data from hue_36_FLMS001491_00032.txt Node
Date: Tue Feb 07 17:29:43 GMT 2017
User: dcchb
Spectrometer: FLMS00149
Trigger mode: 0
Integration Time (sec): 2.000000E-2
Scans to average: 10
Electric dark correction enabled: true
Nonlinearity correction enabled: false
Boxcar width: 0
XAxis mode: Wavelengths
Number of Pixels in Spectrum: 2048
>>>>>Begin Spectral Data<<<<<
341.393	-0.96
341.776	-0.96
342.16	-0.96
342.543	-48.19
342.927	-77.34
343.31	-82.77
343.693	-75.76
344.077	-56.33
344.46	-47.51
344.843	-47.51
345.226	-55.65
345.61	-18.14
345.993	15.76
346.376	-6.61
346.759	20.96
347.142	5.59
347.525	43.11
347.908	43.56
348.291	62.31
348.674	85.14
349.057	113.84
349.44	114.29
349.823	145.93
350.206	157.68
350.588	189.54
350.971	207.85
351.354	218.69
351.737	212.59
352.119	239.26
352.502	253.04
352.884	274.51
353.267	285.13
353.65	288.3
354.032	309.31
354.414	320.61
354.797	311.35
355.179	309.54
355.562	336.66
355.944	325.58
356.326	324.23
356.709	334.4
357.091	337.79
357.473	332.59
357.855	346.83
358.238	349.31
358.62	358.58
359.002	363.78
359.384	345.47
359.766	338.24
360.148	336.43
360.53	343.44
360.912	344.12
361.294	331.91
361.676	333.04
362.057	322.42
362.439	330.56
362.821	322.19
363.203	322.42
363.584	318.58
363.966	331.23
364.348	322.19
364.729	323.1
365.111	326.04
365.493	320.16
365.874	339.37
366.256	314.96
366.637	321.74
367.019	319.03
367.4	300.05
367.781	300.95
368.163	301.63
368.544	311.8
368.925	333.49
369.306	310.67
369.688	313.38
370.069	318.81
370.45	324.68
370.831	315.64
371.212	326.94
371.593	318.81
371.974	305.02
372.355	320.16
372.736	303.66
373.117	323.78
373.498	303.21
373.879	316.32
374.26	326.94
374.641	313.16
375.021	300.95
375.402	314.29
375.783	324.68
376.163	318.35
376.544	311.35
376.925	325.13
377.305	341.4
377.686	352.25
378.066	316.77
378.447	321.29
378.827	326.04
379.208	305.25
379.588	328.3
379.968	335.98
380.349	345.25
380.729	348.18
381.109	316.77
381.489	347.5
381.87	319.94
382.25	342.76
382.63	350.89
383.01	333.72
383.39	347.73
383.77	341.4
384.15	341.18
384.53	329.43
384.91	330.33
385.29	359.93
385.67	335.98
386.049	342.08
386.429	370.56
386.809	366.94
387.189	327.84
387.568	329.43
387.948	340.73
388.328	325.13
388.707	341.63
389.087	353.15
389.466	364.68
389.846	340.05
390.225	363.32
390.605	327.62
390.984	352.48
391.363	345.7
391.743	363.55
392.122	361.29
392.501	367.39
392.881	362.87
393.26	366.94
393.639	362.87
394.018	368.3
394.397	347.73
394.776	363.78
395.155	356.09
395.534	388.63
395.913	378.46
396.292	387.5
396.671	384.34
397.05	381.18
397.429	385.47
397.808	380.5
398.186	372.82
398.565	369.2
398.944	395.64
399.323	379.14
399.701	378.46
400.08	369.2
400.458	387.28
400.837	372.14
401.215	388.18
401.594	373.27
401.972	381.63
402.351	396.09
402.729	404.45
403.107	381.63
403.486	401.06
403.864	415.75
404.242	401.74
404.62	407.16
404.999	407.62
405.377	414.62
405.755	419.82
406.133	411.23
406.511	420.27
406.889	412.81
407.267	412.14
407.645	401.06
408.023	399.48
408.401	422.98
408.779	416.88
409.156	441.29
409.534	433.15
409.912	425.92
410.29	421.85
410.667	408.52
411.045	439.48
411.422	433.15
411.8	455.3
412.178	416.88
412.555	449.65
412.933	432.93
413.31	445.36
413.687	448.75
414.065	439.48
414.442	465.24
414.819	487.16
415.197	475.86
415.574	467.5
415.951	468.18
416.328	465.47
416.705	480.61
417.082	453.49
417.46	465.47
417.837	487.16
418.214	475.19
418.591	493.72
418.967	483.09
419.344	498.24
419.721	501.4
420.098	483.55
420.475	500.5
420.852	492.59
421.228	490.78
421.605	498.69
421.982	520.83
422.358	495.75
422.735	511.79
423.111	498.69
423.488	525.58
423.864	519.48
424.241	523.55
424.617	513.15
424.994	523.55
425.37	528.74
425.746	533.49
426.123	518.35
426.499	541.17
426.875	557.67
427.251	557.44
427.627	545.69
428.003	542.08
428.379	522.19
428.756	563.32
429.132	551.79
429.507	566.48
429.883	552.02
430.259	578.46
430.635	561.06
431.011	580.49
431.387	586.82
431.763	591.34
432.138	586.37
432.514	573.26
432.89	604.67
433.265	601.28
433.641	622.3
434.016	606.26
434.392	615.07
434.767	638.12
435.143	609.64
435.518	643.09
435.894	654.16
436.269	644.45
436.644	661.4
437.02	645.12
437.395	660.72
437.77	655.07
438.145	662.3
438.52	685.35
438.895	659.59
439.271	701.17
439.646	705.01
440.021	699.36
440.395	704.78
440.77	662.75
441.145	682.86
441.52	706.59
441.895	710.43
442.27	695.52
442.645	701.85
443.019	700.26
443.394	695.97
443.769	715.18
444.143	713.15
444.518	727.83
444.892	722.18
445.267	721.51
445.641	728.29
446.016	712.92
446.39	738.23
446.764	750.21
447.139	754.5
447.513	735.97
447.887	740.71
448.262	748.62
448.636	756.76
449.01	774.16
449.384	766.93
449.758	763.09
450.132	766.93
450.506	786.14
450.88	803.54
451.254	785.91
451.628	794.27
452.002	807.61
452.376	822.52
452.75	819.81
453.123	806.7
453.497	827.04
453.871	822.75
454.244	848.28
454.618	863.42
454.992	869.98
455.365	880.6
455.739	885.57
456.112	879.24
456.486	913.59
456.859	899.58
457.232	895.97
457.606	932.35
457.979	921.28
458.352	949.75
458.725	950.88
459.099	959.01
459.472	962.86
459.845	991.78
460.218	989.97
460.591	984.1
460.964	1002.4
461.337	1056.86
461.71	1041.95
462.083	1049.86
462.456	1054.15
462.829	1029.07
463.201	1095.96
463.574	1064.77
463.947	1078.56
464.32	1108.61
464.692	1101.61
465.065	1098.45
465.438	1132.34
465.81	1154.72
466.183	1165.79
466.555	1178.9
466.928	1176.18
467.3	1186.35
467.672	1227.71
468.045	1231.55
468.417	1272.23
468.789	1263.41
469.161	1283.07
469.534	1298.21
469.906	1328.04
470.278	1351.55
470.65	1350.19
471.022	1408.72
471.394	1437.87
471.766	1429.06
472.138	1464.31
472.51	1483.52
472.882	1510.86
473.253	1556.29
473.625	1575.95
473.997	1636.96
474.369	1636.28
474.74	1637.64
475.112	1706.57
475.484	1723.74
475.855	1771.42
476.227	1807.35
476.598	1836.96
476.97	1919.22
477.341	1942.27
477.713	1971.87
478.084	2014.58
478.455	2086.67
478.827	2137.97
479.198	2201.92
479.569	2228.36
479.94	2272.43
480.311	2349.94
480.682	2396.94
481.053	2485.53
481.424	2553.55
481.795	2610.04
482.166	2667.67
482.537	2721.91
482.908	2831.96
483.279	2856.59
483.65	2904.27
484.021	3026.53
484.391	3090.26
484.762	3165.06
485.133	3239.41
485.503	3335
485.874	3414.54
486.244	3477.59
486.615	3568.21
486.985	3680.75
487.356	3771.6
487.726	3818.15
488.097	3931.59
488.467	4007.97
488.837	4118.93
489.207	4240.28
489.578	4334.29
489.948	4381.75
490.318	4532.48
490.688	4575.64
491.058	4695.64
491.428	4783.32
491.798	4920.49
492.168	5018.12
492.538	5085.23
492.908	5228.51
493.278	5344.66
493.648	5415.85
494.017	5441.83
494.387	5576.97
494.757	5675.5
495.126	5733.35
495.496	5818.55
495.866	5906.91
496.235	6053.8
496.605	6109.39
496.974	6202.27
497.344	6242.72
497.713	6376.05
498.082	6407.46
498.452	6586.44
498.821	6658.98
499.19	6709.37
499.559	6777.84
499.928	6897.62
500.298	6923.15
500.667	7060.32
501.036	7094.9
501.405	7185.74
501.774	7232.75
502.143	7351.39
502.512	7443.59
502.88	7469.13
503.249	7530.37
503.618	7648.1
503.987	7689.01
504.356	7792.51
504.724	7875.44
505.093	7876.8
505.462	8005.83
505.83	8046.51
506.199	8146.4
506.567	8281.31
506.936	8277.01
507.304	8399.5
507.672	8400.63
508.041	8510.23
508.409	8592.49
508.777	8682.43
509.145	8733.73
509.514	8737.57
509.882	8836.77
510.25	8930.33
510.618	8902.76
510.986	9003.77
511.354	9085.58
511.722	9156.76
512.09	9332.13
512.458	9221.62
512.826	9354.05
513.193	9423.88
513.561	9453.03
513.929	9544.55
514.297	9630.88
514.664	9643.08
515.032	9721.95
515.4	9798.33
515.767	9864.32
516.135	9843.53
516.502	9867.93
516.869	10053.92
517.237	10110.41
517.604	10071.77
517.972	10114.48
518.339	10272.89
518.706	10210.75
519.073	10362.61
519.44	10359.9
519.808	10478.09
520.175	10443.06
520.542	10593.79
520.909	10690.74
521.276	10634.47
521.643	10765.99
522.009	10841.24
522.376	10860.45
522.743	10885.53
523.11	11069.93
523.477	11141.8
523.843	11240.33
524.21	11343.6
524.577	11380.21
524.943	11420.66
525.31	11505.18
525.676	11640.54
526.043	11657.72
526.409	11758.28
526.776	11868.56
527.142	11867.88
527.508	11988.78
527.874	11967.09
528.241	12069
528.607	12169.57
528.973	12170.47
529.339	12147.87
529.705	12342.9
530.071	12470.8
530.437	12488.43
530.803	12474.64
531.169	12623.11
531.535	12626.96
531.901	12616.33
532.267	12724.58
532.632	12908.53
532.998	12838.7
533.364	12941.52
533.73	13014.97
534.095	13101.52
534.461	13218.35
534.826	13198.24
535.192	13193.95
535.557	13411.34
535.923	13399.14
536.288	13490.89
536.653	13428.07
537.019	13489.53
537.384	13515.52
537.749	13622.64
538.114	13685.46
538.479	13683.2
538.845	13773.59
539.21	13750.32
539.575	13887.04
539.94	13935.4
540.305	14019.46
540.67	13908.5
541.034	14131.78
541.399	14093.81
541.764	14158.67
542.129	14232.79
542.494	14278.44
542.858	14323.63
543.223	14286.57
543.587	14522.73
543.952	14471.43
544.316	14519.11
544.681	14550.75
545.045	14624.42
545.41	14721.82
545.774	14680.69
546.138	14739.44
546.503	14764.08
546.867	14735.15
547.231	15010.62
547.595	14990.06
547.959	14951.64
548.324	15007.01
548.688	15117.74
549.052	15145.76
549.416	15179.66
549.779	15187.79
550.143	15327
550.507	15441.8
550.871	15529.25
551.235	15458.29
551.599	15620.32
551.962	15569.48
552.326	15672.75
552.689	15773.31
553.053	15738.29
553.417	15775.8
553.78	15891.05
554.143	15839.98
554.507	15970.15
554.87	16052.4
555.234	16137.15
555.597	16029.13
555.96	16127.66
556.323	16123.14
556.686	16211.04
557.05	16306.86
557.413	16443.58
557.776	16410.13
558.139	16568.32
558.502	16594.99
558.865	16639.51
559.228	16723.12
559.59	16819.16
559.953	16900.52
560.316	16987.52
560.679	17000.63
561.041	17015.54
561.404	17168.98
561.767	17205.82
562.129	17207.4
562.492	17474.51
562.854	17413.5
563.217	17445.36
563.579	17484.68
563.941	17582.76
564.304	17615.53
564.666	17725.13
565.028	17758.57
565.39	17778.69
565.753	17887.83
566.115	17914.95
566.477	18106.81
566.839	18028.4
567.201	18189.75
567.563	18261.84
567.925	18385
568.287	18292.57
568.648	18417.09
569.01	18593.8
569.372	18665.67
569.734	18585.9
570.095	18719.9
570.457	18773.01
570.819	18798.09
571.18	18874.48
571.542	19027.24
571.903	19071.08
572.265	19155.6
572.626	19212.77
572.987	19244.86
573.349	19330.28
573.71	19521.46
574.071	19531.86
574.432	19692.31
574.794	19829.25
575.155	19889.36
575.516	19881.23
575.877	19962.13
576.238	20119.19
576.599	20174.33
576.96	20360.76
577.32	20393.08
577.681	20664.71
578.042	20660.42
578.403	20698.16
578.763	20896.12
579.124	20926.62
579.485	21109.9
579.845	21374.52
580.206	21416.56
580.566	21577.23
580.927	21682.54
581.287	21991.23
581.648	22043.88
582.008	22237.32
582.368	22314.61
582.728	22559.58
583.089	22708.27
583.449	22741.27
583.809	22887.25
584.169	23211.99
584.529	23131.09
584.889	23585.54
585.249	23658.3
585.609	23724.29
585.969	24066.43
586.329	24228.68
586.688	24530.6
587.048	24681.1
587.408	24756.13
587.768	25018.04
588.127	25201.77
588.487	25423.68
588.846	25798.59
589.206	25775.08
589.565	25994.29
589.925	26356.31
590.284	26492.35
590.643	26806.24
591.003	27029.52
591.362	27269.51
591.721	27429.05
592.08	27656.17
592.44	27961.24
592.799	28151.75
593.158	28214.79
593.517	28510.83
593.876	28697.72
594.235	28865.4
594.593	29096.35
594.952	29331.83
595.311	29528.88
595.67	29772.27
596.029	30081.19
596.387	30299.94
596.746	30455.41
597.104	30581.29
597.463	30823.54
597.822	31120.26
598.18	31226.47
598.538	31340.59
598.897	31693.57
599.255	31590.98
599.613	32335.59
599.972	32202.94
600.33	32509.82
600.688	32506.43
601.046	32736.94
601.404	33015.8
601.762	33098.06
602.12	33431.38
602.478	33558.38
602.836	33750.69
603.194	33719.96
603.552	34015.77
603.91	34003.8
604.268	34348.64
604.625	34500.28
604.983	34531.46
605.341	34670.22
605.698	34924.9
606.056	35154.73
606.413	35248.96
606.771	35384.32
607.128	35676.75
607.485	35621.15
607.843	35751.55
608.2	35845.55
608.557	36308.37
608.914	36042.84
609.272	36455.03
609.629	36491.41
609.986	36799.43
610.343	36728.92
610.7	37074.45
611.057	37224.28
611.414	37197.84
611.771	37354.22
612.127	37611.38
612.484	37632.63
612.841	37922.11
613.198	37712.85
613.554	37942
613.911	38091.82
614.267	38097.02
614.624	38119.17
614.98	38444.36
615.337	38638.02
615.693	38696.33
616.05	38687.74
616.406	39014.06
616.762	38903.78
617.118	38870.33
617.475	39125.47
617.831	39410.21
618.187	39424.67
618.543	39431.9
618.899	39679.13
619.255	39704.66
619.611	39585.57
619.967	39786.02
620.323	39963.86
620.678	39886.35
621.034	39820.82
621.39	39916.18
621.746	39905.79
622.101	40446.11
622.457	40144.2
622.812	40317.75
623.168	40425.32
623.523	40400.46
623.879	40661.47
624.234	40511.65
624.589	40611.98
624.945	40641.36
625.3	40877.06
625.655	40729.27
626.01	40752.32
626.365	40884.97
626.72	40913.44
627.075	40957.51
627.43	40892.65
627.785	40955.25
628.14	40957.96
628.495	41201.12
628.85	41065.3
629.205	41002.71
629.559	41253.32
629.914	40977.85
630.269	41064.17
630.623	40902.82
630.978	41021.92
631.332	41223.49
631.687	41342.13
632.041	40952.31
632.396	41134.46
632.75	41131.52
633.104	41132.87
633.459	40931.3
633.813	41007.23
634.167	40941.69
634.521	40949.83
634.875	41052.2
635.229	41212.19
635.583	40920
635.937	40976.27
636.291	40937.62
636.645	40881.58
636.999	40926.1
637.352	41041.12
637.706	40833.67
638.06	40934.69
638.413	41072.31
638.767	40916.83
639.121	41069.15
639.474	40687.46
639.828	40774.69
640.181	40784.63
640.534	40775.59
640.888	40840
641.241	40569.72
641.594	40593
641.947	40954.12
642.301	40717.29
642.654	40825.99
643.007	40766.78
643.36	40733.56
643.713	40719.1
644.066	40766.33
644.419	40595.26
644.771	40375.61
645.124	39950.76
645.477	39799.8
645.83	39637.09
646.182	39501.5
646.535	39506.93
646.888	39591.67
647.24	39386.48
647.593	39652.23
647.945	39475.06
648.298	39335.18
648.65	39336.76
649.002	39147.39
649.355	39431
649.707	39288.85
650.059	39501.73
650.411	40040.47
650.763	40110.08
651.115	40238.66
651.467	40321.14
651.819	40215.16
652.171	40028.04
652.523	40146.46
652.875	40190.07
653.227	39884.77
653.578	40183.07
653.93	40082.73
654.282	39947.14
654.633	39840.7
654.985	39839.35
655.337	39836.18
655.688	39917.76
656.039	40129.06
656.391	39657.43
656.742	39916.86
657.094	39834.6
657.445	39896.07
657.796	39896.52
658.147	39751.67
658.498	39888.84
658.849	39889.52
659.2	39765.9
659.551	39825.79
659.902	39835.05
660.253	39809.52
660.604	39819.91
660.955	39541.28
661.306	39742.4
661.656	39661.73
662.007	39767.26
662.358	39677.09
662.708	39812.68
663.059	39616.08
663.409	39523.42
663.76	39846.81
664.11	39705.57
664.461	39726.13
664.811	39724.55
665.161	39859.91
665.511	39485.68
665.862	39610.2
666.212	39689.07
666.562	39678
666.912	39668.96
667.262	39627.83
667.612	39578.11
667.962	39636.42
668.312	39487.94
668.662	39975.62
669.011	39570.88
669.361	39516.42
669.711	39490.66
670.06	39479.13
670.41	39454.95
670.76	39357.55
671.109	39598.22
671.459	39358.91
671.808	39412.47
672.157	39514.38
672.507	39235.97
672.856	39277.55
673.205	39365.91
673.554	39406.59
673.904	39271.45
674.253	39518
674.602	39470.77
674.951	38849.54
675.3	38761.18
675.649	39205.47
675.998	39280.72
676.346	39190.78
676.695	39271.45
677.044	39156.65
677.393	39193.26
677.741	39217.67
678.09	39168.86
678.438	39025.36
678.787	39186.71
679.135	39032.59
679.484	38917.79
679.832	38987.84
680.181	38783.33
680.529	38802.99
680.877	38643.9
681.225	38509.67
681.573	38880.73
681.922	38535.88
682.27	38569.1
682.618	38593.73
682.966	38493.85
683.314	38551.47
683.661	38448.42
684.009	38230.8
684.357	38187.64
684.705	38143.12
685.053	38187.41
685.4	38195.78
685.748	37981.54
686.095	38081.2
686.443	37747.65
686.79	37904.48
687.138	37931.83
687.485	37876.24
687.832	37630.59
688.18	37698.16
688.527	37582.91
688.874	37581.33
689.221	37504.72
689.568	37404.84
689.915	37292.52
690.262	37355.57
690.609	37119.65
690.956	37141.79
691.303	37104.05
691.65	36796.04
691.997	36820.44
692.344	36613.22
692.69	36628.36
693.037	36725.08
693.383	36464.07
693.73	36471.07
694.077	36336.16
694.423	36334.81
694.769	36088.94
695.116	36040.58
695.462	36100.92
695.808	36002.84
696.155	36022.27
696.501	35737.53
696.847	35833.8
697.193	35563.08
697.539	35546.81
697.885	35311.78
698.231	35353.36
698.577	35246.47
698.923	35225.23
699.269	35042.41
699.614	35008.51
699.96	34787.96
700.306	34895.07
700.651	34638.81
700.997	34649.2
701.342	34515.87
701.688	34508.41
702.033	34392.94
702.379	34372.37
702.724	34330.11
703.069	34419.83
703.415	33900.07
703.76	34049.22
704.105	34047.18
704.45	33865.95
704.795	33763.8
705.14	33594.77
705.485	33643.58
705.83	33470.48
706.175	33589.12
706.52	33528.1
706.865	33253.53
707.209	33289.01
707.554	33230.26
707.899	33204.72
708.243	33024.84
708.588	33079.98
708.932	32865.29
709.277	32747.11
709.621	32934.44
709.966	32768.35
710.31	32765.64
710.654	32353.9
710.998	32459.88
711.342	32498.52
711.687	32418.53
712.031	32367.91
712.375	32087.69
712.719	32229.83
713.063	32110.06
713.407	32175.59
713.75	32129.72
714.094	31958.88
714.438	31709.17
714.782	31883.17
715.125	31746.23
715.469	31777.41
715.812	31604.08
716.156	31465.33
716.499	31490.41
716.843	31346.92
717.186	31326.35
717.53	31393.47
717.873	31241.83
718.216	31230.76
718.559	31076.64
718.902	30932.24
719.246	31059.69
719.589	30952.8
719.932	30788.96
720.275	30658.12
720.617	30729.98
720.96	30725.92
721.303	30570.89
721.646	30675.3
721.989	30376.32
722.331	30621.51
722.674	30439.37
723.016	30409.77
723.359	30452.02
723.701	30391.91
724.044	30296.77
724.386	30138.59
724.729	30210.67
725.071	30235.08
725.413	30055.2
725.755	30190.79
726.097	30011.13
726.439	29782.89
726.782	29925.94
727.124	29976.78
727.465	29789.22
727.807	29715.32
728.149	29718.26
728.491	29746.96
728.833	29775.66
729.175	29706.51
729.516	29635.32
729.858	29510.35
730.199	29464.25
730.541	29506.74
730.882	29454.76
731.224	29559.62
731.565	29144.26
731.906	29291.83
732.248	29216.12
732.589	29042.34
732.93	29029.69
733.271	29121.66
733.612	29041.44
733.953	29083.02
734.294	28912.4
734.635	28972.52
734.976	28935
735.317	28856.36
735.658	28773.2
735.999	28791.95
736.339	28727.32
736.68	28720.32
737.021	28640.77
737.361	28525.52
737.702	28774.1
738.042	28582.69
738.383	28445.07
738.723	28586.54
739.063	28484.84
739.404	28509.48
739.744	28394
740.084	28328.24
740.424	28391.74
740.764	28181.12
741.104	28366.43
741.444	28183.84
741.784	28168.92
742.124	28157.4
742.464	28076.49
742.804	27923.05
743.143	28048.7
743.483	27965.31
743.823	27799.89
744.162	27814.13
744.502	27872.66
744.841	27799.89
745.181	27853
745.52	27681.48
745.86	27801.02
746.199	27722.38
746.538	27662.04
746.877	27709.05
747.216	27547.47
747.556	27558.99
747.895	27546.34
748.234	27556.06
748.573	27415.72
748.911	27424.08
749.25	27331.43
749.589	27246.68
749.928	27130.53
750.267	27353.12
750.605	27273.8
750.944	27150.64
751.283	27015.28
751.621	27122.17
751.96	26883.53
752.298	26897.99
752.636	26959.01
752.975	26879.46
753.313	26672.24
753.651	26876.3
753.989	26623.2
754.327	26527.61
754.666	26498.46
755.004	26558.57
755.342	26592.46
755.679	26529.19
756.017	26263.89
756.355	26428.18
756.693	26265.69
757.031	26304.56
757.368	26105.02
757.706	26030.22
