Data from hue_70_FLMS001491_22.txt Node
Date: Mon Feb 06 15:20:20 GMT 2017
User: dcchb
Spectrometer: FLMS00149
Trigger mode: 0
Integration Time (sec): 2.000000E-2
Scans to average: 10
Electric dark correction enabled: true
Nonlinearity correction enabled: false
Boxcar width: 0
XAxis mode: Wavelengths
Number of Pixels in Spectrum: 2048
>>>>>Begin Spectral Data<<<<<
341.393	-21.47
341.776	-21.47
342.16	-21.47
342.543	-70.96
342.927	-59.21
343.31	-70.28
343.693	-75.93
344.077	-75.93
344.46	-59.43
344.843	-51.3
345.226	-29.83
345.61	-20.11
345.993	-13.78
346.376	-10.4
346.759	10.85
347.142	11.98
347.525	48.59
347.908	62.15
348.291	68.25
348.674	93.33
349.057	111.86
349.44	128.13
349.823	137.62
350.206	175.14
350.588	197.06
350.971	209.03
351.354	236.38
351.737	244.74
352.119	251.74
352.502	261.69
352.884	283.38
353.267	278.64
353.65	292.42
354.032	292.42
354.414	309.14
354.797	307.79
355.179	312.99
355.562	317.73
355.944	328.35
356.326	358.18
356.709	336.04
357.091	325.87
357.473	351.63
357.855	328.8
358.238	335.81
358.62	339.88
359.002	373.1
359.384	344.85
359.766	340.56
360.148	328.35
360.53	326.09
360.912	348.92
361.294	347.34
361.676	320.22
362.057	343.49
362.439	334
362.821	338.75
363.203	340.33
363.584	322.93
363.966	331.74
364.348	320.22
364.729	318.64
365.111	312.99
365.493	331.06
365.874	309.37
366.256	321.8
366.637	318.18
367.019	314.57
367.4	295.59
367.781	340.78
368.163	311.18
368.544	315.92
368.925	312.08
369.306	317.96
369.688	300.56
370.069	326.32
370.45	310.5
370.831	313.89
371.212	340.33
371.593	315.02
371.974	325.19
372.355	326.55
372.736	325.64
373.117	323.38
373.498	290.84
373.879	313.21
374.26	312.08
374.641	309.37
375.021	317.51
375.402	313.44
375.783	310.95
376.163	332.19
376.544	310.73
376.925	323.61
377.305	335.13
377.686	326.32
378.066	331.29
378.447	326.55
378.827	335.13
379.208	336.94
379.588	332.19
379.968	338.52
380.349	317.73
380.729	335.13
381.109	321.57
381.489	348.01
381.87	345.3
382.25	316.6
382.63	340.78
383.01	329.93
383.39	359.99
383.77	356.6
384.15	356.37
384.53	350.05
384.91	345.75
385.29	354.79
385.67	350.95
386.049	343.72
386.429	358.86
386.809	340.78
387.189	367.67
387.568	352.76
387.948	357.73
388.328	352.76
388.707	336.94
389.087	354.57
389.466	367.67
389.846	362.93
390.225	358.63
390.605	366.54
390.984	344.85
391.363	385.98
391.743	367
392.122	343.49
392.501	357.28
392.881	370.61
393.26	357.96
393.639	361.8
394.018	362.02
394.397	369.48
394.776	380.55
395.155	374.45
395.534	377.84
395.913	369.93
396.292	384.4
396.671	393.21
397.05	380.55
397.429	396.37
397.808	377.84
398.186	396.6
398.565	390.05
398.944	392.98
399.323	386.43
399.701	385.3
400.08	375.13
400.458	373.78
400.837	377.62
401.215	380.1
401.594	390.05
401.972	402.25
402.351	397.73
402.729	386.2
403.107	391.18
403.486	388.92
403.864	400.67
404.242	407.45
404.62	403.61
404.999	411.74
405.377	395.7
405.755	410.16
406.133	399.99
406.511	404.74
406.889	406.32
407.267	414.23
407.645	437.73
408.023	436.82
408.401	406.99
408.779	441.57
409.156	418.97
409.534	430.72
409.912	441.12
410.29	444.51
410.667	429.82
411.045	445.41
411.422	445.86
411.8	425.98
412.178	447.45
412.555	437.95
412.933	450.38
413.31	458.07
413.687	479.99
414.065	449.03
414.442	469.59
414.819	468.24
415.197	458.97
415.574	493.32
415.951	492.19
416.328	492.87
416.705	482.25
417.082	460.33
417.46	487.9
417.837	475.69
418.214	504.39
418.591	478.86
418.967	493.55
419.344	484.28
419.721	494.45
420.098	491.96
420.475	521.79
420.852	505.07
421.228	509.37
421.605	500.1
421.982	507.56
422.358	498.97
422.735	547.56
423.111	518.4
423.488	514.34
423.864	516.82
424.241	560.44
424.617	540.1
424.994	517.73
425.37	553.88
425.746	535.58
426.123	527.22
426.499	528.12
426.875	554.11
427.251	554.79
427.627	545.3
428.003	546.65
428.379	582.36
428.756	577.16
429.132	583.71
429.507	572.41
429.883	591.17
430.259	583.26
430.635	580.78
431.011	572.64
431.387	582.13
431.763	592.53
432.138	586.2
432.514	602.92
432.89	626.42
433.265	621
433.641	598.18
434.016	611.51
434.392	632.3
434.767	636.37
435.143	617.38
435.518	633.2
435.894	649.47
436.269	663.71
436.644	642.69
437.02	637.5
437.395	685.18
437.77	680.66
438.145	698.74
438.52	677.04
438.895	701.68
439.271	698.29
439.646	712.07
440.021	694.22
440.395	692.86
440.77	691.06
441.145	717.27
441.52	727.66
441.895	729.7
442.27	698.74
442.645	719.08
443.019	739.64
443.394	720.43
443.769	748
444.143	752.97
444.518	741.9
444.892	742.58
445.267	763.14
445.641	742.81
446.016	750.26
446.39	752.3
446.764	768.34
447.139	763.14
447.513	776.48
447.887	776.25
448.262	789.36
448.636	795.01
449.01	809.24
449.384	799.08
449.758	796.36
450.132	801.11
450.506	809.47
450.88	825.29
451.254	837.49
451.628	823.03
452.002	853.76
452.376	843.59
452.75	875.68
453.123	852.41
453.497	873.88
453.871	877.27
454.244	863.25
454.618	886.76
454.992	878.39
455.365	893.76
455.739	926.3
456.112	915.91
456.486	931.95
456.859	939.64
457.232	960.88
457.606	952.07
457.979	962.69
458.352	988.9
458.725	984.83
459.099	974.44
459.472	1024.83
459.845	1002.46
460.218	1022.8
460.591	1032.06
460.964	1020.31
461.337	1043.14
461.71	1095.56
462.083	1084.94
462.456	1080.65
462.829	1088.56
463.201	1121.55
463.574	1110.71
463.947	1151.83
464.32	1169.23
464.692	1184.83
465.065	1175.34
465.438	1205.17
465.81	1227.76
466.183	1246.07
466.555	1295.33
466.928	1290.59
467.3	1290.81
467.672	1277.93
468.045	1339.63
468.417	1337.82
468.789	1354.99
469.161	1398.16
469.534	1428.21
469.906	1427.99
470.278	1424.14
470.65	1507.3
471.022	1531.03
471.394	1539.85
471.766	1545.5
472.138	1554.76
472.51	1613.74
472.882	1647.41
473.253	1678.6
473.625	1690.58
473.997	1747.75
474.369	1776
474.74	1803.12
475.112	1864.36
475.484	1943.9
475.855	1946.84
476.227	1972.15
476.598	2044.24
476.97	2109.1
477.341	2157.01
477.713	2194.29
478.084	2222.54
478.455	2321.52
478.827	2387.73
479.198	2424.34
479.569	2492.14
479.94	2576.88
480.311	2645.58
480.682	2721.51
481.053	2828.63
481.424	2935.52
481.795	2959.92
482.166	3041.28
482.537	3124.21
482.908	3238.78
483.279	3308.39
483.65	3381.83
484.021	3541.15
484.391	3588.38
484.762	3684.87
485.133	3781.14
485.503	3846.68
485.874	4006.22
486.244	4093
486.615	4208.25
486.985	4320.34
487.356	4424.06
487.726	4609.82
488.097	4713.32
488.467	4763.49
488.837	4914.45
489.207	5092.3
489.578	5220.43
489.948	5348.79
490.318	5499.29
490.688	5567.54
491.058	5748.55
491.428	5831.71
491.798	6031.03
492.168	6174.3
492.538	6274.41
492.908	6398.7
493.278	6635.76
493.648	6655.42
494.017	6822.87
494.387	6991.91
494.757	7133.82
495.126	7279.36
495.496	7331.11
495.866	7501.5
496.235	7675.05
496.605	7838.44
496.974	7911.66
497.344	8041.6
497.713	8238.88
498.082	8337.41
498.452	8509.83
498.821	8603.62
499.19	8748.02
499.559	8855.13
499.928	8965.87
500.298	9095.81
500.667	9272.75
501.036	9343.26
501.405	9461.45
501.774	9542.35
502.143	9740.99
502.512	9860.08
502.88	9999.96
503.249	10030.92
503.618	10202.44
503.987	10239.05
504.356	10456.45
504.724	10555.88
505.093	10616.9
505.462	10721.07
505.83	10864.8
506.199	11020.73
506.567	11199.71
506.936	11161.74
507.304	11418.68
507.672	11442.86
508.041	11613.48
508.409	11650.54
508.777	11795.85
509.145	11963.08
509.514	11943.64
509.882	12124.65
510.25	12153.35
510.618	12301.15
510.986	12408.04
511.354	12540.01
511.722	12670.63
512.09	12792.43
512.458	12812.09
512.826	12926.67
513.193	12991.75
513.561	13087.34
513.929	13250.95
514.297	13408.24
514.664	13435.13
515.032	13553.09
515.4	13611.17
515.767	13644.84
516.135	13843.48
516.502	13763.25
516.869	13944.49
517.237	14128.67
517.604	14073.98
517.972	14248.44
518.339	14301.54
518.706	14436.68
519.073	14501.31
519.44	14581.09
519.808	14725.26
520.175	14657.02
520.542	14803.68
520.909	14917.8
521.276	15006.16
521.643	15019.72
522.009	15225.14
522.376	15287.96
522.743	15461.06
523.11	15520.27
523.477	15629.87
523.843	15749.19
524.21	15871.45
524.577	15871.9
524.943	16048.39
525.31	16119.8
525.676	16190.53
526.043	16274.15
526.409	16351.89
526.776	16501.04
527.142	16418.33
527.508	16623.97
527.874	16753.23
528.241	16844.98
528.607	16882.04
528.973	16935.6
529.339	16943.51
529.705	17105.54
530.071	17215.82
530.437	17242.71
530.803	17339.43
531.169	17429.15
531.535	17366.55
531.901	17474.12
532.267	17440.9
532.632	17586.66
532.998	17599.99
533.364	17752.98
533.73	17674.11
534.095	17770.15
534.461	17876.37
534.826	17902.81
535.192	18011.73
535.557	18001.33
535.923	17973.31
536.288	18052.41
536.653	18152.74
537.019	17994.33
537.384	18044.27
537.749	18189.58
538.114	18219.63
538.479	18268.45
538.845	18305.73
539.21	18337.14
539.575	18335.79
539.94	18247.2
540.305	18404.94
540.67	18431.15
541.034	18417.82
541.399	18412.85
541.764	18442.23
542.129	18493.75
542.494	18439.29
542.858	18530.59
543.223	18610.81
543.587	18617.59
543.952	18498.95
544.316	18592.51
544.681	18548.66
545.045	18634.31
545.41	18687.42
545.774	18726.97
546.138	18681.77
546.503	18736.23
546.867	18686.97
547.231	18800.41
547.595	18802.67
547.959	18893.29
548.324	18794.08
548.688	18902.55
549.052	18899.16
549.416	18817.81
549.779	18859.84
550.143	18913.85
550.507	18953.4
550.871	19072.27
551.235	18952.27
551.599	19043.79
551.962	19117.24
552.326	19058.26
552.689	19095.77
553.053	19056.9
553.417	19118.59
553.78	19274.75
554.143	19162.43
554.507	19235.2
554.87	19298.7
555.234	19523.33
555.597	19284.46
555.96	19222.77
556.323	19406.95
556.686	19441.75
557.05	19544.34
557.413	19587.96
557.776	19561.29
558.139	19615.98
558.502	19560.16
558.865	19661.4
559.228	19692.59
559.59	19778.46
559.953	19791.34
560.316	20036.31
560.679	19890.55
561.041	20024.11
561.404	20108.17
561.767	20234.95
562.129	20143.88
562.492	20280.6
562.854	20187.49
563.217	20253.7
563.579	20240.82
563.941	20474.94
564.304	20483.76
564.666	20551.78
565.028	20542.51
565.39	20567.82
565.753	20635.62
566.115	20698.89
566.477	20793.8
566.839	20807.36
567.201	21003.52
567.563	21051.2
567.925	21105.66
568.287	21052.33
568.648	21035.38
569.01	21210.29
569.372	21301.13
569.734	21223.4
570.095	21329.61
570.457	21393.11
570.819	21514.46
571.18	21331.87
571.542	21535.7
571.903	21408.7
572.265	21589.49
572.626	21633.78
572.987	21647.57
573.349	21788.81
573.71	21830.16
574.071	21813.21
574.432	21852.53
574.794	22061.34
575.155	21990.83
575.516	21771.4
575.877	22026.54
576.238	22163.94
576.599	22056.82
576.96	22173.65
577.32	22036.71
577.681	22257.95
578.042	22175.24
578.403	22206.65
578.763	22167.55
579.124	22265.18
579.485	22236.48
579.845	22302.24
580.206	22336.59
580.566	22313.99
580.927	22354.89
581.287	22440.99
581.648	22356.7
582.008	22552.4
582.368	22424.72
582.728	22513.08
583.089	22489.8
583.449	22442.57
583.809	22451.84
584.169	22493.42
584.529	22351.73
584.889	22610.7
585.249	22486.87
585.609	22439.18
585.969	22541.55
586.329	22393.99
586.688	22442.35
587.048	22607.32
587.408	22393.08
587.768	22358.28
588.127	22461.78
588.487	22390.15
588.846	22553.31
589.206	22295.01
589.565	22461.56
589.925	22435.57
590.284	22402.57
590.643	22355.57
591.003	22477.38
591.362	22654.55
591.721	22439.41
592.08	22490.71
592.44	22526.87
592.799	22514.89
593.158	22482.8
593.517	22567.32
593.876	22559.41
594.235	22502.23
594.593	22500.65
594.952	22592.63
595.311	22431.5
595.67	22403.93
596.029	22600.08
596.387	22642.34
596.746	22546.53
597.104	22549.92
597.463	22528.67
597.822	22575
598.18	22507.88
598.538	22429.01
598.897	22614.32
599.255	22447.55
599.613	22862.45
599.972	22566.86
600.33	22695.22
600.688	22561.67
601.046	22660.42
601.404	22772.51
601.762	22695.67
602.12	22878.49
602.478	22865.61
602.836	22694.77
603.194	22603.02
603.552	22871.71
603.91	22661.78
604.268	22780.64
604.625	22744.49
604.983	22784.94
605.341	22752.17
605.698	22813.86
606.056	22775.45
606.413	22854.31
606.771	22822.9
607.128	22954.65
607.485	22746.97
607.843	22802.11
608.2	23070.58
608.557	23072.16
608.914	22934.09
609.272	23114.87
609.629	23101.54
609.986	23238.03
610.343	23088.66
610.7	23298.82
611.057	23316.68
611.414	23097.02
611.771	23215.21
612.127	23376.11
612.484	23344.24
612.841	23456.78
613.198	23298.82
613.554	23367.75
613.911	23511.25
614.267	23490.91
614.624	23475.54
614.98	23447.29
615.337	23599.61
615.693	23692.94
616.05	23531.36
616.406	23667.85
616.762	23642.77
617.118	23573.62
617.475	23694.29
617.831	23784.01
618.187	23822.2
618.543	23763.67
618.899	23879.6
619.255	23845.47
619.611	23781.52
619.967	23896.09
620.323	23943.33
620.678	23795.31
621.034	23713.73
621.39	23796.89
621.746	23669.66
622.101	24117.78
622.457	23849.09
622.812	23866.72
623.168	23921.86
623.523	23959.6
623.879	23911.69
624.234	23888.19
624.589	23951.01
624.945	24073.27
625.3	24080.5
625.655	24037.56
626.01	24091.12
626.365	24061.06
626.72	24033.04
627.075	24098.58
627.43	24037.56
627.785	23973.83
628.14	24063.32
628.495	24064.68
628.85	24016.32
629.205	23932.48
629.559	24095.19
629.914	24007.96
630.269	23985.58
630.623	23939.71
630.978	23889.32
631.332	24046.6
631.687	24097.22
632.041	23942.2
632.396	23967.73
632.75	23912.82
633.104	23845.47
633.459	23868.98
633.813	23901.07
634.167	23813.16
634.521	23830.79
634.875	23809.32
635.229	23778.81
635.583	23586.72
635.937	23765.25
636.291	23674.41
636.645	23626.95
636.999	23707.17
637.352	23706.27
637.706	23627.18
638.06	23695.42
638.413	23654.07
638.767	23539.04
639.121	23602.54
639.474	23439.61
639.828	23511.7
640.181	23539.04
640.534	23586.27
640.888	23503.56
641.241	23420.63
641.594	23369.33
641.947	23451.81
642.301	23371.36
642.654	23432.15
643.007	23438.93
643.36	23309.67
643.713	23328.88
644.066	23441.19
644.419	23243.68
644.771	23139.05
645.124	22921.66
645.477	22767.08
645.83	22727.09
646.182	22614.77
646.535	22644.38
646.888	22688.44
647.24	22584.04
647.593	22619.74
647.945	22672.62
648.298	22490.93
648.65	22461.78
649.002	22348.79
649.355	22474.89
649.707	22449.81
650.059	22540.42
650.411	22881.66
650.763	22865.16
651.115	23158.94
651.467	22985.84
651.819	23041.65
652.171	22953.07
652.523	22867.2
652.875	22899.96
653.227	22979.06
653.578	22950.58
653.93	22940.41
654.282	22959.62
654.633	22751.27
654.985	22856.8
655.337	22966.4
655.688	22864.94
656.039	22968.44
656.391	22760.76
656.742	22827.2
657.094	22868.33
657.445	22919.85
657.796	22800.3
658.147	22823.81
658.498	22848.21
658.849	22853.41
659.2	22830.36
659.551	22786.97
659.902	22885.05
660.253	22939.74
660.604	22838.95
660.955	22814.54
661.306	22972.73
661.656	22866.07
662.007	22802.11
662.358	22860.87
662.708	22845.95
663.059	22770.47
663.409	22740.87
663.76	22854.09
664.11	22934.54
664.461	22876.01
664.811	23078.04
665.161	22844.15
665.511	22789.68
665.862	22837.59
666.212	23007.08
666.562	22852.05
666.912	22852.96
667.262	22772.96
667.612	22740.65
667.962	22850.02
668.312	22803.92
668.662	22925.95
669.011	22776.35
669.361	22757.82
669.711	22803.69
670.06	22718.72
670.41	22686.18
670.76	22747.88
671.109	22681.66
671.459	22747.42
671.808	22610.48
672.157	22660.65
672.507	22538.39
672.856	22588.78
673.205	22613.19
673.554	22734.32
673.904	22575.45
674.253	22737.03
674.602	22663.36
674.951	22291.39
675.3	22217.95
675.649	22611.61
675.998	22561.89
676.346	22497.49
676.695	22580.2
677.044	22440.99
677.393	22510.82
677.741	22514.89
678.09	22398.28
678.438	22333.2
678.787	22470.82
679.135	22461.56
679.484	22233.99
679.832	22412.29
680.181	22261.79
680.529	22330.26
680.877	22128.68
681.225	22138.85
681.573	22328.68
681.922	22113.77
682.27	22026.09
682.618	22015.92
682.966	22016.82
683.314	22056.6
683.661	21900.67
684.009	21867.22
684.357	21770.05
684.705	21810.73
685.053	21834.68
685.4	21743.84
685.748	21619.09
686.095	21597.62
686.443	21522.82
686.79	21545.65
687.138	21553.56
687.485	21620.9
687.832	21509.49
688.18	21426.33
688.527	21475.82
688.874	21382.49
689.221	21251.19
689.568	21281.25
689.915	21138.65
690.262	21081.48
690.609	21120.12
690.956	21031.54
691.303	20968.04
691.65	20903.41
691.997	20868.6
692.344	20767.82
692.69	20643.07
693.037	20768.27
693.383	20524.21
693.73	20549.29
694.077	20427.94
694.423	20493.25
694.769	20401.95
695.116	20353.82
695.462	20215.97
695.808	20089.64
696.155	20225.91
696.501	20073.14
696.847	20098.68
697.193	19924.67
697.539	20023.2
697.885	19846.03
698.231	19714.96
698.577	19754.06
698.923	19745.92
699.269	19593.38
699.614	19497.11
699.96	19445.82
700.306	19434.97
700.651	19378.93
700.997	19246.5
701.342	19305.93
701.688	19276.78
702.033	19163.56
702.379	19144.36
702.724	19105.03
703.069	18980.07
703.415	18857.81
703.76	18882.22
704.105	18898.94
704.45	18770.13
704.795	18709.34
705.14	18615.78
705.485	18636.35
705.83	18427.09
706.175	18600.41
706.52	18478.38
706.865	18401.78
707.209	18461.66
707.554	18311.38
707.899	18270.48
708.243	18187.77
708.588	18176.7
708.932	18058.06
709.277	18070.03
709.621	18016.02
709.966	17977.15
710.31	17947.55
710.654	17858.97
710.998	17864.84
711.342	17770.83
711.687	17724.05
712.031	17644.73
712.375	17597.96
712.719	17616.49
713.063	17634.34
713.407	17481.35
713.75	17564.74
714.094	17500.33
714.438	17484.74
714.782	17452.65
715.125	17295.59
715.469	17368.81
715.812	17230.28
716.156	17109.15
716.499	17183.28
716.843	17217.4
717.186	17110.28
717.53	17179.66
717.873	17197.74
718.216	17179.89
718.559	17029.83
718.902	17004.75
719.246	17007.24
719.589	17043.17
719.932	16944.87
720.275	16893.12
720.617	16927.46
720.96	16851.99
721.303	16846.34
721.646	16833.68
721.989	16810.18
722.331	16773.34
722.674	16748.49
723.016	16726.57
723.359	16681.14
723.701	16755.04
724.044	16826.45
724.386	16587.36
724.729	16718.88
725.071	16536.06
725.413	16572.45
725.755	16629.62
726.097	16501.04
726.439	16431.66
726.782	16385.11
727.124	16514.59
727.465	16454.48
727.807	16424.65
728.149	16460.58
728.491	16325.67
728.833	16370.87
729.175	16327.03
729.516	16340.59
729.858	16232.57
730.199	16248.39
730.541	16286.13
730.882	16230.08
731.224	16258.33
731.565	16151.44
731.906	16275.05
732.248	16226.01
732.589	16077.09
732.93	16139.24
733.271	16093.81
733.612	16084.32
733.953	16125.45
734.294	16103.08
734.635	16116.19
734.976	16134.49
735.317	16033.7
735.658	16075.28
735.999	16165
736.339	16030.31
736.68	16072.57
737.021	15953.03
737.361	16050.2
737.702	16084.55
738.042	16085.68
738.383	16123.19
738.723	15982.4
739.063	15948.96
739.404	16007.04
739.744	16000.71
740.084	15950.99
740.424	15915.74
740.764	16000.26
741.104	15972.01
741.444	15885.91
741.784	15953.7
742.124	15903.08
742.464	15945.34
742.804	15965.46
743.143	16006.13
743.483	15985.79
743.823	15965
744.162	15981.5
744.502	16056.07
744.841	16005.45
745.181	16147.15
745.52	16024.21
745.86	16174.26
746.199	16143.76
746.538	16067.15
746.877	16183.98
747.216	16217.2
747.556	16228.5
747.895	16250.87
748.234	16224.66
748.573	16205.9
748.911	16322.28
749.25	16302.4
749.589	16335.62
749.928	16368.61
750.267	16509.4
750.605	16443.41
750.944	16506.01
751.283	16554.14
751.621	16636.62
751.96	16704.42
752.298	16643.4
752.636	16783.06
752.975	16781.25
753.313	16789.39
753.651	16976.5
753.989	16979.89
754.327	17075.03
754.666	17027.12
755.004	17060.79
755.342	17239.77
755.679	17240.9
756.017	17239.77
756.355	17509.6
756.693	17423.27
