Data from hue_22_FLMS001491_00035.txt Node
Date: Tue Feb 07 17:10:01 GMT 2017
User: dcchb
Spectrometer: FLMS00149
Trigger mode: 0
Integration Time (sec): 2.000000E-2
Scans to average: 10
Electric dark correction enabled: true
Nonlinearity correction enabled: false
Boxcar width: 0
XAxis mode: Wavelengths
Number of Pixels in Spectrum: 2048
>>>>>Begin Spectral Data<<<<<
341.393	-19.08
341.776	-19.08
342.16	-19.08
342.543	-69.7
342.927	-61.57
343.31	-60.21
343.693	-56.59
344.077	-83.71
344.46	-71.74
344.843	-37.61
345.226	-53.2
345.61	-35.35
345.993	-19.08
346.376	-1
346.759	26.34
347.142	31.09
347.525	21.37
347.908	79
348.291	82.38
348.674	81.25
349.057	97.07
349.44	135.49
349.823	144.76
350.206	175.49
350.588	217.75
350.971	197.86
351.354	241.48
351.737	237.86
352.119	262.95
352.502	266.11
352.884	273.57
353.267	281.93
353.65	291.19
354.032	292.1
354.414	299.1
354.797	317.86
355.179	313.79
355.562	331.19
355.944	321.93
356.326	316.5
356.709	356.73
357.091	327.35
357.473	347.46
357.855	318.76
358.238	358.99
358.62	355.37
359.002	314.92
359.384	344.52
359.766	347.46
360.148	349.95
360.53	353.79
360.912	352.21
361.294	336.16
361.676	337.07
362.057	328.71
362.439	321.25
362.821	332.1
363.203	314.92
363.584	335.26
363.966	329.84
364.348	326.22
364.729	314.47
365.111	345.88
365.493	327.12
365.874	327.35
366.256	330.74
366.637	309.05
367.019	311.53
367.4	331.87
367.781	318.99
368.163	322.83
368.544	305.2
368.925	302.49
369.306	325.54
369.688	314.24
370.069	323.51
370.45	324.41
370.831	317.63
371.212	316.28
371.593	324.64
371.974	323.06
372.355	332.55
372.736	304.53
373.117	328.48
373.498	328.71
373.879	320.8
374.26	334.58
374.641	330.97
375.021	317.63
375.402	322.15
375.783	321.47
376.163	311.31
376.544	315.83
376.925	358.31
377.305	327.8
377.686	340.23
378.066	326.22
378.447	330.51
378.827	324.64
379.208	330.51
379.588	323.96
379.968	335.49
380.349	331.64
380.729	355.15
381.109	356.28
381.489	346.11
381.87	329.16
382.25	337.07
382.63	344.98
383.01	337.07
383.39	345.2
383.77	342.72
384.15	356.5
384.53	359.67
384.91	347.01
385.29	354.92
385.67	346.78
386.049	370.06
386.429	345.65
386.809	370.96
387.189	358.99
387.568	348.59
387.948	361.7
388.328	365.54
388.707	341.81
389.087	339.78
389.466	351.53
389.846	375.94
390.225	350.85
390.605	373.9
390.984	371.19
391.363	387.91
391.743	374.58
392.122	360.12
392.501	380
392.881	367.8
393.26	368.03
393.639	372.55
394.018	387.46
394.397	382.72
394.776	394.24
395.155	381.13
395.534	403.28
395.913	396.5
396.292	387.46
396.671	386.11
397.05	377.74
397.429	397.86
397.808	404.86
398.186	413.22
398.565	404.18
398.944	398.31
399.323	386.11
399.701	394.02
400.08	398.76
400.458	412.77
400.837	414.13
401.215	394.02
401.594	417.29
401.972	420.46
402.351	436.73
402.729	420.91
403.107	415.26
403.486	410.74
403.864	410.96
404.242	424.75
404.62	421.58
404.999	424.3
405.377	447.12
405.755	441.47
406.133	405.99
406.511	443.51
406.889	448.7
407.267	426.33
407.645	445.54
408.023	441.25
408.401	457.29
408.779	456.84
409.156	454.35
409.534	453.45
409.912	446.44
410.29	478.98
410.667	464.3
411.045	432.43
411.422	464.75
411.8	459.32
412.178	482.15
412.555	475.82
412.933	464.52
413.31	483.73
413.687	484.18
414.065	509.72
414.442	481.02
414.819	488.48
415.197	485.31
415.574	486.22
415.951	519.89
416.328	505.88
416.705	507.68
417.082	533.67
417.46	512.88
417.837	495.03
418.214	515.59
418.591	502.26
418.967	522.83
419.344	519.66
419.721	532.54
420.098	512.43
420.475	544.07
420.852	552.43
421.228	557.4
421.605	542.03
421.982	536.16
422.358	545.42
422.735	560.79
423.111	558.76
423.488	579.77
423.864	563.73
424.241	558.76
424.617	598.98
424.994	580.45
425.37	571.86
425.746	593.11
426.123	571.19
426.499	600.11
426.875	607.12
427.251	601.24
427.627	593.78
428.003	608.25
428.379	626.78
428.756	619.55
429.132	640.34
429.507	636.95
429.883	636.49
430.259	628.59
430.635	625.2
431.011	664.52
431.387	647.57
431.763	669.71
432.138	664.06
432.514	681.47
432.89	668.13
433.265	681.01
433.641	669.71
434.016	673.33
434.392	719.66
434.767	697.96
435.143	681.47
435.518	725.98
435.894	718.53
436.269	725.98
436.644	717.4
437.02	721.24
437.395	750.16
437.77	744.51
438.145	725.08
438.52	754.68
438.895	777.73
439.271	740.22
439.646	798.07
440.021	787.9
440.395	771.86
440.77	790.39
441.145	791.52
441.52	811.86
441.895	790.84
442.27	815.47
442.645	782.48
443.019	780.67
443.394	813.44
443.769	819.31
444.143	817.73
444.518	832.2
444.892	822.93
445.267	823.83
445.641	837.17
446.016	834.23
446.39	849.82
446.764	864.06
447.139	844.4
447.513	870.16
447.887	844.17
448.262	856.6
448.636	874.91
449.01	871.74
449.384	870.84
449.758	890.5
450.132	886.66
450.506	888.92
450.88	892.08
451.254	918.07
451.628	922.14
452.002	923.94
452.376	917.84
452.75	924.4
453.123	949.03
453.497	969.59
453.871	988.35
454.244	976.6
454.618	994
454.992	1005.3
455.365	1012.08
455.739	1024.05
456.112	1044.39
456.486	1029.48
456.859	1047.33
457.232	1032.19
457.606	1055.01
457.979	1049.59
458.352	1079.19
458.725	1106.31
459.099	1117.84
459.472	1103.83
459.845	1130.49
460.218	1152.64
460.591	1151.28
460.964	1151.06
461.337	1169.81
461.71	1203.26
462.083	1218.17
462.456	1226.08
462.829	1235.57
463.201	1249.36
463.574	1244.84
463.947	1255.69
464.32	1270.15
464.692	1305.4
465.065	1300.43
465.438	1321.9
465.81	1357.83
466.183	1369.81
466.555	1371.16
466.928	1368.23
467.3	1375.23
467.672	1426.98
468.045	1461.78
468.417	1466.53
468.789	1451.16
469.161	1473.99
469.534	1491.39
469.906	1528.9
470.278	1565.74
470.65	1557.15
471.022	1575.23
471.394	1599.86
471.766	1635.79
472.138	1629.91
472.51	1681.66
472.882	1691.61
473.253	1701.55
473.625	1735.22
473.997	1769.35
474.369	1808.44
474.74	1824.49
475.112	1865.16
475.484	1894.54
475.855	1911.04
476.227	1921.66
476.598	1985.39
476.97	2024.48
477.341	2074.42
477.713	2076.23
478.084	2105.16
478.455	2171.14
478.827	2149.22
479.198	2249.56
479.569	2273.97
479.94	2303.57
480.311	2325.72
480.682	2369.1
481.053	2464.24
481.424	2449.33
481.795	2508.08
482.166	2563.45
482.537	2552.83
482.908	2653.16
483.279	2714.86
483.65	2733.16
484.021	2836.21
484.391	2855.87
484.762	2878.02
485.133	2887.96
485.503	2957.56
485.874	2983.78
486.244	3044.57
486.615	3089.54
486.985	3168.86
487.356	3174.28
487.726	3230.78
488.097	3271
488.467	3286.37
488.837	3436.42
489.207	3445.46
489.578	3453.14
489.948	3507.83
490.318	3605.46
490.688	3602.52
491.058	3715.96
491.428	3720.48
491.798	3809.07
492.168	3823.53
492.538	3881.38
492.908	3924.09
493.278	3960.7
493.648	4038.21
494.017	4033.69
494.387	4094.03
494.757	4160.24
495.126	4158.21
495.496	4221.71
495.866	4238.66
496.235	4249.28
496.605	4328.37
496.974	4313.46
497.344	4388.03
497.713	4399.79
498.082	4480.69
498.452	4486.56
498.821	4508.94
499.19	4533.79
499.559	4576.73
499.928	4609.5
500.298	4628.03
500.667	4684.52
501.036	4705.54
501.405	4745.77
501.774	4720.68
502.143	4766.56
502.512	4812.88
502.88	4882.48
503.249	4895.37
503.618	4908.92
503.987	4943.27
504.356	4968.13
504.724	4967
505.093	4967.23
505.462	5037.96
505.83	5074.57
506.199	5086.77
506.567	5165.42
506.936	5182.36
507.304	5240.67
507.672	5253.77
508.041	5221.23
508.409	5315.24
508.777	5292.19
509.145	5372.19
509.514	5333.32
509.882	5405.86
510.25	5444.28
510.618	5407.44
510.986	5430.72
511.354	5498.97
511.722	5544.39
512.09	5540.77
512.458	5546.42
512.826	5611.73
513.193	5628.23
513.561	5637.04
513.929	5676.59
514.297	5748.22
514.664	5728.56
515.032	5810.14
515.4	5828.22
515.767	5826.87
516.135	5847.88
516.502	5833.42
516.869	5908.45
517.237	5877.71
517.604	5940.54
517.972	5976.02
518.339	6014.43
518.706	6014.21
519.073	6030.93
519.44	6055.34
519.808	6126.75
520.175	6086.75
520.542	6166.97
520.909	6213.07
521.276	6210.13
521.643	6324.48
522.009	6362.45
522.376	6329.45
522.743	6360.19
523.11	6413.97
523.477	6386.63
523.843	6461.43
524.21	6534.19
524.577	6570.8
524.943	6607.86
525.31	6578.26
525.676	6721.98
526.043	6679.73
526.409	6731.7
526.776	6776.67
527.142	6827.52
527.508	6883.11
527.874	6900.96
528.241	6943.22
528.607	6989.1
528.973	7027.96
529.339	6986.84
529.705	7084.23
530.071	7095.08
530.437	7155.87
530.803	7163.1
531.169	7247.17
531.535	7178.24
531.901	7277
532.267	7270.22
532.632	7302.08
532.998	7378.24
533.364	7450.33
533.73	7423.66
534.095	7512.92
534.461	7551.12
534.826	7552.7
535.192	7558.12
535.557	7585.24
535.923	7635.86
536.288	7643.99
536.653	7744.56
537.019	7664.78
537.384	7686.25
537.749	7712.92
538.114	7788.4
538.479	7853.71
538.845	7805.57
539.21	7795.63
539.575	7890.54
539.94	7958.11
540.305	7919.24
540.67	8036.75
541.034	8064.77
541.399	8029.29
541.764	8056.64
542.129	8145.22
542.494	8114.04
542.858	8170.76
543.223	8286.69
543.587	8178.9
543.952	8259.12
544.316	8261.38
544.681	8305.45
545.045	8369.4
545.41	8369.17
545.774	8417.31
546.138	8384.54
546.503	8434.26
546.867	8525.78
547.231	8573.69
547.595	8591.54
547.959	8614.59
548.324	8568.49
548.688	8588.83
549.052	8746.79
549.416	8712.21
549.779	8727.36
550.143	8644.65
550.507	8820.23
550.871	8841.02
551.235	8896.84
551.599	8935.49
551.962	8968.03
552.326	8945.65
552.689	9051.87
553.053	8962.83
553.417	9014.13
553.78	9055.71
554.143	9071.08
554.507	9125.08
554.87	9158.08
555.234	9191.3
555.597	9144.97
555.96	9207.57
556.323	9241.47
556.686	9248.92
557.05	9328.24
557.413	9382.71
557.776	9356.27
558.139	9455.47
558.502	9472.65
558.865	9473.32
559.228	9505.19
559.59	9583.83
559.953	9579.76
560.316	9673.32
560.679	9662.25
561.041	9730.49
561.404	9782.92
561.767	9860.21
562.129	9725.52
562.492	9917.61
562.854	9901.79
563.217	9867.21
563.579	9954.44
563.941	9965.97
564.304	10008.68
564.666	10105.4
565.028	10111.73
565.39	10048.22
565.753	10236.24
566.115	10193.31
566.477	10260.87
566.839	10303.36
567.201	10349.01
567.563	10344.04
567.925	10426.52
568.287	10456.12
568.648	10440.53
569.01	10452.73
569.372	10610.92
569.734	10594.88
570.095	10544.26
570.457	10666.29
570.819	10697.02
571.18	10700.86
571.542	10746.51
571.903	10821.31
572.265	10880.07
572.626	10963.68
572.987	10960.74
573.349	11002.32
573.71	11151.02
574.071	11106.73
574.432	11235.99
574.794	11259.94
575.155	11423.1
575.516	11365.03
575.877	11396.89
576.238	11517.79
576.599	11594.85
576.96	11628.52
577.32	11713.72
577.681	11858.8
578.042	11747.61
578.403	11909.87
578.763	12020.38
579.124	12052.69
579.485	12204.1
579.845	12329.97
580.206	12389.86
580.566	12492.45
580.927	12538.55
581.287	12782.16
581.648	12800.69
582.008	13050.41
582.368	13124.98
582.728	13314.81
583.089	13348.25
583.449	13548.7
583.809	13679.99
584.169	13894
584.529	13943.72
584.889	14330.6
585.249	14289.02
585.609	14512.06
585.969	14626.64
586.329	14827.99
586.688	15115.21
587.048	15307.52
587.408	15455.31
587.768	15769.43
588.127	15918.58
588.487	16154.5
588.846	16519.47
589.206	16625
589.565	16832.9
589.925	17165.33
590.284	17436.05
590.643	17732.99
591.003	17994.46
591.362	18284.84
591.721	18520.09
592.08	18915.79
592.44	19182.22
592.799	19424.25
593.158	19651.81
593.517	19897.01
593.876	20242.53
594.235	20489.98
594.593	20797.77
594.952	21178.78
595.311	21313.24
595.67	21778.54
596.029	22090.62
596.387	22409.26
596.746	22814.89
597.104	22949.35
597.463	23175.34
597.822	23649.45
598.18	23874.3
598.538	24070.91
598.897	24568.52
599.255	24733.26
599.613	25240.59
599.972	25479.68
600.33	25799.22
600.688	26046
601.046	26406.66
601.404	26761.91
601.762	26982.47
602.12	27469.69
602.478	27594.2
602.836	27969.56
603.194	28189.67
603.552	28540.17
603.91	28569.32
604.268	29054.5
604.625	29230.32
604.983	29685
605.341	29716.63
605.698	30187.36
606.056	30547.57
606.413	30705.76
606.771	31028.01
607.128	31370.15
607.485	31459.86
607.843	31769.01
608.2	32067.08
608.557	32512.49
608.914	32633.17
609.272	33053.95
609.629	33202.64
609.986	33541.17
610.343	33635.4
610.7	34175.27
611.057	34162.62
611.414	34283.29
611.771	34633.11
612.127	34904.07
612.484	34992.88
612.841	35415.69
613.198	35477.39
613.554	35601.45
613.911	35901.1
614.267	36141.55
614.624	36312.17
614.98	36611.82
615.337	36891.81
615.693	36939.27
616.05	37156.44
616.406	37534.28
616.762	37571.34
617.118	37648.4
617.475	37953.71
617.831	38087.94
618.187	38167.71
618.543	38492.45
618.899	38788.94
619.255	38853.34
619.611	38942.61
619.967	39189.15
620.323	39401.35
620.678	39227.12
621.034	39394.8
621.39	39463.95
621.746	39602.93
622.101	40071.84
622.457	39906.87
622.812	40061.9
623.168	40170.6
623.523	40369.24
623.879	40523.58
624.234	40575.78
624.589	40604.26
624.945	40752.95
625.3	40797.47
625.655	40850.8
626.01	40994.98
626.365	41009.44
626.72	41049.67
627.075	41193.39
627.43	41230.91
627.785	41316.1
628.14	41401.07
628.495	41559.71
628.85	41536.89
629.205	41424.12
629.559	41817.33
629.914	41586.6
630.269	41804.45
630.623	41625.25
630.978	41660.95
631.332	41988.4
631.687	42034.28
632.041	41919.48
632.396	41990.66
632.75	41745.47
633.104	42089.87
633.459	41884.68
633.813	41855.3
634.167	41939.59
634.521	41872.25
634.875	42120.38
635.229	42077.89
635.583	41959.7
635.937	42045.12
636.291	42018.01
636.645	42026.14
636.999	42025.46
637.352	42143.88
637.706	42011.45
638.06	42192.01
638.413	41962.19
638.767	41949.76
639.121	41883.09
639.474	41884.9
639.828	41903.88
640.181	41926.48
640.534	41964.45
640.888	42017.78
641.241	41841.74
641.594	41920.15
641.947	42121.96
642.301	41878.8
642.654	42101.62
643.007	42072.02
643.36	41969.19
643.713	41928.52
644.066	42095.74
644.419	41943.66
644.771	41572.82
645.124	41377.57
645.477	41303.9
645.83	41100.06
646.182	40909.56
646.535	40827.08
646.888	40857.36
647.24	40702.56
647.593	40923.34
647.945	40851.71
648.298	40768.55
648.65	40609.91
649.002	40607.87
649.355	40746.85
649.707	40685.16
650.059	40877.47
650.411	41355.88
650.763	41489.66
651.115	41704.12
651.467	41517
651.819	41623.44
652.171	41669.99
652.523	41428.87
652.875	41397.68
653.227	41365.37
653.578	41660.27
653.93	41553.38
654.282	41444.69
654.633	41281.53
654.985	41419.83
655.337	41407.63
655.688	41388.42
656.039	41582.99
656.391	41140.74
656.742	41266.39
657.094	41320.85
657.445	41366.72
657.796	41402.88
658.147	41138.93
658.498	41175.77
658.849	41428.42
659.2	41193.62
659.551	41194.3
659.902	41274.07
660.253	41399.94
660.604	41313.39
660.955	41143.68
661.306	41244.92
661.656	41226.61
662.007	41216.22
662.358	41271.58
662.708	41255.54
663.059	41261.19
663.409	41024.59
663.76	41242.66
664.11	41241.98
664.461	41187.07
664.811	41307.74
665.161	41265.26
665.511	41135.99
665.862	41002.89
666.212	41298.48
666.562	41124.02
666.912	41107.97
667.262	40987.75
667.612	41155.2
667.962	41172.38
668.312	41081.08
668.662	41362.2
669.011	41117.92
669.361	40975.55
669.711	41102.32
670.06	41088.54
670.41	41076.34
670.76	40908.88
671.109	41135.32
671.459	40978.94
671.808	40981.65
672.157	41119.05
672.507	40865.27
672.856	40895.77
673.205	40996.79
673.554	41107.29
673.904	40883.12
674.253	41011.03
674.602	41028.2
674.951	40376.01
675.3	40282.23
675.649	40794.08
675.998	40876.34
676.346	40692.16
676.695	40807.64
677.044	40632.73
677.393	40688.55
677.741	40719.28
678.09	40639.28
678.438	40686.29
678.787	40722.22
679.135	40528.33
679.484	40401.55
679.832	40660.53
680.181	40310.48
680.529	40365.39
680.877	40288.33
681.225	40267.09
681.573	40482
681.922	40182.57
682.27	40156.59
682.618	40091.05
682.966	40070.49
683.314	40082.46
683.661	39905.29
684.009	39770.15
684.357	39791.85
684.705	39701.46
685.053	39701.91
685.4	39661.01
685.748	39470.28
686.095	39532.87
686.443	39340.56
686.79	39301.69
687.138	39306.44
687.485	39452.65
687.832	39306.44
688.18	39212.88
688.527	38991.19
688.874	39075.94
689.221	38959.78
689.568	38855.83
689.915	38791.42
690.262	38771.76
690.609	38632.11
690.956	38613.12
691.303	38469.85
691.65	38310.98
691.997	38427.82
692.344	38167.03
692.69	38167.94
693.037	38198.44
693.383	37887.49
693.73	37948.73
694.077	37806.82
694.423	37838
694.769	37628.74
695.116	37626.03
695.462	37531.8
695.808	37461.97
696.155	37600.72
696.501	37273.95
696.847	37200.73
697.193	36909.89
697.539	37187.85
697.885	36826.5
698.231	36753.29
698.577	36703.34
698.923	36726.62
699.269	36595.78
699.614	36247.54
699.96	36227.65
700.306	36304.26
700.651	36124.38
700.997	36011.38
701.342	35980.42
701.688	35934.1
702.033	35902.91
702.379	35778.4
702.724	35660.88
703.069	35756.93
703.415	35344.96
703.76	35340.44
704.105	35444.17
704.45	35379.76
704.795	35069.49
705.14	34978.19
705.485	34972.99
705.83	34829.04
706.175	35005.53
706.52	34780
706.865	34577.75
707.209	34720.12
707.554	34556.28
707.899	34554.47
708.243	34292.56
708.588	34343.18
708.932	34188.61
709.277	34153.13
709.621	34163.52
709.966	33928.95
710.31	34030.87
710.654	33622.52
710.998	33795.62
711.342	33743.19
711.687	33564.67
712.031	33380.27
712.375	33344.79
712.719	33440.83
713.063	33336.43
713.407	33457.55
713.75	33250.33
714.094	33327.39
714.438	33192.7
714.782	33198.8
715.125	32876.32
715.469	33074.51
715.812	33017.79
716.156	32785.71
716.499	32758.14
716.843	32669.55
717.186	32558.37
717.53	32766.27
717.873	32631.59
718.216	32660.74
718.559	32447.86
718.902	32424.13
719.246	32370.12
719.589	32152.28
719.932	32131.71
720.275	32148.66
720.617	31966.52
720.96	32006.07
721.303	32105.05
721.646	32030.25
721.989	31798.39
722.331	31906.86
722.674	31933.98
723.016	31817.14
723.359	31780.08
723.701	31630.93
724.044	31505.06
724.386	31407.21
724.729	31510.49
725.071	31449.92
725.413	31496.47
725.755	31298.74
726.097	31303.71
726.439	31090.61
726.782	31118.63
727.124	31245.18
727.465	30966.32
727.807	31037.73
728.149	30970.84
728.491	30764.29
728.833	30973.78
729.175	30716.83
729.516	30807
729.858	30736.04
730.199	30817.17
730.541	30707.57
730.882	30645.2
731.224	30774.91
731.565	30509.16
731.906	30598.87
732.248	30496.95
732.589	30267.58
732.93	30363.17
733.271	30335.6
733.612	30416.05
733.953	30304.19
734.294	30131.31
734.635	30105.1
734.976	30219.22
735.317	29918.21
735.658	30108.04
735.999	29991.88
736.339	29953.24
736.68	30047.02
737.021	29857.42
737.361	29792.56
737.702	29941.26
738.042	29839.57
738.383	29697.2
738.723	29816.74
739.063	29655.62
739.404	29732.23
739.744	29600.03
740.084	29491.78
740.424	29449.3
740.764	29474.83
741.104	29555.51
741.444	29401.84
741.784	29332.46
742.124	29343.76
742.464	29368.17
742.804	29311.9
743.143	29264.44
743.483	29262.86
743.823	29024.45
744.162	29040.04
744.502	29131.56
744.841	28955.3
745.181	29056.76
745.52	28994.17
745.86	29009.31
746.199	28940.38
746.538	28931.12
746.877	28770.44
747.216	28960.72
747.556	28747.85
747.895	28784.23
748.234	28597.57
748.573	28595.31
748.911	28625.59
749.25	28585.82
749.589	28443.22
749.928	28512.37
750.267	28558.02
750.605	28481.64
750.944	28304.69
751.283	28268.99
751.621	28346.05
751.96	28038.26
752.298	28138.37
752.636	28156.45
752.975	28002.33
753.313	27892.73
753.651	28050.46
753.989	27918.49
754.327	27839.85
754.666	27622.68
755.004	27812.73
755.342	27770.24
755.679	27852.95
756.017	27456.13
756.355	27662.45
756.693	27383.59
757.031	27450.7
757.368	27341.78
757.706	27330.93
758.044	27135.46
758.381	27261.33
758.719	27184.95
759.056	27235.34
759.394	27182.69
759.731	26951.96
