Data from hue_28_FLMS001491_00006.txt Node
Date: Tue Feb 07 17:16:47 GMT 2017
User: dcchb
Spectrometer: FLMS00149
Trigger mode: 0
Integration Time (sec): 2.000000E-2
Scans to average: 10
Electric dark correction enabled: true
Nonlinearity correction enabled: false
Boxcar width: 0
XAxis mode: Wavelengths
Number of Pixels in Spectrum: 2048
>>>>>Begin Spectral Data<<<<<
341.393	-12.99
341.776	-12.99
342.16	-12.99
342.543	-43.95
342.927	-66.55
343.31	-78.75
343.693	-68.59
344.077	-73.33
344.46	-62.03
344.843	-67.46
345.226	-29.72
345.61	-27.91
345.993	-15.71
346.376	0.11
346.759	-0.56
347.142	38.3
347.525	44.86
347.908	59.32
348.291	69.72
348.674	107.45
349.057	104.29
349.44	115.36
349.823	138.64
350.206	180.9
350.588	218.64
350.971	197.17
351.354	221.8
351.737	256.15
352.119	264.51
352.502	267.9
352.884	275.59
353.267	295.7
353.65	282.14
354.032	282.14
354.414	312.87
354.797	314
355.179	327.34
355.562	339.99
355.944	328.01
356.326	339.99
356.709	308.35
357.091	343.15
357.473	326.88
357.855	349.71
358.238	362.82
358.62	334.12
359.002	348.58
359.384	338.64
359.766	356.71
360.148	366.43
360.53	359.2
360.912	338.86
361.294	326.66
361.676	321.23
362.057	348.58
362.439	340.44
362.821	332.08
363.203	337.28
363.584	342.48
363.966	348.35
364.348	323.95
364.729	308.58
365.111	344.74
365.493	332.31
365.874	323.49
366.256	328.24
366.637	306.55
367.019	310.39
367.4	316.94
367.781	308.35
368.163	315.36
368.544	314.68
368.925	316.94
369.306	316.04
369.688	327.56
370.069	310.39
370.45	334.12
370.831	321.91
371.212	310.84
371.593	302.25
371.974	306.55
372.355	323.04
372.736	325.53
373.117	315.81
373.498	337.05
373.879	325.08
374.26	320.33
374.641	320.56
375.021	327.11
375.402	360.1
375.783	323.04
376.163	329.37
376.544	332.08
376.925	328.92
377.305	320.78
377.686	317.84
378.066	335.47
378.447	332.31
378.827	357.39
379.208	340.44
379.588	352.42
379.968	323.72
380.349	340.22
380.729	339.31
381.109	344.51
381.489	346.77
381.87	337.05
382.25	365.53
382.63	332.53
383.01	363.04
383.39	372.53
383.77	343.83
384.15	361.69
384.53	361.46
384.91	352.42
385.29	370.95
385.67	375.47
386.049	388.35
386.429	364.4
386.809	361.23
387.189	375.7
387.568	380.44
387.948	393.77
388.328	360.33
388.707	384.28
389.087	359.2
389.466	378.18
389.846	381.57
390.225	376.83
390.605	381.57
390.984	367.56
391.363	371.63
391.743	366.21
392.122	383.15
392.501	377.73
392.881	400.1
393.26	398.52
393.639	395.13
394.018	375.92
394.397	387.9
394.776	384.74
395.155	394.68
395.534	403.04
395.913	405.53
396.292	403.49
396.671	391.29
397.05	398.75
397.429	401.46
397.808	378.41
398.186	412.98
398.565	413.44
398.944	415.47
399.323	390.84
399.701	410.05
400.08	421.57
400.458	424.51
400.837	428.12
401.215	422.93
401.594	432.42
401.972	414.57
402.351	424.51
402.729	407.33
403.107	431.51
403.486	424.96
403.864	426.32
404.242	418.86
404.62	446.65
404.999	411.63
405.377	430.61
405.755	431.29
406.133	453.89
406.511	464.73
406.889	464.73
407.267	454.11
407.645	467.67
408.023	465.19
408.401	477.39
408.779	462.02
409.156	450.95
409.534	477.61
409.912	473.77
410.29	488.46
410.667	452.08
411.045	492.3
411.422	481.46
411.8	527.33
412.178	488.46
412.555	498.4
412.933	506.09
413.31	503.15
413.687	491.63
414.065	516.48
414.442	502.25
414.819	526.65
415.197	521.46
415.574	518.97
415.951	527.56
416.328	534.11
416.705	528.46
417.082	541.12
417.46	530.27
417.837	554.22
418.214	533.21
418.591	535.47
418.967	544.73
419.344	566.65
419.721	557.39
420.098	560.1
420.475	547.44
420.852	564.17
421.228	554.9
421.605	562.81
421.982	577.95
422.358	575.69
422.735	583.83
423.111	583.15
423.488	577.5
423.864	584.73
424.241	602.81
424.617	605.07
424.994	609.59
425.37	591.51
425.746	611.17
426.123	619.08
426.499	608.01
426.875	633.32
427.251	633.99
427.627	645.75
428.003	640.1
428.379	651.17
428.756	645.07
429.132	664.28
429.507	648.23
429.883	666.08
430.259	683.94
430.635	671.96
431.011	680.32
431.387	693.88
431.763	689.59
432.138	686.42
432.514	730.04
432.89	709.02
433.265	745.18
433.641	716.25
434.016	708.34
434.392	740.21
434.767	757.16
435.143	736.59
435.518	757.38
435.894	744.95
436.269	793.09
436.644	773.2
437.02	776.14
437.395	768.45
437.77	791.05
438.145	808.68
438.52	796.93
438.895	821.79
439.271	810.49
439.646	831.5
440.021	844.16
440.395	816.81
440.77	823.37
441.145	843.25
441.52	852.75
441.895	838.51
442.27	861.11
442.645	844.16
443.019	887.32
443.394	861.56
443.769	861.79
444.143	860.43
444.518	881.67
444.892	879.41
445.267	883.48
445.641	877.83
446.016	905.85
446.39	912.86
446.764	932.74
447.139	926.87
447.513	946.75
447.887	915.8
448.262	945.62
448.636	922.8
449.01	946.3
449.384	959.41
449.758	955.12
450.132	998.96
450.506	987.66
450.88	1024.94
451.254	953.08
451.628	979.3
452.002	1018.62
452.376	1002.12
452.75	1012.06
453.123	1038.96
453.497	1034.89
453.871	1044.15
454.244	1054.1
454.618	1051.61
454.992	1116.02
455.365	1097.49
455.739	1094.1
456.112	1124.15
456.486	1123.25
456.859	1125.28
457.232	1149.01
457.606	1130.03
457.979	1132.29
458.352	1196.92
458.725	1198.27
459.099	1191.04
459.472	1215.9
459.845	1233.98
460.218	1255
460.591	1257.93
460.964	1236.69
461.337	1273.98
461.71	1306.75
462.083	1316.01
462.456	1333.86
462.829	1323.69
463.201	1344.94
463.574	1383.81
463.947	1369.34
464.32	1402.79
464.692	1391.49
465.065	1413.18
465.438	1423.58
465.81	1455.67
466.183	1481.66
466.555	1474.65
466.928	1507.19
467.3	1509.9
467.672	1541.54
468.045	1546.51
468.417	1561.65
468.789	1610.24
469.161	1606.62
469.534	1616.12
469.906	1655.89
470.278	1674.65
470.65	1708.99
471.022	1744.7
471.394	1772.5
471.766	1765.04
472.138	1781.08
472.51	1821.76
472.882	1860.63
473.253	1852.49
473.625	1945.15
473.997	1973.17
474.369	1953.06
474.74	1994.41
475.112	2050
475.484	2075.54
475.855	2136.78
476.227	2142.66
476.598	2171.36
476.97	2235.31
477.341	2261.52
477.713	2292.93
478.084	2319.83
478.455	2376.1
478.827	2427.17
479.198	2482.76
479.569	2502.19
479.94	2600.04
480.311	2625.58
480.682	2661.06
481.053	2698.8
481.424	2776.76
481.795	2770.44
482.166	2883.43
482.537	2884.1
482.908	2972.01
483.279	3048.85
483.65	3094.95
484.021	3127.49
484.391	3213.81
484.762	3245.9
485.133	3278.9
485.503	3349.86
485.874	3422.62
486.244	3452.9
486.615	3522.28
486.985	3603.41
487.356	3642.05
487.726	3682.5
488.097	3772.67
488.467	3773.35
488.837	3860.8
489.207	3944.87
489.578	3987.8
489.948	4061.7
490.318	4105.32
490.688	4150.51
491.058	4235.26
491.428	4303.95
491.798	4334.91
492.168	4457.62
492.538	4488.36
492.908	4544.4
493.278	4636.6
493.648	4625.3
494.017	4664.17
494.387	4750.04
494.757	4790.04
495.126	4863.49
495.496	4895.35
495.866	4889.93
496.235	4995.24
496.605	5020.55
496.974	5064.39
497.344	5119.75
497.713	5163.82
498.082	5218.51
498.452	5249.01
498.821	5270.26
499.19	5343.02
499.559	5419.18
499.928	5439.74
500.298	5446.07
500.667	5550.48
501.036	5524.94
501.405	5612.85
501.774	5623.24
502.143	5658.95
502.512	5705.5
502.88	5774.88
503.249	5760.19
503.618	5830.02
503.987	5820.3
504.356	5905.49
504.724	5881.77
505.093	5939.62
505.462	5985.94
505.83	6010.58
506.199	6010.58
506.567	6142.55
506.936	6068.2
507.304	6234.53
507.672	6226.39
508.041	6260.97
508.409	6311.13
508.777	6328.08
509.145	6360.17
509.514	6404.69
509.882	6443.56
510.25	6479.94
510.618	6425.03
510.986	6542.31
511.354	6577.79
511.722	6636.77
512.09	6670.22
512.458	6649.43
512.826	6738.47
513.193	6744.57
513.561	6765.81
513.929	6831.35
514.297	6865.7
514.664	6918.8
515.032	6905.69
515.4	6971.23
515.767	6964
516.135	6982.53
516.502	6978.46
516.869	7092.58
517.237	7078.8
517.604	7077.22
517.972	7167.83
518.339	7197.44
518.706	7220.94
519.073	7246.02
519.44	7268.17
519.808	7344.55
520.175	7342.97
520.542	7455.74
520.909	7456.87
521.276	7468.84
521.643	7498.67
522.009	7597.2
522.376	7587.03
522.743	7675.84
523.11	7690.76
523.477	7757.65
523.843	7809.4
524.21	7918.32
524.577	7899.79
524.943	7933.01
525.31	7922.39
525.676	8083.97
526.043	8093.46
526.409	8121.93
526.776	8175.04
527.142	8221.14
527.508	8293.23
527.874	8353.79
528.241	8335.26
528.607	8381.59
528.973	8469.95
529.339	8453.68
529.705	8592.66
530.071	8583.84
530.437	8669.72
530.803	8606.21
531.169	8717.4
531.535	8685.53
531.901	8742.03
532.267	8797.62
532.632	8917.39
532.998	8832.88
533.364	8967.79
533.73	8996.94
534.095	9021.12
534.461	9046.65
534.826	9117.61
535.192	9117.16
535.557	9257.5
535.923	9131.17
536.288	9205.29
536.653	9306.08
537.019	9281.9
537.384	9299.53
537.749	9442.8
538.114	9421.11
538.479	9395.8
538.845	9539.98
539.21	9468.79
539.575	9487.1
539.94	9581.33
540.305	9610.71
540.67	9678.28
541.034	9743.36
541.399	9725.51
541.764	9806.18
542.129	9802.34
542.494	9865.16
542.858	9877.59
543.223	9928.89
543.587	9993.97
543.952	9897.48
544.316	10047.53
544.681	10029.23
545.045	10083.01
545.41	10212.73
545.774	10196.46
546.138	10254.98
546.503	10220.18
546.867	10274.42
547.231	10422.89
547.595	10380.18
547.959	10451.36
548.324	10413.17
548.688	10436.22
549.052	10553.96
549.416	10542.89
549.779	10570
550.143	10619.95
550.507	10678.93
550.871	10697.01
551.235	10705.59
551.599	10777.46
551.962	10822.2
552.326	10856.32
552.689	10930.22
553.053	10876.21
553.417	10896.1
553.78	11036.88
554.143	10949.43
554.507	11039.37
554.87	11025.36
555.234	11201.63
555.597	11179.25
555.96	11215.64
556.323	11215.64
556.686	11237.56
557.05	11324.34
557.413	11321.62
557.776	11377.21
558.139	11388.06
558.502	11449.98
558.865	11462.64
559.228	11545.12
559.59	11556.19
559.953	11617.66
560.316	11696.53
560.679	11698.56
561.041	11692.91
561.404	11771.33
561.767	11895.62
562.129	11765
562.492	11925.45
562.854	11943.3
563.217	12030.76
563.579	12009.74
563.941	12098.55
564.304	12137.87
564.666	12187.59
565.028	12217.64
565.39	12203.18
565.753	12424.87
566.115	12322.27
566.477	12418.09
566.839	12426.23
567.201	12436.85
567.563	12521.14
567.925	12582.61
568.287	12636.84
568.648	12667.12
569.01	12711.19
569.372	12793
569.734	12721.36
570.095	12862.15
570.457	12913.45
570.819	12957.96
571.18	12988.47
571.542	13011.75
571.903	13135.59
572.265	13089.71
572.626	13183.95
572.987	13263.49
573.349	13277.05
573.71	13374
574.071	13464.17
574.432	13555.01
574.794	13678.62
575.155	13714.1
575.516	13641.56
575.877	13768.56
576.238	13931.5
576.599	14003.59
576.96	14007.43
577.32	14146.63
577.681	14339.85
578.042	14441.99
578.403	14433.63
578.763	14491.94
579.124	14617.58
579.485	14774.41
579.845	14899.38
580.206	14950.45
580.566	15142.99
580.927	15279.03
581.287	15414.85
581.648	15519.7
582.008	15771.22
582.368	15859.81
582.728	16043.76
583.089	16264.32
583.449	16481.94
583.809	16507.48
584.169	16852.33
584.529	16798.54
584.889	17232.65
585.249	17247.34
585.609	17463.38
585.969	17808.01
586.329	17884.16
586.688	18182.69
587.048	18405.96
587.408	18559.4
587.768	18793.29
588.127	19117.35
588.487	19197.35
588.846	19673.49
589.206	19801.63
589.565	20120.26
589.925	20414.72
590.284	20757.08
590.643	20971.31
591.003	21298.76
591.362	21557.96
591.721	21814
592.08	22142.13
592.44	22444.72
592.799	22676.58
593.158	22897.36
593.517	23228.65
593.876	23498.03
594.235	23731.24
594.593	24072.25
594.952	24467.04
595.311	24647.83
595.67	24932.56
596.029	25429.27
596.387	25741.81
596.746	25954.23
597.104	26131.63
597.463	26561
597.822	26821.33
598.18	27068.55
598.538	27338.83
598.897	27955.76
599.255	27840.51
599.613	28592.81
599.972	28677.1
600.33	29027.82
600.688	29068.73
601.046	29495.61
601.404	29884.07
601.762	30120.9
602.12	30439.31
602.478	30863.93
602.836	30901.22
603.194	31091.05
603.552	31439.74
603.91	31645.16
604.268	32020.97
604.625	32275.87
604.983	32608.3
605.341	32666.37
605.698	33029.3
606.056	33227.04
606.413	33670.87
606.771	33808.26
607.128	34074.47
607.485	34273.56
607.843	34402.6
608.2	34818.41
608.557	35206.19
608.914	35275.8
609.272	35495.68
609.629	35797.82
609.986	36130.91
610.343	36168.88
610.7	36602.09
611.057	36747.85
611.414	36881.63
611.771	36935.41
612.127	37368.62
612.484	37588.5
612.841	37901.26
613.198	37801.38
613.554	37916.63
613.911	38422.38
614.267	38464.64
614.624	38729.94
614.98	38899.66
615.337	39068.92
615.693	39198.86
616.05	39398.63
616.406	39740.09
616.762	39623.25
617.118	39851.72
617.475	40035.44
617.831	40194.99
618.187	40356.11
618.543	40467.3
618.899	40659.16
619.255	40744.58
619.611	40939.15
619.967	41181.4
620.323	41266.15
620.678	41129.2
621.034	41247.39
621.39	41336.2
621.746	41509.3
622.101	41994.49
622.457	41663.2
622.812	41862.29
623.168	42086.46
623.523	42026.13
623.879	42354.03
624.234	42090.53
624.589	42325.55
624.945	42443.29
625.3	42601.48
625.655	42707.46
626.01	42744.07
626.365	42737.97
626.72	42804.19
627.075	42875.37
627.43	42820.91
627.785	42908.36
628.14	43034.24
628.495	43023.16
628.85	43116.95
629.205	43054.57
629.559	43398.52
629.914	43130.5
630.269	43279.88
630.623	43332.98
630.978	43210.73
631.332	43468.57
631.687	43492.98
632.041	43453.66
632.396	43500.44
632.75	43429.48
633.104	43557.39
633.459	43478.52
633.813	43497.27
634.167	43447.33
634.521	43527.33
634.875	43637.84
635.229	43497.73
635.583	43408.24
635.937	43476.03
636.291	43439.42
636.645	43411.85
636.999	43405.3
637.352	43545.18
637.706	43402.14
638.06	43514
638.413	43522.36
638.767	43368.46
639.121	43501.79
639.474	43231.29
639.828	43354.45
640.181	43438.52
640.534	43442.59
640.888	43287.11
641.241	43154.23
641.594	43241.69
641.947	43359.88
642.301	43363.27
642.654	43401.23
643.007	43399.65
643.36	43180.45
643.713	43200.56
644.066	43363.72
644.419	43107
644.771	42960.79
645.124	42658.65
645.477	42579.33
645.83	42325.78
646.182	42223.18
646.535	41994.49
646.888	42255.5
647.24	41977.09
647.593	42249.62
647.945	42046.69
648.298	41954.26
648.65	41846.47
649.002	41783.2
649.355	42106.12
649.707	41991.1
650.059	42128.72
650.411	42538.43
650.763	42736.39
651.115	43153.33
651.467	42883.28
651.819	42949.94
652.171	42916.5
652.523	42764.19
652.875	42860.23
653.227	42611.42
653.578	42822.26
653.93	42784.07
654.282	42682.15
654.633	42525.55
654.985	42724.41
655.337	42747.46
655.688	42724.64
656.039	42864.52
656.391	42521.71
656.742	42598.54
657.094	42625.66
657.445	42786.11
657.796	42702.27
658.147	42568.03
658.498	42524.42
658.849	42635.15
659.2	42614.36
659.551	42422.05
659.902	42612.1
660.253	42473.57
660.604	42643.96
660.955	42419.11
661.306	42618.65
661.656	42528.26
662.007	42432.44
662.358	42553.57
662.708	42621.14
663.059	42533.68
663.409	42272
663.76	42563.29
664.11	42534.14
664.461	42678.99
664.811	42511.54
665.161	42593.12
665.511	42469.96
665.862	42459.56
666.212	42586.79
666.562	42511.54
666.912	42483.52
667.262	42432.9
667.612	42421.37
667.962	42381.37
668.312	42395.61
668.662	42682.61
669.011	42448.49
669.361	42409.17
669.711	42418.88
670.06	42385.67
670.41	42209.17
670.76	42266.8
671.109	42337.76
671.459	42447.58
671.808	42155.61
672.157	42333.46
672.507	42078.1
672.856	41975.96
673.205	42224.54
673.554	42312.45
673.904	42112.23
674.253	42273.13
674.602	42130.3
674.951	41601.28
675.3	41356.77
675.649	42038.56
675.998	41933.93
676.346	41960.82
676.695	42168.04
677.044	41838.79
677.393	42041.04
677.741	41990.65
678.09	41975.05
678.438	41848.05
678.787	42010.53
679.135	41985.45
679.484	41670.66
679.832	41920.82
680.181	41513.6
680.529	41748.17
680.877	41603.76
681.225	41510.89
681.573	41790.2
681.922	41493.71
682.27	41395.86
682.618	41367.61
682.966	41252.81
683.314	41432.92
683.661	41316.31
684.009	41059.82
684.357	41078.35
684.705	40905.7
685.053	40930.56
685.4	40824.35
685.748	40699.16
686.095	40872.94
686.443	40590.01
686.79	40603.11
687.138	40696.9
687.485	40634.07
687.832	40613.96
688.18	40565.37
688.527	40286.06
688.874	40378.03
689.221	40180.07
689.568	40013.52
689.915	40041.55
690.262	40101.88
690.609	40014.2
690.956	39755.23
691.303	39758.16
691.65	39693.76
691.997	39623.93
692.344	39460.77
692.69	39350.26
693.037	39314.11
693.383	38982.82
693.73	39186.43
694.077	38932.42
694.423	38949.15
694.769	38909.37
695.116	38870.5
695.462	38745.08
695.808	38591.41
696.155	38728.81
696.501	38445.88
696.847	38398.65
697.193	38172.89
697.539	38273.46
697.885	37793.24
698.231	37938.1
698.577	37832.34
698.923	37962.05
699.269	37687.94
699.614	37369.98
699.96	37509.86
700.306	37415.85
700.651	37240.72
700.997	37056.31
701.342	37241.17
701.688	37079.82
702.033	36905.36
702.379	36932.7
702.724	36824.23
703.069	36846.15
703.415	36476.89
703.76	36591.69
704.105	36605.93
704.45	36503.11
704.795	36234.41
705.14	36185.83
705.485	36206.62
705.83	36032.16
706.175	36113.29
706.52	35960.3
706.865	35844.59
707.209	35733.64
707.554	35644.37
707.899	35681.66
708.243	35455.23
708.588	35598.27
708.932	35198.74
709.277	35378.39
709.621	35226.53
709.966	35033.77
710.31	35069.93
710.654	34637.62
710.998	34898.18
711.342	34749.48
711.687	34716.49
712.031	34560.33
712.375	34519.88
712.719	34539.32
713.063	34455.48
713.407	34542.03
713.75	34403.73
714.094	34389.94
714.438	34165.32
714.782	34177.52
715.125	33991.31
715.469	34123.51
715.812	34023.4
716.156	33765.78
716.499	33914.7
716.843	33787.93
717.186	33623.18
717.53	33918.09
717.873	33668.83
718.216	33525.33
718.559	33530.3
718.902	33271.78
719.246	33420.25
719.589	33222.29
719.932	33099.13
720.275	33165.12
720.617	33044.89
720.96	32995.18
721.303	32941.85
721.646	32991.11
721.989	32761.29
722.331	32991.34
722.674	32867.27
723.016	32821.85
723.359	32754.73
723.701	32749.76
724.044	32644.45
724.386	32461.41
724.729	32642.87
725.071	32568.75
725.413	32485.59
725.755	32457.56
726.097	32305.03
726.439	32122.66
726.782	32234.75
727.124	32389.77
727.465	32108.42
727.807	32135.31
728.149	32011.93
728.491	31990.91
728.833	32125.14
729.175	31919.05
729.516	31811.71
729.858	31873.17
730.199	31853.96
730.541	31765.38
730.882	31551.37
731.224	31679.96
731.565	31589.34
731.906	31624.37
732.248	31513.86
732.589	31318.61
732.93	31268.9
733.271	31250.59
733.612	31306.86
733.953	31440.87
734.294	31177.82
734.635	31103.48
734.976	31272.96
735.317	31044.49
735.658	31112.29
735.999	31009.24
736.339	30994.1
736.68	30947.55
737.021	30905.97
737.361	30745.07
737.702	30794.56
738.042	30931.28
738.383	30761.56
738.723	30811.28
739.063	30680.44
739.404	30745.97
739.744	30705.29
740.084	30523.38
740.424	30536.26
740.764	30483.38
741.104	30539.65
741.444	30275.48
741.784	30236.83
742.124	30416.71
742.464	30281.8
742.804	30263.95
743.143	30240.67
743.483	30212.65
743.823	29967.23
744.162	29985.77
744.502	30099.66
744.841	29894.69
745.181	30044.97
745.52	29947.12
745.86	29969.04
746.199	29816.5
746.538	29807.01
746.877	29886.33
747.216	29796.39
747.556	29710.52
747.895	29643.4
748.234	29653.34
748.573	29635.72
748.911	29457.64
749.25	29517.53
749.589	29325.22
749.928	29366.35
750.267	29313.92
750.605	29273.47
750.944	29242.06
751.283	29221.04
751.621	29367.7
751.96	28992.57
752.298	29049.74
752.636	29064.89
752.975	28895.62
753.313	28822.86
753.651	28947.6
753.989	28732.24
754.327	28733.59
754.666	28761.84
755.004	28677.33
755.342	28568.4
755.679	28609.98
756.017	28426.48
756.355	28578.57
756.693	28443.66
757.031	28456.54
757.368	28207.05
757.706	28244.79
758.044	28153.5
758.381	28156.89
758.719	28053.61
