Data from hue_280_FLMS001491_00026.txt Node
Date: Tue Feb 07 15:55:03 GMT 2017
User: dcchb
Spectrometer: FLMS00149
Trigger mode: 0
Integration Time (sec): 2.000000E-2
Scans to average: 10
Electric dark correction enabled: true
Nonlinearity correction enabled: false
Boxcar width: 0
XAxis mode: Wavelengths
Number of Pixels in Spectrum: 2048
>>>>>Begin Spectral Data<<<<<
341.393	-11.53
341.776	-11.53
342.16	-11.53
342.543	-50.39
342.927	-61.92
343.31	-60.11
343.693	-66.89
344.077	-72.77
344.46	-51.3
344.843	-59.21
345.226	-34.8
345.61	-20.56
345.993	-0.68
346.376	-1.36
346.759	-11.07
347.142	34.58
347.525	28.25
347.908	36.38
348.291	70.28
348.674	96.95
349.057	112.31
349.44	135.36
349.823	143.95
350.206	164.74
350.588	174.01
350.971	201.12
351.354	193.67
351.737	216.04
352.119	242.93
352.502	252.65
352.884	265.98
353.267	287
353.65	282.03
354.032	288.81
354.414	297.17
354.797	321.8
355.179	322.7
355.562	324.96
355.944	310.27
356.326	299.2
356.709	322.7
357.091	343.49
357.473	319.54
357.855	316.38
358.238	345.3
358.62	343.95
359.002	350.5
359.384	338.3
359.766	328.58
360.148	332.19
360.53	333.78
360.912	337.84
361.294	328.35
361.676	334.23
362.057	321.8
362.439	317.96
362.821	299.43
363.203	321.35
363.584	300.56
363.966	336.04
364.348	318.41
364.729	296.49
365.111	326.32
365.493	322.48
365.874	309.14
366.256	309.14
366.637	309.6
367.019	305.08
367.4	311.18
367.781	309.82
368.163	286.55
368.544	315.25
368.925	318.18
369.306	296.26
369.688	297.17
370.069	319.54
370.45	327.45
370.831	319.99
371.212	291.97
371.593	305.08
371.974	312.53
372.355	308.69
372.736	298.52
373.117	340.33
373.498	331.06
373.879	327.68
374.26	301.46
374.641	298.75
375.021	307.11
375.402	310.5
375.783	321.12
376.163	338.75
376.544	332.19
376.925	314.57
377.305	309.82
377.686	313.89
378.066	326.32
378.447	334.45
378.827	318.64
379.208	329.71
379.588	329.03
379.968	319.31
380.349	315.25
380.729	332.19
381.109	344.17
381.489	327
381.87	326.09
382.25	329.26
382.63	334.45
383.01	322.93
383.39	356.83
383.77	344.85
384.15	334.23
384.53	334.91
384.91	353.89
385.29	344.17
385.67	333.55
386.049	355.47
386.429	351.63
386.809	378.07
387.189	349.6
387.568	352.76
387.948	366.54
388.328	370.84
388.707	373.78
389.087	396.83
389.466	349.82
389.846	352.53
390.225	360.89
390.605	353.44
390.984	373.55
391.363	347.11
391.743	375.58
392.122	378.3
392.501	379.2
392.881	374.91
393.26	389.59
393.639	381.46
394.018	354.79
394.397	379.43
394.776	397.96
395.155	394.79
395.534	391.4
395.913	375.81
396.292	396.15
396.671	392.31
397.05	367.67
397.429	375.58
397.808	385.3
398.186	406.77
398.565	409.71
398.944	391.4
399.323	407.9
399.701	429.59
400.08	417.16
400.458	400.22
400.837	409.93
401.215	414.23
401.594	393.66
401.972	423.04
402.351	438.63
402.729	416.94
403.107	422.36
403.486	435.92
403.864	417.84
404.242	431.18
404.62	450.61
404.999	433.89
405.377	449.71
405.755	454.45
406.133	486.54
406.511	457.62
406.889	451.74
407.267	482.47
407.645	464.39
408.023	473.21
408.401	489.48
408.779	473.21
409.156	489.7
409.534	497.84
409.912	493.32
410.29	515.69
410.667	521.12
411.045	514.11
411.422	512.75
411.8	540.1
412.178	543.26
412.555	568.35
412.933	557.95
413.31	547.1
413.687	562.7
414.065	550.27
414.442	570.61
414.819	580.1
415.197	580.78
415.574	608.8
415.951	617.38
416.328	621.68
416.705	601.34
417.082	623.94
417.46	618.97
417.837	629.81
418.214	625.75
418.591	634.33
418.967	641.11
419.344	665.29
419.721	692.19
420.098	688.8
420.475	687.21
420.852	691.96
421.228	718.4
421.605	703.94
421.982	718.85
422.358	727.21
422.735	757.49
423.111	732.41
423.488	783.93
423.864	764.95
424.241	812.41
424.617	802.92
424.994	827.32
425.37	816.48
425.746	810.83
426.123	821.22
426.499	816.7
426.875	825.74
427.251	871.39
427.627	868
428.003	858.73
428.379	906.42
428.756	864.84
429.132	918.17
429.507	901.9
429.883	904.83
430.259	934.89
430.635	945.29
431.011	966.53
431.387	936.92
431.763	986.87
432.138	999.07
432.514	1009.24
432.89	1027.77
433.265	1048.56
433.641	1038.62
434.016	1072.74
434.392	1065.96
434.767	1094.43
435.143	1085.17
435.518	1085.17
435.894	1127.88
436.269	1146.18
436.644	1155.9
437.02	1164.72
437.395	1164.49
437.77	1188.22
438.145	1221.89
438.52	1201.78
438.895	1240.19
439.271	1253.07
439.646	1296.01
440.021	1296.69
440.395	1305.73
440.77	1284.49
441.145	1323.58
441.52	1318.61
441.895	1293.53
442.27	1338.04
442.645	1345.73
443.019	1358.38
443.394	1347.08
443.769	1347.99
444.143	1372.17
444.518	1382.56
444.892	1391.83
445.267	1394.54
445.641	1414.88
446.016	1417.14
446.39	1424.37
446.764	1409
447.139	1457.14
447.513	1436.35
447.887	1441.09
448.262	1456.68
448.636	1463.24
449.01	1495.33
449.384	1499.4
449.758	1489
450.132	1508.21
450.506	1521.77
450.88	1549.34
451.254	1534.65
451.628	1538.94
452.002	1541.65
452.376	1585.72
452.75	1582.11
453.123	1580.07
453.497	1591.6
453.871	1610.58
454.244	1653.29
454.618	1637.92
454.992	1669.56
455.365	1651.26
455.739	1710.46
456.112	1716.57
456.486	1718.37
456.859	1753.85
457.232	1751.37
457.606	1782.33
457.979	1791.59
458.352	1821.2
458.725	1828.88
459.099	1836.56
459.472	1840.63
459.845	1852.15
460.218	1865.71
460.591	1905.03
460.964	1898.93
461.337	1944.81
461.71	1935.32
462.083	1948.42
462.456	1965.15
462.829	1977.58
463.201	1975.32
463.574	2007.4
463.947	2063.9
464.32	2068.19
464.692	2063.45
465.065	2091.7
465.438	2110.23
465.81	2116.78
466.183	2147.51
466.555	2206.72
466.928	2187.51
467.3	2196.33
467.672	2240.85
468.045	2265.03
468.417	2282.65
468.789	2298.02
469.161	2308.87
469.534	2330.79
469.906	2367.85
470.278	2350.9
470.65	2439.71
471.022	2446.26
471.394	2492.82
471.766	2491.91
472.138	2497.56
472.51	2565.58
472.882	2571.23
473.253	2614.85
473.625	2630.44
473.997	2612.36
474.369	2685.35
474.74	2739.14
475.112	2740.04
475.484	2800.38
475.855	2805.12
476.227	2849.87
476.598	2887.61
476.97	2905.46
477.341	2924.67
477.713	2974.61
478.084	3038.34
478.455	3080.6
478.827	3101.39
479.198	3148.17
479.569	3175.51
479.94	3269.29
480.311	3246.69
480.682	3286.24
481.053	3320.36
481.424	3407.59
481.795	3391.78
482.166	3443.53
482.537	3484.65
482.908	3561.71
483.279	3568.04
483.65	3595.16
484.021	3635.16
484.391	3687.13
484.762	3719.22
485.133	3781.6
485.503	3780.92
485.874	3844.64
486.244	3869.28
486.615	3948.37
486.985	3923.29
487.356	4040.12
487.726	4041.02
488.097	4113.56
488.467	4060.46
488.837	4152.66
489.207	4222.71
489.578	4231.3
489.948	4261.81
490.318	4336.84
490.688	4375.25
491.058	4384.97
491.428	4433.56
491.798	4463.84
492.168	4499.54
492.538	4535.7
492.908	4585.87
493.278	4667
493.648	4655.02
494.017	4680.78
494.387	4701.35
494.757	4736.82
495.126	4808.01
495.496	4789.93
495.866	4819.31
496.235	4848.23
496.605	4869.93
496.974	4927.33
497.344	4930.27
497.713	4997.38
498.082	4984.5
498.452	5073.09
498.821	5042.35
499.19	5033.77
499.559	5060.21
499.928	5079.19
500.298	5136.81
500.667	5121.67
501.036	5089.58
501.405	5184.72
501.774	5194.44
502.143	5256.36
502.512	5300.65
502.88	5297.49
503.249	5277.83
503.618	5305.17
503.987	5334.77
504.356	5335
504.724	5408.22
505.093	5383.81
505.462	5404.83
505.83	5429.91
506.199	5461.78
506.567	5520.31
506.936	5488.44
507.304	5536.13
507.672	5523.7
508.041	5562.11
508.409	5576.8
508.777	5651.83
509.145	5589.46
509.514	5654.54
509.882	5638.72
510.25	5668.55
510.618	5705.39
510.986	5723.24
511.354	5699.51
511.722	5783.35
512.09	5765.5
512.458	5797.59
512.826	5832.61
513.193	5829.68
513.561	5859.96
513.929	5925.72
514.297	5963.91
514.664	5903.8
515.032	5937.25
515.4	5964.36
515.767	5969.33
516.135	5982.67
516.502	5930.69
516.869	6078.71
517.237	6038.49
517.604	6002.55
517.972	6065.83
518.339	6113.74
518.706	6079.61
519.073	6031.03
519.44	6113.96
519.808	6091.37
520.175	6184.02
520.542	6198.71
520.909	6236.67
521.276	6244.81
521.643	6237.58
522.009	6281.42
522.376	6305.37
522.743	6307.18
523.11	6391.92
523.477	6357.35
523.843	6427.4
524.21	6519.83
524.577	6470.56
524.943	6470.34
525.31	6490
525.676	6528.19
526.043	6566.83
526.409	6606.15
526.776	6607.51
527.142	6582.43
527.508	6666.27
527.874	6733.83
528.241	6698.35
528.607	6760.27
528.973	6814.51
529.339	6816.77
529.705	6842.76
530.071	6785.81
530.437	6891.57
530.803	6912.36
531.169	6926.6
531.535	6870.78
531.901	6926.82
532.267	6923.21
532.632	6953.72
532.998	6957.11
533.364	7047.95
533.73	7018.8
534.095	7049.08
534.461	7097.21
534.826	7083.43
535.192	7031.91
535.557	7140.6
535.923	7105.58
536.288	7126.37
536.653	7174.05
537.019	7186.48
537.384	7202.97
537.749	7187.83
538.114	7260.15
538.479	7261.05
538.845	7270.77
539.21	7279.13
539.575	7218.34
539.94	7308.28
540.305	7305.8
540.67	7289.98
541.034	7353.93
541.399	7386.92
541.764	7343.54
542.129	7385.34
542.494	7379.24
542.858	7439.35
543.223	7393.25
543.587	7416.75
543.952	7438
544.316	7451.1
544.681	7431.67
545.045	7499.92
545.41	7584.66
545.774	7506.02
546.138	7578.11
546.503	7559.8
546.867	7618.56
547.231	7613.81
547.595	7648.84
547.959	7641.38
548.324	7595.28
548.688	7674.15
549.052	7683.41
549.416	7660.14
549.779	7677.31
550.143	7732.45
550.507	7710.08
550.871	7674.37
551.235	7710.31
551.599	7697.42
551.962	7725.45
552.326	7879.57
552.689	7773.35
553.053	7803.64
553.417	7772.68
553.78	7919.11
554.143	7867.36
554.507	7823.07
554.87	7855.61
555.234	7926.12
555.597	7882.28
555.96	7911.88
556.323	7954.14
556.686	7923.86
557.05	7949.17
557.413	7989.17
557.776	7962.28
558.139	8057.42
558.502	8037.53
558.865	8059.22
559.228	8148.49
559.59	8145.32
559.953	8106
560.316	8208.82
560.679	8177.41
561.041	8230.29
561.404	8213.34
561.767	8267.13
562.129	8280.91
562.492	8326.79
562.854	8340.8
563.217	8337.41
563.579	8355.49
563.941	8440.23
564.304	8455.82
564.666	8477.97
565.028	8453.34
565.39	8501.25
565.753	8551.64
566.115	8576.72
566.477	8609.94
566.839	8594.35
567.201	8647.68
567.563	8670.73
567.925	8768.81
568.287	8757.06
568.648	8720.22
569.01	8755.93
569.372	8739.21
569.734	8839.32
570.095	8879.77
570.457	8858.98
570.819	8948.01
571.18	8967.45
571.542	9005.19
571.903	8940.33
572.265	9048.35
572.626	9064.17
572.987	9052.87
573.349	9134.9
573.71	9177.61
574.071	9170.83
574.432	9197.72
574.794	9306.2
575.155	9308.23
575.516	9283.15
575.877	9369.25
576.238	9342.58
576.599	9443.59
576.96	9449.02
577.32	9523.59
577.681	9545.29
578.042	9575.79
578.403	9581.22
578.763	9652.85
579.124	9667.99
579.485	9751.83
579.845	9756.58
580.206	9837.03
580.566	9854.88
580.927	9854.2
581.287	9974.2
581.648	9965.39
582.008	10069.79
582.368	10013.75
582.728	10131.49
583.089	10162.44
583.449	10224.82
583.809	10247.64
584.169	10271.82
584.529	10378.48
584.889	10476.79
585.249	10387.75
585.609	10517.24
585.969	10611.92
586.329	10526.5
586.688	10637.01
587.048	10660.51
587.408	10719.94
587.768	10847.4
588.127	10914.97
588.487	10901.41
588.846	11036.55
589.206	11054.4
589.565	11055.75
589.925	11156.77
590.284	11201.74
590.643	11285.35
591.003	11417.1
591.362	11502.97
591.721	11512.92
592.08	11593.82
592.44	11684.21
592.799	11686.02
593.158	11772.57
593.517	11775.96
593.876	11921.04
594.235	11920.59
594.593	11977.54
594.952	12054.15
595.311	12118.1
595.67	12086.69
596.029	12226.57
596.387	12368.71
596.746	12412.55
597.104	12409.39
597.463	12421.59
597.822	12593.57
598.18	12594.92
598.538	12673.11
598.897	12777.97
599.255	12647.58
599.613	12819.78
599.972	12787.46
600.33	12914.91
600.688	12885.08
601.046	13020
601.404	13037.4
601.762	13012.54
602.12	13207.11
602.478	13269.71
602.836	13239.65
603.194	13229.48
603.552	13335.02
603.91	13318.29
604.268	13431.74
604.625	13371.85
604.983	13490.04
605.341	13461.79
605.698	13509.48
606.056	13618.85
606.413	13632.41
606.771	13676.48
607.128	13608
607.485	13686.65
607.843	13664.27
608.2	13734.1
608.557	13790.6
608.914	13762.58
609.272	13875.79
609.629	14020.87
609.986	13976.13
610.343	13980.2
610.7	14130.93
611.057	14124.15
611.414	14160.31
611.771	14258.16
612.127	14213.19
612.484	14206.86
612.841	14292.51
613.198	14299.96
613.554	14319.85
613.911	14371.15
614.267	14431.48
614.624	14344.71
614.98	14416.34
615.337	14498.6
615.693	14499.96
616.05	14427.19
616.406	14584.93
616.762	14431.94
617.118	14525.49
617.475	14605.94
617.831	14592.84
618.187	14603.91
618.543	14689.56
618.899	14742.44
619.255	14850.91
619.611	14687.3
619.967	14839.38
620.323	14802.77
620.678	14735.43
621.034	14749.89
621.39	14731.82
621.746	14725.04
622.101	14865.15
622.457	14769.78
622.812	14865.15
623.168	14834.19
623.523	14914.64
623.879	14904.92
624.234	14727.3
624.589	14884.35
624.945	14874.41
625.3	14911.02
625.655	14861.53
626.01	15009.1
626.365	14949.66
626.72	14953.73
627.075	14840.97
627.43	14918.03
627.785	14882.55
628.14	14969.32
628.495	14948.08
628.85	14923.9
629.205	14857.46
629.559	15054.97
629.914	14911.7
630.269	14906.73
630.623	14802.77
630.978	14861.3
631.332	14910.57
631.687	15012.49
632.041	14836.9
632.396	14884.58
632.75	14779.95
633.104	14950.34
633.459	14793.96
633.813	14833.06
634.167	14770.91
634.521	14793.74
634.875	14840.29
635.229	14748.54
635.583	14693.17
635.937	14664.02
636.291	14776.33
636.645	14773.62
636.999	14707.18
637.352	14727.52
637.706	14574.08
638.06	14711.03
638.413	14748.09
638.767	14642.55
639.121	14655.66
639.474	14485.95
639.828	14556
640.181	14632.61
640.534	14566.17
640.888	14585.83
641.241	14435.1
641.594	14502.44
641.947	14523.91
642.301	14563.46
642.654	14554.19
643.007	14573.4
643.36	14509.67
643.713	14459.73
644.066	14557.58
644.419	14479.62
644.771	14446.4
645.124	14314.65
645.477	14247.53
645.83	14156.69
646.182	14109.23
646.535	13981.33
646.888	14114.21
647.24	13950.82
647.593	14020.2
647.945	14029.91
648.298	14003.47
648.65	13979.29
649.002	14017.26
649.355	13950.37
649.707	13988.78
650.059	14123.92
650.411	14195.11
650.763	14219.51
651.115	14388.32
651.467	14340.41
651.819	14357.59
652.171	14365.95
652.523	14297.7
652.875	14308.55
653.227	14236.69
653.578	14309.23
653.93	14337.93
654.282	14242.79
654.633	14250.92
654.985	14319.85
655.337	14313.3
655.688	14319.85
656.039	14342.45
656.391	14231.26
656.742	14283.01
657.094	14310.36
657.445	14338.61
657.796	14325.5
658.147	14364.14
658.498	14297.7
658.849	14361.66
659.2	14293.18
659.551	14320.3
659.902	14434.65
660.253	14381.77
660.604	14400.75
660.955	14354.42
661.306	14397.14
661.656	14370.7
662.007	14437.36
662.358	14404.59
662.708	14399.62
663.059	14421.77
663.409	14355.55
663.76	14432.16
664.11	14386.29
664.461	14450.47
664.811	14514.42
665.161	14382.22
665.511	14445.27
665.862	14396.91
666.212	14456.8
666.562	14443.91
666.912	14352.62
667.262	14407.76
667.612	14391.26
667.962	14386.06
668.312	14330.92
668.662	14423.35
669.011	14422.67
669.361	14384.03
669.711	14376.35
670.06	14410.69
670.41	14443.46
670.76	14291.38
671.109	14406.63
671.459	14433.52
671.808	14361.43
672.157	14400.53
672.507	14186.75
672.856	14316.01
673.205	14266.97
673.554	14299.29
673.904	14250.02
674.253	14417.25
674.602	14285.27
674.951	14072.62
675.3	14019.29
675.649	14256.35
675.998	14222.45
676.346	14221.55
676.695	14295.22
677.044	14165.73
677.393	14133.87
677.741	14148.55
678.09	14105.17
678.438	14158.72
678.787	14155.56
679.135	14087.77
679.484	14103.58
679.832	14121.89
680.181	14031.72
680.529	14097.93
680.877	14030.59
681.225	14046.18
681.573	14030.82
681.922	14037.37
682.27	13971.61
682.618	13913.08
682.966	13936.13
683.314	13826.53
683.661	13846.19
684.009	13794.67
684.357	13741.56
684.705	13747.66
685.053	13773.65
685.4	13717.38
685.748	13708.11
686.095	13637.61
686.443	13624.73
686.79	13552.41
687.138	13561.68
687.485	13504.96
687.832	13476.71
688.18	13525.75
688.527	13346.99
688.874	13395.35
689.221	13364.39
689.568	13331.17
689.915	13279.65
690.262	13267.22
690.609	13214.12
690.956	13194.68
691.303	13181.57
691.65	13088.47
691.997	13025.65
692.344	12945.65
692.69	13004.63
693.037	12939.09
693.383	12826.56
693.73	12900
694.077	12807.35
694.423	12756.05
694.769	12679.89
695.116	12774.81
695.462	12659.33
695.808	12629.95
696.155	12668.37
696.501	12508.15
696.847	12476.96
697.193	12423.18
697.539	12393.35
697.885	12339.56
698.231	12351.77
698.577	12277.64
698.923	12207.81
699.269	12158.78
699.614	12089.63
699.96	12116.74
700.306	12031.1
700.651	12036.97
700.997	12032.45
701.342	12033.81
701.688	11942.51
702.033	11915.62
702.379	11809.41
702.724	11753.36
703.069	11765.11
703.415	11676.76
703.76	11616.19
704.105	11647.38
704.45	11633.82
704.795	11525.35
705.14	11435.18
705.485	11534.61
705.83	11346.59
706.175	11444.67
706.52	11318.8
706.865	11332.58
707.209	11262.98
707.554	11344.11
707.899	11346.82
708.243	11247.39
708.588	11217.56
708.932	11143.21
709.277	11154.96
709.621	11096.43
709.966	11035.87
710.31	10978.47
710.654	10957.45
710.998	11005.59
711.342	10936.89
711.687	10926.04
712.031	10877.91
712.375	10863.9
712.719	10838.36
713.063	10844.69
713.407	10851.01
713.75	10788.87
714.094	10766.95
714.438	10704.8
714.782	10806.04
715.125	10689.44
715.469	10668.87
715.812	10618.25
716.156	10604.92
716.499	10588.87
716.843	10584.81
717.186	10515.43
717.53	10590.68
717.873	10537.8
718.216	10543.68
718.559	10569.21
718.902	10480.18
719.246	10499.38
719.589	10417.58
719.932	10314.53
720.275	10425.49
720.617	10418.03
720.96	10404.92
721.303	10325.83
721.646	10427.3
721.989	10337.13
722.331	10359.95
722.674	10333.51
723.016	10276.57
723.359	10303.68
723.701	10280.86
724.044	10257.81
724.386	10180.52
724.729	10199.05
725.071	10248.32
725.413	10296.68
725.755	10233.18
726.097	10205.61
726.439	10084.93
726.782	10205.38
727.124	10177.13
727.465	10136
727.807	10116.12
728.149	10167.87
728.491	10125.38
728.833	10094.42
729.175	10113.86
729.516	10093.75
729.858	10131.94
730.199	10171.26
730.541	10131.26
730.882	10119.28
731.224	10173.07
731.565	10048.78
731.906	10090.81
732.248	10047.19
732.589	10056.68
732.93	10083.8
733.271	10074.99
733.612	10126.06
733.953	10130.58
734.294	10042.9
734.635	10115.89
734.976	10124.03
735.317	10058.72
735.658	10133.74
735.999	10080.86
736.339	10006.06
736.68	10112.5
737.021	10068.89
737.361	10030.47
737.702	10110.47
738.042	10085.61
738.383	10049.91
738.723	10185.95
739.063	10149.11
739.404	10099.62
739.744	10092.16
740.084	10029.79
740.424	10175.33
740.764	10093.97
741.104	10141.88
741.444	10123.8
741.784	10207.64
742.124	10184.36
742.464	10189.79
742.804	10199.51
743.143	10291.48
743.483	10277.02
743.823	10308.66
744.162	10288.09
744.502	10350.24
744.841	10299.84
745.181	10386.39
745.52	10388.88
745.86	10493.28
746.199	10502.32
746.538	10526.95
746.877	10617.57
747.216	10647.63
747.556	10630.68
747.895	10775.99
748.234	10770.34
748.573	10783.45
748.911	10820.51
749.25	10915.65
749.589	10924.91
749.928	11134.62
750.267	11147.73
750.605	11157.22
750.944	11291
751.283	11345.92
751.621	11460.26
751.96	11483.99
752.298	11548.4
752.636	11641.95
752.975	11714.72
753.313	11769.63
753.651	12000.81
753.989	12028.38
754.327	12108.16
754.666	12199.23
755.004	12334.82
755.342	12532.78
755.679	12660.68
756.017	12656.39
756.355	12818.87
756.693	12963.5
757.031	13084.4
757.368	13146.32
757.706	13252.76
758.044	13474.9
758.381	13614.56
758.719	13681.22
759.056	13863.36
759.394	13893.42
759.731	14081.44
