Data from hue_190_FLMS001491_00021.txt Node
Date: Tue Feb 07 16:45:02 GMT 2017
User: dcchb
Spectrometer: FLMS00149
Trigger mode: 0
Integration Time (sec): 2.000000E-2
Scans to average: 10
Electric dark correction enabled: true
Nonlinearity correction enabled: false
Boxcar width: 0
XAxis mode: Wavelengths
Number of Pixels in Spectrum: 2048
>>>>>Begin Spectral Data<<<<<
341.393	-13.35
341.776	-13.35
342.16	-13.35
342.543	-37.98
342.927	-61.26
343.31	-71.42
343.693	-78.2
344.077	-54.48
344.46	-66
344.843	-46.11
345.226	-37.08
345.61	-26
345.993	-3.63
346.376	-19.9
346.759	5.18
347.142	20.78
347.525	48.12
347.908	76.37
348.291	54.45
348.674	103.49
349.057	94.45
349.44	119.98
349.823	129.47
350.206	160.21
350.588	159.76
350.971	195.01
351.354	212.64
351.737	226.42
352.119	255.35
352.502	252.18
352.884	271.62
353.267	265.29
353.65	283.59
354.032	301.67
354.414	300.54
354.797	308.68
355.179	319.98
355.562	325.85
355.944	315.23
356.326	306.19
356.709	324.27
357.091	323.82
357.473	333.08
357.855	344.84
358.238	335.12
358.62	345.97
359.002	347.1
359.384	357.49
359.766	333.08
360.148	337.38
360.53	345.06
360.912	318.85
361.294	329.92
361.676	318.17
362.057	311.62
362.439	311.16
362.821	333.54
363.203	330.6
363.584	333.76
363.966	309.58
364.348	319.3
364.729	312.52
365.111	308
365.493	311.39
365.874	317.94
366.256	317.49
366.637	277.49
367.019	309.36
367.4	307.77
367.781	298.96
368.163	298.96
368.544	287.66
368.925	306.19
369.306	328.79
369.688	335.57
370.069	320.2
370.45	310.03
370.831	304.38
371.212	335.8
371.593	312.29
371.974	313.2
372.355	294.22
372.736	307.32
373.117	307.77
373.498	317.94
373.879	291.28
374.26	300.54
374.641	303.25
375.021	289.24
375.402	312.75
375.783	317.49
376.163	317.94
376.544	319.53
376.925	325.63
377.305	331.28
377.686	310.94
378.066	309.58
378.447	283.82
378.827	345.97
379.208	330.82
379.588	322.92
379.968	326.3
380.349	331.95
380.729	304.61
381.109	323.59
381.489	345.74
381.87	316.14
382.25	316.14
382.63	314.55
383.01	332.41
383.39	351.84
383.77	317.27
384.15	315.23
384.53	350.49
384.91	317.27
385.29	352.52
385.67	331.5
386.049	322.69
386.429	319.3
386.809	333.54
387.189	332.41
387.568	326.3
387.948	360.43
388.328	349.58
388.707	328.34
389.087	363.59
389.466	347.55
389.846	363.14
390.225	336.93
390.605	342.8
390.984	358.39
391.363	349.81
391.743	378.28
392.122	359.3
392.501	367.43
392.881	355.68
393.26	378.28
393.639	343.25
394.018	362.01
394.397	364.72
394.776	366.3
395.155	368.56
395.534	374.89
395.913	382.57
396.292	364.04
396.671	383.7
397.05	387.55
397.429	370.15
397.808	377.15
398.186	387.32
398.565	381.44
398.944	386.64
399.323	383.03
399.701	385.74
400.08	381.22
400.458	370.6
400.837	413.08
401.215	400.88
401.594	409.01
401.972	378.06
402.351	403.59
402.729	399.52
403.107	411.27
403.486	419.18
403.864	401.11
404.242	404.04
404.62	411.73
404.999	416.92
405.377	443.36
405.755	436.36
406.133	440.43
406.511	440.43
406.889	442.46
407.267	443.36
407.645	467.09
408.023	459.86
408.401	446.08
408.779	466.64
409.156	487.43
409.534	505.51
409.912	472.74
410.29	497.37
410.667	481.78
411.045	497.15
411.422	529.46
411.8	546.19
412.178	525.85
412.555	554.55
412.933	537.15
413.31	551.84
413.687	554.1
414.065	576.02
414.442	576.24
414.819	600.87
415.197	571.95
415.574	617.14
415.951	616.47
416.328	618.95
416.705	617.82
417.082	605.17
417.46	638.61
417.837	663.7
418.214	655.11
418.591	662.57
418.967	648.78
419.344	673.87
419.721	686.07
420.098	679.06
420.475	704.83
420.852	696.24
421.228	709.12
421.605	736.01
421.982	752.51
422.358	776.01
422.735	780.98
423.111	749.12
423.488	801.32
423.864	792.06
424.241	830.92
424.617	848.78
424.994	864.37
425.37	875.44
425.746	895.56
426.123	895.1
426.499	878.83
426.875	898.95
427.251	909.34
427.627	949.79
428.003	953.18
428.379	968.1
428.756	976.91
429.132	980.07
429.507	1023.01
429.883	1008.32
430.259	1031.6
430.635	1024.14
431.011	1038.38
431.387	1038.83
431.763	1076.57
432.138	1104.36
432.514	1098.26
432.89	1138.04
433.265	1152.05
433.641	1146.4
434.016	1198.82
434.392	1213.06
434.767	1251.25
435.143	1239.05
435.518	1257.13
435.894	1278.6
436.269	1332.83
436.644	1316.56
437.02	1335.09
437.395	1343
437.77	1411.25
438.145	1454.18
438.52	1430
438.895	1466.84
439.271	1487.63
439.646	1525.37
440.021	1532.6
440.395	1534.41
440.77	1533.28
441.145	1582.77
441.52	1623.22
441.895	1620.96
442.27	1620.51
442.645	1638.36
443.019	1669.55
443.394	1674.97
443.769	1719.49
444.143	1707.74
444.518	1757
444.892	1746.15
445.267	1766.27
445.641	1794.51
446.016	1817.11
446.39	1826.15
446.764	1835.64
447.139	1830.9
447.513	1860.28
447.887	1853.95
448.262	1862.76
448.636	1908.86
449.01	1945.02
449.384	1956.09
449.758	1935.53
450.132	2011.68
450.506	1979.82
450.88	2005.13
451.254	2020.95
451.628	2035.41
452.002	2054.85
452.376	2103.21
452.75	2095.07
453.123	2139.14
453.497	2151.12
453.871	2182.98
454.244	2206.48
454.618	2223.43
454.992	2273.82
455.365	2250.1
455.739	2314.28
456.112	2324.67
456.486	2363.09
456.859	2382.97
457.232	2439.92
457.606	2444.44
457.979	2478.11
458.352	2488.73
458.725	2568.28
459.099	2575.74
459.472	2595.85
459.845	2624.55
460.218	2649.86
460.591	2674.72
460.964	2682.85
461.337	2815.51
461.71	2782.74
462.083	2848.95
462.456	2848.27
462.829	2856.86
463.201	2878.55
463.574	2924.88
463.947	2932.34
464.32	3049.62
464.692	3049.4
465.065	3050.3
465.438	3073.8
465.81	3161.03
466.183	3174.82
466.555	3244.19
466.928	3264.53
467.3	3320.58
467.672	3358.99
468.045	3437.41
468.417	3444.87
468.789	3489.84
469.161	3583.62
469.534	3587.46
469.906	3631.08
470.278	3659.32
470.65	3737.51
471.022	3823.16
471.394	3871.3
471.766	3909.26
472.138	3930.73
472.51	4012.31
472.882	4080.1
473.253	4136.37
473.625	4224.28
473.997	4266.09
474.369	4304.73
474.74	4361.91
475.112	4478.96
475.484	4525.74
475.855	4619.07
476.227	4660.43
476.598	4779.52
476.97	4805.96
477.341	4947.43
477.713	5006.18
478.084	5031.04
478.455	5186.52
478.827	5194.88
479.198	5397.36
479.569	5415.89
479.94	5560.52
480.311	5594.87
480.682	5726.39
481.053	5782.88
481.424	5901.75
481.795	5979.49
482.166	6137.45
482.537	6165.47
482.908	6306.03
483.279	6395.75
483.65	6473.49
484.021	6596.42
484.391	6731.33
484.762	6710.09
485.133	6832.57
485.503	6862.63
485.874	7021.5
486.244	7102.62
486.615	7218.33
486.985	7331.09
487.356	7454.03
487.726	7496.51
488.097	7683.85
488.467	7684.76
488.837	7839.33
489.207	7879.55
489.578	8049.94
489.948	8133.56
490.318	8223.27
490.688	8284.29
491.058	8398.64
491.428	8456.94
491.798	8534.68
492.168	8714.56
492.538	8708.68
492.908	8826.65
493.278	8961.78
493.648	8942.35
494.017	9082.23
494.387	9164.72
494.757	9151.84
495.126	9242.68
495.496	9342.34
495.866	9376.24
496.235	9416.46
496.605	9506.4
496.974	9516.35
497.344	9575.78
497.713	9646.29
498.082	9807.19
498.452	9811.03
498.821	9760.86
499.19	9861.2
499.559	9951.36
499.928	9964.92
500.298	10017.8
500.667	10077.01
501.036	9984.81
501.405	10190.45
501.774	10166.95
502.143	10234.07
502.512	10256.44
502.88	10337.12
503.249	10318.36
503.618	10375.31
503.987	10322.65
504.356	10387.74
504.724	10415.53
505.093	10417.79
505.462	10502.08
505.83	10472.25
506.199	10617.79
506.567	10619.59
506.936	10630.89
507.304	10709.08
507.672	10654.85
508.041	10681.96
508.409	10805.8
508.777	10837.67
509.145	10871.56
509.514	10827.27
509.882	10840.83
510.25	10874.05
510.618	10935.74
510.986	10882.64
511.354	10949.53
511.722	11003.09
512.09	11073.14
512.458	10926.93
512.826	11022.07
513.193	11060.26
513.561	11129.64
513.929	11088.28
514.297	11144.33
514.664	11172.57
515.032	11077.66
515.4	11181.61
515.767	11106.13
516.135	11205.57
516.502	11104.78
516.869	11207.15
517.237	11193.14
517.604	11110.88
517.972	11173.03
518.339	11193.14
518.706	11202.86
519.073	11156.08
519.44	11199.24
519.808	11256.19
520.175	11168.73
520.542	11269.29
520.909	11238.11
521.276	11210.31
521.643	11183.65
522.009	11209.41
522.376	11314.49
522.743	11250.31
523.11	11324.66
523.477	11300.25
523.843	11336.64
524.21	11442.85
524.577	11320.37
524.943	11322.4
525.31	11343.64
525.676	11400.59
526.043	11362.62
526.409	11290.54
526.776	11348.16
527.142	11364.43
527.508	11360.82
527.874	11326.24
528.241	11303.64
528.607	11223.65
528.973	11243.53
529.339	11202.86
529.705	11233.81
530.071	11236.07
530.437	11187.71
530.803	11194.95
531.169	11242.63
531.535	11129.41
531.901	11053.25
532.267	11026.36
532.632	11075.17
532.998	10979.36
533.364	11026.81
533.73	10931.9
534.095	10942.07
534.461	10876.31
534.826	10866.14
535.192	10849.87
535.557	10823.43
535.923	10697.78
536.288	10685.58
536.653	10679.25
537.019	10536.66
537.384	10528.97
537.749	10507.96
538.114	10449.2
538.479	10449.65
538.845	10403.33
539.21	10349.77
539.575	10215.76
539.94	10197.01
540.305	10185.25
540.67	10098.7
541.034	9985.03
541.399	9982.55
541.764	10003.34
542.129	9992.72
542.494	9872.72
542.858	9882.89
543.223	9780.97
543.587	9723.12
543.952	9632.5
544.316	9648.77
544.681	9491.71
545.045	9552.05
545.41	9484.71
545.774	9542.33
546.138	9392.96
546.503	9326.97
546.867	9243.81
547.231	9309.12
547.595	9233.42
547.959	9102.8
548.324	9086.75
548.688	9033.87
549.052	9053.76
549.416	8997.49
549.779	8847.21
550.143	8829.58
550.507	8860.77
550.871	8804.05
551.235	8735.8
551.599	8731.06
551.962	8695.35
552.326	8672.98
552.689	8645.63
553.053	8456.26
553.417	8395.25
553.78	8502.36
554.143	8429.14
554.507	8402.02
554.87	8274.8
555.234	8357.96
555.597	8277.28
555.96	8286.32
556.323	8163.84
556.686	8181.69
557.05	8145.99
557.413	8123.84
557.776	8044.97
558.139	8074.35
558.502	8038.42
558.865	8005.43
559.228	7981.92
559.59	7983.5
559.953	7971.53
560.316	7974.92
560.679	7861.47
561.041	7903.05
561.404	7923.17
561.767	7856.5
562.129	7762.04
562.492	7779.22
562.854	7822.83
563.217	7780.35
563.579	7748.48
563.941	7784.87
564.304	7759.56
564.666	7700.35
565.028	7759.1
565.39	7714.36
565.753	7681.37
566.115	7634.81
566.477	7695.6
566.839	7668.71
567.201	7672.33
567.563	7696.28
567.925	7685.21
568.287	7608.6
568.648	7562.72
569.01	7612.22
569.372	7630.75
569.734	7617.86
570.095	7616.51
570.457	7567.47
570.819	7646.56
571.18	7590.97
571.542	7575.83
571.903	7583.97
572.265	7560.47
572.626	7519.11
572.987	7492.67
573.349	7558.66
573.71	7540.58
574.071	7504.87
574.432	7509.17
574.794	7566.34
575.155	7532.44
575.516	7474.82
575.877	7526.79
576.238	7570.41
576.599	7560.24
576.96	7544.42
577.32	7461.48
577.681	7524.76
578.042	7517.3
578.403	7509.84
578.763	7447.25
579.124	7544.42
579.485	7498.77
579.845	7468.49
580.206	7432.33
580.566	7458.09
580.927	7426.23
581.287	7428.04
581.648	7375.39
582.008	7461.94
582.368	7418.77
582.728	7412.22
583.089	7363.86
583.449	7332.67
583.809	7347.82
584.169	7351.66
584.529	7364.31
584.889	7404.54
585.249	7325.44
585.609	7258.78
585.969	7314.6
586.329	7315.05
586.688	7322.05
587.048	7323.64
587.408	7302.17
587.768	7274.82
588.127	7243.19
588.487	7255.39
588.846	7280.47
589.206	7208.16
589.565	7153.7
589.925	7242.28
590.284	7239.34
590.643	7147.59
591.003	7178.55
591.362	7214.94
591.721	7140.82
592.08	7115.28
592.44	7169.51
592.799	7173.81
593.158	7117.09
593.517	7112.34
593.876	7143.75
594.235	7102.62
594.593	7074.15
594.952	7113.47
595.311	7032.8
595.67	7025.11
596.029	7127.48
596.387	7062.63
596.746	7103.3
597.104	7053.13
597.463	7014.49
597.822	7033.25
598.18	7034.38
598.538	7075.28
598.897	7086.35
599.255	6988.73
599.613	7082.74
599.972	7033.93
600.33	6997.99
600.688	7047.94
601.046	7037.99
601.404	6998.45
601.762	7028.28
602.12	6986.92
602.478	6990.76
602.836	6949.41
603.194	6965
603.552	7023.76
603.91	6956.64
604.268	6967.94
604.625	6955.74
604.983	6976.3
605.341	6906.7
605.698	6987.37
606.056	7008.39
606.413	6950.99
606.771	6983.53
607.128	6976.98
607.485	6891.33
607.843	6951.22
608.2	6966.36
608.557	6950.31
608.914	6945.34
609.272	6966.13
609.629	6976.75
609.986	7015.39
610.343	6964.32
610.7	7026.92
611.057	7011.55
611.414	6945.34
611.771	6942.18
612.127	6951.44
612.484	6957.77
612.841	7040.03
613.198	6960.48
613.554	7000.48
613.911	7096.3
614.267	7006.36
614.624	7012.46
614.98	7013.36
615.337	7053.36
615.693	7030.99
616.05	6977.2
616.406	7068.05
616.762	7018.56
617.118	7016.07
617.475	6998.9
617.831	7028.5
618.187	7002.29
618.543	7053.36
618.899	7084.77
619.255	7056.98
619.611	7041.38
619.967	7051.1
620.323	7031.44
620.678	7014.72
621.034	7004.1
621.39	7061.72
621.746	7057.65
622.101	7078.9
622.457	7040.93
622.812	7073.47
623.168	7033.02
623.523	7105.79
623.879	7083.64
624.234	7023.76
624.589	7075.73
624.945	7065.56
625.3	7060.59
625.655	7040.25
626.01	7048.61
626.365	7014.26
626.72	7010.65
627.075	7018.56
627.43	7070.31
627.785	7050.87
628.14	7073.92
628.495	7010.87
628.85	7071.44
629.205	6990.54
629.559	6998.67
629.914	6933.81
630.269	7062.85
630.623	6938.56
630.978	6996.19
631.332	6983.98
631.687	7022.4
632.041	6933.81
632.396	6967.71
632.75	6893.82
633.104	6960.48
633.459	6935.62
633.813	6929.3
634.167	6980.82
634.521	6916.64
634.875	6856.08
635.229	6879.8
635.583	6858.11
635.937	6837.55
636.291	6826.25
636.645	6852.46
636.999	6812.24
637.352	6828.28
637.706	6789.64
638.06	6859.47
638.413	6793.48
638.767	6750.99
639.121	6791.9
639.474	6755.74
639.828	6764.55
640.181	6759.58
640.534	6769.75
640.888	6779.47
641.241	6683.65
641.594	6766.59
641.947	6754.16
642.301	6696.31
642.654	6728.85
643.007	6744.44
643.36	6777.43
643.713	6686.36
644.066	6663.99
644.419	6708.74
644.771	6695.4
645.124	6539.7
645.477	6613.15
645.83	6615.63
646.182	6548.51
646.535	6527.5
646.888	6572.69
647.24	6497.22
647.593	6551.23
647.945	6484.11
648.298	6462.64
648.65	6461.74
649.002	6533.15
649.355	6477.1
649.707	6544.45
650.059	6537.22
650.411	6612.02
650.763	6623.77
651.115	6683.43
651.467	6683.2
651.819	6660.6
652.171	6674.61
652.523	6684.1
652.875	6626.25
653.227	6640.94
653.578	6649.08
653.93	6674.39
654.282	6594.39
654.633	6629.42
654.985	6673.48
655.337	6636.87
655.688	6649.75
656.039	6754.84
656.391	6659.7
656.742	6652.24
657.094	6669.64
657.445	6727.04
657.796	6729.3
658.147	6672.58
658.498	6678.91
658.849	6723.65
659.2	6737.66
659.551	6691.56
659.902	6736.76
660.253	6743.76
660.604	6750.99
660.955	6696.98
661.306	6678.45
661.656	6714.61
662.007	6733.82
662.358	6706.48
662.708	6776.76
663.059	6769.98
663.409	6686.82
663.76	6762.75
664.11	6782.86
664.461	6796.87
664.811	6796.42
665.161	6816.08
665.511	6772.01
665.862	6767.94
666.212	6789.19
666.562	6792.8
666.912	6828.73
667.262	6827.38
667.612	6847.72
667.962	6855.17
668.312	6770.2
668.662	6845.46
669.011	6758
669.361	6764.78
669.711	6730.43
670.06	6778.56
670.41	6758.9
670.76	6802.07
671.109	6753.48
671.459	6756.87
671.808	6786.93
672.157	6729.98
672.507	6763.42
672.856	6791.9
673.205	6728.85
673.554	6699.02
673.904	6694.27
674.253	6775.4
674.602	6781.5
674.951	6630.09
675.3	6593.94
675.649	6657.21
675.998	6656.76
676.346	6663.77
676.695	6689.08
677.044	6653.82
677.393	6648.62
677.741	6624.67
678.09	6661.05
678.438	6600.72
678.787	6633.26
679.135	6647.72
679.484	6565.01
679.832	6591.45
680.181	6617.89
680.529	6609.98
680.877	6593.94
681.225	6511.68
681.573	6579.7
681.922	6504.67
682.27	6456.99
682.618	6456.77
682.966	6507.16
683.314	6515.97
683.661	6456.31
684.009	6405.02
684.357	6415.86
684.705	6441.17
685.053	6402.3
685.4	6359.82
685.748	6351.46
686.095	6385.81
686.443	6291.8
686.79	6319.59
687.138	6315.75
687.485	6289.76
687.832	6303.1
688.18	6313.72
688.527	6215.19
688.874	6265.58
689.221	6246.6
689.568	6220.61
689.915	6167.51
690.262	6213.16
690.609	6189.43
690.956	6148.75
691.303	6132.25
691.65	6082.54
691.997	6068.3
692.344	6036.21
692.69	5996.66
693.037	5993.05
693.383	5944.91
693.73	6015.87
694.077	5964.8
694.423	5967.06
694.769	5948.3
695.116	5862.2
695.462	5865.37
695.808	5826.95
696.155	5845.26
696.501	5786.95
696.847	5812.04
697.193	5689.33
697.539	5752.15
697.885	5708.31
698.231	5621.98
698.577	5690.46
698.923	5684.36
699.269	5639.39
699.614	5640.52
699.96	5566.17
700.306	5550.12
700.651	5522.78
700.997	5545.15
701.342	5575.21
701.688	5498.37
702.033	5486.4
702.379	5460.41
702.724	5443.46
703.069	5430.8
703.415	5367.3
703.76	5320.3
704.105	5356
704.45	5378.83
704.795	5286.63
705.14	5283.91
705.485	5320.75
705.83	5257.7
706.175	5231.71
706.52	5193.52
706.865	5217.7
707.209	5185.61
707.554	5152.17
707.899	5155.33
708.243	5148.1
708.588	5115.11
708.932	5119.17
709.277	5103.58
709.621	5110.36
709.966	5060.19
710.31	5076.24
710.654	5029.46
710.998	5040.31
711.342	4965.05
711.687	5013.41
712.031	4989.01
712.375	4978.61
712.719	4965.51
713.063	4972.28
713.407	4994.2
713.75	4918.05
714.094	4916.24
714.438	4909.01
714.782	4924.6
715.125	4895.45
715.469	4932.29
715.812	4888.9
716.156	4850.93
716.499	4902.91
716.843	4862.91
717.186	4898.16
717.53	4866.98
717.873	4885.06
718.216	4851.38
718.559	4861.78
718.902	4780.88
719.246	4794.66
719.589	4769.35
719.932	4741.1
720.275	4796.7
720.617	4775
720.96	4782.01
721.303	4766.87
721.646	4761.89
721.989	4769.8
722.331	4781.56
722.674	4717.15
723.016	4773.42
723.359	4696.36
723.701	4736.36
724.044	4772.29
724.386	4713.76
724.729	4723.7
725.071	4754.44
725.413	4748.79
725.755	4742.23
726.097	4712.86
726.439	4690.71
726.782	4713.76
727.124	4713.76
727.465	4699.52
727.807	4706.08
728.149	4688.45
728.491	4688.45
728.833	4710.82
729.175	4688.22
729.516	4680.99
729.858	4755.79
730.199	4710.37
730.541	4688.68
730.882	4729.58
731.224	4704.72
731.565	4711.95
731.906	4657.26
732.248	4729.35
732.589	4712.4
732.93	4705.62
733.271	4745.17
733.612	4708.11
733.953	4689.35
734.294	4699.52
734.635	4754.21
734.976	4740.43
735.317	4743.36
735.658	4720.77
735.999	4716.92
736.339	4763.02
736.68	4785.17
737.021	4815.9
737.361	4760.76
737.702	4819.29
738.042	4859.07
738.383	4811.61
738.723	4807.77
739.063	4827.2
739.404	4822.01
739.744	4853.42
740.084	4881.21
740.424	4881.67
740.764	4908.78
741.104	4921.21
741.444	4927.31
741.784	4867.65
742.124	4978.84
742.464	5020.87
742.804	4913.75
743.143	4988.78
743.483	5010.02
743.823	5045.5
744.162	5028.78
744.502	5109.91
744.841	5160.08
745.181	5145.39
745.52	5229.45
745.86	5220.41
746.199	5283.69
746.538	5333.86
746.877	5362.56
747.216	5432.61
747.556	5440.52
747.895	5534.76
748.234	5546.28
748.573	5576.56
748.911	5626.96
749.25	5672.15
749.589	5761.42
749.928	5855.2
750.267	5904.46
750.605	5932.03
750.944	6008.87
751.283	6057.45
751.621	6185.81
751.96	6215.87
752.298	6362.98
752.636	6396.2
752.975	6517.1
753.313	6595.29
753.651	6699.47
753.989	6787.15
754.327	6918.9
754.666	6981.27
755.004	7190.76
755.342	7271.21
755.679	7437.3
756.017	7499
756.355	7704.64
756.693	7854.47
757.031	7985.76
757.368	8045.88
757.706	8261.46
758.044	8424.85
758.381	8628.46
758.719	8745.29
759.056	8867.78
759.394	9064.61
759.731	9251.27
760.068	9368.1
760.405	9537.14
760.743	9705.49
761.08	9892.16
761.417	10036.56
761.754	10240.62
762.091	10400.39
762.428	10668.18
762.765	10721.29
763.102	10978.23
763.438	11121.95
763.775	11282.85
764.112	11496.63
764.449	11645.33
764.785	11832.9
765.122	11942.04
765.458	12111.08
765.795	12348.59
766.131	12557.17
766.467	12591.29
766.804	12783.38
767.14	12957.61
