Data from hue_270_FLMS001491_00010.txt Node
Date: Tue Feb 07 15:56:42 GMT 2017
User: dcchb
Spectrometer: FLMS00149
Trigger mode: 0
Integration Time (sec): 2.000000E-2
Scans to average: 10
Electric dark correction enabled: true
Nonlinearity correction enabled: false
Boxcar width: 0
XAxis mode: Wavelengths
Number of Pixels in Spectrum: 2048
>>>>>Begin Spectral Data<<<<<
341.393	-0.32
341.776	-0.32
342.16	-0.32
342.543	-62.47
342.927	-80.55
343.31	-63.15
343.693	-65.86
344.077	-59.53
344.46	-55.69
344.843	-55.46
345.226	-54.56
345.61	-43.49
345.993	-24.51
346.376	-6.88
346.759	11.88
347.142	33.8
347.525	41.26
347.908	50.52
348.291	98.88
348.674	95.94
349.057	96.85
349.44	116.73
349.823	116.28
350.206	156.73
350.588	180.46
350.971	185.43
351.354	213.68
351.737	242.61
352.119	242.83
352.502	262.72
352.884	265.43
353.267	275.15
353.65	284.64
354.032	286.45
354.414	305.2
354.797	290.74
355.179	294.81
355.562	313.11
355.944	325.09
356.326	315.15
356.709	342.94
357.091	298.2
357.473	335.49
357.855	352.21
358.238	328.48
358.62	340.91
359.002	335.26
359.384	327.58
359.766	336.62
360.148	341.81
360.53	325.32
360.912	326.9
361.294	322.38
361.676	319.67
362.057	322.38
362.439	326.9
362.821	314.24
363.203	296.16
363.584	331.87
363.966	307.46
364.348	318.99
364.729	311.31
365.111	317.18
365.493	316.05
365.874	306.33
366.256	304.3
366.637	321.25
367.019	297.29
367.4	312.89
367.781	300.91
368.163	301.59
368.544	297.52
368.925	303.62
369.306	302.04
369.688	296.84
370.069	313.79
370.45	313.57
370.831	293.68
371.212	310.85
371.593	312.66
371.974	275.15
372.355	305.43
372.736	291.64
373.117	313.34
373.498	305.66
373.879	301.14
374.26	316.73
374.641	312.89
375.021	305.2
375.402	301.36
375.783	292.32
376.163	319.44
376.544	328.25
376.925	326.22
377.305	324.41
377.686	306.79
378.066	308.82
378.447	322.83
378.827	319.67
379.208	314.02
379.588	326.9
379.968	300.01
380.349	339.78
380.729	311.31
381.109	311.53
381.489	321.93
381.87	363.51
382.25	344.3
382.63	316.95
383.01	340.68
383.39	333
383.77	327.58
384.15	352.21
384.53	354.92
384.91	346.78
385.29	335.26
385.67	338.42
386.049	366.22
386.429	336.39
386.809	346.78
387.189	340.46
387.568	345.43
387.948	341.59
388.328	354.02
388.707	358.31
389.087	359.89
389.466	363.96
389.846	351.3
390.225	361.25
390.605	362.6
390.984	367.8
391.363	351.76
391.743	382.26
392.122	363.06
392.501	387.91
392.881	374.81
393.26	367.58
393.639	377.52
394.018	387.01
394.397	374.58
394.776	368.93
395.155	385.65
395.534	383.17
395.913	379.55
396.292	385.65
396.671	389.95
397.05	406.44
397.429	382.94
397.808	411.19
398.186	385.2
398.565	398.08
398.944	388.14
399.323	398.31
399.701	414.81
400.08	395.14
400.458	415.48
400.837	421.13
401.215	420.91
401.594	421.58
401.972	430.62
402.351	403.96
402.729	414.58
403.107	431.98
403.486	436.5
403.864	419.33
404.242	442.6
404.62	425.65
404.999	438.31
405.377	436.27
405.755	475.82
406.133	443.73
406.511	460.45
406.889	470.62
407.267	470.4
407.645	446.9
408.023	481.7
408.401	470.17
408.779	480.79
409.156	489.38
409.534	499.32
409.912	497.29
410.29	512.88
410.667	514.01
411.045	553.33
411.422	511.98
411.8	526.44
412.178	537.06
412.555	563.28
412.933	556.27
413.31	560.79
413.687	567.57
414.065	568.47
414.442	571.19
414.819	565.54
415.197	599.43
415.574	591.98
415.951	605.53
416.328	618.42
416.705	620.22
417.082	627.23
417.46	611.41
417.837	661.35
418.214	636.95
418.591	653.44
418.967	657.28
419.344	659.32
419.721	653.44
420.098	664.06
420.475	704.97
420.852	697.51
421.228	724.4
421.605	717.4
421.982	716.49
422.358	732.09
422.735	734.8
423.111	728.7
423.488	763.95
423.864	764.17
424.241	773.89
424.617	793.1
424.994	802.82
425.37	814.34
425.746	789.26
426.123	822.48
426.499	826.32
426.875	811.18
427.251	833.78
427.627	857.51
428.003	877.62
428.379	885.3
428.756	897.96
429.132	903.61
429.507	898.63
429.883	904.51
430.259	937.28
430.635	925.98
431.011	948.35
431.387	965.75
431.763	981.34
432.138	962.59
432.514	1005.07
432.89	1017.95
433.265	1037.84
433.641	1017.95
434.016	1043.26
434.392	1083.49
434.767	1100.21
435.143	1091.17
435.518	1096.82
435.894	1134.79
436.269	1153.77
436.644	1174.56
437.02	1178.85
437.395	1196.03
437.77	1202.81
438.145	1217.72
438.52	1239.87
438.895	1275.57
439.271	1278.96
439.646	1315.12
440.021	1308.12
440.395	1307.21
440.77	1333.2
441.145	1352.63
441.52	1359.19
441.895	1374.55
442.27	1391.95
442.645	1374.78
443.019	1395.57
443.394	1399.19
443.769	1434.67
444.143	1443.7
444.518	1436.02
444.892	1462.01
445.267	1483.03
445.641	1516.92
446.016	1499.75
446.39	1471.5
446.764	1496.81
447.139	1528
447.513	1511.95
447.887	1572.52
448.262	1551.05
448.636	1551.72
449.01	1583.14
449.384	1596.02
449.758	1588.56
450.132	1596.92
450.506	1612.97
450.88	1631.27
451.254	1603.7
451.628	1644.6
452.002	1649.8
452.376	1684.15
452.75	1675.56
453.123	1699.97
453.497	1706.52
453.871	1734.09
454.244	1761.44
454.618	1775
454.992	1784.49
455.365	1790.36
455.739	1819.29
456.112	1835.11
456.486	1859.29
456.859	1886.86
457.232	1878.5
457.606	1873.07
457.979	1897.48
458.352	1938.61
458.725	1961.66
459.099	1959.85
459.472	2002.11
459.845	2019.74
460.218	2020.19
460.591	2043.69
460.964	2071.03
461.337	2100.64
461.71	2109
462.083	2127.98
462.456	2145.38
462.829	2150.13
463.201	2161.88
463.574	2208.66
463.947	2217.7
464.32	2276
464.692	2276.23
465.065	2268.09
465.438	2321.2
465.81	2345.38
466.183	2368.88
466.555	2389.44
466.928	2426.5
467.3	2418.37
467.672	2472.38
468.045	2517.58
468.417	2500.4
468.789	2523.22
469.161	2551.47
469.534	2589.21
469.906	2642.32
470.278	2634.86
470.65	2642.09
471.022	2686.38
471.394	2712.15
471.766	2735.2
472.138	2756.21
472.51	2791.01
472.882	2862.42
473.253	2873.27
473.625	2911.01
473.997	2972.48
474.369	2985.59
474.74	3011.8
475.112	3108.29
475.484	3102.87
475.855	3207.27
476.227	3192.36
476.598	3238.46
476.97	3248.86
477.341	3301.06
477.713	3339.25
478.084	3373.6
478.455	3469.87
478.827	3442.97
479.198	3528.62
479.569	3582.63
479.94	3632.35
480.311	3647.04
480.682	3734.72
481.053	3768.62
481.424	3849.74
481.795	3821.95
482.166	3905.56
482.537	3961.6
482.908	4014.26
483.279	4003.19
483.65	4125.22
484.021	4135.61
484.391	4167.48
484.762	4187.36
485.133	4223.07
485.503	4287.47
485.874	4447.69
486.244	4383.51
486.615	4436.62
486.985	4527.01
487.356	4547.58
487.726	4608.37
488.097	4612.21
488.467	4696.73
488.837	4783.73
489.207	4851.52
489.578	4858.76
489.948	4875.71
490.318	4961.13
490.688	5025.98
491.058	5030.96
491.428	5086.77
491.798	5115.25
492.168	5188.24
492.538	5241.57
492.908	5279.08
493.278	5312.08
493.648	5341
494.017	5367.9
494.387	5381.91
494.757	5475.46
495.126	5540.32
495.496	5489.93
495.866	5526.99
496.235	5536.25
496.605	5656.7
496.974	5638.62
497.344	5693.54
497.713	5665.06
498.082	5754.1
498.452	5798.39
498.821	5776.47
499.19	5776.25
499.559	5833.87
499.928	5788
500.298	5878.16
500.667	5910.93
501.036	5934.43
501.405	5918.39
501.774	5932.4
502.143	6023.47
502.512	6042
502.88	6041.1
503.249	6065.5
503.618	6083.81
503.987	6141.66
504.356	6171.49
504.724	6162
505.093	6230.7
505.462	6216.23
505.83	6206.97
506.199	6251.71
506.567	6222.11
506.936	6268.44
507.304	6360.86
507.672	6400.86
508.041	6352.95
508.409	6380.52
508.777	6442.44
509.145	6464.82
509.514	6475.66
509.882	6531.03
510.25	6507.3
510.618	6505.27
510.986	6512.95
511.354	6590.91
511.722	6650.8
512.09	6643.57
512.458	6584.81
512.826	6656
513.193	6678.14
513.561	6695.32
513.929	6708.2
514.297	6747.52
514.664	6778.03
515.032	6765.82
515.4	6808.99
515.767	6796.78
516.135	6828.65
516.502	6735.32
516.869	6866.16
517.237	6879.04
517.604	6838.82
517.972	6889.66
518.339	6938.02
518.706	6888.99
519.073	6921.3
519.44	6926.72
519.808	6996.33
520.175	7021.64
520.542	7060.28
520.909	7022.32
521.276	7027.74
521.643	7077
522.009	7129.43
522.376	7158.36
522.743	7116.1
523.11	7173.72
523.477	7256.66
523.843	7227.06
524.21	7274.29
524.577	7325.81
524.943	7335.53
525.31	7374.4
525.676	7378.24
526.043	7475.86
526.409	7465.24
526.776	7496.2
527.142	7503.88
527.508	7577.1
527.874	7566.03
528.241	7609.19
528.607	7570.1
528.973	7634.73
529.339	7583.66
529.705	7684.22
530.071	7651.68
530.437	7725.8
530.803	7744.56
531.169	7774.61
531.535	7712.47
531.901	7726.03
532.267	7777.55
532.632	7813.93
532.998	7799.02
533.364	7748.17
533.73	7860.94
534.095	7849.86
534.461	7910.65
534.826	7874.95
535.192	7894.83
535.557	7995.4
535.923	7978.67
536.288	7984.32
536.653	7996.3
537.019	7973.93
537.384	7991.78
537.749	8018.45
538.114	7968.28
538.479	8011.67
538.845	8010.76
539.21	8047.6
539.575	8097.09
539.94	8037.66
540.305	8120.14
540.67	8050.99
541.034	8010.31
541.399	8055.28
541.764	8073.81
542.129	8138.22
542.494	8112.46
542.858	8135.28
543.223	8093.47
543.587	8145
543.952	8200.14
544.316	8197.65
544.681	8157.43
545.045	8238.55
545.41	8256.18
545.774	8200.36
546.138	8249.4
546.503	8173.7
546.867	8126.69
547.231	8281.49
547.595	8279.91
547.959	8327.59
548.324	8299.57
548.688	8199.46
549.052	8283.75
549.416	8269.74
549.779	8341.15
550.143	8258.67
550.507	8347.48
550.871	8326.91
551.235	8322.85
551.599	8380.25
551.962	8380.92
552.326	8414.37
552.689	8454.14
553.053	8404.65
553.417	8448.27
553.78	8508.15
554.143	8453.92
554.507	8528.26
554.87	8513.12
555.234	8545.67
555.597	8485.55
555.96	8462.73
556.323	8528.04
556.686	8546.12
557.05	8633.35
557.413	8567.81
557.776	8609.17
558.139	8669.28
558.502	8674.48
558.865	8653.46
559.228	8735.94
559.59	8736.62
559.953	8775.49
560.316	8845.09
560.679	8856.39
561.041	8828.37
561.404	8868.82
561.767	8953.56
562.129	8929.38
562.492	9032.43
562.854	8963.73
563.217	8991.3
563.579	9005.09
563.941	9081.02
564.304	9102.49
564.666	9148.14
565.028	9170.96
565.39	9163.95
565.753	9172.77
566.115	9191.75
566.477	9243.05
566.839	9259.32
567.201	9316.04
567.563	9341.8
567.925	9369.6
568.287	9328.24
568.648	9390.84
569.01	9381.35
569.372	9510.84
569.734	9491.63
570.095	9566.43
570.457	9613.66
570.819	9659.08
571.18	9602.81
571.542	9697.95
571.903	9677.16
572.265	9706.31
572.626	9782.92
572.987	9765.97
573.349	9787.67
573.71	9811.85
574.071	9817.95
574.432	9921.9
574.794	9914.44
575.155	9964.84
575.516	9957.83
575.877	9977.94
576.238	10044.38
576.599	10095.68
576.96	10085.96
577.32	10062.46
577.681	10141.56
578.042	10225.85
578.403	10202.34
578.763	10227.2
579.124	10276.92
579.485	10289.57
579.845	10377.48
580.206	10411.83
580.566	10409.57
580.927	10424.26
581.287	10427.2
581.648	10370.25
582.008	10527.53
582.368	10512.62
582.728	10547.87
583.089	10605.72
583.449	10602.79
583.809	10575.67
584.169	10626.97
584.529	10699.73
584.889	10720.98
585.249	10650.02
585.609	10668.32
585.969	10754.19
586.329	10733.4
586.688	10758.26
587.048	10821.76
587.408	10787.41
587.768	10867.19
588.127	10831.48
588.487	10763.23
588.846	11018.59
589.206	10889.11
589.565	11006.17
589.925	11003.23
590.284	10936.11
590.643	10952.83
591.003	11107.41
591.362	11123.45
591.721	11055.66
592.08	11120.51
592.44	11112.15
592.799	11171.36
593.158	11153.05
593.517	11228.31
593.876	11221.53
594.235	11329.55
594.593	11252.03
594.952	11280.28
595.311	11230.57
595.67	11326.16
596.029	11318.25
596.387	11373.84
596.746	11390.79
597.104	11374.74
597.463	11441.63
597.822	11428.3
598.18	11396.21
598.538	11376.78
598.897	11545.13
599.255	11420.84
599.613	11570.9
599.972	11509.2
600.33	11499.71
600.688	11461.75
601.046	11562.99
601.404	11669.2
601.762	11570.22
602.12	11679.37
602.478	11663.55
602.836	11644.79
603.194	11579.71
603.552	11653.83
603.91	11600.95
604.268	11686.37
604.625	11587.39
604.983	11673.27
605.341	11700.38
605.698	11712.14
606.056	11728.63
606.413	11821.74
606.771	11767.5
607.128	11748.52
607.485	11725.02
607.843	11758.46
608.2	11766.6
608.557	11855.63
608.914	11812.92
609.272	11798.91
609.629	11906.03
609.986	11964.56
610.343	11827.61
610.7	11949.87
611.057	11983.99
611.414	11866.93
611.771	11911
612.127	11980.15
612.484	11928.63
612.841	11941.73
613.198	11996.87
613.554	11984.67
613.911	12068.06
614.267	11969.08
614.624	11927.5
614.98	11985.57
615.337	12031.22
615.693	12072.35
616.05	12052.47
616.406	12033.93
616.762	12111.45
617.118	12073.03
617.475	12054.95
617.831	12096.98
618.187	12092.92
618.543	12183.99
618.899	12197.09
619.255	12109.87
619.611	12159.58
619.967	12217.21
620.323	12251.1
620.678	12289.3
621.034	12130.2
621.39	12179.47
621.746	12102.41
622.101	12224.89
622.457	12214.04
622.812	12184.21
623.168	12242.97
623.523	12316.64
623.879	12292.91
624.234	12200.71
624.589	12242.07
624.945	12285
625.3	12233.93
625.655	12216.08
626.01	12282.97
626.365	12205
626.72	12174.72
627.075	12167.49
627.43	12238.22
627.785	12216.3
628.14	12181.5
628.495	12163.2
628.85	12145.8
629.205	12190.09
629.559	12201.39
629.914	12092.01
630.269	12139.02
630.623	12160.94
630.978	12072.35
631.332	12118.45
631.687	12143.54
632.041	11969.53
632.396	12111.22
632.75	12032.35
633.104	12087.04
633.459	12007.5
633.813	11973.6
634.167	11977.89
634.521	11965.01
634.875	11938.8
635.229	11957.78
635.583	11907.84
635.937	11922.75
636.291	11949.42
636.645	11929.98
636.999	11919.14
637.352	11987.61
637.706	11828.74
638.06	11867.16
638.413	11850.66
638.767	11839.82
639.121	11807.73
639.474	11739.93
639.828	11777.9
640.181	11724.79
640.534	11775.41
640.888	11739.71
641.241	11667.62
641.594	11690.89
641.947	11753.49
642.301	11665.13
642.654	11794.39
643.007	11718.69
643.36	11582.65
643.713	11623.32
644.066	11683.89
644.419	11613.61
644.771	11600.95
645.124	11454.29
645.477	11454.52
645.83	11411.13
646.182	11286.84
646.535	11244.58
646.888	11330
647.24	11231.24
647.593	11221.3
647.945	11268.53
648.298	11201.19
648.65	11236.44
649.002	11202.54
649.355	11280.06
649.707	11240.96
650.059	11268.08
650.411	11437.34
650.763	11406.61
651.115	11542.42
651.467	11515.3
651.819	11483.89
652.171	11602.99
652.523	11448.87
652.875	11471.69
653.227	11466.72
653.578	11483.44
653.93	11420.84
654.282	11449.77
654.633	11479.6
654.985	11464.46
655.337	11442.99
655.688	11421.52
656.039	11425.36
656.391	11365.7
656.742	11392.14
657.094	11399.6
657.445	11473.95
657.796	11379.04
658.147	11401.64
658.498	11398.7
658.849	11383.1
659.2	11427.62
659.551	11413.84
659.902	11497.45
660.253	11359.15
660.604	11433.72
660.955	11335.87
661.306	11457.9
661.656	11386.49
662.007	11407.28
662.358	11435.76
662.708	11386.04
663.059	11410.22
663.409	11427.62
663.76	11491.35
664.11	11394.86
664.461	11495.64
664.811	11451.8
665.161	11424.91
665.511	11392.6
665.862	11370.22
666.212	11445.7
666.562	11430.11
666.912	11334.97
667.262	11426.27
667.612	11424.69
667.962	11461.52
668.312	11417
668.662	11448.41
669.011	11414.97
669.361	11333.61
669.711	11407.96
670.06	11384.01
670.41	11359.15
670.76	11320.06
671.109	11384.46
671.459	11355.53
671.808	11397.57
672.157	11261.75
672.507	11215.2
672.856	11288.87
673.205	11260.62
673.554	11408.19
673.904	11263.33
674.253	11375.42
674.602	11256.1
674.951	11154.86
675.3	11073.06
675.649	11238.93
675.998	11245.48
676.346	11164.13
676.695	11217.69
677.044	11163.68
677.393	11212.04
677.741	11183.56
678.09	11117.12
678.438	11201.64
678.787	11160.29
679.135	11125.48
679.484	11020.4
679.832	11088.65
680.181	11043.9
680.529	11050.23
680.877	11054.3
681.225	11091.59
681.573	11054.3
681.922	10944.25
682.27	10939.5
682.618	10929.78
682.966	10929.78
683.314	10938.82
683.661	10955.32
684.009	10920.07
684.357	10829.9
684.705	10857.02
685.053	10866.06
685.4	10821.99
685.748	10700.18
686.095	10777.47
686.443	10688.21
686.79	10639.4
687.138	10742.67
687.485	10739.28
687.832	10611.37
688.18	10672.61
688.527	10615.67
688.874	10590.13
689.221	10512.62
689.568	10482.11
689.915	10532.28
690.262	10533.18
690.609	10446.18
690.956	10357.37
691.303	10350.14
691.65	10290.48
691.997	10267.65
692.344	10213.19
692.69	10183.36
693.037	10194.66
693.383	10122.57
693.73	10159.63
694.077	10025.4
694.423	10030.15
694.769	10036.25
695.116	10062.01
695.462	10033.99
695.808	9950.83
696.155	9946.53
696.501	9828.34
696.847	9855.46
697.193	9801.9
697.539	9788.57
697.885	9674
698.231	9729.59
698.577	9714
698.923	9712.19
699.269	9586.32
699.614	9560.1
699.96	9553.1
700.306	9572.98
700.651	9489.14
700.997	9448.47
701.342	9489.6
701.688	9408.69
702.033	9313.78
702.379	9392.2
702.724	9345.19
703.069	9377.06
703.415	9234.01
703.76	9297.06
704.105	9291.86
704.45	9248.47
704.795	9148.59
705.14	9140.45
705.485	9109.04
705.83	9051.41
706.175	9074.01
706.52	9020.45
706.865	8979.55
707.209	8973
707.554	8960.12
707.899	8969.38
708.243	8876.05
708.588	8948.14
708.932	8779.56
709.277	8805.09
709.621	8839.44
709.966	8756.96
710.31	8778.65
710.654	8739.11
710.998	8664.98
711.342	8751.08
711.687	8666.11
712.031	8654.14
712.375	8622.73
712.719	8625.21
713.063	8623.63
713.407	8575.04
713.75	8584.53
714.094	8622.05
714.438	8523.52
714.782	8554.93
715.125	8500.69
715.469	8540.47
715.812	8450.07
716.156	8417.08
716.499	8443.52
716.843	8456.18
717.186	8433.8
717.53	8444.42
717.873	8380.47
718.216	8429.06
718.559	8331.21
718.902	8338.66
719.246	8385.44
719.589	8356.74
719.932	8233.36
720.275	8300.93
720.617	8247.59
720.96	8292.34
721.303	8245.56
721.646	8266.58
721.989	8174.6
722.331	8283.3
722.674	8234.03
723.016	8206.01
723.359	8292.11
723.701	8227.03
724.044	8150.42
724.386	8112
724.729	8172.34
725.071	8157.88
725.413	8181.61
725.755	8185.22
726.097	8070.88
726.439	8078.56
726.782	8058.22
727.124	8051.89
727.465	8050.31
727.807	7987.94
728.149	8041.95
728.491	8091.67
728.833	8094.83
729.175	8106.81
729.516	8008.5
729.858	7959.24
730.199	8062.51
730.541	8038.33
730.882	7984.1
731.224	8036.98
731.565	8030.88
731.906	7964.21
732.248	8024.1
732.589	7987.71
732.93	7953.59
733.271	7972.8
733.612	7958.34
733.953	8030.88
734.294	7994.27
734.635	7916.98
734.976	8046.92
735.317	7908.17
735.658	8005.11
735.999	8012.57
736.339	7939.35
736.68	7942.07
737.021	7940.48
737.361	7949.52
737.702	7990.65
738.042	7943.2
738.383	7868.62
738.723	7938
739.063	7971.89
739.404	7987.04
739.744	7988.17
740.084	8008.5
740.424	7962.4
740.764	7996.75
741.104	8072.01
741.444	7992.46
741.784	7951.1
742.124	7976.87
742.464	8047.37
742.804	8023.87
743.143	8051.67
743.483	8062.06
743.823	8091.89
744.162	8076.75
744.502	8112
744.841	8090.31
745.181	8147.71
745.52	8098.22
745.86	8197.2
746.199	8247.14
746.538	8205.11
746.877	8338.21
747.216	8357.2
747.556	8375.73
747.895	8382.73
748.234	8406.91
748.573	8445.1
748.911	8509.73
749.25	8505.44
749.589	8533.24
749.928	8638.09
750.267	8702.05
750.605	8723.97
750.944	8807.58
751.283	8895.26
751.621	8876.73
751.96	8954.02
752.298	9028.59
752.636	9141.36
752.975	9196.72
753.313	9210.73
753.651	9451.86
753.989	9463.83
754.327	9452.76
754.666	9615.69
755.004	9706.09
755.342	9793.32
755.679	9935.91
756.017	9955.12
756.355	10144.27
756.693	10202.57
757.031	10364.37
757.368	10466.52
757.706	10595.78
758.044	10717.81
758.381	10805.94
758.719	10968.43
759.056	11143.56
759.394	11228.53
759.731	11366.38
760.068	11465.14
760.405	11665.13
760.743	11795.3
761.08	11930.43
761.417	12077.32
761.754	12184.67
762.091	12334.72
762.428	12466.92
762.765	12609.51
763.102	12806.57
763.438	12959.11
763.775	12993.23
