Data from hue_150_FLMS001491_00002.txt Node
Date: Tue Feb 07 16:53:32 GMT 2017
User: dcchb
Spectrometer: FLMS00149
Trigger mode: 0
Integration Time (sec): 2.000000E-2
Scans to average: 10
Electric dark correction enabled: true
Nonlinearity correction enabled: false
Boxcar width: 0
XAxis mode: Wavelengths
Number of Pixels in Spectrum: 2048
>>>>>Begin Spectral Data<<<<<
341.393	-26.34
341.776	-26.34
342.16	-26.34
342.543	-69.96
342.927	-67.7
343.31	-48.26
343.693	-80.58
344.077	-77.41
344.46	-59.79
344.843	-39
345.226	-58.66
345.61	-28.6
345.993	-8.26
346.376	-0.81
346.759	26.31
347.142	14.34
347.525	23.6
347.908	66.54
348.291	76.48
348.674	81.9
349.057	112.19
349.44	115.8
349.823	141.56
350.206	151.51
350.588	165.07
350.971	206.2
351.354	238.74
351.737	228.34
352.119	243.71
352.502	253.65
352.884	263.14
353.267	280.54
353.65	284.84
354.032	298.17
354.414	305.85
354.797	291.84
355.179	328.23
355.562	315.34
355.944	345.63
356.326	333.42
356.709	352.18
357.091	344.27
357.473	338.4
357.855	340.65
358.238	348.34
358.62	339.3
359.002	360.54
359.384	347.43
359.766	348.79
360.148	335.68
360.53	337.49
360.912	313.08
361.294	328.45
361.676	323.71
362.057	328
362.439	348.56
362.821	331.62
363.203	328.23
363.584	318.28
363.966	327.1
364.348	323.03
364.729	328.68
365.111	336.36
365.493	319.86
365.874	323.03
366.256	307.44
366.637	315.34
367.019	313.54
367.4	286.87
367.781	318.96
368.163	307.66
368.544	335.68
368.925	320.32
369.306	320.77
369.688	315.8
370.069	307.89
370.45	315.34
370.831	290.26
371.212	301.56
371.593	321.45
371.974	309.47
372.355	329.81
372.736	331.39
373.117	323.93
373.498	316.47
373.879	325.29
374.26	323.71
374.641	312.63
375.021	315.34
375.402	314.89
375.783	333.2
376.163	336.59
376.544	333.88
376.925	333.42
377.305	312.63
377.686	342.01
378.066	337.94
378.447	320.99
378.827	337.94
379.208	332.29
379.588	318.96
379.968	335.01
380.349	330.03
380.729	335.91
381.109	318.96
381.489	327.55
381.87	351.28
382.25	352.18
382.63	350.37
383.01	335.46
383.39	362.8
383.77	348.56
384.15	341.33
384.53	345.17
384.91	337.04
385.29	358.96
385.67	352.41
386.049	347.43
386.429	360.09
386.809	363.48
387.189	338.4
387.568	359.86
387.948	346.76
388.328	346.76
388.707	366.87
389.087	369.81
389.466	369.81
389.846	377.49
390.225	346.08
390.605	363.93
390.984	373.42
391.363	372.74
391.743	383.82
392.122	368.22
392.501	373.2
392.881	377.72
393.26	380.2
393.639	381.33
394.018	381.33
394.397	371.84
394.776	365.74
395.155	375.68
395.534	402.57
395.913	375.68
396.292	409.35
396.671	386.08
397.05	391.95
397.429	407.09
397.808	389.47
398.186	410.48
398.565	404.61
398.944	406.64
399.323	412.52
399.701	389.02
400.08	393.99
400.458	402.8
400.837	408.45
401.215	431.27
401.594	416.36
401.972	400.31
402.351	432.86
402.729	432.63
403.107	433.08
403.486	418.62
403.864	412.52
404.242	436.47
404.62	415.91
404.999	441.22
405.377	435.12
405.755	436.47
406.133	428.11
406.511	430.14
406.889	448
407.267	440.54
407.645	431.73
408.023	441.22
408.401	455
408.779	449.35
409.156	456.36
409.534	462.01
409.912	440.54
410.29	465.85
410.667	471.5
411.045	459.52
411.422	479.63
411.8	458.84
412.178	482.35
412.555	487.77
412.933	491.16
413.31	486.87
413.687	479.41
414.065	497.26
414.442	506.53
414.819	530.48
415.197	502.23
415.574	488.67
415.951	526.64
416.328	512.85
416.705	511.95
417.082	510.59
417.46	527.09
417.837	516.24
418.214	518.5
418.591	543.14
418.967	557.15
419.344	567.54
419.721	524.38
420.098	544.49
420.475	556.47
420.852	563.93
421.228	572.74
421.605	569.35
421.982	572.29
422.358	551.5
422.735	555.56
423.111	565.28
423.488	583.81
423.864	589.91
424.241	604.38
424.617	584.49
424.994	614.77
425.37	614.77
425.746	598.5
426.123	582.68
426.499	607.54
426.875	626.52
427.251	644.15
427.627	647.31
428.003	621.55
428.379	648.9
428.756	645.05
429.132	672.62
429.507	663.58
429.883	669.91
430.259	664.94
430.635	688.22
431.011	672.62
431.387	656.35
431.763	697.03
432.138	705.84
432.514	706.52
432.89	703.81
433.265	699.06
433.641	719.4
434.016	723.02
434.392	742.9
434.767	741.1
435.143	753.75
435.518	747.42
435.894	775.9
436.269	785.39
436.644	761.21
437.02	781.77
437.395	790.36
437.77	803.69
438.145	825.61
438.52	807.54
438.895	801.89
439.271	826.97
439.646	826.52
440.021	853.41
440.395	839.85
440.77	836.46
441.145	839.17
441.52	863.13
441.895	868.78
442.27	863.35
442.645	859.96
443.019	877.59
443.394	891.15
443.769	877.59
444.143	882.56
444.518	911.04
444.892	897.7
445.267	914.2
445.641	913.75
446.016	913.75
446.39	928.66
446.764	903.35
447.139	927.76
447.513	934.99
447.887	941.77
448.262	955.78
448.636	961.88
449.01	953.52
449.384	970.02
449.758	973.63
450.132	1000.3
450.506	974.08
450.88	1006.85
451.254	1020.19
451.628	1030.13
452.002	1025.83
452.376	1028.09
452.75	1029
453.123	1046.4
453.497	1066.06
453.871	1077.81
454.244	1077.13
454.618	1104.02
454.992	1103.57
455.365	1108.09
455.739	1107.19
456.112	1153.29
456.486	1147.41
456.859	1177.47
457.232	1201.2
457.606	1193.74
457.979	1189.45
458.352	1224.47
458.725	1229.22
459.099	1229.45
459.472	1274.87
459.845	1281.2
460.218	1301.53
460.591	1287.75
460.964	1316.22
461.337	1334.75
461.71	1373.85
462.083	1395.09
462.456	1398.71
462.829	1409.1
463.201	1422.66
463.574	1462.66
463.947	1464.24
464.32	1506.73
464.692	1520.28
465.065	1530.45
465.438	1527.06
465.81	1566.16
466.183	1585.59
466.555	1610.45
466.928	1609.55
467.3	1640.73
467.672	1660.17
468.045	1699.72
468.417	1716.21
468.789	1752.82
469.161	1815.64
469.534	1786.27
469.906	1825.59
470.278	1878.02
470.65	1892.03
471.022	1913.95
471.394	1975.41
471.766	1992.36
472.138	2039.59
472.51	2116.43
472.882	2146.03
473.253	2150.1
473.625	2185.58
473.997	2236.88
474.369	2260.15
474.74	2351.22
475.112	2412.01
475.484	2416.53
475.855	2482.52
476.227	2510.77
476.598	2645.23
476.97	2613.59
477.341	2764.32
477.713	2840.48
478.084	2810.19
478.455	2910.53
478.827	3002.28
479.198	3112.79
479.569	3138.55
479.94	3221.48
480.311	3287.47
480.682	3421.7
481.053	3527.01
481.424	3613.56
481.795	3671.64
482.166	3758.87
482.537	3825.99
482.908	3934.91
483.279	4018.98
483.65	4149.82
484.021	4283.38
484.391	4371.06
484.762	4435.01
485.133	4500.09
485.503	4620.77
485.874	4763.14
486.244	4868.45
486.615	5011.94
486.985	5144.14
487.356	5262.79
487.726	5319.73
488.097	5429.79
488.467	5557.01
488.837	5734.64
489.207	5877.23
489.578	6025.25
489.948	6124.46
490.318	6270.89
490.688	6357.22
491.058	6548.18
491.428	6638.57
491.798	6814.83
492.168	6913.59
492.538	7046.02
492.908	7187.93
493.278	7287.14
493.648	7382.05
494.017	7526.91
494.387	7665.66
494.757	7767.13
495.126	7878.54
495.496	7976.84
495.866	8093.22
496.235	8272.2
496.605	8389.26
496.974	8504.96
497.344	8630.15
497.713	8718.74
498.082	8884.39
498.452	8980.88
498.821	9090.48
499.19	9132.97
499.559	9264.04
499.928	9391.94
500.298	9430.81
500.667	9597.13
501.036	9644.59
501.405	9754.87
501.774	9796.9
502.143	9958.93
502.512	10012.94
502.88	10155.09
503.249	10166.84
503.618	10280.51
503.987	10388.98
504.356	10401.41
504.724	10514.62
505.093	10604.79
505.462	10614.74
505.83	10726.37
506.199	10849.08
506.567	10972.24
506.936	10971.56
507.304	11095.63
507.672	11121.16
508.041	11223.08
508.409	11302.63
508.777	11385.34
509.145	11441.38
509.514	11477.99
509.882	11519.12
510.25	11580.81
510.618	11756.4
510.986	11666.68
511.354	11760.47
511.722	11884.76
512.09	11974.93
512.458	11913.68
512.826	12056.96
513.193	12026
513.561	12195.71
513.929	12158.88
514.297	12256.95
514.664	12317.74
515.032	12381.69
515.4	12504.63
515.767	12502.37
516.135	12599.99
516.502	12457.85
516.869	12589.6
517.237	12682.03
517.604	12564.51
517.972	12758.41
518.339	12801.57
518.706	12713.21
519.073	12802.93
519.44	12816.49
519.808	12955.46
520.175	12899.87
520.542	12985.75
520.909	12998.85
521.276	13015.12
521.643	13042.24
522.009	13109.36
522.376	13213.08
522.743	13263.7
523.11	13333.31
523.477	13357.26
523.843	13392.29
524.21	13435.9
524.577	13569.01
524.943	13493.3
525.31	13582.11
525.676	13617.59
526.043	13644.94
526.409	13601.1
526.776	13719.29
527.142	13649.01
527.508	13717.03
527.874	13793.41
528.241	13884.03
528.607	13730.36
528.973	13839.51
529.339	13742.34
529.705	13875.21
530.071	13902.11
530.437	13931.71
530.803	13923.57
531.169	13912.5
531.535	13822.79
531.901	13932.84
532.267	13890.58
532.632	13938.72
532.998	13830.7
533.364	13941.88
533.73	13873.18
534.095	14011.48
534.461	13943.91
534.826	13974.19
535.192	13914.08
535.557	13939.62
535.923	13936.23
536.288	13855.33
536.653	13916.57
537.019	13753.18
537.384	13771.49
537.749	13847.42
538.114	13746.63
538.479	13688.1
538.845	13795.22
539.21	13664.6
539.575	13749.12
539.94	13671.6
540.305	13665.28
540.67	13578.05
541.034	13569.69
541.399	13608.33
541.764	13566.97
542.129	13501.89
542.494	13417.15
542.858	13531.04
543.223	13406.3
543.587	13526.07
543.952	13331.5
544.316	13403.81
544.681	13361.33
545.045	13391.16
545.41	13321.33
545.774	13321.56
546.138	13275.23
546.503	13386.87
546.867	13268.9
547.231	13306.87
547.595	13138.51
547.959	13175.35
548.324	13125.18
548.688	13068.23
549.052	13030.26
549.416	13014.22
549.779	12964.73
550.143	12967.22
550.507	12960.44
550.871	12996.37
551.235	12896.03
551.599	12938.29
551.962	12908.69
552.326	12930.38
552.689	12879.31
553.053	12840.67
553.417	12829.59
553.78	12931.51
554.143	12819.2
554.507	12781.01
554.87	12782.59
555.234	12853.32
555.597	12838.18
555.96	12790.5
556.323	12786.43
556.686	12753.66
557.05	12803.15
557.413	12679.99
557.776	12694.23
558.139	12750.95
558.502	12691.97
558.865	12720.44
559.228	12768.12
559.59	12737.17
559.953	12702.36
560.316	12790.5
560.679	12757.73
561.041	12776.71
561.404	12704.62
561.767	12846.31
562.129	12760.89
562.492	12827.33
562.854	12842.7
563.217	12763.15
563.579	12845.86
563.941	12870.72
564.304	12920.66
564.666	12950.49
565.028	12866.88
565.39	12877.95
565.753	12919.08
566.115	12883.83
566.477	13019.42
566.839	12908.91
567.201	13022.36
567.563	12999.76
567.925	13124.5
568.287	12992.75
568.648	13076.82
569.01	13109.81
569.372	13179.19
569.734	13077.04
570.095	13095.57
570.457	13259.86
570.819	13196.36
571.18	13082.47
571.542	13210.82
571.903	13200.43
572.265	13230.03
572.626	13232.29
572.987	13276.59
573.349	13235.46
573.71	13319.97
574.071	13299.18
574.432	13297.15
574.794	13376.02
575.155	13340.31
575.516	13283.37
575.877	13353.65
576.238	13353.87
576.599	13404.94
576.96	13357.49
577.32	13338.05
577.681	13375.11
578.042	13392.29
578.403	13400.88
578.763	13383.93
579.124	13397.49
579.485	13433.42
579.845	13445.4
580.206	13427.54
580.566	13452.85
580.927	13478.61
581.287	13401.55
581.648	13403.81
582.008	13488.33
582.368	13421.21
582.728	13475.22
583.089	13464.38
583.449	13366.98
583.809	13396.81
584.169	13392.52
584.529	13355.45
584.889	13399.07
585.249	13380.76
585.609	13353.19
585.969	13413.76
586.329	13336.47
586.688	13373.76
587.048	13342.57
587.408	13300.77
587.768	13255.57
588.127	13305.96
588.487	13303.93
588.846	13368.79
589.206	13228.23
589.565	13192.07
589.925	13366.98
590.284	13296.47
590.643	13201.33
591.003	13270.03
591.362	13282.24
591.721	13210.6
592.08	13260.54
592.44	13286.08
592.799	13275
593.158	13211.73
593.517	13270.03
593.876	13335.79
594.235	13199.07
594.593	13190.71
594.952	13204.27
595.311	13218.51
595.67	13158.17
596.029	13281.78
596.387	13231.16
596.746	13263.93
597.104	13248.79
597.463	13220.09
597.822	13233.42
598.18	13204.05
598.538	13146.42
598.897	13244.5
599.255	13075.01
599.613	13341.67
599.972	13173.31
600.33	13128.79
600.688	13155.91
601.046	13208.11
601.404	13295.12
601.762	13226.87
602.12	13275.91
602.478	13292.86
602.836	13223.03
603.194	13163.82
603.552	13193.2
603.91	13120.21
604.268	13218.06
604.625	13139.41
604.983	13268.68
605.341	13163.59
605.698	13234.1
606.056	13274.55
606.413	13242.91
606.771	13310.03
607.128	13246.76
607.485	13223.03
607.843	13198.85
608.2	13305.74
608.557	13389.8
608.914	13293.08
609.272	13387.54
609.629	13400.65
609.986	13487.88
610.343	13371.72
610.7	13418.96
611.057	13381.67
611.414	13332.18
611.771	13458.28
612.127	13476.58
612.484	13366.3
612.841	13410.37
613.198	13410.82
613.554	13398.62
613.911	13468.9
614.267	13458.28
614.624	13483.81
614.98	13425.73
615.337	13534.43
615.693	13541.21
616.05	13476.81
616.406	13566.52
616.762	13501.21
617.118	13497.37
617.475	13486.98
617.831	13549.35
618.187	13557.93
618.543	13535.11
618.899	13640.64
619.255	13641.32
619.611	13562.91
619.967	13597.26
620.323	13633.64
620.678	13678.16
621.034	13631.38
621.39	13648.1
621.746	13625.5
622.101	13746.4
622.457	13623.7
622.812	13606.97
623.168	13624.6
623.523	13638.38
623.879	13670.93
624.234	13632.96
624.589	13615.56
624.945	13634.99
625.3	13628.89
625.655	13652.17
626.01	13678.61
626.365	13637.25
626.72	13590.48
627.075	13551.38
627.43	13586.63
627.785	13582.79
628.14	13553.87
628.495	13556.58
628.85	13533.75
629.205	13458.05
629.559	13555.45
629.914	13550.93
630.269	13573.3
630.623	13513.64
630.978	13518.39
631.332	13527.43
631.687	13542.34
632.041	13533.3
632.396	13479.97
632.75	13356.58
633.104	13482
633.459	13391.61
633.813	13336.25
634.167	13408.56
634.521	13356.13
634.875	13418.05
635.229	13378.96
635.583	13257.38
635.937	13354.78
636.291	13297.83
636.645	13306.87
636.999	13194.55
637.352	13239.07
637.706	13253.76
638.06	13281.78
638.413	13183.48
638.767	13132.63
639.121	13215.12
639.474	13107.1
639.828	13202.24
640.181	13121.34
640.534	13177.83
640.888	13099.42
641.241	13119.3
641.594	13115.46
641.947	13138.74
642.301	13061.9
642.654	13167.44
643.007	13104.39
643.36	12986.88
643.713	13035.46
644.066	13093.54
644.419	12946.2
644.771	12942.13
645.124	12827.56
645.477	12769.48
645.83	12742.14
646.182	12616.49
646.535	12711.86
646.888	12647.9
647.24	12578.98
647.593	12641.8
647.945	12629.82
648.298	12562.03
648.65	12504.18
649.002	12524.52
649.355	12622.37
649.707	12552.76
650.059	12620.11
650.411	12789.59
650.763	12828.91
651.115	12890.38
651.467	12892.64
651.819	12890.38
652.171	12865.98
652.523	12824.62
652.875	12844.96
653.227	12711.4
653.578	12850.38
653.93	12788.24
654.282	12821.91
654.633	12715.24
654.985	12754.34
655.337	12814.9
655.688	12908.46
656.039	12825.52
656.391	12745.07
656.742	12784.62
657.094	12787.56
657.445	12873.88
657.796	12824.17
658.147	12771.51
658.498	12781.91
658.849	12806.77
659.2	12813.1
659.551	12790.05
659.902	12842.02
660.253	12817.84
660.604	12905.97
660.955	12759.76
661.306	12851.96
661.656	12795.69
662.007	12762.25
662.358	12814.9
662.708	12899.42
663.059	12805.19
663.409	12787.56
663.76	12872.08
664.11	12850.38
664.461	12956.37
664.811	12906.2
665.161	12887.22
665.511	12819.2
665.862	12859.42
666.212	12869.82
666.562	12882.92
666.912	12813.55
667.262	12838.86
667.612	12860.1
667.962	12757.28
668.312	12860.78
668.662	12875.92
669.011	12791.17
669.361	12841.12
669.711	12778.52
670.06	12812.19
670.41	12808.35
670.76	12818.07
671.109	12835.02
671.459	12756.37
671.808	12716.83
672.157	12865.75
672.507	12725.19
672.856	12703.04
673.205	12842.7
673.554	12691.29
673.904	12671.4
674.253	12742.59
674.602	12773.55
674.951	12585.53
675.3	12398.87
675.649	12610.39
675.998	12683.61
676.346	12621.01
676.695	12688.8
677.044	12589.15
677.393	12612.2
677.741	12675.47
678.09	12651.07
678.438	12534.01
678.787	12557.96
679.135	12570.84
679.484	12483.61
679.832	12508.92
680.181	12466.89
680.529	12470.28
680.877	12451.52
681.225	12434.8
681.573	12508.02
681.922	12377.63
682.27	12369.27
682.618	12308.7
682.966	12324.75
683.314	12385.99
683.661	12368.36
684.009	12264.64
684.357	12171.53
684.705	12260.79
685.053	12185.09
685.4	12185.09
685.748	12214.69
686.095	12126.11
686.443	12101.25
686.79	12093.79
687.138	12093.79
687.485	12004.75
687.832	11977.41
688.18	12001.59
688.527	11880.69
688.874	11923.18
689.221	11826.23
689.568	11835.27
689.915	11809.28
690.262	11836.4
690.609	11816.96
690.956	11731.09
691.303	11666.01
691.65	11589.17
691.997	11588.04
692.344	11523.19
692.69	11523.19
693.037	11528.16
693.383	11429.63
693.73	11519.8
694.077	11282.51
694.423	11458.33
694.769	11314.6
695.116	11232.35
695.462	11270.31
695.808	11269.63
696.155	11188.96
696.501	11135.85
696.847	11149.86
697.193	11056.08
697.539	11100.15
697.885	10979.7
698.231	10931.34
698.577	10949.19
698.923	10916.65
699.269	10859.25
699.614	10811.11
699.96	10758.46
700.306	10775.18
700.651	10658.35
700.997	10571.8
701.342	10660.61
701.688	10589.65
702.033	10497.9
702.379	10499.03
702.724	10442.99
703.069	10510.33
703.415	10412.48
703.76	10368.87
704.105	10380.84
704.45	10366.15
704.795	10264.91
705.14	10254.07
705.485	10270.56
705.83	10181.75
706.175	10184.46
706.52	10195.99
706.865	10114.18
707.209	10092.04
707.554	10081.42
707.899	10072.83
708.243	10018.59
708.588	10041.19
708.932	9932.95
709.277	9886.17
709.621	9962.77
709.966	9840.29
710.31	9935.66
710.654	9756.68
710.998	9767.98
711.342	9872.16
711.687	9792.84
712.031	9722.78
712.375	9672.39
712.719	9772.95
713.063	9646.4
713.407	9675.1
713.75	9641.2
714.094	9641.2
714.438	9551.49
714.782	9579.51
715.125	9495.44
715.469	9557.81
715.812	9509.45
716.156	9443.24
716.499	9461.09
716.843	9467.65
717.186	9407.31
717.53	9483.01
717.873	9505.84
718.216	9454.99
718.559	9401.21
718.902	9340.87
719.246	9282.79
719.589	9320.76
719.932	9261.1
720.275	9355.11
720.617	9342
720.96	9221.78
721.303	9255
721.646	9283.02
721.989	9174.55
722.331	9265.84
722.674	9203.02
723.016	9219.52
723.359	9189.69
723.701	9195.34
724.044	9163.93
724.386	9104.94
724.729	9188.56
725.071	9117.6
725.413	9140.2
725.755	9175.9
726.097	9091.61
726.439	9028.34
726.782	9028.34
727.124	9135.9
727.465	9080.99
727.807	9054.55
728.149	9068.11
728.491	8995.79
728.833	9080.54
729.175	8960.32
729.516	9071.5
729.858	9003.48
730.199	9040.54
730.541	8949.02
730.882	8965.29
731.224	9045.51
731.565	8986.3
731.906	8996.02
732.248	9011.16
732.589	8983.37
732.93	8928.9
733.271	8973.65
733.612	8921.45
733.953	8927.77
734.294	8924.61
734.635	8898.62
734.976	8947.21
735.317	8877.38
735.658	8866.53
735.999	8933.2
736.339	8893.42
736.68	8949.92
737.021	8965.29
737.361	8943.59
737.702	8972.07
738.042	8986.76
738.383	8938.17
738.723	9000.31
739.063	8963.93
739.404	8991.27
739.744	8990.37
740.084	8925.97
740.424	8936.81
740.764	8954.67
741.104	9011.61
741.444	9020.43
741.784	8983.37
742.124	9050.71
742.464	9045.96
742.804	9029.47
743.143	9068.11
743.483	9113.76
743.823	9102.68
744.162	9134.77
744.502	9165.28
744.841	9215
745.181	9233.08
745.52	9184.49
745.86	9265.17
746.199	9345.84
746.538	9328.67
746.877	9356.69
747.216	9351.94
747.556	9472.62
747.895	9469.68
748.234	9497.48
748.573	9520.75
748.911	9635.78
749.25	9654.08
749.589	9683.01
749.928	9757.13
750.267	9873.96
750.605	9959.61
750.944	9904.7
751.283	10045.71
751.621	10075.77
751.96	10113.96
752.298	10258.36
752.636	10332.03
752.975	10343.33
753.313	10466.49
753.651	10544.91
753.989	10651.34
754.327	10694.96
754.666	10838.68
755.004	10945.8
755.342	11073.03
755.679	11196.41
756.017	11293.36
756.355	11445.22
756.693	11474.15
757.031	11648.83
757.368	11745.33
757.706	11881.37
758.044	12016.73
758.381	12186.45
758.719	12312.77
