Data from hue_10_FLMS001491_72.txt Node
Date: Mon Feb 06 15:32:31 GMT 2017
User: dcchb
Spectrometer: FLMS00149
Trigger mode: 0
Integration Time (sec): 2.000000E-2
Scans to average: 10
Electric dark correction enabled: true
Nonlinearity correction enabled: false
Boxcar width: 0
XAxis mode: Wavelengths
Number of Pixels in Spectrum: 2048
>>>>>Begin Spectral Data<<<<<
341.393	-5.99
341.776	-5.99
342.16	-5.99
342.543	-64.29
342.927	-70.39
343.31	-64.97
343.693	-68.59
344.077	-52.09
344.46	-54.8
344.843	-51.64
345.226	-34.24
345.61	-34.01
345.993	-5.76
346.376	-18.64
346.759	15.93
347.142	27.68
347.525	48.47
347.908	55.25
348.291	56.38
348.674	73.78
349.057	107.23
349.44	118.98
349.823	137.74
350.206	175.48
350.588	186.32
350.971	212.31
351.354	238.07
351.737	229.03
352.119	246.43
352.502	260.45
352.884	266.32
353.267	283.95
353.65	272.2
354.032	302.25
354.414	315.58
354.797	325.08
355.179	318.75
355.562	321.69
355.944	325.08
356.326	333.89
356.709	342.25
357.091	334.79
357.473	325.3
357.855	358.97
358.238	327.79
358.62	348.8
359.002	336.15
359.384	317.17
359.766	348.58
360.148	340.44
360.53	337.28
360.912	332.76
361.294	348.13
361.676	337.51
362.057	332.53
362.439	329.14
362.821	326.21
363.203	332.08
363.584	332.76
363.966	323.27
364.348	331.63
364.729	312.42
365.111	307.45
365.493	319.65
365.874	312.2
366.256	328.01
366.637	302.03
367.019	295.92
367.4	313.78
367.781	311.07
368.163	307
368.544	299.31
368.925	321.91
369.306	314
369.688	306.77
370.069	300.67
370.45	319.65
370.831	313.55
371.212	326.66
371.593	327.11
371.974	311.74
372.355	320.1
372.736	318.52
373.117	314.91
373.498	301.8
373.879	309.71
374.26	311.52
374.641	325.53
375.021	315.81
375.402	298.18
375.783	319.2
376.163	306.32
376.544	318.75
376.925	307.22
377.305	313.1
377.686	330.05
378.066	324.62
378.447	308.13
378.827	334.57
379.208	337.51
379.588	324.62
379.968	344.06
380.349	322.59
380.729	316.94
381.109	336.15
381.489	344.74
381.87	345.87
382.25	335.47
382.63	339.09
383.01	344.06
383.39	339.54
383.77	329.6
384.15	337.51
384.53	340.22
384.91	324.17
385.29	334.57
385.67	318.97
386.049	350.16
386.429	331.86
386.809	345.19
387.189	328.47
387.568	345.41
387.948	343.61
388.328	332.53
388.707	363.72
389.087	336.15
389.466	366.66
389.846	355.13
390.225	350.16
390.605	344.06
390.984	350.84
391.363	337.51
391.743	341.12
392.122	337.96
392.501	358.52
392.881	352.65
393.26	372.31
393.639	358.07
394.018	371.4
394.397	365.75
394.776	359.2
395.155	373.66
395.534	351.52
395.913	363.27
396.292	359.88
396.671	349.71
397.05	360.33
397.429	355.36
397.808	363.49
398.186	347.9
398.565	342.48
398.944	361.01
399.323	378.86
399.701	376.37
400.08	383.38
400.458	368.01
400.837	385.64
401.215	371.18
401.594	369.59
401.972	358.75
402.351	389.71
402.729	363.95
403.107	401.46
403.486	379.99
403.864	396.49
404.242	386.32
404.62	375.7
404.999	386.32
405.377	369.82
405.755	384.51
406.133	392.42
406.511	370.27
406.889	392.42
407.267	395.13
407.645	400.55
408.023	402.59
408.401	397.84
408.779	386.32
409.156	401.01
409.534	406.2
409.912	392.42
410.29	391.52
410.667	396.71
411.045	396.03
411.422	412.31
411.8	417.28
412.178	445.98
412.555	424.51
412.933	448.46
413.31	430.84
413.687	421.34
414.065	416.83
414.442	437.62
414.819	419.76
415.197	448.46
415.574	446.43
415.951	427.45
416.328	431.74
416.705	434.68
417.082	416.37
417.46	455.24
417.837	447.56
418.214	465.19
418.591	453.66
418.967	429.71
419.344	436.49
419.721	450.95
420.098	475.13
420.475	458.41
420.852	462.7
421.228	449.59
421.605	462.47
421.982	474.9
422.358	486.65
422.735	476.71
423.111	470.16
423.488	461.34
423.864	487.78
424.241	490.27
424.617	469.48
424.994	483.94
425.37	488.24
425.746	481.23
426.123	490.95
426.499	501.57
426.875	502.25
427.251	495.02
427.627	497.28
428.003	505.18
428.379	528.01
428.756	518.52
429.132	504.73
429.507	523.04
429.883	530.95
430.259	532.3
430.635	542.25
431.011	545.18
431.387	523.49
431.763	516.94
432.138	545.64
432.514	546.09
432.89	549.93
433.265	527.1
433.641	565.07
434.016	564.39
434.392	564.62
434.767	567.78
435.143	579.98
435.518	554.45
435.894	586.76
436.269	588.57
436.644	561.23
437.02	575.69
437.395	576.14
437.77	591.51
438.145	594.9
438.52	589.7
438.895	621.11
439.271	618.4
439.646	637.38
440.021	614.56
440.395	601.91
440.77	617.27
441.145	614.11
441.52	635.35
441.895	631.73
442.27	634.9
442.645	653.43
443.019	636.25
443.394	639.64
443.769	644.62
444.143	624.5
444.518	660.21
444.892	642.58
445.267	645.07
445.641	638.74
446.016	654.79
446.39	659.53
446.764	661.56
447.139	678.97
447.513	662.02
447.887	659.98
448.262	687.1
448.636	680.77
449.01	677.16
449.384	676.93
449.758	673.32
450.132	672.86
450.506	681.45
450.88	704.05
451.254	695.46
451.628	679.42
452.002	690.72
452.376	712.18
452.75	729.59
453.123	729.13
453.497	719.64
453.871	755.35
454.244	729.81
454.618	735.23
454.992	735.91
455.365	737.72
455.739	752.18
456.112	762.58
456.486	770.49
456.859	781.11
457.232	757.38
457.606	777.04
457.979	779.75
458.352	802.35
458.725	801.67
459.099	788.57
459.472	839.64
459.845	831.28
460.218	821.33
460.591	846.42
460.964	818.85
461.337	852.29
461.71	867.43
462.083	858.62
462.456	863.37
462.829	868.34
463.201	875.8
463.574	882.8
463.947	907.66
464.32	920.99
464.692	925.74
465.065	928.68
465.438	951.5
465.81	937.94
466.183	961.22
466.555	963.25
466.928	960.09
467.3	989.92
467.672	1001.22
468.045	989.92
468.417	1034.21
468.789	1030.82
469.161	1040.09
469.534	1045.06
469.906	1086.19
470.278	1068.33
470.65	1075.34
471.022	1132.96
471.394	1103.59
471.766	1159.63
472.138	1158.27
472.51	1175.45
472.882	1173.19
473.253	1205.05
473.625	1208.67
473.997	1231.04
474.369	1245.96
474.74	1242.34
475.112	1269.91
475.484	1294.99
475.855	1333.19
476.227	1369.79
476.598	1376.57
476.97	1377.25
477.341	1419.96
477.713	1464.71
478.084	1452.28
478.455	1496.12
478.827	1520.3
479.198	1580.18
479.569	1550.58
479.94	1620.86
480.311	1653.63
480.682	1670.35
481.053	1720.07
481.424	1762.33
481.795	1786.28
482.166	1806.85
482.537	1816.11
482.908	1895.2
483.279	1913.51
483.65	1947.18
484.021	1997.12
484.391	1998.93
484.762	2054.3
485.133	2066.5
485.503	2097.91
485.874	2177.91
486.244	2172.03
486.615	2212.48
486.985	2255.19
487.356	2295.87
487.726	2359.82
488.097	2391.91
488.467	2372.93
488.837	2484.34
489.207	2526.6
489.578	2558.24
489.948	2576.32
490.318	2624
490.688	2659.25
491.058	2677.78
491.428	2761.4
491.798	2760.49
492.168	2804.11
492.538	2812.47
492.908	2876.65
493.278	2930.21
493.648	2911.45
494.017	2969.98
494.387	3016.53
494.757	3011.11
495.126	3075.51
495.496	3078.68
495.866	3139.69
496.235	3188.73
496.605	3204.55
496.974	3223.53
497.344	3273.93
497.713	3199.8
498.082	3291.78
498.452	3361.38
498.821	3364.09
499.19	3358.67
499.559	3393.24
499.928	3418.55
500.298	3419.23
500.667	3478.67
501.036	3527.48
501.405	3507.14
501.774	3527.93
502.143	3562.51
502.512	3587.14
502.88	3613.58
503.249	3608.15
503.618	3623.97
503.987	3653.35
504.356	3670.52
504.724	3707.59
505.093	3709.39
505.462	3699.45
505.83	3772.67
506.199	3812.67
506.567	3826
506.936	3792.56
507.304	3857.86
507.672	3866.23
508.041	3852.22
508.409	3927.92
508.777	3946
509.145	3915.26
509.514	3907.81
509.882	3942.38
510.25	3968.37
510.618	3981.7
510.986	3987.35
511.354	4036.84
511.722	4047.92
512.09	4069.38
512.458	4046.79
512.826	4083.4
513.193	4046.79
513.561	4041.36
513.929	4075.26
514.297	4148.7
514.664	4102.83
515.032	4179.66
515.4	4167.91
515.767	4204.97
516.135	4183.28
516.502	4165.2
516.869	4235.93
517.237	4255.37
517.604	4240.45
517.972	4279.1
518.339	4293.33
518.706	4276.61
519.073	4282.94
519.44	4315.03
519.808	4321.36
520.175	4282.94
520.542	4378.98
520.909	4341.69
521.276	4334.69
521.643	4360.9
522.009	4411.07
522.376	4372.43
522.743	4429.15
523.11	4453.56
523.477	4452.88
523.843	4463.5
524.21	4499.2
524.577	4518.19
524.943	4544.17
525.31	4566.77
525.676	4545.08
526.043	4585.3
526.409	4636.6
526.776	4669.59
527.142	4616.49
527.508	4685.87
527.874	4686.77
528.241	4715.24
528.607	4713.66
528.973	4763.15
529.339	4795.92
529.705	4818.74
530.071	4838.4
530.437	4826.2
530.803	4908.68
531.169	4873.43
531.535	4871.17
531.901	4879.76
532.267	4913.66
532.632	4930.6
532.998	4941.9
533.364	4958.17
533.73	5008.34
534.095	5081.34
534.461	5042.69
534.826	5056.7
535.192	5089.47
535.557	5121.11
535.923	5117.04
536.288	5142.12
536.653	5138.51
537.019	5183.03
537.384	5215.8
537.749	5229.81
538.114	5251.05
538.479	5240.88
538.845	5252.18
539.21	5311.61
539.575	5284.04
539.94	5310.03
540.305	5357.49
540.67	5374.43
541.034	5373.08
541.399	5430.03
541.764	5446.52
542.129	5477.48
542.494	5452.85
542.858	5505.73
543.223	5536.92
543.587	5560.19
543.952	5582.34
544.316	5557.93
544.681	5601.32
545.045	5675.22
545.41	5678.83
545.774	5670.7
546.138	5699.4
546.503	5723.35
546.867	5718.38
547.231	5769.23
547.595	5793.86
547.959	5809.9
548.324	5857.59
548.688	5870.47
549.052	5908.21
549.416	5867.08
549.779	5897.81
550.143	5924.25
550.507	5973.74
550.871	5955.44
551.235	5957.92
551.599	6036.11
551.962	5995.44
552.326	6018.49
552.689	6084.25
553.053	6067.3
553.417	6047.86
553.78	6130.12
554.143	6103
554.507	6132.83
554.87	6176.22
555.234	6198.37
555.597	6200.85
555.96	6219.16
556.323	6215.99
556.686	6243.56
557.05	6301.87
557.413	6286.73
557.776	6294.18
558.139	6346.16
558.502	6351.36
558.865	6318.59
559.228	6402.2
559.59	6353.17
559.953	6394.07
560.316	6423.67
560.679	6488.08
561.041	6474.29
561.404	6501.86
561.767	6526.95
562.129	6485.59
562.492	6530.79
562.854	6580.05
563.217	6566.95
563.579	6591.58
563.941	6644.68
564.304	6646.49
564.666	6682.42
565.028	6745.47
565.39	6723.1
565.753	6739.6
566.115	6781.18
566.477	6807.39
566.839	6730.11
567.201	6881.06
567.563	6870.21
567.925	6898.24
568.287	6913.83
568.648	6946.82
569.01	6951.79
569.372	6957.44
569.734	6965.13
570.095	7069.08
570.457	7061.4
570.819	7113.15
571.18	7111.11
571.542	7209.87
571.903	7200.15
572.265	7216.87
572.626	7243.54
572.987	7365.12
573.349	7399.69
573.71	7401.95
574.071	7505.23
574.432	7523.08
574.794	7614.15
575.155	7667.03
575.516	7631.32
575.877	7742.51
576.238	7821.38
576.599	7928.04
576.96	7956.51
577.32	8010.75
577.681	8157.64
578.042	8232.66
578.403	8290.29
578.763	8364.64
579.124	8539.78
579.485	8609.6
579.845	8708.13
580.206	8806.89
580.566	8954
580.927	9130.04
581.287	9261.79
581.648	9362.13
582.008	9477.15
582.368	9633.08
582.728	9841.66
583.089	10003.69
583.449	10183.8
583.809	10408.2
584.169	10634.41
584.529	10722.54
584.889	11052.03
585.249	11209.99
585.609	11422.41
585.969	11656.08
586.329	11895.85
586.688	12173.58
587.048	12412.44
587.408	12644.75
587.768	12937.85
588.127	13219.88
588.487	13451.74
588.846	13823.03
589.206	13966.75
589.565	14339.4
589.925	14636.79
590.284	14985.48
590.643	15320.16
591.003	15653.26
591.362	16038.11
591.721	16381.6
592.08	16681.26
592.44	17114.47
592.799	17376.83
593.158	17685.98
593.517	18148.34
593.876	18425.39
594.235	18819.96
594.593	19203.9
594.952	19604.57
595.311	19883.21
595.67	20247.49
596.029	20666.69
596.387	21172.89
596.746	21514.58
597.104	21756.83
597.463	22065.75
597.822	22539.18
598.18	22813.75
598.538	23195.66
598.897	23785.48
599.255	23861.41
599.613	24691.89
599.972	24839.23
600.33	25182.28
600.688	25521.48
601.046	25970.73
601.404	26416.14
601.762	26689.35
602.12	27210.92
602.478	27498.6
602.836	27821.98
603.194	28038.7
603.552	28431.68
603.91	28583.09
604.268	29193.92
604.625	29314.14
604.983	29724.3
605.341	29956.84
605.698	30403.61
606.056	30851.73
606.413	31182.34
606.771	31508.44
607.128	31698.49
607.485	32003.79
607.843	32327.4
608.2	32765.35
608.557	33033.37
608.914	33125.57
609.272	33721.03
609.629	34001.7
609.986	34376.38
610.343	34494.35
610.7	34942.7
611.057	35114.22
611.414	35393.98
611.771	35670.81
612.127	35989.9
612.484	36231.48
612.841	36473.96
613.198	36574.74
613.554	36818.58
613.911	37247.5
614.267	37399.36
614.624	37578.33
614.98	37829.17
615.337	38167.25
615.693	38196.4
616.05	38341.7
616.406	38700.79
616.762	38825.98
617.118	39017.39
617.475	39188.24
617.831	39469.36
618.187	39702.35
618.543	39799.97
618.899	40253.52
619.255	40272.5
619.611	40403.34
619.967	40697.35
620.323	40815.09
620.678	40969.21
621.034	40981.41
621.39	41089.88
621.746	41065.7
622.101	41718.34
622.457	41481.28
622.812	41669.3
623.168	41891.21
623.523	41997.65
623.879	42245.1
624.234	41964.21
624.589	42161.49
624.945	42454.82
625.3	42574.81
625.655	42626.79
626.01	42640.35
626.365	42794.47
626.72	42833.56
627.075	42932.77
627.43	42982.71
627.785	43038.76
628.14	43274
628.495	43290.05
628.85	43317.84
629.205	43277.85
629.559	43679.42
629.914	43495.92
630.269	43616.82
630.623	43555.58
630.978	43536.6
631.332	43882.8
631.687	43836.02
632.041	43654.11
632.396	43808.23
632.75	43807.1
633.104	43849.13
633.459	43689.36
633.813	43796.48
634.167	43711.28
634.521	43912.63
634.875	44035.34
635.229	43848.9
635.583	43756.02
635.937	43798.96
636.291	43767.78
636.645	43869.24
636.999	43870.6
637.352	44003.48
637.706	43797.61
638.06	43965.28
638.413	43939.52
638.767	43908.79
639.121	43901.78
639.474	43875.57
639.828	43928.22
640.181	43843.25
640.534	43942.23
640.888	43913.99
641.241	43701.34
641.594	43797.38
641.947	43919.18
642.301	43794.44
642.654	43939.75
643.007	43852.07
643.36	43855.68
643.713	43902.46
644.066	44021.1
644.419	43515.8
644.771	43568.23
645.124	43117.17
645.477	43128.47
645.83	42830.63
646.182	42653.45
646.535	42693
646.888	42823.39
647.24	42520.58
647.593	42701.59
647.945	42629.05
648.298	42442.84
648.65	42405.33
649.002	42420.01
649.355	42585.21
649.707	42505.66
650.059	42668.14
650.411	43108.81
650.763	43163.72
651.115	43642.81
651.467	43501.34
651.819	43459.08
652.171	43438.74
652.523	43321.46
652.875	43417.95
653.227	43165.76
653.578	43631.28
653.93	43367.33
654.282	43276.26
654.633	43149.94
654.985	43255.25
655.337	43281.01
655.688	43292.31
656.039	43471.74
656.391	43062.48
656.742	43115.82
657.094	43118.3
657.445	43275.13
657.796	43074.46
658.147	43052.99
658.498	43054.57
658.849	43125.76
659.2	43068.36
659.551	43029.04
659.902	43151.97
660.253	43155.36
660.604	43216.83
660.955	42914.92
661.306	42898.87
661.656	43003.05
662.007	43055.25
662.358	42878.76
662.708	43000.79
663.059	42944.52
663.409	42700.23
663.76	43058.64
664.11	43069.71
664.461	43043.5
664.811	42900.45
665.161	42926.44
665.511	42786.78
665.862	42816.61
666.212	43140.45
666.562	42984.29
666.912	42902.71
667.262	42802.6
667.612	42975.48
667.962	42947.68
668.312	42883.51
668.662	43002.82
669.011	42832.89
669.361	42799.67
669.711	42866.33
670.06	42743.85
670.41	42649.16
670.76	42733.23
671.109	42893.22
671.459	42733.23
671.808	42706.56
672.157	42716.73
672.507	42564.64
672.856	42627.92
673.205	42652.78
673.554	42730.29
673.904	42541.37
674.253	42717.86
674.602	42575.26
674.951	42021.15
675.3	41862.52
675.649	42506.57
675.998	42483.74
676.346	42402.16
676.695	42624.75
677.044	42328.49
677.393	42458.88
677.741	42523.51
678.09	42363.97
678.438	42238.1
678.787	42419.79
679.135	42398.77
679.484	42115.39
679.832	42138.21
680.181	41980.25
680.529	42098.22
680.877	42009.4
681.225	41782.52
681.573	42213.24
681.922	41796.75
682.27	41865
682.618	41622.75
682.966	41574.61
683.314	41662.07
683.661	41678.11
684.009	41373.71
684.357	41450.32
684.705	41333.72
685.053	41396.99
685.4	41283.32
685.748	41015.98
686.095	41186.83
686.443	41064.8
686.79	41026.15
687.138	41061.18
687.485	41085.36
687.832	40822.32
688.18	40917.68
688.527	40627.52
688.874	40697.35
689.221	40495.32
689.568	40443.8
689.915	40458.26
690.262	40459.61
690.609	40375.55
690.956	40173.29
691.303	40181.66
691.65	40082.22
691.997	40004.03
692.344	39729.01
692.69	39702.57
693.037	39835.45
693.383	39467.32
693.73	39657.15
694.077	39415.57
694.423	39378.51
694.769	39297.38
695.116	39147.56
695.462	39002.25
695.808	39001.57
696.155	39113.89
696.501	38762.03
696.847	38797.74
697.193	38460.12
697.539	38596.84
697.885	38378.54
698.231	38312.55
698.577	38365.21
698.923	38186
699.269	38067.59
699.614	37835.5
699.96	37772.68
700.306	37908.95
700.651	37635.51
700.997	37483.2
701.342	37427.38
701.688	37461.5
702.033	37180.6
702.379	37302.86
702.724	37134.28
703.069	37252.92
703.415	36758.02
703.76	36960.5
704.105	36697
704.45	36702.2
704.795	36488.19
705.14	36441.19
705.485	36467.4
705.83	36297.92
706.175	36341.76
706.52	36150.35
706.865	36101.08
707.209	35960.07
707.554	35949.45
707.899	36075.32
708.243	35873.97
708.588	35747.87
708.932	35616.8
709.277	35527.99
709.621	35497.94
709.966	35393.98
710.31	35455.23
710.654	35146.99
710.998	35152.64
711.342	35190.15
711.687	35045.75
712.031	35057.27
712.375	34836.94
712.719	34911.06
713.063	34778.86
713.407	34931.4
713.75	34684.17
714.094	34616.6
714.438	34661.35
714.782	34519.88
715.125	34302.94
715.469	34491.18
715.812	34242.83
716.156	34078.99
716.499	34062.49
716.843	34150.18
717.186	33862.05
717.53	34015.72
717.873	34095.71
718.216	33931.42
718.559	33866.12
718.902	33476.75
719.246	33669.51
719.589	33665.44
719.932	33432.91
720.275	33541.6
720.617	33374.83
720.96	33304.32
721.303	33282.63
721.646	33279.01
721.989	33111.56
722.331	33134.16
722.674	32966.25
723.016	33201.95
723.359	33024.56
723.701	33060.03
724.044	32936.2
724.386	32713.6
724.729	32735.3
725.071	32804.22
725.413	32764
725.755	32656.88
726.097	32612.36
726.439	32354.06
726.782	32429.54
727.124	32482.65
727.465	32244.91
727.807	32422.54
728.149	32290.11
728.491	32186.84
728.833	32316.33
729.175	32099.83
729.516	32037.24
729.858	32080.63
730.199	32066.84
730.541	31867.98
730.882	31907.97
731.224	31907.07
731.565	31744.14
731.906	31633.86
732.248	31720.86
732.589	31494.65
732.93	31437.93
733.271	31436.12
733.612	31512.5
733.953	31605.38
734.294	31436.8
734.635	31334.66
734.976	31408.1
735.317	31289.69
735.658	31242.46
735.999	31174.89
736.339	31316.13
736.68	31224.83
737.021	30958.17
737.361	30893.31
737.702	31091.5
738.042	30996.81
738.383	30817.16
738.723	30816.93
739.063	30814.44
739.404	30849.47
739.744	30750.26
740.084	30563.6
740.424	30594.56
740.764	30610.16
741.104	30678.18
741.444	30389.37
741.784	30391.18
742.124	30544.85
742.464	30343.27
742.804	30391.18
743.143	30340.33
743.483	30213.78
743.823	30123.16
744.162	30174.91
744.502	30281.35
744.841	30051.3
745.181	30025.76
745.52	29962.71
745.86	29962.71
746.199	29908.03
746.538	29776.96
746.877	29963.17
747.216	29859.67
747.556	29667.36
747.895	29731.53
748.234	29637.53
748.573	29610.63
748.911	29513.69
749.25	29549.62
749.589	29421.49
749.928	29357.76
750.267	29507.81
750.605	29348.95
750.944	29180.81
751.283	29287.25
751.621	29251.55
751.96	29100.36
752.298	29041.84
752.636	29146.69
752.975	28965.91
753.313	28796.87
753.651	28896.53
753.989	28724.1
754.327	28663.54
754.666	28574.95
755.004	28616.31
755.342	28553.03
755.679	28569.31
756.017	28430.1
756.355	28436.2
756.693	28307.62
757.031	28325.24
757.368	28213.83
757.706	28174.74
758.044	28017.91
758.381	28123.22
758.719	28045.7
759.056	27943.79
759.394	27918.7
759.731	27814.3
760.068	27680.06
760.405	27562.33
760.743	27559.39
761.08	27681.19
761.417	27396.23
761.754	27270.13
