Data from hue_24_FLMS001491_00071.txt Node
Date: Tue Feb 07 17:12:43 GMT 2017
User: dcchb
Spectrometer: FLMS00149
Trigger mode: 0
Integration Time (sec): 2.000000E-2
Scans to average: 10
Electric dark correction enabled: true
Nonlinearity correction enabled: false
Boxcar width: 0
XAxis mode: Wavelengths
Number of Pixels in Spectrum: 2048
>>>>>Begin Spectral Data<<<<<
341.393	-0.79
341.776	-0.79
342.16	-0.79
342.543	-59.55
342.927	-66.78
343.31	-65.2
343.693	-48.47
344.077	-65.42
344.46	-69.49
344.843	-39.89
345.226	-46.89
345.61	-29.26
345.993	-27.68
346.376	5.08
346.759	10.96
347.142	18.19
347.525	32.65
347.908	55.93
348.291	56.16
348.674	109.26
349.057	104.07
349.44	137.96
349.823	142.93
350.206	180.9
350.588	181.8
350.971	235.81
351.354	231.97
351.737	240.56
352.119	255.93
352.502	265.19
352.884	278.52
353.267	292.31
353.65	292.31
354.032	301.8
354.414	296.38
354.797	318.52
355.179	322.59
355.562	318.75
355.944	331.18
356.326	340.89
356.709	324.85
357.091	340.89
357.473	344.06
357.855	348.8
358.238	344.51
358.62	337.51
359.002	355.58
359.384	338.18
359.766	329.37
360.148	322.59
360.53	331.4
360.912	360.33
361.294	335.7
361.676	356.26
362.057	344.74
362.439	330.95
362.821	325.75
363.203	320.78
363.584	344.28
363.966	341.35
364.348	316.71
364.729	318.75
365.111	309.26
365.493	348.13
365.874	305.87
366.256	308.58
366.637	315.81
367.019	320.1
367.4	327.11
367.781	319.43
368.163	320.33
368.544	327.11
368.925	324.4
369.306	321.46
369.688	323.04
370.069	325.75
370.45	325.08
370.831	324.62
371.212	317.39
371.593	317.17
371.974	321.91
372.355	315.13
372.736	309.03
373.117	319.65
373.498	331.18
373.879	336.83
374.26	335.02
374.641	318.75
375.021	309.26
375.402	335.47
375.783	324.85
376.163	340.22
376.544	338.64
376.925	321.69
377.305	329.82
377.686	318.75
378.066	342.48
378.447	339.31
378.827	358.75
379.208	365.75
379.588	346.77
379.968	348.58
380.349	323.95
380.729	329.37
381.109	340.67
381.489	347.45
381.87	360.78
382.25	349.03
382.63	349.26
383.01	340.89
383.39	359.2
383.77	337.51
384.15	341.35
384.53	340.44
384.91	338.86
385.29	355.58
385.67	369.14
386.049	357.84
386.429	361.01
386.809	342.48
387.189	363.04
387.568	362.14
387.948	346.32
388.328	322.82
388.707	361.69
389.087	363.04
389.466	377.5
389.846	394
390.225	372.08
390.605	380.67
390.984	379.99
391.363	391.29
391.743	388.35
392.122	374.57
392.501	387.67
392.881	402.81
393.26	393.1
393.639	367.56
394.018	374.79
394.397	390.84
394.776	380.44
395.155	391.74
395.534	373.44
395.913	384.28
396.292	414.11
396.671	392.65
397.05	374.11
397.429	402.14
397.808	404.85
398.186	405.53
398.565	398.97
398.944	415.7
399.323	420.67
399.701	414.57
400.08	400.33
400.458	406.2
400.837	399.88
401.215	409.37
401.594	408.46
401.972	427.67
402.351	410.72
402.729	426.09
403.107	418.18
403.486	443.49
403.864	432.19
404.242	404.62
404.62	440.78
404.999	438.07
405.377	440.78
405.755	430.84
406.133	434.23
406.511	435.36
406.889	455.47
407.267	450.04
407.645	433.1
408.023	436.26
408.401	430.16
408.779	463.6
409.156	458.86
409.534	443.72
409.912	457.73
410.29	445.75
410.667	447.78
411.045	472.64
411.422	459.54
411.8	499.53
412.178	469.25
412.555	465.86
412.933	500.21
413.31	455.92
413.687	478.52
414.065	482.59
414.442	491.4
414.819	481.68
415.197	499.99
415.574	500.21
415.951	501.57
416.328	514.45
416.705	496.15
417.082	513.09
417.46	514.68
417.837	505.18
418.214	503.83
418.591	513.77
418.967	545.41
419.344	534.11
419.721	520.33
420.098	521.68
420.475	538.86
420.852	544.96
421.228	516.71
421.605	560.1
421.982	529.59
422.358	559.87
422.735	551.06
423.111	561.23
423.488	537.95
423.864	566.43
424.241	562.58
424.617	582.47
424.994	577.95
425.37	578.18
425.746	572.75
426.123	587.44
426.499	561
426.875	581.57
427.251	583.83
427.627	590.15
428.003	594.45
428.379	604.84
428.756	622.92
429.132	607.55
429.507	607.78
429.883	616.82
430.259	615.46
430.635	643.26
431.011	648.91
431.387	654.33
431.763	651.85
432.138	642.58
432.514	665.63
432.89	661.79
433.265	678.51
433.641	687.55
434.016	699.76
434.392	706.76
434.767	721.68
435.143	709.25
435.518	709.47
435.894	715.57
436.269	689.36
436.644	729.13
437.02	740.88
437.395	737.04
437.77	729.59
438.145	747.66
438.52	735.91
438.895	742.24
439.271	731.17
439.646	760.09
440.021	766.42
440.395	774.1
440.77	758.29
441.145	779.08
441.52	788.34
441.895	793.76
442.27	798.51
442.645	794.67
443.019	791.5
443.394	806.65
443.769	800.32
444.143	801.45
444.518	828.34
444.892	835.8
445.267	856.36
445.641	830.37
446.016	840.54
446.39	848.68
446.764	845.74
447.139	844.16
447.513	845.29
447.887	868.79
448.262	857.49
448.636	863.59
449.01	871.28
449.384	864.5
449.758	874.67
450.132	883.71
450.506	899.75
450.88	890.71
451.254	903.37
451.628	908.34
452.002	933.42
452.376	906.53
452.75	913.31
453.123	951.05
453.497	918.05
453.871	957.83
454.244	940.65
454.618	986.53
454.992	990.14
455.365	963.03
455.739	1012.06
456.112	1010.03
456.486	1003.93
456.859	1039.18
457.232	1039.18
457.606	1055
457.979	1039.63
458.352	1065.85
458.725	1077.82
459.099	1058.16
459.472	1104.72
459.845	1087.32
460.218	1122.34
460.591	1107.65
460.964	1153.75
461.337	1145.17
461.71	1186.52
462.083	1224.94
462.456	1184.94
462.829	1200.08
463.201	1205.96
463.574	1223.13
463.947	1243.92
464.32	1255
464.692	1269.68
465.065	1251.83
465.438	1278.27
465.81	1306.07
466.183	1306.52
466.555	1339.06
466.928	1339.74
467.3	1348.55
467.672	1368.44
468.045	1398.27
468.417	1417.25
468.789	1444.14
469.161	1431.26
469.534	1456.8
469.906	1515.1
470.278	1513.75
470.65	1521.65
471.022	1564.59
471.394	1576.34
471.766	1611.37
472.138	1614.31
472.51	1607.3
472.882	1692.95
473.253	1677.36
473.625	1735.21
473.997	1758.26
474.369	1745.83
474.74	1739.73
475.112	1822.44
475.484	1819.5
475.855	1851.14
476.227	1909.67
476.598	1955.09
476.97	1990.57
477.341	2035.54
477.713	2026.27
478.084	2053.17
478.455	2139.72
478.827	2122.09
479.198	2167.74
479.569	2179.49
479.94	2253.16
480.311	2271.47
480.682	2392.37
481.053	2419.03
481.424	2442.53
481.795	2480.27
482.166	2507.17
482.537	2539.71
482.908	2616.77
483.279	2643.89
483.65	2689.08
484.021	2763.43
484.391	2784.9
484.762	2828.74
485.133	2843.88
485.503	2942.41
485.874	2990.32
486.244	3012.01
486.615	3058.11
486.985	3104.44
487.356	3186.02
487.726	3219.24
488.097	3300.59
488.467	3335.17
488.837	3398.22
489.207	3419.91
489.578	3453.58
489.948	3503.3
490.318	3585.78
490.688	3627.36
491.058	3689.73
491.428	3736.06
491.798	3746.91
492.168	3812.89
492.538	3858.77
492.908	3932.44
493.278	3961.82
493.648	3963.85
494.017	4020.8
494.387	4102.38
494.757	4117.29
495.126	4127.01
495.496	4164.75
495.866	4196.61
496.235	4288.14
496.605	4334.69
496.974	4328.36
497.344	4332.43
497.713	4405.19
498.082	4453.33
498.452	4504.63
498.821	4482.71
499.19	4576.26
499.559	4597.51
499.928	4644.06
500.298	4677.96
500.667	4673.89
501.036	4700.55
501.405	4715.47
501.774	4737.62
502.143	4797.27
502.512	4830.04
502.88	4895.8
503.249	4910.04
503.618	4946.65
503.987	4899.42
504.356	4970.83
504.724	5019.42
505.093	5004.28
505.462	5042.47
505.83	5079.53
506.199	5101.45
506.567	5146.42
506.936	5172.41
507.304	5243.14
507.672	5233.42
508.041	5273.87
508.409	5278.84
508.777	5353.42
509.145	5370.59
509.514	5353.87
509.882	5413.53
510.25	5445.17
510.618	5455.79
510.986	5446.07
511.354	5517.71
511.722	5525.62
512.09	5515.67
512.458	5573.3
512.826	5651.26
513.193	5639.06
513.561	5638.38
513.929	5701.88
514.297	5765.16
514.664	5723.13
515.032	5703.01
515.4	5801.54
515.767	5821.43
516.135	5883.8
516.502	5773.75
516.869	5921.77
517.237	5940.07
517.604	5911.14
517.972	5987.07
518.339	5945.49
518.706	5940.75
519.073	6029.11
519.44	6058.26
519.808	6080.41
520.175	6122.21
520.542	6177.35
520.909	6211.25
521.276	6165.6
521.643	6260.06
522.009	6263.68
522.376	6288.08
522.743	6352.04
523.11	6361.53
523.477	6420.74
523.843	6433.84
524.21	6468.87
524.577	6486.72
524.943	6583.67
525.31	6573.5
525.676	6641.52
526.043	6686.94
526.409	6689.43
526.776	6798.13
527.142	6809.65
527.508	6819.82
527.874	6896.43
528.241	6888.75
528.607	6899.37
528.973	6936.43
529.339	6940.72
529.705	7069.53
530.071	7080.38
530.437	7105.24
530.803	7154.28
531.169	7170.55
531.535	7107.72
531.901	7218.23
532.267	7204.9
532.632	7290.99
532.998	7262.75
533.364	7330.54
533.73	7352.69
534.095	7469.3
534.461	7450.76
534.826	7476.98
535.192	7490.99
535.557	7565.56
535.923	7614.38
536.288	7617.31
536.653	7624.55
537.019	7681.27
537.384	7701.83
537.749	7693.02
538.114	7765.33
538.479	7757.88
538.845	7821.38
539.21	7813.24
539.575	7872.9
539.94	7883.3
540.305	7953.12
540.67	7900.92
541.034	7966.01
541.399	7994.25
541.764	8022.95
542.129	8109.5
542.494	8071.54
542.858	8155.6
543.223	8212.55
543.587	8264.08
543.952	8247.81
544.316	8246.22
544.681	8327.58
545.045	8359.89
545.41	8360.8
545.774	8383.17
546.138	8413.23
546.503	8423.62
546.867	8472.88
547.231	8551.98
547.595	8526.89
547.959	8519.89
548.324	8597.4
548.688	8586.78
549.052	8636.95
549.416	8680.34
549.779	8681.69
550.143	8695.03
550.507	8763.95
550.871	8822.48
551.235	8825.42
551.599	8873.33
551.962	8860.67
552.326	8856.38
552.689	8889.37
553.053	8984.96
553.417	8909.26
553.78	9097.05
554.143	9072.19
554.507	9028.8
554.87	9107.22
555.234	9173.88
555.597	9116.26
555.96	9231.73
556.323	9242.81
556.686	9260.43
557.05	9368.23
557.413	9330.49
557.776	9346.08
558.139	9409.58
558.502	9428.79
558.865	9416.81
559.228	9410.94
559.59	9536.36
559.953	9546.08
560.316	9640.99
560.679	9635.11
561.041	9610.93
561.404	9641.22
561.767	9751.72
562.129	9659.29
562.492	9841.66
562.854	9822.23
563.217	9866.29
563.579	9891.38
563.941	9973.18
564.304	10015.67
564.666	10000.53
565.028	10112.16
565.39	10072.39
565.753	10172.5
566.115	10155.78
566.477	10224.48
566.839	10228.09
567.201	10350.35
567.563	10281.65
567.925	10385.15
568.287	10353.97
568.648	10386.73
569.01	10384.92
569.372	10529.1
569.734	10523.45
570.095	10562.77
570.457	10576.56
570.819	10597.57
571.18	10596.22
571.542	10725.93
571.903	10734.52
572.265	10829.21
572.626	10815.2
572.987	10862.2
573.349	10933.16
573.71	11017.68
574.071	11049.31
574.432	11142.87
574.794	11196.88
575.155	11209.76
575.516	11315.52
575.877	11380.15
576.238	11410.66
576.599	11505.35
576.96	11537.44
577.32	11570.43
577.681	11684.33
578.042	11789.18
578.403	11878.9
578.763	12011.77
579.124	12207.93
579.485	12178.32
579.845	12351.65
580.206	12448.15
580.566	12532.66
580.927	12595.49
581.287	12834.35
581.648	12859.21
582.008	13030.5
582.368	13178.3
582.728	13274.34
583.089	13458.52
583.449	13653.31
583.809	13714.1
584.169	13930.59
584.529	14135.56
584.889	14343.01
585.249	14449.9
585.609	14558.15
585.969	14930.57
586.329	14962.43
586.688	15175.76
587.048	15460.5
587.408	15626.37
587.768	15831.34
588.127	16142.97
588.487	16197.43
588.846	16620.69
589.206	16742.72
589.565	17093
589.925	17397.62
590.284	17625.19
590.643	17927.78
591.003	18135.91
591.362	18406.63
591.721	18782.67
592.08	18892.72
592.44	19353.95
592.799	19575.19
593.158	19821.29
593.517	20243.87
593.876	20473.02
594.235	20720.25
594.593	21020.58
594.952	21425.54
595.311	21591.64
595.67	21883.38
596.029	22376.25
596.387	22733.53
596.746	22905.73
597.104	23147.75
597.463	23422.32
597.822	23839.71
598.18	24112.93
598.538	24320.6
598.897	24716.75
599.255	24882.4
599.613	25608.03
599.972	25512.21
600.33	26063.38
600.688	26137.28
601.046	26563.93
601.404	26981.78
601.762	27107.2
602.12	27651.14
602.478	27971.81
602.836	28063.1
603.194	28233.72
603.552	28599.36
603.91	28775.4
604.268	29233.69
604.625	29360.92
604.983	29677.3
605.341	29776.28
605.698	30277.73
606.056	30666.43
606.413	30873.43
606.771	31233.64
607.128	31374.2
607.485	31510.24
607.843	31769.45
608.2	32181.19
608.557	32371.92
608.914	32525.13
609.272	32941.39
609.629	33220.26
609.986	33484.43
610.343	33570.3
610.7	34036.05
611.057	34022.95
611.414	34274.47
611.771	34482.6
612.127	34819.08
612.484	34989.7
612.841	35248
613.198	35213.65
613.554	35519.18
613.911	35783.58
614.267	35916.91
614.624	36034.19
614.98	36318.48
615.337	36632.6
615.693	36691.58
616.05	36807.73
616.406	37220.38
616.762	37177.67
617.118	37306.02
617.475	37547.83
617.831	37759.57
618.187	37850.87
618.543	38035.95
618.899	38313.23
619.255	38395.71
619.611	38376.28
619.967	38745.76
620.323	38940.11
620.678	38863.72
621.034	38968.35
621.39	39089.25
621.746	39241.79
622.101	39570.82
622.457	39380.32
622.812	39623.48
623.168	39838.61
623.523	39777.15
623.879	40114.31
624.234	39819.18
624.589	40307.75
624.945	40353.4
625.3	40473.17
625.655	40515.21
626.01	40548.2
626.365	40623
626.72	40608.54
627.075	40639.95
627.43	40674.07
627.785	40743.22
628.14	40888.98
628.495	41011.46
628.85	40934.63
629.205	40906.83
629.559	41028.19
629.914	41079.48
630.269	41111.12
630.623	41049.88
630.978	41112.7
631.332	41189.76
631.687	41448.29
632.041	41190.67
632.396	41388.63
632.75	41169.88
633.104	41460.04
633.459	41332.59
633.813	41512.47
634.167	41374.39
634.521	41387.05
634.875	41452.36
635.229	41507.5
635.583	41431.11
635.937	41476.31
636.291	41449.87
636.645	41445.8
636.999	41344.56
637.352	41421.17
637.706	41393.83
638.06	41355.64
638.413	41451.45
638.767	41385.69
639.121	41426.14
639.474	41236.54
639.828	41309.76
640.181	41455.97
640.534	41339.82
640.888	41215.98
641.241	41151.35
641.594	41234.96
641.947	41365.35
642.301	41356.31
642.654	41386.37
643.007	41259.14
643.36	41203.1
643.713	41209.65
644.066	41358.12
644.419	41154.74
644.771	40997.45
645.124	40697.35
645.477	40622.55
645.83	40441.54
646.182	40244.25
646.535	40209
646.888	40325.15
647.24	40029.34
647.593	40397.47
647.945	40190.47
648.298	39955.67
648.65	39989.57
649.002	39927.88
649.355	40077.03
649.707	40026.18
650.059	40283.8
650.411	40628.88
650.763	40598.14
651.115	41085.36
651.467	40825.93
651.819	40856.21
652.171	40830.45
652.523	40793.62
652.875	40773.05
653.227	40633.17
653.578	40957.91
653.93	40770.57
654.282	40711.58
654.633	40669.78
654.985	40608.76
655.337	40707.07
655.688	40778.02
656.039	40881.07
656.391	40538.26
656.742	40677.24
657.094	40693.28
657.445	40819.6
657.796	40716.33
658.147	40593.17
658.498	40614.64
658.849	40752.94
659.2	40707.97
659.551	40665.03
659.902	40731.02
660.253	40693.73
660.604	40731.47
660.955	40479.5
661.306	40552.72
661.656	40571.25
662.007	40524.7
662.358	40555.43
662.708	40543.45
663.059	40510.01
663.409	40230.47
663.76	40672.04
664.11	40650.34
664.461	40651.93
664.811	40734.86
665.161	40595.2
665.511	40356.57
665.862	40611.02
666.212	40573.06
666.562	40648.31
666.912	40564.7
667.262	40467.75
667.612	40513.85
667.962	40395.44
668.312	40436.34
668.662	40482.21
669.011	40458.48
669.361	40536
669.711	40439.95
670.06	40390.24
670.41	40428.43
670.76	40305.49
671.109	40477.47
671.459	40244.03
671.808	40284.7
672.157	40369.67
672.507	40149.34
672.856	40205.84
673.205	40373.29
673.554	40343.68
673.904	40264.14
674.253	40380.07
674.602	40308.21
674.951	39793.64
675.3	39547.55
675.649	40181.66
675.998	40112.96
676.346	40031.83
676.695	40229.56
677.044	39923.13
677.393	40010.36
677.741	40116.8
678.09	39945.96
678.438	39790.71
678.787	39890.36
679.135	39858.73
679.484	39702.8
679.832	39778.5
680.181	39641.1
680.529	39735.11
680.877	39574.89
681.225	39533.76
681.573	39845.17
681.922	39512.52
682.27	39490.15
682.618	39309.59
682.966	39416.25
683.314	39627.77
683.661	39245.63
684.009	39193.21
684.357	39075.47
684.705	39094.45
685.053	39149.82
685.4	39104.17
685.748	38853.78
686.095	38924.51
686.443	38654.69
686.79	38752.31
687.138	38699.66
687.485	38762.94
687.832	38527.91
688.18	38760.22
688.527	38461.47
688.874	38423.06
689.221	38384.64
689.568	38279.56
689.915	38232.78
690.262	38185.55
690.609	38111.43
690.956	37957.53
691.303	37879.79
691.65	37799.35
691.997	37773.36
692.344	37612.68
692.69	37558.67
693.037	37510.99
693.383	37167.05
693.73	37243.43
694.077	37053.15
694.423	37187.84
694.769	37048.63
695.116	36873.72
695.462	36893.15
695.808	36719.37
696.155	36922.31
696.501	36631.24
696.847	36573.84
697.193	36331.81
697.539	36370.46
697.885	36263.11
698.231	36139.95
698.577	35982.67
698.923	36126.17
699.269	35856.8
699.614	35831.04
699.96	35723.24
700.306	35604.15
700.651	35565.73
700.997	35472.4
701.342	35365.96
701.688	35272.63
702.033	35236.47
702.379	35094.56
702.724	35048.91
703.069	35149.25
703.415	34726.43
703.76	34848.46
704.105	34793.77
704.45	34577.96
704.795	34489.6
705.14	34487.12
705.485	34504.52
705.83	34256.39
706.175	34323.5
706.52	34313.11
706.865	34144.75
707.209	34136.16
707.554	33992.89
707.899	34012.55
708.243	33726.91
708.588	33712.9
708.932	33525.79
709.277	33523.3
709.621	33506.35
709.966	33326.24
710.31	33408.73
710.654	33125.8
710.998	33259.35
711.342	33270.65
711.687	33088.06
712.031	32945.24
712.375	32852.81
712.719	32978.23
713.063	32894.62
713.407	32934.16
713.75	32689.65
714.094	32801.96
714.438	32504.8
714.782	32561.97
715.125	32564.68
715.469	32456.21
715.812	32359.94
716.156	32244.24
716.499	32202.88
716.843	32095.54
717.186	32119.27
717.53	32268.19
717.873	32271.35
718.216	32150.91
718.559	31951.59
718.902	31803.57
719.246	31943.68
719.589	31853.96
719.932	31649.9
720.275	31583.69
720.617	31528.55
720.96	31496.46
721.303	31460.98
721.646	31631.6
721.989	31229.8
722.331	31416.69
722.674	31312.51
723.016	31272.06
723.359	31140.76
723.701	31164.27
724.044	30996.81
724.386	30972.63
724.729	30962.01
725.071	30960.2
725.413	30891.73
725.755	30874.56
726.097	30681.79
726.439	30575.35
726.782	30563.83
727.124	30794.11
727.465	30512.98
727.807	30543.04
728.149	30533.32
728.491	30460.78
728.833	30440.44
729.175	30333.55
729.516	30268.92
729.858	30329.49
730.199	30309.6
730.541	30288.58
730.882	30142.15
731.224	30272.54
731.565	30004.97
731.906	30034.35
732.248	29971.75
732.589	29835.94
732.93	29735.6
733.271	29772.89
733.612	29845.88
733.953	29877.97
734.294	29642.27
734.635	29571.31
734.976	29751.87
735.317	29469.39
735.658	29566.57
735.999	29635.94
736.339	29446.34
736.68	29581.93
737.021	29457.42
737.361	29355.27
737.702	29415.16
738.042	29304.65
738.383	29224.66
738.723	29284.54
739.063	29224.66
739.404	29142.4
739.744	29156.86
740.084	28972.68
740.424	29065.34
740.764	28976.75
741.104	29092
741.444	28861.5
741.784	28720.04
742.124	28869.86
742.464	28789.19
742.804	28812.46
743.143	28648.85
743.483	28633.94
743.823	28523.88
744.162	28618.8
744.502	28599.81
744.841	28535.86
745.181	28602.52
745.52	28475.97
745.86	28407.73
746.199	28418.57
746.538	28487.27
746.877	28488.18
747.216	28452.7
747.556	28276.43
747.895	28302.19
748.234	28243.44
748.573	28065.59
748.911	28134.74
749.25	28127.51
749.589	28102.42
749.928	28006.83
750.267	28069.43
750.605	28023.1
750.944	27986.72
751.283	27851.58
751.621	27863.79
751.96	27780.63
752.298	27820.4
752.636	27726.16
752.975	27780.85
753.313	27584.47
753.651	27638.48
753.989	27433.29
754.327	27452.72
754.666	27428.54
755.004	27381.99
755.342	27377.92
755.679	27314.42
756.017	27247.31
756.355	27260.87
756.693	27103.58
757.031	27127.08
757.368	27016.58
757.706	27015.45
758.044	26925.05
758.381	26958.5
758.719	26846.64
759.056	26893.87
759.394	26687.55
759.731	26553.77
