Data from hue_210_FLMS001491_00094.txt Node
Date: Tue Feb 07 16:42:00 GMT 2017
User: dcchb
Spectrometer: FLMS00149
Trigger mode: 0
Integration Time (sec): 2.000000E-2
Scans to average: 10
Electric dark correction enabled: true
Nonlinearity correction enabled: false
Boxcar width: 0
XAxis mode: Wavelengths
Number of Pixels in Spectrum: 2048
>>>>>Begin Spectral Data<<<<<
341.393	-26.55
341.776	-26.55
342.16	-26.55
342.543	-45.08
342.927	-80.79
343.31	-72.88
343.693	-66.55
344.077	-57.51
344.46	-40.79
344.843	-70.85
345.226	-17.06
345.61	-21.36
345.993	-36.95
346.376	-7.12
346.759	9.15
347.142	38.76
347.525	28.59
347.908	57.29
348.291	59.09
348.674	86.89
349.057	111.3
349.44	138.19
349.823	154.91
350.206	174.57
350.588	184.97
350.971	200.33
351.354	221.8
351.737	239.65
352.119	231.29
352.502	247.11
352.884	286.66
353.267	283.27
353.65	290.05
354.032	290.73
354.414	306.55
354.797	321.01
355.179	325.75
355.562	342.93
355.944	325.53
356.326	346.09
356.709	331.86
357.091	316.49
357.473	333.44
357.855	320.56
358.238	360.1
358.62	343.61
359.002	334.79
359.384	338.86
359.766	349.26
360.148	340.89
360.53	351.52
360.912	318.75
361.294	326.43
361.676	329.14
362.057	320.1
362.439	337.28
362.821	325.3
363.203	313.55
363.584	324.85
363.966	318.52
364.348	331.86
364.729	329.6
365.111	319.88
365.493	316.04
365.874	301.57
366.256	316.04
366.637	300.9
367.019	302.7
367.4	314
367.781	309.26
368.163	298.64
368.544	337.96
368.925	317.84
369.306	312.65
369.688	300.67
370.069	303.16
370.45	315.13
370.831	324.17
371.212	321.23
371.593	328.92
371.974	309.48
372.355	311.52
372.736	332.08
373.117	305.87
373.498	300.22
373.879	321.46
374.26	311.97
374.641	312.65
375.021	320.78
375.402	318.07
375.783	299.09
376.163	312.2
376.544	322.82
376.925	321.01
377.305	314.68
377.686	331.4
378.066	337.05
378.447	324.85
378.827	328.01
379.208	316.49
379.588	333.66
379.968	326.21
380.349	321.69
380.729	332.99
381.109	354.91
381.489	336.38
381.87	324.17
382.25	333.44
382.63	331.18
383.01	352.42
383.39	348.35
383.77	324.4
384.15	329.14
384.53	341.35
384.91	347
385.29	346.54
385.67	364.62
386.049	371.63
386.429	341.12
386.809	355.13
387.189	359.2
387.568	357.84
387.948	349.26
388.328	355.36
388.707	359.65
389.087	351.97
389.466	374.11
389.846	358.3
390.225	384.06
390.605	383.61
390.984	358.3
391.363	362.82
391.743	388.8
392.122	368.01
392.501	377.73
392.881	372.76
393.26	390.61
393.639	376.83
394.018	373.21
394.397	379.54
394.776	374.79
395.155	385.19
395.534	407.11
395.913	389.71
396.292	410.95
396.671	394
397.05	410.05
397.429	394.23
397.808	403.49
398.186	399.2
398.565	379.31
398.944	413.21
399.323	400.1
399.701	408.24
400.08	430.61
400.458	405.75
400.837	407.79
401.215	424.73
401.594	415.47
401.972	419.09
402.351	431.29
402.729	441.01
403.107	434.23
403.486	429.25
403.864	434.45
404.242	442.59
404.62	429.93
404.999	432.64
405.377	445.3
405.755	444.85
406.133	466.99
406.511	460.21
406.889	485.52
407.267	477.16
407.645	499.08
408.023	501.34
408.401	497.95
408.779	508.35
409.156	496.37
409.534	501.79
409.912	508.35
410.29	528.91
410.667	542.7
411.045	540.89
411.422	529.59
411.8	536.37
412.178	568.01
412.555	575.69
412.933	580.66
413.31	603.03
413.687	590.83
414.065	616.14
414.442	617.95
414.819	645.97
415.197	631.51
415.574	646.2
415.951	639.19
416.328	655.91
416.705	662.24
417.082	685.97
417.46	684.84
417.837	701.34
418.214	721
418.591	688
418.967	700.89
419.344	731.85
419.721	734.33
420.098	726.42
420.475	757.16
420.852	782.92
421.228	761.22
421.605	795.35
421.982	802.13
422.358	822.01
422.735	847.1
423.111	851.62
423.488	866.08
423.864	857.27
424.241	866.98
424.617	907.66
424.994	939.07
425.37	930.94
425.746	909.92
426.123	942.24
426.499	963.03
426.875	947.88
427.251	977.71
427.627	998.5
428.003	1001.89
428.379	1038.05
428.756	1040.99
429.132	1036.24
429.507	1069.01
429.883	1078.28
430.259	1092.74
430.635	1099.97
431.011	1109.46
431.387	1143.36
431.763	1154.66
432.138	1146.07
432.514	1201.44
432.89	1159.86
433.265	1231.27
433.641	1248.22
434.016	1254.77
434.392	1283.24
434.767	1307.65
435.143	1294.09
435.518	1362.11
435.894	1378.38
436.269	1398.72
436.644	1438.95
437.02	1458.15
437.395	1456.35
437.77	1479.62
438.145	1474.65
438.52	1513.75
438.895	1571.82
439.271	1591.48
439.646	1598.72
440.021	1587.87
440.395	1638.94
440.77	1656.79
441.145	1663.57
441.52	1692.05
441.895	1725.04
442.27	1766.85
442.645	1737.02
443.019	1768.43
443.394	1768.65
443.769	1789.22
444.143	1800.07
444.518	1831.25
444.892	1862.66
445.267	1838.93
445.641	1884.58
446.016	1871.25
446.39	1909.89
446.764	1929.55
447.139	1932.72
447.513	2009.33
447.887	1986.5
448.262	1967.29
448.636	1981.08
449.01	2040.96
449.384	2021.08
449.758	2052.71
450.132	2066.05
450.506	2082.54
450.88	2093.39
451.254	2103.11
451.628	2136.55
452.002	2158.47
452.376	2168.64
452.75	2192.37
453.123	2199.6
453.497	2236.44
453.871	2276.66
454.244	2328.19
454.618	2305.14
454.992	2321.63
455.365	2341.75
455.739	2401.86
456.112	2435.3
456.486	2409.77
456.859	2460.84
457.232	2510.56
457.606	2525.24
457.979	2515.98
458.352	2606.82
458.725	2622.42
459.099	2629.65
459.472	2676.2
459.845	2665.13
460.218	2746.71
460.591	2744
460.964	2758.68
461.337	2809.53
461.71	2827.61
462.083	2901.51
462.456	2909.19
462.829	2911.67
463.201	2971.11
463.574	2978.11
463.947	3027.83
464.32	3084.1
464.692	3113.48
465.065	3131.1
465.438	3175.85
465.81	3204.32
466.183	3247.49
466.555	3299.46
466.928	3310.76
467.3	3330.42
467.672	3337.2
468.045	3482.73
468.417	3481.6
468.789	3513.24
469.161	3547.14
469.534	3585.1
469.906	3673.69
470.278	3655.16
470.65	3710.07
471.022	3793.91
471.394	3841.82
471.766	3870.52
472.138	3915.94
472.51	3941.7
472.882	4055.37
473.253	4016.96
473.625	4095.37
473.997	4174.01
474.369	4222.15
474.74	4206.78
475.112	4339.21
475.484	4373.56
475.855	4471.63
476.227	4486.1
476.598	4656.49
476.97	4620.33
477.341	4771.29
477.713	4778.74
478.084	4833.43
478.455	4932.86
478.827	4972.41
479.198	5070.71
479.569	5053.99
479.94	5199.98
480.311	5309.35
480.682	5386.64
481.053	5433.19
481.424	5565.39
481.795	5587.76
482.166	5666.63
482.537	5772.62
482.908	5810.36
483.279	5828.89
483.65	5957.47
484.021	6088.54
484.391	6134.19
484.762	6177.13
485.133	6232.27
485.503	6320.85
485.874	6440.4
486.244	6495.54
486.615	6599.49
486.985	6648.75
487.356	6743.44
487.726	6766.04
488.097	6889.2
488.467	6893.94
488.837	7021.4
489.207	7130.32
489.578	7213.71
489.948	7275.4
490.318	7354.27
490.688	7397.66
491.058	7452.35
491.428	7575.51
491.798	7619.35
492.168	7733.47
492.538	7780.02
492.908	7833.13
493.278	7919.45
493.648	7929.4
494.017	7976.63
494.387	8091.43
494.757	8126.23
495.126	8169.84
495.496	8205.77
495.866	8213.46
496.235	8327.13
496.605	8376.39
496.974	8398.08
497.344	8482.38
497.713	8522.6
498.082	8548.14
498.452	8608.47
498.821	8623.62
499.19	8643.28
499.559	8678.53
499.928	8738.64
500.298	8845.08
500.667	8802.82
501.036	8819.77
501.405	8909.03
501.774	8874.23
502.143	8918.07
502.512	8991.29
502.88	9023.83
503.249	9091.63
503.618	9071.96
503.987	9181.34
504.356	9147.44
504.724	9171.17
505.093	9152.64
505.462	9252.98
505.83	9261.11
506.199	9293.43
506.567	9399.64
506.936	9379.08
507.304	9435.57
507.672	9421.79
508.041	9441.45
508.409	9478.51
508.777	9598.96
509.145	9563.03
509.514	9577.04
509.882	9554.66
510.25	9607.32
510.618	9579.07
510.986	9659.97
511.354	9651.84
511.722	9733.87
512.09	9778.16
512.458	9691.38
512.826	9788.56
513.193	9863.13
513.561	9793.53
513.929	9826.3
514.297	9837.82
514.664	9991.49
515.032	9934.32
515.4	9985.61
515.767	9950.59
516.135	9977.7
516.502	9879.63
516.869	10063.58
517.237	10021.54
517.604	9946.52
517.972	10054.99
518.339	10029.68
518.706	10094.08
519.073	10041.43
519.44	10067.87
519.808	10144.71
520.175	10051.15
520.542	10189
520.909	10143.58
521.276	10181.09
521.643	10260.63
522.009	10176.79
522.376	10253.85
522.743	10229
523.11	10289.11
523.477	10374.98
523.843	10362.1
524.21	10306.73
524.577	10382.89
524.943	10414.75
525.31	10438.26
525.676	10407.07
526.043	10501.98
526.409	10456.79
526.776	10496.33
527.142	10437.8
527.508	10391.03
527.874	10507.86
528.241	10454.3
528.607	10426.51
528.973	10563.23
529.339	10520.29
529.705	10478.26
530.071	10562.77
530.437	10549.89
530.803	10557.12
531.169	10516.22
531.535	10432.38
531.901	10463.79
532.267	10504.7
532.632	10478.26
532.998	10518.93
533.364	10435.54
533.73	10466.5
534.095	10514.64
534.461	10448.65
534.826	10413.17
535.192	10420.18
535.557	10459.27
535.923	10396.9
536.288	10427.64
536.653	10394.64
537.019	10278.49
537.384	10371.82
537.749	10323.68
538.114	10274.65
538.479	10162.78
538.845	10296.57
539.21	10166.17
539.575	10195.1
539.94	10178.6
540.305	10164.14
540.67	10064.71
541.034	10091.6
541.399	10075.78
541.764	10058.15
542.129	10080.98
542.494	9955.11
542.858	9984.94
543.223	9901.32
543.587	9952.17
543.952	9890.93
544.316	9845.96
544.681	9794.66
545.045	9821.78
545.41	9809.8
545.774	9756.24
546.138	9785.39
546.503	9734.77
546.867	9626.07
547.231	9683.47
547.595	9682.34
547.959	9632.4
548.324	9543.14
548.688	9550.82
549.052	9538.62
549.416	9542.23
549.779	9509.69
550.143	9410.71
550.507	9493.2
550.871	9480.54
551.235	9387.21
551.599	9393.54
551.962	9351.28
552.326	9351.51
552.689	9307.21
553.053	9277.16
553.417	9240.55
553.78	9366.19
554.143	9259.76
554.507	9231.06
554.87	9242.36
555.234	9237.61
555.597	9209.81
555.96	9133.43
556.323	9190.61
556.686	9162.81
557.05	9123.26
557.413	9109.03
557.776	9084.62
558.139	9102.25
558.502	9093.43
558.865	9081.23
559.228	9101.34
559.59	9074.9
559.953	9097.27
560.316	9130.27
560.679	9083.26
561.041	9067.45
561.404	9097.5
561.767	9144.51
562.129	9049.59
562.492	9116.71
562.854	9078.74
563.217	9090.95
563.579	9060.21
563.941	9072.87
564.304	9047.11
564.666	9095.02
565.028	9130.04
565.39	9041.01
565.753	9084.17
566.115	9079.87
566.477	9122.36
566.839	9106.99
567.201	9083.72
567.563	9064.73
567.925	9209.59
568.287	9222.02
568.648	9130.04
569.01	9154.67
569.372	9261.11
569.734	9214.56
570.095	9204.62
570.457	9224.05
570.819	9254.33
571.18	9204.62
571.542	9277.16
571.903	9206.65
572.265	9257.27
572.626	9256.37
572.987	9295.46
573.349	9213.2
573.71	9304.28
574.071	9291.17
574.432	9287.55
574.794	9381.79
575.155	9342.47
575.516	9307.21
575.877	9375.69
576.238	9354.9
576.599	9345.63
576.96	9464.5
577.32	9413.42
577.681	9368.91
578.042	9394.89
578.403	9405.52
578.763	9447.1
579.124	9410.94
579.485	9437.83
579.845	9484.84
580.206	9442.35
580.566	9435.8
580.927	9496.59
581.287	9561.22
581.648	9401.45
582.008	9539.07
582.368	9506.98
582.728	9491.61
583.089	9522.8
583.449	9577.04
583.809	9516.92
584.169	9562.57
584.529	9489.13
584.889	9654.77
585.249	9510.6
585.609	9517.83
585.969	9584.95
586.329	9516.92
586.688	9557.83
587.048	9517.38
587.408	9630.82
587.768	9557.15
588.127	9588.34
588.487	9539.07
588.846	9666.3
589.206	9591.27
589.565	9613.87
589.925	9617.04
590.284	9612.97
590.643	9598.28
591.003	9611.61
591.362	9633.76
591.721	9672.63
592.08	9594.44
592.44	9703.13
592.799	9640.99
593.158	9651.84
593.517	9646.19
593.876	9615
594.235	9635.57
594.593	9650.25
594.952	9676.02
595.311	9634.21
595.67	9645.28
596.029	9746.3
596.387	9655.9
596.746	9732.51
597.104	9701.78
597.463	9640.31
597.822	9668.56
598.18	9631.05
598.538	9609.13
598.897	9731.38
599.255	9569.58
599.613	9728.44
599.972	9711.5
600.33	9696.81
600.688	9618.39
601.046	9697.49
601.404	9694.32
601.762	9660.2
602.12	9764.83
602.478	9757.14
602.836	9709.69
603.194	9692.06
603.552	9726.41
603.91	9671.5
604.268	9655.9
604.625	9666.3
604.983	9732.51
605.341	9634.44
605.698	9782.23
606.056	9760.08
606.413	9711.04
606.771	9781.1
607.128	9755.34
607.485	9733.64
607.843	9754.43
608.2	9778.16
608.557	9831.04
608.914	9753.53
609.272	9784.04
609.629	9721.67
609.986	9765.28
610.343	9767.99
610.7	9831.04
611.057	9805.96
611.414	9800.53
611.771	9767.31
612.127	9876.46
612.484	9883.69
612.841	9898.61
613.198	9837.82
613.554	9817.93
613.911	9889.57
614.267	9932.73
614.624	9939.06
614.98	9851.83
615.337	9912.17
615.693	9886.41
616.05	9946.74
616.406	9926.41
616.762	9940.64
617.118	9852.96
617.475	9938.38
617.831	10037.82
618.187	9909.23
618.543	9925.73
618.899	10029.23
619.255	9997.14
619.611	10044.59
619.967	10051.83
620.323	10046.4
620.678	9991.49
621.034	9997.36
621.39	10036.23
621.746	9932.06
622.101	10100.19
622.457	9994.43
622.812	10032.62
623.168	9987.42
623.523	9977.93
623.879	10063.13
624.234	9934.99
624.589	10085.27
624.945	9921.89
625.3	9953.52
625.655	10022.45
626.01	10006.86
626.365	10069.9
626.72	9918.95
627.075	9977.48
627.43	9979.51
627.785	10006.63
628.14	10009.79
628.495	9951.26
628.85	9986.52
629.205	9937.25
629.559	10024.48
629.914	9939.51
630.269	9949.46
630.623	9870.81
630.978	9879.4
631.332	9835.56
631.687	9894.32
632.041	9858.84
632.396	9891.15
632.75	9800.31
633.104	9892.73
633.459	9830.81
633.813	9802.79
634.167	9814.77
634.521	9857.48
634.875	9839.85
635.229	9764.83
635.583	9767.09
635.937	9726.64
636.291	9685.06
636.645	9746.98
636.999	9735.68
637.352	9726.86
637.706	9652.74
638.06	9711.95
638.413	9630.14
638.767	9605.74
639.121	9622.91
639.474	9608
639.828	9592.4
640.181	9690.25
640.534	9554.21
640.888	9555.57
641.241	9534.1
641.594	9601.89
641.947	9600.99
642.301	9552.4
642.654	9522.57
643.007	9582.46
643.36	9495.46
643.713	9462.24
644.066	9523.25
644.419	9482.12
644.771	9415.91
645.124	9348.34
645.477	9373.65
645.83	9286.42
646.182	9245.97
646.535	9247.78
646.888	9176.82
647.24	9209.81
647.593	9245.75
647.945	9234.22
648.298	9146.54
648.65	9155.8
649.002	9166.65
649.355	9197.39
649.707	9149.02
650.059	9265.18
650.411	9419.3
650.763	9397.38
651.115	9431.28
651.467	9499.75
651.819	9403.26
652.171	9388.57
652.523	9350.6
652.875	9462.46
653.227	9376.14
653.578	9444.61
653.93	9361.9
654.282	9375.46
654.633	9363.71
654.985	9417.72
655.337	9386.76
655.688	9461.56
656.039	9417.72
656.391	9304.73
656.742	9347.89
657.094	9448.23
657.445	9432.63
657.796	9344.5
658.147	9365.29
658.498	9351.51
658.849	9439.64
659.2	9429.47
659.551	9381.11
659.902	9439.64
660.253	9439.86
660.604	9426.31
660.955	9403.48
661.306	9486.87
661.656	9498.39
662.007	9456.81
662.358	9463.82
662.708	9450.03
663.059	9411.84
663.409	9365.06
663.76	9549.69
664.11	9469.02
664.461	9472.63
664.811	9512.86
665.161	9534.78
665.511	9452.75
665.862	9540.88
666.212	9607.77
666.562	9544.04
666.912	9431.28
667.262	9417.04
667.612	9501.78
667.962	9534.33
668.312	9433.09
668.662	9551.05
669.011	9427.66
669.361	9459.07
669.711	9465.63
670.06	9481.9
670.41	9410.49
670.76	9421.56
671.109	9430.15
671.459	9431.5
671.808	9405.29
672.157	9417.27
672.507	9384.95
672.856	9392.18
673.205	9386.08
673.554	9312.86
673.904	9326.2
674.253	9380.21
674.602	9399.41
674.951	9250.49
675.3	9212.75
675.649	9365.29
675.998	9340.66
676.346	9329.13
676.695	9391.96
677.044	9298.17
677.393	9345.86
677.741	9300.21
678.09	9273.32
678.438	9237.16
678.787	9286.42
679.135	9309.47
679.484	9179.98
679.832	9227.67
680.181	9167.78
680.529	9195.8
680.877	9099.99
681.225	9144.96
681.573	9223.83
681.922	9145.64
682.27	9078.52
682.618	9106.54
682.966	9077.61
683.314	9073.55
683.661	9036.49
684.009	9011.63
684.357	8988.8
684.705	8968.92
685.053	8958.07
685.4	8963.95
685.748	8914.68
686.095	8890.5
686.443	8867
686.79	8839.65
687.138	8825.87
687.485	8859.99
687.832	8782.48
688.18	8824.29
688.527	8801.46
688.874	8685.31
689.221	8750.17
689.568	8610.96
689.915	8664.29
690.262	8684.4
690.609	8592.2
690.956	8629.04
691.303	8563.05
691.65	8555.82
691.997	8502.71
692.344	8441.25
692.69	8482.38
693.037	8469.49
693.383	8342.04
693.73	8363.06
694.077	8301.14
694.423	8335.71
694.769	8319.89
695.116	8263.17
695.462	8183.17
695.808	8183.17
696.155	8210.29
696.501	8156.73
696.847	8138.2
697.193	8081.93
697.539	8158.77
697.885	7983.41
698.231	8005.1
698.577	7957.42
698.923	8000.58
699.269	7910.19
699.614	7892.11
699.96	7858.66
700.306	7847.82
700.651	7822.96
700.997	7733.47
701.342	7747.25
701.688	7721.27
702.033	7695.28
702.379	7644.88
702.724	7635.62
703.069	7643.08
703.415	7517.43
703.76	7544.32
704.105	7517.43
704.45	7531.89
704.795	7450.31
705.14	7415.29
705.485	7477.66
705.83	7380.26
706.175	7353.37
706.52	7400.14
706.865	7321.5
707.209	7293.25
707.554	7324.67
707.899	7257.78
708.243	7246.93
708.588	7246.48
708.932	7203.31
709.277	7171.9
709.621	7212.35
709.966	7126.03
710.31	7188.4
710.654	7073.6
710.998	7079.25
711.342	7036.31
711.687	7041.28
712.031	6981.62
712.375	6967.61
712.719	6975.3
713.063	6977.56
713.407	6964.45
713.75	6874.96
714.094	6947.95
714.438	6924.22
714.782	6910.67
715.125	6888.52
715.469	6910.67
715.812	6866.6
716.156	6802.65
716.499	6871.12
716.843	6874.51
717.186	6815.98
717.53	6837
717.873	6810.56
718.216	6828.41
718.559	6770.33
718.902	6718.35
719.246	6745.92
719.589	6727.62
719.932	6692.37
720.275	6714.96
720.617	6691.46
720.96	6643.55
721.303	6696.43
721.646	6695.3
721.989	6656.66
722.331	6653.95
722.674	6667.28
723.016	6677.45
723.359	6664.12
723.701	6643.55
724.044	6638.36
724.386	6626.15
724.729	6598.13
725.071	6616.21
725.413	6597.68
725.755	6619.83
726.097	6536.66
726.439	6535.08
726.782	6557.45
727.124	6626.61
727.465	6573.27
727.807	6519.94
728.149	6520.62
728.491	6540.51
728.833	6572.6
729.175	6557
729.516	6573.95
729.858	6565.82
730.199	6510.22
730.541	6573.5
730.882	6523.56
731.224	6505.03
731.565	6497.8
731.906	6526.5
732.248	6548.87
732.589	6572.14
732.93	6524.69
733.271	6525.59
733.612	6513.39
733.953	6537.57
734.294	6551.35
734.635	6532.82
734.976	6538.02
735.317	6543.22
735.658	6545.25
735.999	6520.85
736.339	6523.56
736.68	6534.86
737.021	6552.71
737.361	6578.47
737.702	6567.4
738.042	6586.15
738.383	6557.91
738.723	6630.67
739.063	6607.17
739.404	6613.5
739.744	6587.96
740.084	6635.64
740.424	6573.05
740.764	6630.22
741.104	6692.37
741.444	6621.18
741.784	6646.72
742.124	6677
742.464	6693.72
742.804	6650.79
743.143	6710.22
743.483	6709.09
743.823	6751.35
744.162	6731.69
744.502	6796.54
744.841	6815.08
745.181	6839.26
745.52	6869.08
745.86	6862.53
746.199	6965.35
746.538	6977.33
746.877	7029.53
747.216	7044.22
747.556	7088.74
747.895	7176.2
748.234	7187.04
748.573	7219.13
748.911	7308.62
749.25	7375.96
749.589	7383.42
749.928	7486.7
750.267	7519.46
750.605	7597.88
750.944	7610.31
751.283	7658.89
751.621	7827.48
751.96	7854.14
752.298	7973.69
752.636	8045.55
752.975	8189.5
753.313	8225.43
753.651	8335.26
753.989	8440.34
754.327	8560.11
754.666	8598.53
755.004	8732.76
755.342	8909.48
755.679	9037.16
756.017	9154.9
756.355	9278.97
756.693	9359.41
757.031	9600.09
757.368	9653.19
757.706	9804.37
758.044	9910.59
758.381	10086.85
758.719	10150.13
759.056	10383.57
759.394	10575.88
759.731	10660.85
760.068	10800.51
760.405	10924.57
760.743	11048.86
761.08	11273.49
761.417	11429.42
761.754	11572.01
762.091	11746.47
762.428	11943.3
762.765	12074.82
763.102	12241.83
763.438	12467.58
763.775	12578.54
764.112	12689.04
764.449	12978.3
764.785	13007.68
765.122	13230.27
765.458	13377.39
765.795	13485.18
766.131	13653.99
766.467	13868.9
766.804	13957.26
767.14	14062.12
767.476	14227.76
