Data from hue_210_FLMS001491_00036.txt Node
Date: Tue Feb 07 16:41:06 GMT 2017
User: dcchb
Spectrometer: FLMS00149
Trigger mode: 0
Integration Time (sec): 2.000000E-2
Scans to average: 10
Electric dark correction enabled: true
Nonlinearity correction enabled: false
Boxcar width: 0
XAxis mode: Wavelengths
Number of Pixels in Spectrum: 2048
>>>>>Begin Spectral Data<<<<<
341.393	-21.54
341.776	-21.54
342.16	-21.54
342.543	-71.48
342.927	-70.8
343.31	-68.77
343.693	-77.81
344.077	-53.18
344.46	-40.97
344.843	-43.23
345.226	-35.32
345.61	-34.65
345.993	-29.67
346.376	-8.43
346.759	0.83
347.142	44.9
347.525	33.15
347.908	45.8
348.291	84.22
348.674	70.44
349.057	112.69
349.44	143.2
349.823	153.6
350.206	188.85
350.588	203.54
350.971	205.12
351.354	229.98
351.737	238.34
352.119	274.95
352.502	242.41
352.884	260.71
353.267	277.89
353.65	284.22
354.032	305.68
354.414	284.89
354.797	313.59
355.179	314.5
355.562	303.88
355.944	316.08
356.326	322.63
356.709	326.02
357.091	335.29
357.473	349.52
357.855	320.82
358.238	350.43
358.62	343.42
359.002	321.28
359.384	353.14
359.766	346.81
360.148	336.42
360.53	349.3
360.912	339.81
361.294	333.48
361.676	327.6
362.057	335.29
362.439	320.82
362.821	318.11
363.203	328.28
363.584	325.8
363.966	328.73
364.348	314.95
364.729	315.18
365.111	319.24
365.493	337.55
365.874	296.87
366.256	342.07
366.637	333.03
367.019	326.25
367.4	316.98
367.781	317.89
368.163	326.25
368.544	305.91
368.925	314.5
369.306	309.53
369.688	318.57
370.069	302.52
370.45	322.41
370.831	326.47
371.212	302.07
371.593	320.37
371.974	314.72
372.355	314.5
372.736	328.96
373.117	297.77
373.498	321.05
373.879	323.76
374.26	314.5
374.641	329.86
375.021	313.82
375.402	328.28
375.783	316.76
376.163	329.41
376.544	330.54
376.925	335.74
377.305	329.86
377.686	330.54
378.066	327.83
378.447	328.96
378.827	335.29
379.208	323.08
379.588	322.41
379.968	333.93
380.349	321.5
380.729	339.81
381.109	343.65
381.489	352.01
381.87	329.41
382.25	351.56
382.63	333.71
383.01	362.86
383.39	349.98
383.77	357.43
384.15	335.97
384.53	333.03
384.91	324.67
385.29	354.5
385.67	336.87
386.049	349.52
386.429	357.43
386.809	338.23
387.189	344.78
387.568	374.61
387.948	334.38
388.328	354.04
388.707	363.76
389.087	355.17
389.466	366.47
389.846	351.11
390.225	388.39
390.605	380.03
390.984	364.21
391.363	378
391.743	392.69
392.122	389.98
392.501	382.74
392.881	394.95
393.26	396.76
393.639	386.59
394.018	373.7
394.397	384.78
394.776	400.82
395.155	400.6
395.534	394.95
395.913	378
396.292	398.56
396.671	399.01
397.05	393.82
397.429	406.92
397.808	413.03
398.186	415.06
398.565	402.18
398.944	412.8
399.323	412.35
399.701	424.1
400.08	425.91
400.458	425.45
400.837	434.72
401.215	434.04
401.594	429.97
401.972	416.19
402.351	438.11
402.729	447.83
403.107	447.38
403.486	437.88
403.864	439.69
404.242	448.28
404.62	454.61
404.999	460.71
405.377	454.83
405.755	474.49
406.133	469.3
406.511	461.16
406.889	476.3
407.267	485.34
407.645	489.18
408.023	494.83
408.401	514.04
408.779	526.24
409.156	540.48
409.534	550.65
409.912	535.73
410.29	530.31
410.667	569.63
411.045	550.42
411.422	579.12
411.8	582.96
412.178	573.25
412.555	591.78
412.933	606.69
413.31	592.46
413.687	605.56
414.065	605.34
414.442	622.96
414.819	662.28
415.197	647.37
415.574	650.76
415.951	657.31
416.328	692.57
416.705	705.9
417.082	698.44
417.46	729.18
417.837	708.39
418.214	721.49
418.591	727.14
418.967	734.6
419.344	763.3
419.721	745.45
420.098	749.29
420.475	800.81
420.852	807.37
421.228	810.76
421.605	833.35
421.982	839.68
422.358	865.22
422.735	867.25
423.111	875.39
423.488	896.85
423.864	915.16
424.241	931.66
424.617	940.24
424.994	947.93
425.37	956.06
425.746	981.82
426.123	974.82
426.499	1004.87
426.875	1031.31
427.251	1023.41
427.627	1042.16
428.003	1064.31
428.379	1090.97
428.756	1103.86
429.132	1080.8
429.507	1118.77
429.883	1144.98
430.259	1119
430.635	1170.97
431.011	1173.46
431.387	1176.17
431.763	1209.62
432.138	1226.79
432.514	1269.05
432.89	1267.92
433.265	1299.33
433.641	1317.63
434.016	1314.92
434.392	1353.11
434.767	1362.83
435.143	1407.8
435.518	1451.64
435.894	1439.89
436.269	1483.96
436.644	1485.99
437.02	1544.3
437.395	1530.74
437.77	1557.4
438.145	1590.17
438.52	1637.4
438.895	1635.14
439.271	1651.64
439.646	1710.62
440.021	1749.94
440.395	1753.33
440.77	1749.49
441.145	1790.84
441.52	1838.98
441.895	1819.99
442.27	1845.53
442.645	1843.72
443.019	1904.74
443.394	1908.58
443.769	1928.69
444.143	1923.95
444.518	1971.85
444.892	1960.33
445.267	1995.58
445.641	1990.39
446.016	2022.25
446.39	2044.17
446.764	2055.24
447.139	2053.89
447.513	2091.85
447.887	2071.06
448.262	2067.9
448.636	2119.42
449.01	2175.47
449.384	2176.6
449.758	2197.84
450.132	2219.76
450.506	2211.62
450.88	2235.35
451.254	2283.71
451.628	2258.4
452.002	2295.24
452.376	2293.65
452.75	2350.83
453.123	2344.05
453.497	2370.94
453.871	2416.36
454.244	2437.15
454.618	2466.31
454.992	2493.88
455.365	2472.86
455.739	2554.89
456.112	2585.4
456.486	2623.82
456.859	2619.3
457.232	2695.23
457.606	2673.31
457.979	2709.91
458.352	2779.29
458.725	2789.91
459.099	2824.04
459.472	2858.61
459.845	2891.6
460.218	2873.07
460.591	2928.89
460.964	2928.67
461.337	3018.38
461.71	3021.54
462.083	3120.98
462.456	3108.77
462.829	3140.86
463.201	3162.78
463.574	3163.01
463.947	3226.74
464.32	3311.93
464.692	3308.99
465.065	3383.34
465.438	3360.97
465.81	3445.26
466.183	3468.31
466.555	3541.31
466.928	3539.95
467.3	3531.59
467.672	3593.06
468.045	3689.1
468.417	3680.74
468.789	3743.56
469.161	3767.29
469.534	3832.6
469.906	3916.89
470.278	3949.2
470.65	3955.31
471.022	4067.85
471.394	4094.29
471.766	4125.24
472.138	4202.08
472.51	4235.52
472.882	4369.31
473.253	4358.23
473.625	4378.57
473.997	4474.84
474.369	4525.69
474.74	4556.42
475.112	4660.15
475.484	4713.25
475.855	4713.48
476.227	4824.89
476.598	4910.76
476.97	4936.52
477.341	5085.67
477.713	5099.68
478.084	5164.09
478.455	5243.18
478.827	5347.13
479.198	5508.71
479.569	5444.53
479.94	5607.24
480.311	5666.45
480.682	5739.44
481.053	5901.92
481.424	5945.99
481.795	5935.59
482.166	6062.14
482.537	6136.27
482.908	6179.65
483.279	6257.62
483.65	6411.74
484.021	6529.48
484.391	6597.27
484.762	6651.73
485.133	6694.89
485.503	6743.03
485.874	6853.31
486.244	6865.74
486.615	7052.4
486.985	7060.99
487.356	7160.42
487.726	7191.15
488.097	7343.47
488.467	7390.24
488.837	7503.46
489.207	7572.39
489.578	7741.19
489.948	7772.15
490.318	7886.28
490.688	7875.65
491.058	7943
491.428	8058.93
491.798	8133.05
492.168	8295.98
492.538	8272.71
492.908	8371.46
493.278	8450.1
493.648	8424.11
494.017	8539.59
494.387	8638.12
494.757	8688.51
495.126	8724.22
495.496	8797.21
495.866	8772.81
496.235	8876.76
496.605	8849.87
496.974	9029.52
497.344	9024.32
497.713	9076.75
498.082	9202.4
498.452	9265.67
498.821	9163.53
499.19	9280.36
499.559	9291.21
499.928	9406.24
500.298	9390.19
500.667	9474.26
501.036	9431.55
501.405	9494.59
501.774	9497.31
502.143	9577.3
502.512	9525.33
502.88	9649.62
503.249	9587.93
503.618	9701.6
503.987	9708.15
504.356	9728.94
504.724	9776.4
505.093	9794.7
505.462	9793.12
505.83	9801.48
506.199	9877.64
506.567	10006.22
506.936	9989.95
507.304	9998.31
507.672	10065.65
508.041	10063.62
508.409	10128.7
508.777	10189.27
509.145	10256.61
509.514	10148.59
509.882	10243.95
510.25	10280.79
510.618	10256.61
510.986	10318.08
511.354	10338.19
511.722	10373.22
512.09	10412.76
512.458	10430.16
512.826	10497.28
513.193	10449.82
513.561	10504.74
513.929	10466.55
514.297	10584.06
514.664	10541.12
515.032	10595.13
515.4	10582.02
515.767	10598.97
516.135	10645.75
516.502	10521.69
516.869	10695.69
517.237	10699.08
517.604	10596.94
517.972	10697.28
518.339	10768.01
518.706	10732.98
519.073	10724.85
519.44	10733.43
519.808	10800.32
520.175	10777.95
520.542	10828.12
520.909	10790.15
521.276	10788.12
521.643	10847.33
522.009	10890.72
522.376	10857.72
522.743	10936.14
523.11	10944.27
523.477	10970.94
523.843	10953.99
524.21	11062.46
524.577	11031.96
524.943	11083.25
525.31	11010.49
525.676	11147.66
526.043	11155.34
526.409	11109.24
526.776	11138.85
527.142	11153.31
527.508	11172.97
527.874	11245.06
528.241	11122.35
528.607	11198.73
528.973	11195.57
529.339	11197.38
529.705	11248
530.071	11232.63
530.437	11247.77
530.803	11314.43
531.169	11162.12
531.535	11153.99
531.901	11192.4
532.267	11142.24
532.632	11124.83
532.998	11123.93
533.364	11140.2
533.73	11142.46
534.095	11115.12
534.461	11198.28
534.826	11093.87
535.192	11129.58
535.557	10998.74
535.923	11049.81
536.288	10964.61
536.653	11052.07
537.019	10953.77
537.384	11020.43
537.749	10909.7
538.114	10878.51
538.479	10911.73
538.845	10853.2
539.21	10814.79
539.575	10904.5
539.94	10854.56
540.305	10824.73
540.67	10744.51
541.034	10697.05
541.399	10732.3
541.764	10631.74
542.129	10707.9
542.494	10684.39
542.858	10650.04
543.223	10513.78
543.587	10551.97
543.952	10524.85
544.316	10494.79
544.681	10454.12
545.045	10506.77
545.41	10486.43
545.774	10467.68
546.138	10381.13
546.503	10351.3
546.867	10263.39
547.231	10271.07
547.595	10298.64
547.959	10268.36
548.324	10228.14
548.688	10246.67
549.052	10203.95
549.416	10146.1
549.779	10131.64
550.143	10139.55
550.507	9971.42
550.871	10036.73
551.235	10012.77
551.599	10043.28
551.962	9973.68
552.326	9948.37
552.689	9972.1
553.053	9913.12
553.417	9893
553.78	9942.94
554.143	9862.04
554.507	9866.11
554.87	9833.57
555.234	9852.33
555.597	9756.51
555.96	9701.14
556.323	9765.77
556.686	9722.84
557.05	9750.63
557.413	9651.2
557.776	9719.45
558.139	9715.83
558.502	9697.75
558.865	9733.23
559.228	9654.82
559.59	9663.18
559.953	9653.01
560.316	9765.55
560.679	9650.3
561.041	9670.41
561.404	9653.46
561.767	9728.49
562.129	9686.23
562.492	9744.31
562.854	9677.19
563.217	9638.09
563.579	9653.46
563.941	9752.22
564.304	9789.5
564.666	9792.67
565.028	9793.12
565.39	9776.85
565.753	9723.97
566.115	9769.84
566.477	9830.86
566.839	9828.82
567.201	9809.61
567.563	9789.5
567.925	9860.01
568.287	9847.58
568.648	9798.54
569.01	9820.69
569.372	9904.98
569.734	9878.31
570.095	9878.31
570.457	9883.74
570.819	9922.38
571.18	9850.97
571.542	9900.01
571.903	9892.78
572.265	9933.91
572.626	9987.24
572.987	9970.29
573.349	9965.54
573.71	9946.11
574.071	9985.2
574.432	10047.57
574.794	10121.92
575.155	9998.08
575.516	10013.23
575.877	10083.05
576.238	10072.66
576.599	10071.75
576.96	10125.54
577.32	10090.74
577.681	10149.27
578.042	10115.37
578.403	10114.24
578.763	10204.86
579.124	10216.16
579.485	10181.58
579.845	10245.08
580.206	10184.97
580.566	10192.43
580.927	10245.54
581.287	10275.14
581.648	10224.52
582.008	10262.48
582.368	10247.34
582.728	10255.7
583.089	10215.25
583.449	10258.42
583.809	10294.57
584.169	10337.51
584.529	10280.79
584.889	10303.61
585.249	10258.87
585.609	10249.6
585.969	10281.24
586.329	10263.39
586.688	10292.31
587.048	10341.58
587.408	10263.39
587.768	10318.53
588.127	10288.7
588.487	10325.76
588.846	10411.18
589.206	10262.71
589.565	10297.29
589.925	10316.95
590.284	10383.84
590.643	10339.77
591.003	10295.25
591.362	10351.3
591.721	10292.31
592.08	10297.06
592.44	10339.09
592.799	10410.28
593.158	10306.78
593.517	10347
593.876	10326.44
594.235	10299.55
594.593	10378.41
594.952	10355.36
595.311	10335.7
595.67	10406.21
596.029	10376.83
596.387	10404.4
596.746	10459.99
597.104	10353.1
597.463	10410.28
597.822	10402.82
598.18	10396.27
598.538	10424.74
598.897	10414.34
599.255	10396.27
599.613	10456.83
599.972	10389.03
600.33	10420.67
600.688	10417.06
601.046	10411.41
601.404	10436.72
601.762	10439.88
602.12	10492.08
602.478	10441.24
602.836	10396.27
603.194	10361.01
603.552	10399.66
603.91	10388.81
604.268	10443.72
604.625	10426.1
604.983	10437.62
605.341	10401.69
605.698	10436.72
606.056	10508.13
606.413	10495.7
606.771	10478.3
607.128	10490.28
607.485	10471.74
607.843	10579.76
608.2	10511.52
608.557	10515.13
608.914	10509.48
609.272	10575.02
609.629	10572.76
609.986	10567.34
610.343	10582.02
610.7	10636.94
611.057	10547.22
611.414	10595.58
611.771	10588.13
612.127	10594.68
612.484	10552.42
612.841	10691.4
613.198	10578.41
613.554	10527.56
613.911	10666.99
614.267	10643.94
614.624	10622.25
614.98	10599.88
615.337	10667.9
615.693	10665.41
616.05	10662.02
616.406	10716.26
616.762	10645.07
617.118	10753.09
617.475	10641.46
617.831	10706.77
618.187	10689.82
618.543	10720.78
618.899	10667.67
619.255	10767.33
619.611	10747.44
619.967	10814.33
620.323	10689.82
620.678	10727.33
621.034	10698.63
621.39	10729.36
621.746	10706.31
622.101	10817.95
622.457	10737.73
622.812	10705.64
623.168	10700.44
623.523	10808.23
623.879	10799.65
624.234	10762.36
624.589	10761.91
624.945	10823.6
625.3	10809.14
625.655	10765.3
626.01	10699.08
626.365	10751.74
626.72	10756.26
627.075	10750.83
627.43	10740.66
627.785	10716.48
628.14	10737.73
628.495	10817.72
628.85	10803.04
629.205	10721
629.559	10772.08
629.914	10677.84
630.269	10702.47
630.623	10620.22
630.978	10581.57
631.332	10710.83
631.687	10689.14
632.041	10622.7
632.396	10646.43
632.75	10658.86
633.104	10562.82
633.459	10567.79
633.813	10508.13
634.167	10513.33
634.521	10500.67
634.875	10538.41
635.229	10473.78
635.583	10488.92
635.937	10408.92
636.291	10391.97
636.645	10467.9
636.999	10427.45
637.352	10411.18
637.706	10363.72
638.06	10442.82
638.413	10382.26
638.767	10365.08
639.121	10393.33
639.474	10355.36
639.828	10375.93
640.181	10367.57
640.534	10358.75
640.888	10331.86
641.241	10271.07
641.594	10281.69
641.947	10312.88
642.301	10265.87
642.654	10265.2
643.007	10302.48
643.36	10324.86
643.713	10246.89
644.066	10261.58
644.419	10230.62
644.771	10135.48
645.124	10033.56
645.477	10062.04
645.83	10002.15
646.182	9994.92
646.535	9944.3
646.888	9950.85
647.24	9866.34
647.593	9872.44
647.945	9913.57
648.298	9831.99
648.65	9862.27
649.002	9830.63
649.355	9942.27
649.707	9894.58
650.059	9911.99
650.411	10040.8
650.763	10000.34
651.115	10077.4
651.467	10062.49
651.819	10129.83
652.171	10152.43
652.523	10037.63
652.875	10114.92
653.227	10088.48
653.578	10078.99
653.93	10118.08
654.282	10067.01
654.633	9983.85
654.985	10007.35
655.337	10052.32
655.688	10076.5
656.039	10135.03
656.391	10072.88
656.742	10021.36
657.094	10045.09
657.445	10085.54
657.796	10117.86
658.147	10153.56
658.498	10067.69
658.849	10047.8
659.2	10121.02
659.551	10064.3
659.902	10084.41
660.253	10090.29
660.604	10106.56
660.955	10063.39
661.306	10099.1
661.656	10127.8
662.007	10116.27
662.358	10113.56
662.708	10208.25
663.059	10100
663.409	10120.57
663.76	10163.73
664.11	10195.37
664.461	10183.84
664.811	10108.82
665.161	10154.01
665.511	10112.21
665.862	10166.67
666.212	10144.75
666.562	10104.3
666.912	10163.96
667.262	10139.32
667.612	10123.28
667.962	10159.44
668.312	10114.47
668.662	10139.32
669.011	10092.77
669.361	10166.22
669.711	10125.09
670.06	10073.11
670.41	10116.05
670.76	10072.66
671.109	10093.22
671.459	10077.86
671.808	10069.95
672.157	10093.9
672.507	10086.44
672.856	10046.67
673.205	10068.82
673.554	10090.29
673.904	10056.61
674.253	10110.4
674.602	10004.41
674.951	9875.6
675.3	9824.53
675.649	10027.91
675.998	10017.97
676.346	10015.03
676.695	9996.95
677.044	9890.29
677.393	9945.88
677.741	9972.55
678.09	9935.71
678.438	9890.06
678.787	9987.01
679.135	9959.44
679.484	9783.4
679.832	9932.32
680.181	9834.93
680.529	9828.37
680.877	9814.36
681.225	9794.47
681.573	9829.95
681.922	9752.22
682.27	9674.93
682.618	9700.47
682.966	9614.59
683.314	9679
683.661	9684.42
684.009	9587.47
684.357	9621.37
684.705	9515.16
685.053	9533.92
685.4	9575.5
685.748	9479.91
686.095	9491.21
686.443	9463.86
686.79	9461.38
687.138	9502.73
687.485	9476.97
687.832	9437.42
688.18	9478.1
688.527	9355.39
688.874	9380.02
689.221	9314.03
689.568	9284.21
689.915	9238.56
690.262	9272.45
690.609	9171.67
690.956	9178.22
691.303	9223.64
691.65	9139.35
691.997	9162.17
692.344	9049.63
692.69	9051.89
693.037	8999.01
693.383	9004.66
693.73	9015.29
694.077	8925.57
694.423	8901.62
694.769	8933.03
695.116	8882.18
695.462	8849.64
695.808	8789.3
696.155	8785.01
696.501	8754.28
696.847	8721.73
697.193	8662.3
697.539	8644
697.885	8612.81
698.231	8559.03
698.577	8563.32
698.923	8507.05
699.269	8504.11
699.614	8461.63
699.96	8400.84
700.306	8381.18
700.651	8387.28
700.997	8331.46
701.342	8350.67
701.688	8316.55
702.033	8293.72
702.379	8231.8
702.724	8237.23
703.069	8203.78
703.415	8131.92
703.76	8132.37
704.105	8111.58
704.45	8090.56
704.795	8022.32
705.14	7999.49
705.485	8008.98
705.83	7950.91
706.175	7941.87
706.52	7946.16
706.865	7901.64
707.209	7965.6
707.554	7819.16
707.899	7873.39
708.243	7806.73
708.588	7775.09
708.932	7749.78
709.277	7678.37
709.621	7682.89
709.966	7688.99
710.31	7718.6
710.654	7570.13
710.998	7600.41
711.342	7655.55
711.687	7551.6
712.031	7470.02
712.375	7568.54
712.719	7525.38
713.063	7530.58
713.407	7553.86
713.75	7464.59
714.094	7462.11
714.438	7453.52
714.782	7452.39
715.125	7474.76
715.469	7423.01
715.812	7347.53
716.156	7304.14
716.499	7359.74
716.843	7291.72
717.186	7313.41
717.53	7381.88
717.873	7336.91
718.216	7316.35
718.559	7275.9
718.902	7291.04
719.246	7220.3
719.589	7265.28
719.932	7263.92
720.275	7275.9
720.617	7218.95
720.96	7173.98
721.303	7263.92
721.646	7184.37
721.989	7124.49
722.331	7175.56
722.674	7203.58
723.016	7227.76
723.359	7170.14
723.701	7105.73
724.044	7094.21
724.386	7073.19
724.729	7117.93
725.071	7099.63
725.413	7102.79
725.755	7118.84
726.097	7045.62
726.439	7036.13
726.782	7074.55
727.124	7033.42
727.465	7060.31
727.807	7026.86
728.149	7058.73
728.491	6969.01
728.833	7040.65
729.175	7026.19
729.516	7048.33
729.858	7036.13
730.199	7014.89
730.541	7033.87
730.882	7013.76
731.224	7025.73
731.565	7021.21
731.906	6935.79
732.248	7031.83
732.589	7023.25
732.93	6934.89
733.271	6979.41
733.612	7011.27
733.953	7004.49
734.294	7007.88
734.635	6968.56
734.976	7038.84
735.317	6941.22
735.658	6977.6
735.999	6999.75
736.339	6976.02
736.68	7019.18
737.021	7054.21
737.361	6997.03
737.702	7061.21
738.042	6970.82
738.383	7034.32
738.723	6994.77
739.063	7003.36
739.404	7079.97
739.744	7056.47
740.084	7075.9
740.424	7057.14
740.764	7092.85
741.104	7132.4
741.444	7088.78
741.784	7195.45
742.124	7153.19
742.464	7215.78
742.804	7110.7
743.143	7159.29
743.483	7197.03
743.823	7223.47
744.162	7274.09
744.502	7245.84
744.841	7245.84
745.181	7399.28
745.52	7319.06
745.86	7403.58
746.199	7462.11
746.538	7387.08
746.877	7509.11
747.216	7473.18
747.556	7671.59
747.895	7639.95
748.234	7634.08
748.573	7661.87
748.911	7766.73
749.25	7837.69
749.589	7871.59
749.928	7910.91
750.267	8041.3
750.605	8055.76
750.944	8111.81
751.283	8176.44
751.621	8250.79
751.96	8385.47
752.298	8472.02
752.636	8469.99
752.975	8552.7
753.313	8686.03
753.651	8807.16
753.989	8930.32
754.327	9037.43
754.666	9113.36
755.004	9174.38
755.342	9325.33
755.679	9511.77
756.017	9518.32
756.355	9725.32
756.693	9800.8
757.031	9988.14
757.368	10068.59
757.706	10258.19
758.044	10493.66
758.381	10568.24
758.719	10699.99
759.056	10910.83
759.394	11030.6
759.731	11101.78
760.068	11349.01
760.405	11445.28
760.743	11634.43
761.08	11803.23
761.417	12018.14
