Data from hue_120_FLMS001491_00077.txt Node
Date: Tue Feb 07 16:59:58 GMT 2017
User: dcchb
Spectrometer: FLMS00149
Trigger mode: 0
Integration Time (sec): 2.000000E-2
Scans to average: 10
Electric dark correction enabled: true
Nonlinearity correction enabled: false
Boxcar width: 0
XAxis mode: Wavelengths
Number of Pixels in Spectrum: 2048
>>>>>Begin Spectral Data<<<<<
341.393	-23.81
341.776	-23.81
342.16	-23.81
342.543	-54.55
342.927	-42.12
343.31	-43.25
343.693	-84.15
344.077	-69.24
344.46	-51.83
344.843	-46.41
345.226	-45.73
345.61	-19.07
345.993	-7.77
346.376	-10.25
346.759	5.56
347.142	33.59
347.525	19.12
347.908	56.41
348.291	71.1
348.674	86.01
349.057	105.9
349.44	138.22
349.823	157.43
350.206	174.37
350.588	190.42
350.971	207.82
351.354	237.65
351.737	245.33
352.119	274.48
352.502	249.85
352.884	279.68
353.267	284.43
353.65	302.73
354.032	305.22
354.414	314.26
354.797	328.72
355.179	323.3
355.562	313.81
355.944	332.56
356.326	334.6
356.709	342.51
357.091	340.7
357.473	326.91
357.855	359.91
358.238	349.28
358.62	325.1
359.002	344.09
359.384	351.32
359.766	364.2
360.148	350.87
360.53	337.76
360.912	355.16
361.294	341.15
361.676	324.43
362.057	349.74
362.439	324.2
362.821	340.25
363.203	319.23
363.584	325.78
363.966	314.94
364.348	327.36
364.729	321.26
365.111	316.97
365.493	319
365.874	329.4
366.256	330.53
366.637	328.04
367.019	312.68
367.4	324.43
367.781	304.77
368.163	307.03
368.544	306.35
368.925	333.47
369.306	307.25
369.688	311.55
370.069	303.86
370.45	307.7
370.831	328.27
371.212	318.1
371.593	317.87
371.974	316.52
372.355	320.81
372.736	314.03
373.117	297.76
373.498	340.47
373.879	321.94
374.26	319.91
374.641	326.23
375.021	311.32
375.402	309.96
375.783	334.14
376.163	343.18
376.544	342.28
376.925	328.04
377.305	324.2
377.686	313.35
378.066	331.88
378.447	358.55
378.827	323.97
379.208	329.85
379.588	354.93
379.968	336.86
380.349	352.9
380.729	332.11
381.109	335.5
381.489	339.12
381.87	331.43
382.25	350.41
382.63	329.4
383.01	348.15
383.39	354.48
383.77	360.58
384.15	348.15
384.53	382.96
384.91	365.33
385.29	363.97
385.67	360.13
386.049	359.68
386.429	355.84
386.809	355.16
387.189	358.1
387.568	381.15
387.948	375.95
388.328	382.5
388.707	347.48
389.087	380.24
389.466	367.82
389.846	367.59
390.225	364.43
390.605	357.87
390.984	363.52
391.363	385.44
391.743	388.15
392.122	390.87
392.501	371.88
392.881	408.94
393.26	377.53
393.639	389.06
394.018	390.19
394.397	399.23
394.776	403.52
395.155	404.42
395.534	406.01
395.913	379.57
396.292	391.32
396.671	410.75
397.05	417.76
397.429	411.43
397.808	415.5
398.186	426.8
398.565	411.2
398.944	392.67
399.323	413.01
399.701	413.69
400.08	413.01
400.458	417.31
400.837	417.08
401.215	431.99
401.594	415.05
401.972	449.62
402.351	431.32
402.729	423.86
403.107	456.85
403.486	449.85
403.864	437.87
404.242	421.6
404.62	449.17
404.999	467.93
405.377	459.34
405.755	456.63
406.133	440.81
406.511	455.04
406.889	450.75
407.267	467.47
407.645	464.76
408.023	465.67
408.401	450.98
408.779	481.48
409.156	467.47
409.534	499.34
409.912	492.56
410.29	479.45
410.667	468.83
411.045	496.85
411.422	494.37
411.8	515.16
412.178	499.79
412.555	500.69
412.933	503.18
413.31	515.83
413.687	517.19
414.065	527.13
414.442	530.52
414.819	520.35
415.197	532.33
415.574	522.84
415.951	508.15
416.328	519.22
416.705	549.73
417.082	528.26
417.46	542.73
417.837	550.86
418.214	554.7
418.591	547.92
418.967	553.8
419.344	570.07
419.721	575.72
420.098	556.51
420.475	566
420.852	583.4
421.228	588.6
421.605	589.05
421.982	579.56
422.358	588.83
422.735	593.57
423.111	584.31
423.488	611.65
423.864	607.81
424.241	624.53
424.617	629.96
424.994	619.33
425.37	618.43
425.746	629.96
426.123	653.68
426.499	638.77
426.875	627.92
427.251	630.63
427.627	671.54
428.003	690.74
428.379	690.07
428.756	667.02
429.132	676.06
429.507	686
429.883	684.64
430.259	688.94
430.635	701.59
431.011	727.58
431.387	703.85
431.763	707.47
432.138	710.18
432.514	720.8
432.89	729.16
433.265	743.62
433.641	758.54
434.016	754.25
434.392	789.05
434.767	786.79
435.143	783.85
435.518	793.57
435.894	784.75
436.269	808.48
436.644	807.8
437.02	843.28
437.395	823.62
437.77	806.22
438.145	842.83
438.52	839.89
438.895	853.45
439.271	846.9
439.646	861.36
440.021	880.8
440.395	874.69
440.77	903.17
441.145	898.87
441.52	877.63
441.895	895.03
442.27	885.54
442.645	895.48
443.019	916.73
443.394	908.14
443.769	927.8
444.143	938.42
444.518	940.23
444.892	947.01
445.267	950.17
445.641	935.71
446.016	948.36
446.39	974.35
446.764	991.08
447.139	984.07
447.513	997.4
447.887	984.07
448.262	998.99
448.636	995.37
449.01	1012.09
449.384	1027.68
449.758	1017.06
450.132	1028.59
450.506	1029.27
450.88	1051.41
451.254	1059.77
451.628	1069.72
452.002	1081.69
452.376	1083.73
452.75	1100
453.123	1083.95
453.497	1103.16
453.871	1119.43
454.244	1138.42
454.618	1147.68
454.992	1189.71
455.365	1181.35
455.739	1202.6
456.112	1192.88
456.486	1212.99
456.859	1260.67
457.232	1266.32
457.606	1290.95
457.979	1260.9
458.352	1270.16
458.725	1285.08
459.099	1311.97
459.472	1332.31
459.845	1371.4
460.218	1368.92
460.591	1394.23
460.964	1377.51
461.337	1413.66
461.71	1438.07
462.083	1451.63
462.456	1461.35
462.829	1492.53
463.201	1464.51
463.574	1490.95
463.947	1529.59
464.32	1552.87
464.692	1572.3
465.065	1606.43
465.438	1593.32
465.81	1637.61
466.183	1677.84
466.555	1685.07
466.928	1702.47
467.3	1732.3
467.672	1792.18
468.045	1808.68
468.417	1809.13
468.789	1823.6
469.161	1863.14
469.534	1905.85
469.906	1944.72
470.278	1985.4
470.65	2018.17
471.022	2041.67
471.394	2078.73
471.766	2133.42
472.138	2135.9
472.51	2188.11
472.882	2232.17
473.253	2271.49
473.625	2350.36
473.997	2390.13
474.369	2429.68
474.74	2466.74
475.112	2516.23
475.484	2581.77
475.855	2612.28
476.227	2677.81
476.598	2783.57
476.97	2803.68
477.341	2923.45
477.713	2956.67
478.084	3014.98
478.455	3135.43
478.827	3184.24
479.198	3269.21
479.569	3356.89
479.94	3458.36
480.311	3513.72
480.682	3608.86
481.053	3753.26
481.424	3872.36
481.795	3945.12
482.166	4024.89
482.537	4140.37
482.908	4280.71
483.279	4329.29
483.65	4480.02
484.021	4600.47
484.391	4666.23
484.762	4772.9
485.133	4879.56
485.503	4978.99
485.874	5163.62
486.244	5228.48
486.615	5437.06
486.985	5558.87
487.356	5717.96
487.726	5877.27
488.097	5985.52
488.467	6092.41
488.837	6296.02
489.207	6418.5
489.578	6528.78
489.948	6695.33
490.318	6852.16
490.688	6931.71
491.058	7124.93
491.428	7282.66
491.798	7454.41
492.168	7571.47
492.538	7803.33
492.908	7896.66
493.278	8049.2
493.648	8190.89
494.017	8347.49
494.387	8468.39
494.757	8596.07
495.126	8737.99
495.496	8873.35
495.866	8945.67
496.235	9124.65
496.605	9235.15
496.974	9349.05
497.344	9523.28
497.713	9626.55
498.082	9757.62
498.452	9965.98
498.821	9951.52
499.19	10055.02
499.559	10187.9
499.928	10351.06
500.298	10444.39
500.667	10593.08
501.036	10654.78
501.405	10829.46
501.774	10867.2
502.143	10989.23
502.512	11121.66
502.88	11187.19
503.249	11353.74
503.618	11365.49
503.987	11413.17
504.356	11592.15
504.724	11577.24
505.093	11715.99
505.462	11815.2
505.83	11894.29
506.199	11988.3
506.567	12167.05
506.936	12152.36
507.304	12324.56
507.672	12418.57
508.041	12433.94
508.409	12555.29
508.777	12617.66
509.145	12759.35
509.514	12749.41
509.882	12790.31
510.25	12862.85
510.618	12953.92
510.986	12974.04
511.354	13103.53
511.722	13208.38
512.09	13237.53
512.458	13314.14
512.826	13456.51
513.193	13511.42
513.561	13509.84
513.929	13634.13
514.297	13721.81
514.664	13759.33
515.032	13761.36
515.4	13863.51
515.767	13978.98
516.135	13915.93
516.502	13861.02
516.869	14146.66
517.237	14108.92
517.604	14070.28
517.972	14207.9
518.339	14244.06
518.706	14200.45
519.073	14226.66
519.44	14322.02
519.808	14433.89
520.175	14341.23
520.542	14550.04
520.909	14665.74
521.276	14594.79
521.643	14594.33
522.009	14704.16
522.376	14760.43
522.743	14749.81
523.11	14815.57
523.477	15020.76
523.843	15091.95
524.21	15106.86
524.577	15176.24
524.943	15167.43
525.31	15205.84
525.676	15245.62
526.043	15292.85
526.409	15313.41
526.776	15449.9
527.142	15397.7
527.508	15380.53
527.874	15446.51
528.241	15481.77
528.607	15420.75
528.973	15503.69
529.339	15541.65
529.705	15616.68
530.071	15627.53
530.437	15659.84
530.803	15809.22
531.169	15703.23
531.535	15618.94
531.901	15640.18
532.267	15718.15
532.632	15665.94
532.998	15658.26
533.364	15641.54
533.73	15626.4
534.095	15810.8
534.461	15654.64
534.826	15728.32
535.192	15703.01
535.557	15668.88
535.923	15700.52
536.288	15643.35
536.653	15748.65
537.019	15609.22
537.384	15689.22
537.749	15626.4
538.114	15577.36
538.479	15564.03
538.845	15527.19
539.21	15553.18
539.575	15475.89
539.94	15533.07
540.305	15507.3
540.67	15464.37
541.034	15480.64
541.399	15458.72
541.764	15484.93
542.129	15364.26
542.494	15343.24
542.858	15334.43
543.223	15342.56
543.587	15330.36
543.952	15197.93
544.316	15242
544.681	15278.84
545.045	15100.08
545.41	15283.81
545.774	15178.5
546.138	15099.86
546.503	15091.5
546.867	15026.19
547.231	15176.24
547.595	15072.51
547.959	15047.66
548.324	15012.18
548.688	15036.58
549.052	14997.49
549.416	14916.81
549.779	14867.55
550.143	14888.79
550.507	14901.9
550.871	14870.03
551.235	14785.06
551.599	14890.15
551.962	14809.47
552.326	14806.08
552.689	14795.01
553.053	14690.83
553.417	14752.3
553.78	14784.16
554.143	14674.56
554.507	14597.72
554.87	14682.47
555.234	14778.74
555.597	14634.56
555.96	14606.31
556.323	14655.35
556.686	14608.12
557.05	14696.48
557.413	14652.19
557.776	14605.63
558.139	14656.03
558.502	14572.19
558.865	14563.83
559.228	14661.45
559.59	14598.85
559.953	14627.33
560.316	14770.37
560.679	14587.33
561.041	14720.66
561.404	14696.03
561.767	14744.84
562.129	14641.34
562.492	14861.45
562.854	14685.63
563.217	14688.12
563.579	14744.61
563.941	14821.9
564.304	14888.56
564.666	14882.46
565.028	14846.3
565.39	14938.73
565.753	14875.68
566.115	14884.72
566.477	14912.97
566.839	14919.97
567.201	14988.9
567.563	14971.27
567.925	15012.63
568.287	15034.55
568.648	14946.64
569.01	15096.24
569.372	15059.18
569.734	15026.19
570.095	15155.45
570.457	15181.44
570.819	15139.86
571.18	15148.22
571.542	15204.71
571.903	15184.37
572.265	15222.34
572.626	15260.53
572.987	15237.93
573.349	15232.51
573.71	15305.73
574.071	15293.98
574.432	15325.61
574.794	15390.7
575.155	15386.86
575.516	15355.9
575.877	15416.91
576.238	15403.8
576.599	15436.57
576.96	15440.87
577.32	15475.89
577.681	15440.87
578.042	15430.02
578.403	15557.7
578.763	15430.24
579.124	15504.14
579.485	15605.61
579.845	15541.43
580.206	15505.5
580.566	15465.5
580.927	15440.64
581.287	15507.53
581.648	15407.87
582.008	15547.53
582.368	15395.22
582.728	15460.3
583.089	15483.12
583.449	15432.28
583.809	15484.71
584.169	15477.7
584.529	15494.88
584.889	15523.57
585.249	15498.94
585.609	15368.32
585.969	15405.16
586.329	15430.47
586.688	15430.7
587.048	15346.4
587.408	15264.15
587.768	15338.72
588.127	15341.88
588.487	15329.68
588.846	15425.5
589.206	15180.76
589.565	15342.56
589.925	15357.93
590.284	15351.6
590.643	15291.26
591.003	15400.87
591.362	15308.89
591.721	15381.21
592.08	15359.96
592.44	15234.54
592.799	15323.35
593.158	15307.54
593.517	15295.78
593.876	15299.85
594.235	15277.48
594.593	15245.62
594.952	15256.92
595.311	15219.85
595.67	15318.16
596.029	15327.87
596.387	15387.08
596.746	15313.41
597.104	15246.29
597.463	15253.07
597.822	15341.66
598.18	15314.31
598.538	15232.28
598.897	15330.59
599.255	15191.61
599.613	15364.48
599.972	15267.99
600.33	15332.62
600.688	15243.81
601.046	15347.76
601.404	15312.73
601.762	15219.85
602.12	15255.33
602.478	15277.25
602.836	15246.52
603.194	15233.19
603.552	15249.91
603.91	15185.5
604.268	15293.52
604.625	15253.07
604.983	15275.22
605.341	15192.06
605.698	15275.22
606.056	15370.58
606.413	15412.84
606.771	15391.37
607.128	15338.95
607.485	15243.13
607.843	15324.03
608.2	15355.9
608.557	15365.39
608.914	15415.78
609.272	15441.77
609.629	15429.11
609.986	15525.16
610.343	15416.69
610.7	15474.31
611.057	15522.22
611.414	15479.06
611.771	15510.92
612.127	15493.97
612.484	15581.88
612.841	15478.15
613.198	15455.1
613.554	15551.6
613.911	15547.08
614.267	15594.31
614.624	15511.37
614.98	15543.01
615.337	15708.65
615.693	15708.43
616.05	15591.14
616.406	15719.95
616.762	15613.97
617.118	15647.87
617.475	15619.39
617.831	15711.59
618.187	15766.96
618.543	15653.74
618.899	15916.11
619.255	15751.82
619.611	15787.07
619.967	15790.46
620.323	15886.28
620.678	15763.34
621.034	15750.46
621.39	15754.98
621.746	15708.2
622.101	15949.33
622.457	15806.51
622.812	15783.46
623.168	15848.54
623.523	15804.7
623.879	15833.4
624.234	15822.32
624.589	15805.6
624.945	15730.35
625.3	15841.53
625.655	15753.63
626.01	15779.16
626.365	15805.15
626.72	15799.95
627.075	15746.17
627.43	15787.52
627.785	15772.61
628.14	15842.44
628.495	15823.45
628.85	15746.62
629.205	15758.82
629.559	15754.98
629.914	15691.71
630.269	15703.91
630.623	15719.05
630.978	15724.25
631.332	15771.7
631.687	15746.17
632.041	15692.16
632.396	15659.62
632.75	15594.99
633.104	15674.76
633.459	15599.05
633.813	15552.5
634.167	15537.81
634.521	15597.92
634.875	15502.78
635.229	15458.94
635.583	15441.54
635.937	15475.67
636.291	15443.35
636.645	15493.97
636.999	15403.35
637.352	15417.59
637.706	15336.69
638.06	15390.02
638.413	15406.74
638.767	15300.76
639.121	15404.26
639.474	15284.94
639.828	15232.51
640.181	15220.31
640.534	15230.02
640.888	15226.41
641.241	15168.78
641.594	15198.16
641.947	15227.54
642.301	15205.17
642.654	15275.45
643.007	15178.05
643.36	15136.24
643.713	15131.72
644.066	15185.73
644.419	15075.23
644.771	15040.42
645.124	14855.57
645.477	14828.45
645.83	14755.46
646.182	14622.36
646.535	14664.16
646.888	14622.58
647.24	14519.53
647.593	14597.05
647.945	14651.28
648.298	14537.16
648.65	14450.83
649.002	14592.53
649.355	14561.57
649.707	14622.13
650.059	14609.93
650.411	14809.92
650.763	14815.57
651.115	15037.49
651.467	14911.61
651.819	14875.91
652.171	14934.66
652.523	14850.6
652.875	14863.48
653.227	14840.65
653.578	14879.75
653.93	14883.59
654.282	14915
654.633	14820.77
654.985	14935.79
655.337	14823.71
655.688	14849.02
656.039	15016.02
656.391	14896.47
656.742	14848.34
657.094	14807.21
657.445	14918.85
657.796	14912.29
658.147	14877.49
658.498	14866.42
658.849	14912.97
659.2	14876.81
659.551	14871.61
659.902	14842.24
660.253	14943.25
660.604	14906.87
660.955	14857.83
661.306	14943.48
661.656	14958.84
662.007	14897.38
662.358	14913.65
662.708	14946.19
663.059	14794.1
663.409	14858.06
663.76	14894.21
664.11	14990.71
664.461	14915.46
664.811	14915.68
665.161	14854.44
665.511	14943.03
665.862	14931.73
666.212	14932.86
666.562	14960.65
666.912	14971.05
667.262	14918.62
667.612	15017.6
667.962	14973.08
668.312	14929.24
668.662	14920.88
669.011	14924.04
669.361	14865.06
669.711	14913.65
670.06	14880.43
670.41	14922.91
670.76	14916.36
671.109	14881.78
671.459	14854.67
671.808	14844.72
672.157	14933.76
672.507	14835.91
672.856	14829.13
673.205	14751.17
673.554	14880.65
673.904	14656.93
674.253	14819.41
674.602	14804.5
674.951	14542.13
675.3	14490.38
675.649	14646.08
675.998	14724.27
676.346	14775.57
676.695	14708
677.044	14595.69
677.393	14722.69
677.741	14667.78
678.09	14583.94
678.438	14579.42
678.787	14630.94
679.135	14581.68
679.484	14461.68
679.832	14593.43
680.181	14477.5
680.529	14411.51
680.877	14520.21
681.225	14423.04
681.573	14473.21
681.922	14363.83
682.27	14298.52
682.618	14347.56
682.966	14385.98
683.314	14317.05
683.661	14325.87
684.009	14222.82
684.357	14195.25
684.705	14200.9
685.053	14150.5
685.4	14211.97
685.748	14024.41
686.095	13999.1
686.443	14061.69
686.79	13922.71
687.138	13976.72
687.485	13989.6
687.832	13980.34
688.18	13896.5
688.527	13908.7
688.874	13880.45
689.221	13804.52
689.568	13854.47
689.915	13720.01
690.262	13756.84
690.609	13659.22
690.956	13656.96
691.303	13574.25
691.65	13518.2
691.997	13546.45
692.344	13439.34
692.69	13489.73
693.037	13388.04
693.383	13296.97
693.73	13316.18
694.077	13244.09
694.423	13173.81
694.769	13166.8
695.116	13163.18
695.462	13063.3
695.808	13068.72
696.155	13092
696.501	12970.42
696.847	12919.12
697.193	12798.67
697.539	12904.43
697.885	12733.37
698.231	12715.97
698.577	12656.53
698.923	12677.1
699.269	12531.11
699.614	12527.72
699.96	12525.01
700.306	12504.45
700.651	12458.12
700.997	12426.26
701.342	12339.93
701.688	12399.36
702.033	12333.83
702.379	12167.96
702.724	12216.09
703.069	12268.75
703.415	12028.53
703.76	12078.47
704.105	12035.53
704.45	12066.94
704.795	12010.9
705.14	11951.69
705.485	11904.24
705.83	11802.54
706.175	11824.46
706.52	11669.44
706.865	11758.25
707.209	11741.53
707.554	11541.08
707.899	11631.7
708.243	11554.41
708.588	11563.23
708.932	11534.98
709.277	11574.3
709.621	11584.02
709.966	11382.89
710.31	11476.45
710.654	11335.21
710.998	11310.13
711.342	11415.89
711.687	11355.1
712.031	11347.41
712.375	11236.46
712.719	11288.43
713.063	11224.93
713.407	11282.78
713.75	11130.24
714.094	11175.44
714.438	11136.8
714.782	11085.5
715.125	11069.91
715.469	11134.09
715.812	11144.03
716.156	10927.99
716.499	10909.91
716.843	11039.17
717.186	10888.67
717.53	11013.64
717.873	10939.51
718.216	10886.18
718.559	10893.19
718.902	10810.03
719.246	10851.16
719.589	10853.64
719.932	10811.83
720.275	10800.31
720.617	10815.45
720.96	10786.3
721.303	10765.28
721.646	10799.86
721.989	10682.57
722.331	10748.11
722.674	10691.39
723.016	10679.41
723.359	10739.75
723.701	10689.8
724.044	10660.88
724.386	10635.57
724.729	10635.12
725.071	10606.87
725.413	10581.11
725.755	10633.99
726.097	10496.59
726.439	10486.65
726.782	10545.85
727.124	10595.57
727.465	10489.58
727.807	10544.95
728.149	10462.24
728.491	10408
728.833	10507.44
729.175	10499.75
729.516	10522.35
729.858	10529.81
730.199	10456.59
730.541	10486.42
730.882	10444.16
731.224	10569.81
731.565	10383.82
731.906	10424.73
732.248	10411.39
732.589	10357.83
732.93	10359.19
733.271	10446.42
733.612	10432.18
733.953	10453.43
734.294	10309.7
734.635	10393.31
734.976	10399.42
735.317	10383.37
735.658	10317.38
735.999	10348.8
736.339	10361.22
736.68	10408.68
737.021	10302.92
737.361	10372.3
737.702	10399.87
738.042	10349.7
738.383	10297.72
738.723	10374.56
739.063	10342.69
739.404	10366.2
739.744	10385.4
740.084	10324.39
740.424	10428.12
740.764	10357.38
741.104	10424.27
741.444	10424.73
741.784	10495.23
742.124	10496.81
742.464	10463.59
742.804	10422.24
743.143	10488.23
743.483	10543.82
743.823	10399.19
744.162	10636.92
744.502	10586.53
744.841	10654.32
745.181	10672.85
745.52	10617.72
745.86	10647.77
746.199	10746.75
746.538	10723.48
746.877	10783.59
747.216	10944.26
747.556	10843.25
747.895	10993.98
748.234	10990.36
748.573	10998.95
748.911	11051.15
749.25	11168.89
749.589	11224.7
749.928	11264.7
750.267	11366.62
750.605	11396.68
750.944	11462.44
751.283	11509.67
751.621	11647.52
751.96	11675.31
752.298	11751.24
752.636	11859.26
752.975	11937.68
753.313	12040.5
753.651	12302.19
753.989	12248.18
754.327	12322.98
754.666	12466.93
755.004	12612.46
755.342	12670.99
755.679	12885.9
756.017	12878.45
