Data from hue_170_FLMS001491_00031.txt Node
Date: Tue Feb 07 16:48:35 GMT 2017
User: dcchb
Spectrometer: FLMS00149
Trigger mode: 0
Integration Time (sec): 2.000000E-2
Scans to average: 10
Electric dark correction enabled: true
Nonlinearity correction enabled: false
Boxcar width: 0
XAxis mode: Wavelengths
Number of Pixels in Spectrum: 2048
>>>>>Begin Spectral Data<<<<<
341.393	-24.08
341.776	-24.08
342.16	-24.08
342.543	-69.05
342.927	-60.46
343.31	-69.96
343.693	-59.79
344.077	-76.51
344.46	-63.63
344.843	-49.62
345.226	-46
345.61	-39.45
345.993	-9.39
346.376	-10.3
346.759	12.98
347.142	34.9
347.525	40.32
347.908	57.27
348.291	80.77
348.674	94.79
349.057	103.6
349.44	101.57
349.823	140.66
350.206	153.77
350.588	175.01
350.971	192.64
351.354	240.54
351.737	257.95
352.119	238.74
352.502	261.33
352.884	262.46
353.267	281.67
353.65	311.5
354.032	298.4
354.414	316.7
354.797	317.6
355.179	320.32
355.562	307.66
355.944	316.25
356.326	322.12
356.709	326.42
357.091	329.13
357.473	332.75
357.855	354.67
358.238	343.59
358.62	332.97
359.002	364.38
359.384	346.53
359.766	368.22
360.148	344.04
360.53	335.68
360.912	362.35
361.294	333.42
361.676	316.7
362.057	327.1
362.439	324.61
362.821	322.8
363.203	335.01
363.584	335.91
363.966	301.33
364.348	344.72
364.729	341.11
365.111	317.83
365.493	311.96
365.874	318.73
366.256	299.3
366.637	307.66
367.019	290.26
367.4	305.63
367.781	304.27
368.163	331.16
368.544	318.06
368.925	328.9
369.306	323.93
369.688	308.34
370.069	307.66
370.45	296.81
370.831	302.46
371.212	322.35
371.593	314.67
371.974	298.17
372.355	310.6
372.736	300.2
373.117	302.01
373.498	310.15
373.879	320.54
374.26	321.9
374.641	294.55
375.021	302.01
375.402	305.4
375.783	313.54
376.163	335.46
376.544	313.76
376.925	324.16
377.305	306.98
377.686	286.42
378.066	317.38
378.447	306.76
378.827	330.26
379.208	305.85
379.588	336.36
379.968	342.24
380.349	328.23
380.729	329.36
381.109	335.68
381.489	361.22
381.87	343.37
382.25	335.23
382.63	318.96
383.01	342.69
383.39	355.57
383.77	337.27
384.15	339.75
384.53	336.59
384.91	353.99
385.29	350.37
385.67	337.94
386.049	349.47
386.429	321.22
386.809	343.14
387.189	375
387.568	353.54
387.948	358.96
388.328	354.89
388.707	350.37
389.087	347.66
389.466	345.4
389.846	364.16
390.225	349.24
390.605	359.64
390.984	353.99
391.363	365.74
391.743	365.06
392.122	349.92
392.501	365.29
392.881	373.65
393.26	362.35
393.639	372.97
394.018	372.29
394.397	384.04
394.776	383.82
395.155	371.16
395.534	384.27
395.913	378.85
396.292	391.28
396.671	399.64
397.05	408
397.429	392.18
397.808	389.02
398.186	391.95
398.565	387.43
398.944	403.7
399.323	389.24
399.701	407.32
400.08	411.16
400.458	404.38
400.837	394.89
401.215	384.04
401.594	421.33
401.972	414.78
402.351	399.86
402.729	401.22
403.107	428.34
403.486	406.87
403.864	420.88
404.242	399.41
404.62	433.53
404.999	407.09
405.377	422.69
405.755	442.35
406.133	435.34
406.511	438.05
406.889	465.62
407.267	436.25
407.645	444.15
408.023	433.31
408.401	446.19
408.779	444.83
409.156	462.91
409.534	471.27
409.912	493.65
410.29	491.61
410.667	482.57
411.045	472.4
411.422	495.68
411.8	494.55
412.178	496.81
412.555	516.92
412.933	488.45
413.31	494.55
413.687	513.53
414.065	522.57
414.442	540.65
414.819	555.34
415.197	524.38
415.574	570.71
415.951	537.49
416.328	541.1
416.705	561.21
417.082	589.91
417.46	590.82
417.837	582.68
418.214	576.13
418.591	590.82
418.967	612.29
419.344	579.74
419.721	616.35
420.098	593.53
420.475	627.2
420.852	621.78
421.228	611.61
421.605	624.49
421.982	619.74
422.358	643.7
422.735	651.16
423.111	648.22
423.488	647.54
423.864	673.53
424.241	681.66
424.617	691.83
424.994	705.84
425.37	684.6
425.746	738.84
426.123	705.17
426.499	721.89
426.875	732.51
427.251	747.65
427.627	756.46
428.003	740.42
428.379	756.24
428.756	758.72
429.132	760.08
429.507	772.73
429.883	786.74
430.259	791.49
430.635	785.84
431.011	803.02
431.387	793.98
431.763	843.01
432.138	832.17
432.514	844.6
432.89	855.44
433.265	882.79
433.641	874.65
434.016	903.8
434.392	895.89
434.767	919.85
435.143	912.39
435.518	938.61
435.894	956.46
436.269	936.57
436.644	954.88
437.02	974.76
437.395	997.13
437.77	967.31
438.145	1005.95
438.52	1021.54
438.895	1046.63
439.271	1030.81
439.646	1052.27
440.021	1076.23
440.395	1072.61
440.77	1047.53
441.145	1109.22
441.52	1111.71
441.895	1106.96
442.27	1137.02
442.645	1130.69
443.019	1170.01
443.394	1151.93
443.769	1164.81
444.143	1153.74
444.518	1193.74
444.892	1174.53
445.267	1203.68
445.641	1199.39
446.016	1221.31
446.39	1220.63
446.764	1235.55
447.139	1230.35
447.513	1246.85
447.887	1256.34
448.262	1257.47
448.636	1280.52
449.01	1292.27
449.384	1313.74
449.758	1309.89
450.132	1342.44
450.506	1308.09
450.88	1326.39
451.254	1391.7
451.628	1333.62
452.002	1361.42
452.376	1394.64
452.75	1395.77
453.123	1408.88
453.497	1416.56
453.871	1447.74
454.244	1468.08
454.618	1498.36
454.992	1516.22
455.365	1527.97
455.739	1566.84
456.112	1562.32
456.486	1554.18
456.859	1600.06
457.232	1610
457.606	1614.52
457.979	1608.87
458.352	1672.15
458.725	1696.78
459.099	1714.4
459.472	1723.22
459.845	1727.96
460.218	1743.33
460.591	1784.01
460.964	1792.59
461.337	1858.36
461.71	1901.97
462.083	1922.53
462.456	1904.91
462.829	1952.82
463.201	1958.01
463.574	1943.55
463.947	2005.92
464.32	2061.29
464.692	2049.08
465.065	2088.63
465.438	2135.18
465.81	2166.37
466.183	2181.74
466.555	2222.87
466.928	2232.13
467.3	2279.81
467.672	2320.72
468.045	2347.38
468.417	2406.59
468.789	2436.19
469.161	2465.34
469.534	2504.44
469.906	2529.07
470.278	2568.62
470.65	2617.21
471.022	2686.58
471.394	2715.51
471.766	2756.18
472.138	2763.42
472.51	2882.28
472.882	2964.09
473.253	2984.2
473.625	3037.76
473.997	3111.43
474.369	3161.37
474.74	3246.79
475.112	3319.33
475.484	3344.87
475.855	3439.1
476.227	3482.72
476.598	3588.25
476.97	3623.05
477.341	3753.9
477.713	3836.83
478.084	3842.71
478.455	4001.8
478.827	4007.23
479.198	4176.26
479.569	4215.36
479.94	4352.98
480.311	4364.5
480.682	4550.71
481.053	4662.8
481.424	4762.91
481.795	4831.84
482.166	4958.39
482.537	5073.19
482.908	5173.75
483.279	5249.9
483.65	5365.61
484.021	5510.46
484.391	5650.12
484.762	5731.47
485.133	5785.48
485.503	5915.2
485.874	6129.88
486.244	6221.18
486.615	6348.41
486.985	6415.07
487.356	6534.84
487.726	6698.23
488.097	6897.77
488.467	6898.9
488.837	7091.66
489.207	7246.46
489.578	7397.87
489.948	7549.05
490.318	7631.31
490.688	7740.46
491.058	7926.22
491.428	8045.76
491.798	8135.25
492.168	8311.07
492.538	8377.73
492.908	8540.89
493.278	8631.28
493.648	8665.63
494.017	8881.67
494.387	8979.98
494.757	9113.53
495.126	9163.93
495.496	9293.64
495.866	9379.51
496.235	9449.12
496.605	9606.17
496.974	9704.25
497.344	9762.1
497.713	9845.49
498.082	9977.46
498.452	10031.02
498.821	10119.38
499.19	10186.05
499.559	10341.3
499.928	10431.91
500.298	10500.61
500.667	10583.32
501.036	10566.6
501.405	10708.97
501.774	10734.96
502.143	10829.87
502.512	10919.13
502.88	11025.12
503.249	11060.6
503.618	11096.98
503.987	11073.25
504.356	11199.58
504.724	11254.94
505.093	11261.72
505.462	11353.92
505.83	11381.04
506.199	11466.01
506.567	11641.6
506.936	11628.04
507.304	11686.12
507.672	11778.32
508.041	11778.32
508.409	11869.39
508.777	11964.53
509.145	11944.42
509.514	12015.38
509.882	12095.6
510.25	12124.53
510.618	12151.87
510.986	12240.91
511.354	12223.96
511.722	12212.66
512.09	12385.76
512.458	12351.41
512.826	12512.31
513.193	12522.93
513.561	12414.24
513.929	12555.47
514.297	12655.81
514.664	12609.94
515.032	12627.11
515.4	12766.54
515.767	12728.35
516.135	12755.92
516.502	12665.98
516.869	12846.54
517.237	12807.45
517.604	12805.41
517.972	12865.98
518.339	12963.37
518.706	12898.52
519.073	12934
519.44	13005.63
519.808	13052.41
520.175	12992.3
520.542	13149.81
520.909	13181
521.276	13106.19
521.643	13072.98
522.009	13199.3
522.376	13227.55
522.743	13256.02
523.11	13334.44
523.477	13374.89
523.843	13363.14
524.21	13509.57
524.577	13524.26
524.943	13529.23
525.31	13472.06
525.676	13600.19
526.043	13596.8
526.409	13608.1
526.776	13631.6
527.142	13630.93
527.508	13689.68
527.874	13687.87
528.241	13729.68
528.607	13626.63
528.973	13699.63
529.339	13595.9
529.705	13761.32
530.071	13719.51
530.437	13715.44
530.803	13747.76
531.169	13791.6
531.535	13744.14
531.901	13599.52
532.267	13668.44
532.632	13697.82
532.998	13643.13
533.364	13688.1
533.73	13705.28
534.095	13698.72
534.461	13660.08
534.826	13597.48
535.192	13656.24
535.557	13680.19
535.923	13539.63
536.288	13538.27
536.653	13541.44
537.019	13393.42
537.384	13408.79
537.749	13449.91
538.114	13428.67
538.479	13391.84
538.845	13383.02
539.21	13243.59
539.575	13282.01
539.94	13255.57
540.305	13257.6
540.67	13193.88
541.034	13161.79
541.399	13135.12
541.764	13148.68
542.129	13113.2
542.494	13062.58
542.858	13004.95
543.223	12960.89
543.587	13050.6
543.952	12938.29
544.316	12904.39
544.681	12781.91
545.045	12715.7
545.41	12778.52
545.774	12749.59
546.138	12700.56
546.503	12678.64
546.867	12576.72
547.231	12633.44
547.595	12597.51
547.959	12590.28
548.324	12529.71
548.688	12409.94
549.052	12438.64
549.416	12455.14
549.779	12298.31
550.143	12302.15
550.507	12423.28
550.871	12277.52
551.235	12261.7
551.599	12260.12
551.962	12251.53
552.326	12169.04
552.689	12188.7
553.053	12106
553.417	12132.21
553.78	12173.79
554.143	12109.16
554.507	12067.8
554.87	12031.87
555.234	12104.64
555.597	11969.95
555.96	11951.65
556.323	12008.37
556.686	11898.77
557.05	11889.5
557.413	11965.66
557.776	11924.08
558.139	11959.33
558.502	11832.56
558.865	11758.66
559.228	11865.55
559.59	11882.5
559.953	11885.44
560.316	11911.42
560.679	11780.35
561.041	11819.22
561.404	11831.65
561.767	11916.85
562.129	11822.39
562.492	11919.79
562.854	11866.23
563.217	11860.8
563.579	11809.96
563.941	11805.44
564.304	11932.67
564.666	11887.24
565.028	11857.41
565.39	11875.04
565.753	11885.21
566.115	11802.27
566.477	11877.75
566.839	11850.86
567.201	11960.91
567.563	11839.79
567.925	12030.07
568.287	11955.04
568.648	12020.35
569.01	12016.05
569.372	11978.09
569.734	11931.31
570.095	11940.35
570.457	12048.37
570.819	12062.38
571.18	11934.93
571.542	12010.86
571.903	12017.41
572.265	12014.92
572.626	12021.7
572.987	12053.79
573.349	11956.39
573.71	12140.34
574.071	12145.09
574.432	12050.18
574.794	12221.02
575.155	12086.33
575.516	12051.53
575.877	12109.16
576.238	12050.63
576.599	12120.01
576.96	12122.49
577.32	12107.13
577.681	12145.99
578.042	12074.36
578.403	12138.54
578.763	12064.64
579.124	12123.85
579.485	12248.14
579.845	12167.91
580.206	12141.02
580.566	12167.24
580.927	12099.67
581.287	12171.08
581.648	12107.8
582.008	12094.47
582.368	12040.01
582.728	12168.37
583.089	12155.03
583.449	12014.47
583.809	12103.28
584.169	12018.54
584.529	12014.25
584.889	12089.72
585.249	12032.55
585.609	12049.95
585.969	11985.77
586.329	12008.82
586.688	12013.12
587.048	11979.44
587.408	11928.82
587.768	11944.64
588.127	11954.81
588.487	11892.44
588.846	12006.34
589.206	11936.96
589.565	11944.19
589.925	11954.13
590.284	11932.67
590.643	11924.08
591.003	11863.52
591.362	11921.59
591.721	11884.31
592.08	11764.08
592.44	11930.18
592.799	11844.08
593.158	11877.53
593.517	11798.88
593.876	11871.2
594.235	11811.31
594.593	11821.26
594.952	11800.24
595.311	11745.1
595.67	11853.35
596.029	11872.33
596.387	11821.26
596.746	11870.52
597.104	11843.4
597.463	11743.52
597.822	11784.2
598.18	11742.16
598.538	11786.91
598.897	11826.23
599.255	11727.25
599.613	11833.69
599.972	11773.12
600.33	11766.34
600.688	11765.89
601.046	11773.57
601.404	11848.37
601.762	11729.28
602.12	11832.1
602.478	11757.53
602.836	11810.18
603.194	11734.03
603.552	11724.76
603.91	11643.63
604.268	11691.99
604.625	11670.07
604.983	11771.77
605.341	11611.77
605.698	11741.03
606.056	11804.76
606.413	11708.49
606.771	11636.18
607.128	11786.68
607.485	11754.82
607.843	11707.81
608.2	11751.2
608.557	11826.45
608.914	11787.59
609.272	11823.06
609.629	11817.42
609.986	11894.48
610.343	11804.76
610.7	11811.54
611.057	11823.74
611.414	11816.74
611.771	11764.31
612.127	11874.36
612.484	11881.14
612.841	11832.1
613.198	11818.55
613.554	11837.3
613.911	11887.92
614.267	11929.95
614.624	11926.34
614.98	11941.71
615.337	11956.85
615.693	11931.54
616.05	11903.51
616.406	12013.79
616.762	12003.85
617.118	11926.34
617.475	11902.38
617.831	11997.52
618.187	12024.64
618.543	11971.54
618.899	12061.7
619.255	12014.25
619.611	12045.43
619.967	12056.96
620.323	12033.68
620.678	12036.17
621.034	11993
621.39	12006.34
621.746	12003.85
622.101	12089.27
622.457	11957.98
622.812	11982.83
623.168	12045.88
623.523	12045.88
623.879	12018.31
624.234	12001.82
624.589	12030.29
624.945	12033.23
625.3	11973.12
625.655	12071.87
626.01	12049.5
626.365	12044.3
626.72	12016.28
627.075	11946.23
627.43	12003.85
627.785	12047.69
628.14	11945.77
628.495	12030.97
628.85	11903.51
629.205	11899
629.559	12031.42
629.914	11975.6
630.269	11938.99
630.623	11998.88
630.978	11881.59
631.332	11953.68
631.687	11889.5
632.041	11919.79
632.396	11952.78
632.75	11814.25
633.104	11846.12
633.459	11816.51
633.813	11757.3
634.167	11821.71
634.521	11784.42
634.875	11780.58
635.229	11789.62
635.583	11688.83
635.937	11660.58
636.291	11715.27
636.645	11685.44
636.999	11676.63
637.352	11745.1
637.706	11622.84
638.06	11654.03
638.413	11619
638.767	11616.74
639.121	11616.52
639.474	11586.01
639.828	11580.81
640.181	11603.18
640.534	11619.23
640.888	11572.9
641.241	11541.49
641.594	11588.72
641.947	11573.35
642.301	11564.31
642.654	11511.21
643.007	11585.1
643.36	11521.6
643.713	11442.96
644.066	11572.22
644.419	11484.09
644.771	11374.26
645.124	11285
645.477	11378.33
645.83	11268.28
646.182	11246.13
646.535	11148.28
646.888	11230.76
647.24	11078
647.593	11207.49
647.945	11122.52
648.298	11095.85
648.65	11147.38
649.002	11024.89
649.355	11103.99
649.707	11126.81
650.059	11179.01
650.411	11273.93
650.763	11320.71
651.115	11321.84
651.467	11319.35
651.819	11358.44
652.171	11403.87
652.523	11427.37
652.875	11338.11
653.227	11357.31
653.578	11394.6
653.93	11328.84
654.282	11320.25
654.633	11320.71
654.985	11298.56
655.337	11366.35
655.688	11307.37
656.039	11399.57
656.391	11277.32
656.742	11339.24
657.094	11336.07
657.445	11391.44
657.796	11342.85
658.147	11297.2
658.498	11340.14
658.849	11395.73
659.2	11358.44
659.551	11402.74
659.902	11461.49
660.253	11437.76
660.604	11468.95
660.955	11357.77
661.306	11388.73
661.656	11314.6
662.007	11468.95
662.358	11386.92
662.708	11405.67
663.059	11349.63
663.409	11281.16
663.76	11443.41
664.11	11424.66
664.461	11445.22
664.811	11452.91
665.161	11477.31
665.511	11442.74
665.862	11432.34
666.212	11433.47
666.562	11556.18
666.912	11472.79
667.262	11403.19
667.612	11473.7
667.962	11421.72
668.312	11506.69
668.662	11534.26
669.011	11453.36
669.361	11395.96
669.711	11368.61
670.06	11431.89
670.41	11357.54
670.76	11384.43
671.109	11373.13
671.459	11332.68
671.808	11336.52
672.157	11427.82
672.507	11261.95
672.856	11323.19
673.205	11376.52
673.554	11270.76
673.904	11299.91
674.253	11367.71
674.602	11262.63
674.951	11169.3
675.3	11161.84
675.649	11308.5
675.998	11225.79
676.346	11299.01
676.695	11290.88
677.044	11180.14
677.393	11229.63
677.741	11230.09
678.09	11179.69
678.438	11134.04
678.787	11249.29
679.135	11123.2
679.484	11085.23
679.832	11128.17
680.181	11035.29
680.529	11022.18
680.877	11070.09
681.225	11008.17
681.573	11088.62
681.922	10935.86
682.27	10982.63
682.618	10998
682.966	10946.7
683.314	10957.55
683.661	10929.75
684.009	10853.6
684.357	10889.53
684.705	10756.2
685.053	10778.57
685.4	10788.97
685.748	10778.8
686.095	10724.79
686.443	10691.34
686.79	10672.13
687.138	10722.3
687.485	10744
687.832	10647.95
688.18	10636.66
688.527	10545.81
688.874	10598.01
689.221	10525.7
689.568	10497.68
689.915	10480.28
690.262	10431.46
690.609	10445.7
690.956	10439.6
691.303	10357.11
691.65	10276.21
691.997	10223.11
692.344	10207.97
692.69	10215.65
693.037	10223.56
693.383	10091.81
693.73	10081.87
694.077	10108.08
694.423	10076.44
694.769	10056.33
695.116	10007.07
695.462	9960.51
695.808	9949.67
696.155	9930.69
696.501	9830.35
696.847	9786.06
697.193	9777.92
697.539	9771.59
697.885	9661.31
698.231	9671.93
698.577	9722.1
698.923	9631.03
699.269	9551.71
699.614	9497.93
699.96	9479.85
700.306	9483.47
700.651	9447.76
700.997	9403.47
701.342	9355.11
701.688	9365.28
702.033	9351.49
702.379	9264.04
702.724	9262.68
703.069	9233.75
703.415	9229.46
703.76	9147.65
704.105	9227.65
704.45	9137.26
704.795	9069.01
705.14	9094.32
705.485	8987.21
705.83	8978.39
706.175	8990.6
706.52	8949.24
706.865	8884.16
707.209	8908.11
707.554	8775.91
707.899	8892.75
708.243	8777.95
708.588	8832.63
708.932	8757.61
709.277	8726.2
709.621	8673.09
709.966	8638.97
710.31	8626.99
710.654	8542.7
710.998	8606.88
711.342	8602.36
711.687	8517.84
712.031	8530.72
712.375	8465.19
712.719	8505.41
713.063	8447.56
713.407	8459.54
713.75	8431.06
714.094	8418.18
714.438	8408.01
714.782	8403.95
715.125	8445.98
715.469	8372.53
715.812	8308.35
716.156	8225.87
716.499	8252.31
716.843	8272.88
717.186	8301.12
717.53	8330.73
717.873	8281.01
718.216	8275.59
718.559	8241.92
718.902	8177.51
719.246	8188.13
719.589	8188.36
719.932	8174.35
720.275	8162.14
720.617	8127.12
720.96	8148.59
721.303	8138.19
721.646	8156.49
721.989	8066.55
722.331	8112.65
722.674	8111.52
723.016	8093.9
723.359	8118.76
723.701	8114.91
724.044	8000.57
724.386	8065.42
724.729	8102.03
725.071	8061.81
725.413	8076.04
725.755	7990.4
726.097	8070.4
726.439	8019.1
726.782	8015.26
727.124	8040.57
727.465	8000.11
727.807	7971.87
728.149	7952.43
728.491	7974.8
728.833	7977.06
729.175	7965.77
729.516	7969.61
729.858	7863.39
730.199	7961.02
730.541	7927.57
730.882	7923.96
731.224	7915.37
731.565	7869.72
731.906	7952.21
732.248	7901.36
732.589	7938.42
732.93	7930.29
733.271	7904.75
733.612	7893.45
733.953	7902.94
734.294	7913.79
734.635	7912.89
734.976	7930.51
735.317	7947.69
735.658	7919.21
735.999	7903.39
736.339	7871.53
736.68	7960.12
737.021	7895.03
737.361	7917.18
737.702	8036.05
738.042	7987.01
738.383	7950.85
738.723	8017.29
739.063	7970.28
739.404	8008.02
739.744	7970.74
740.084	8017.74
740.424	8061.81
740.764	8048.7
741.104	8036.5
741.444	7999.89
741.784	8058.87
742.124	8104.97
742.464	8073.33
742.804	8123.05
743.143	8128.47
743.483	8167.79
743.823	8119.66
744.162	8161.24
744.502	8232.65
744.841	8219.77
745.181	8321.91
745.52	8319.88
745.86	8397.62
746.199	8363.27
746.538	8433.1
746.877	8469.48
747.216	8528.91
747.556	8590.83
747.895	8661.34
748.234	8624.5
748.573	8732.98
748.911	8761.68
749.25	8784.5
749.589	8860.43
749.928	8995.57
750.267	9070.37
750.605	9070.82
750.944	9137.71
751.283	9226.07
751.621	9313.3
751.96	9363.92
752.298	9459.29
752.636	9595.78
752.975	9705.38
753.313	9710.58
753.651	9931.14
753.989	9946.5
754.327	9967.52
754.666	10163.9
755.004	10287.51
755.342	10474.4
755.679	10662.87
756.017	10702.19
756.355	10818.12
756.693	10864.67
757.031	11136.76
757.368	11206.13
757.706	11348.05
758.044	11466.01
758.381	11620.58
758.719	11794.59
759.056	11895.38
