Data from hue_340_FLMS001491_62.txt Node
Date: Mon Feb 06 15:43:26 GMT 2017
User: dcchb
Spectrometer: FLMS00149
Trigger mode: 0
Integration Time (sec): 2.000000E-2
Scans to average: 10
Electric dark correction enabled: true
Nonlinearity correction enabled: false
Boxcar width: 0
XAxis mode: Wavelengths
Number of Pixels in Spectrum: 2048
>>>>>Begin Spectral Data<<<<<
341.393	-4.56
341.776	-4.56
342.16	-4.56
342.543	-88.85
342.927	-74.39
343.31	-66.26
343.693	-73.49
344.077	-88.18
344.46	-46.14
344.843	-47.27
345.226	-51.57
345.61	-22.87
345.993	-26.71
346.376	5.61
346.759	12.16
347.142	19.84
347.525	43.8
347.908	50.8
348.291	84.48
348.674	92.61
349.057	113.17
349.44	123.12
349.823	126.96
350.206	141.87
350.588	188.88
350.971	207.64
351.354	216.22
351.737	224.81
352.119	247.18
352.502	256.9
352.884	281.31
353.267	276.56
353.65	263.91
354.032	298.93
354.414	314.75
354.797	303.9
355.179	328.31
355.562	332.6
355.944	317.92
356.326	335.09
356.709	329.89
357.091	318.59
357.473	331.7
357.855	330.12
358.238	338.93
358.62	343.23
359.002	322.44
359.384	340.06
359.766	327.86
360.148	324.69
360.53	319.27
360.912	329.44
361.294	326.73
361.676	337.58
362.057	332.83
362.439	305.94
362.821	326.95
363.203	318.37
363.584	341.19
363.966	329.21
364.348	317.69
364.729	341.19
365.111	321.76
365.493	308.42
365.874	331.93
366.256	318.37
366.637	331.25
367.019	301.64
367.4	292.83
367.781	312.04
368.163	301.87
368.544	304.58
368.925	309.55
369.306	312.94
369.688	317.01
370.069	304.36
370.45	314.3
370.831	284.7
371.212	290.8
371.593	309.1
371.974	300.51
372.355	299.16
372.736	312.94
373.117	318.14
373.498	312.94
373.879	304.36
374.26	294.41
374.641	296.22
375.021	307.07
375.402	305.49
375.783	322.89
376.163	304.81
376.544	331.47
376.925	324.47
377.305	335.54
377.686	317.01
378.066	315.66
378.447	331.93
378.827	323.11
379.208	319.27
379.588	314.98
379.968	309.78
380.349	343
380.729	326.95
381.109	312.94
381.489	313.17
381.87	332.38
382.25	330.8
382.63	338.71
383.01	329.44
383.39	340.29
383.77	332.83
384.15	326.28
384.53	302.32
384.91	341.42
385.29	338.71
385.67	341.19
386.049	330.34
386.429	343.68
386.809	344.81
387.189	331.93
387.568	359.72
387.948	348.65
388.328	350
388.707	351.81
389.087	343.68
389.466	339.38
389.846	332.6
390.225	358.82
390.605	357.24
390.984	351.36
391.363	361.3
391.743	351.13
392.122	336.67
392.501	357.01
392.881	371.02
393.26	361.98
393.639	350.91
394.018	365.15
394.397	383.45
394.776	343.9
395.155	353.85
395.534	357.24
395.913	375.31
396.292	373.51
396.671	368.31
397.05	359.95
397.429	375.54
397.808	352.26
398.186	368.08
398.565	392.04
398.944	383.9
399.323	375.31
399.701	391.59
400.08	381.64
400.458	398.82
400.837	398.82
401.215	380.96
401.594	372.83
401.972	387.07
402.351	418.48
402.729	407.4
403.107	385.26
403.486	399.5
403.864	412.6
404.242	420.51
404.62	398.37
404.999	419.16
405.377	389.55
405.755	413.73
406.133	423.68
406.511	432.94
406.889	419.16
407.267	417.12
407.645	408.53
408.023	434.75
408.401	444.69
408.779	412.6
409.156	441.53
409.534	438.14
409.912	432.71
410.29	431.58
410.667	451.92
411.045	432.26
411.422	439.72
411.8	446.05
412.178	454.86
412.555	456.44
412.933	463.9
413.31	458.48
413.687	462.09
414.065	482.2
414.442	467.74
414.819	480.85
415.197	492.6
415.574	482.43
415.951	504.8
416.328	502.32
416.705	513.39
417.082	476.78
417.46	509.32
417.837	539.83
418.214	522.2
418.591	526.5
418.967	514.97
419.344	514.75
419.721	529.21
420.098	545.48
420.475	540.51
420.852	547.29
421.228	564.24
421.605	554.07
421.982	566.95
422.358	556.1
422.735	562.43
423.111	573.73
423.488	566.27
423.864	581.86
424.241	593.84
424.617	607.17
424.994	582.32
425.37	596.1
425.746	608.08
426.123	601.75
426.499	585.48
426.875	615.53
427.251	626.38
427.627	634.74
428.003	598.81
428.379	625.7
428.756	630.9
429.132	639.04
429.507	666.38
429.883	657.12
430.259	651.47
430.635	655.31
431.011	679.49
431.387	691.01
431.763	690.33
432.138	698.7
432.514	688.08
432.89	692.14
433.265	692.37
433.641	686.95
434.016	737.11
434.392	708.64
434.767	704.35
435.143	726.49
435.518	755.87
435.894	754.29
436.269	723.1
436.644	772.14
437.02	773.04
437.395	765.59
437.77	784.12
438.145	772.37
438.52	799.26
438.895	804.23
439.271	793.38
439.646	828.18
440.021	818.24
440.395	830.9
440.77	791.12
441.145	787.73
441.52	828.41
441.895	823.21
442.27	848.97
442.645	839.26
443.019	835.42
443.394	848.97
443.769	855.75
444.143	871.57
444.518	877.9
444.892	862.31
445.267	849.43
445.641	875.41
446.016	873.83
446.39	891.46
446.764	879.71
447.139	894.62
447.513	890.1
447.887	920.16
448.262	902.08
448.636	907.5
449.01	890.33
449.384	919.48
449.758	934.4
450.132	931.46
450.506	914.51
450.88	914.28
451.254	938.69
451.628	954.06
452.002	938.92
452.376	946.37
452.75	939.14
453.123	965.58
453.497	954.06
453.871	952.93
454.244	972.36
454.618	974.85
454.992	999.93
455.365	1006.94
455.739	1002.87
456.112	1003.1
456.486	1024.79
456.859	1021.63
457.232	1053.94
457.606	1064.56
457.979	1058.23
458.352	1026.82
458.725	1067.5
459.099	1092.13
459.472	1079.25
459.845	1093.04
460.218	1090.78
460.591	1138.01
460.964	1127.61
461.337	1153.37
461.71	1150.21
462.083	1191.11
462.456	1159.7
462.829	1171
463.201	1209.87
463.574	1181.17
463.947	1190.43
464.32	1211.23
464.692	1208.74
465.065	1247.16
465.438	1223.65
465.81	1237.89
466.183	1284.9
466.555	1289.42
466.928	1284.22
467.3	1292.13
467.672	1285.8
468.045	1366.48
468.417	1339.58
468.789	1318.34
469.161	1369.64
469.534	1366.02
469.906	1389.3
470.278	1390.43
470.65	1422.75
471.022	1433.14
471.394	1482.63
471.766	1466.81
472.138	1502.74
472.51	1518.56
472.882	1520.37
473.253	1586.58
473.625	1574.38
473.997	1573.48
474.369	1573.02
474.74	1607.82
475.112	1634.49
475.484	1659.12
475.855	1665.45
476.227	1693.02
476.598	1741.38
476.97	1742.74
477.341	1780.25
477.713	1770.98
478.084	1776.18
478.455	1856.18
478.827	1882.17
479.198	1914.03
479.569	1908.61
479.94	1939.12
480.311	1970.98
480.682	2008.27
481.053	2042.16
481.424	2073.35
481.795	2136.62
482.166	2151.09
482.537	2147.25
482.908	2195.61
483.279	2190.18
483.65	2243.29
484.021	2247.36
484.391	2305.66
484.762	2304.08
485.133	2342.49
485.503	2418.43
485.874	2387.01
486.244	2422.94
486.615	2469.05
486.985	2454.58
487.356	2533.68
487.726	2514.69
488.097	2595.14
488.467	2643.96
488.837	2663.62
489.207	2679.21
489.578	2708.36
489.948	2749.26
490.318	2777.29
490.688	2764.4
491.058	2819.54
491.428	2858.41
491.798	2873.33
492.168	2927.11
492.538	2958.3
492.908	2980.9
493.278	3043.27
493.648	3002.59
494.017	3022.93
494.387	3035.81
494.757	3082.36
495.126	3156.26
495.496	3117.16
495.866	3170.04
496.235	3201.68
496.605	3179.08
496.974	3192.87
497.344	3256.82
497.713	3269.7
498.082	3282.81
498.452	3335.46
498.821	3332.75
499.19	3293.2
499.559	3378.63
499.928	3363.49
500.298	3353.99
500.667	3433.09
501.036	3391.05
501.405	3437.16
501.774	3422.24
502.143	3482.35
502.512	3516.48
502.88	3549.92
503.249	3517.15
503.618	3523.03
503.987	3548.34
504.356	3603.7
504.724	3580.88
505.093	3606.87
505.462	3638.28
505.83	3653.42
506.199	3649.58
506.567	3682.12
506.936	3677.83
507.304	3735
507.672	3746.53
508.041	3762.57
508.409	3759.63
508.777	3756.02
509.145	3790.14
509.514	3796.47
509.882	3835.34
510.25	3820.42
510.618	3869.46
510.986	3841.44
511.354	3890.93
511.722	3907.88
512.09	3890.25
512.458	3903.81
512.826	3940.19
513.193	3920.08
513.561	3962.57
513.929	4009.12
514.297	3997.37
514.664	3994.88
515.032	4018.38
515.4	4071.26
515.767	4055.22
516.135	4047.99
516.502	4053.41
516.869	4087.53
517.237	4097.93
517.604	4083.24
517.972	4135.67
518.339	4141.32
518.706	4164.14
519.073	4117.59
519.44	4174.76
519.808	4195.1
520.175	4228.1
520.542	4228.32
520.909	4245.5
521.276	4244.82
521.643	4276.91
522.009	4293.86
522.376	4309
522.743	4356.68
523.11	4357.58
523.477	4365.27
523.843	4381.09
524.21	4424.47
524.577	4433.06
524.943	4471.93
525.31	4451.59
525.676	4500.63
526.043	4487.3
526.409	4541.31
526.776	4594.64
527.142	4580.18
527.508	4640.29
527.874	4615.2
528.241	4648.65
528.607	4693.85
528.973	4704.24
529.339	4732.04
529.705	4721.42
530.071	4800.74
530.437	4774.07
530.803	4803.22
531.169	4788.98
531.535	4830.34
531.901	4818.36
532.267	4886.61
532.632	4890.22
532.998	4944.01
533.364	4935.87
533.73	4954.18
534.095	4985.14
534.461	4981.3
534.826	5067.85
535.192	5075.3
535.557	5082.76
535.923	5082.54
536.288	5086.6
536.653	5109.2
537.019	5118.02
537.384	5184.68
537.749	5180.39
538.114	5145.81
538.479	5217.45
538.845	5198.92
539.21	5252.7
539.575	5257.9
539.94	5243.89
540.305	5342.19
540.67	5315.75
541.034	5331.34
541.399	5412.7
541.764	5392.58
542.129	5451.57
542.494	5422.87
542.858	5466.71
543.223	5448.63
543.587	5487.5
543.952	5543.54
544.316	5539.7
544.681	5515.97
545.045	5603.2
545.41	5604.33
545.774	5645.68
546.138	5701.28
546.503	5624.89
546.867	5659.02
547.231	5740.15
547.595	5752.8
547.959	5738.34
548.324	5714.61
548.688	5784.66
549.052	5805.68
549.416	5788.73
549.779	5836.19
550.143	5857.43
550.507	5897.88
550.871	5882.29
551.235	5937.2
551.599	5979.01
551.962	5900.82
552.326	6021.72
552.689	6006.13
553.053	5994.83
553.417	6034.6
553.78	6091.55
554.143	6087.48
554.507	6090.87
554.87	6119.8
555.234	6197.76
555.597	6148.04
555.96	6195.73
556.323	6238.21
556.686	6220.59
557.05	6289.51
557.413	6209.96
557.776	6208.16
558.139	6308.27
558.502	6273.01
558.865	6294.93
559.228	6369.73
559.59	6368.83
559.953	6409.73
560.316	6430.07
560.679	6420.13
561.041	6414.7
561.404	6487.7
561.767	6525.44
562.129	6548.03
562.492	6594.81
562.854	6527.92
563.217	6617.18
563.579	6569.95
563.941	6647.92
564.304	6644.08
564.666	6706.45
565.028	6685.66
565.39	6708.71
565.753	6730.4
566.115	6733.11
566.477	6751.19
566.839	6790.29
567.201	6883.84
567.563	6854.92
567.925	6887.91
568.287	6945.99
568.648	6927.91
569.01	7016.27
569.372	7004.29
569.734	7013.11
570.095	7048.81
570.457	7090.84
570.819	7073.44
571.18	7135.59
571.542	7166.32
571.903	7156.15
572.265	7227.56
572.626	7264.85
572.987	7337.39
573.349	7362.93
573.71	7465.07
574.071	7464.17
574.432	7501.68
574.794	7519.08
575.155	7606.31
575.516	7637.04
575.877	7694.22
576.238	7694.44
576.599	7832.75
576.96	7851.95
577.32	7937.83
577.681	7956.58
578.042	8116.35
578.403	8088.11
578.763	8235.45
579.124	8265.5
579.485	8315.67
579.845	8484.25
580.206	8496.23
580.566	8546.63
580.927	8698.03
581.287	8879.5
581.648	8999.95
582.008	9110
582.368	9270.22
582.728	9325.59
583.089	9455.3
583.449	9553.83
583.809	9775.29
584.169	9896.65
584.529	9985.23
584.889	10274.04
585.249	10331.66
585.609	10481.04
585.969	10853.01
586.329	10866.79
586.688	11063.62
587.048	11318.08
587.408	11475.14
587.768	11641.01
588.127	11870.15
588.487	12053.43
588.846	12420.87
589.206	12546.52
589.565	12819.51
589.925	13078.71
590.284	13280.29
590.643	13619.71
591.003	13830.55
591.362	14043.66
591.721	14268.51
592.08	14539.01
592.44	14841.83
592.799	15133.8
593.158	15362.49
593.517	15609.04
593.876	16007.22
594.235	16093.09
594.593	16443.82
594.952	16694.66
595.311	16954.54
595.67	17291.93
596.029	17587.52
596.387	17993.38
596.746	18128.07
597.104	18349.53
597.463	18645.34
597.822	18996.29
598.18	19241.26
598.538	19523.29
598.897	19861.36
599.255	19984.52
599.613	20546.99
599.972	20694.33
600.33	21092.74
600.688	21323.01
601.046	21679.84
601.404	21970.68
601.762	22232.82
602.12	22459.25
602.478	22726.14
602.836	22998.67
603.194	23185.79
603.552	23497.42
603.91	23701.71
604.268	24113
604.625	24183.28
604.983	24581.46
605.341	24677.95
605.698	24945.29
606.056	25230.03
606.413	25389.35
606.771	25837.92
607.128	26026.17
607.485	26093.28
607.843	26456.66
608.2	26741.85
608.557	26940.27
608.914	27034.5
609.272	27390.2
609.629	27610.53
609.986	27918.09
610.343	28060.01
610.7	28410.28
611.057	28667.9
611.414	28691.41
611.771	28883.04
612.127	29150.15
612.484	29370.71
612.841	29491.84
613.198	29663.81
613.554	29822.9
613.911	30146.51
614.267	30300.63
614.624	30361.19
614.98	30660.17
615.337	30838.69
615.693	30914.4
616.05	31113.49
616.406	31553.93
616.762	31396.42
617.118	31532.91
617.475	31699.46
617.831	31966.57
618.187	32030.3
618.543	32242.05
618.899	32502.15
619.255	32624.64
619.611	32673.45
619.967	32805.87
620.323	33065.75
620.678	32934.68
621.034	33022.14
621.39	33171.29
621.746	33189.37
622.101	33760.88
622.457	33486.99
622.812	33732.18
623.168	33870.93
623.523	33892.4
623.879	33989.12
624.234	34045.84
624.589	34244.71
624.945	34212.84
625.3	34452.39
625.655	34376.23
626.01	34457.13
626.365	34481.54
626.72	34615.54
627.075	34792.72
627.43	34713.85
627.785	34639.95
628.14	34731.25
628.495	34941.86
628.85	34982.31
629.205	34990
629.559	35215.53
629.914	35000.85
630.269	35139.15
630.623	35169.2
630.978	35041.07
631.332	35297.56
631.687	35368.29
632.041	35184.57
632.396	35488.97
632.75	35287.17
633.104	35412.13
633.459	35285.81
633.813	35288.75
634.167	35417.11
634.521	35395.86
634.875	35458.69
635.229	35431.34
635.583	35338.69
635.937	35365.81
636.291	35433.38
636.645	35391.8
636.999	35345.24
637.352	35438.35
637.706	35348.63
638.06	35414.17
638.413	35392.7
638.767	35416.43
639.121	35470.44
639.474	35280.16
639.828	35415.3
640.181	35437.44
640.534	35395.41
640.888	35303.66
641.241	35151.35
641.594	35251.23
641.947	35326.94
642.301	35319.48
642.654	35422.76
643.007	35316.32
643.36	35441.51
643.713	35194.74
644.066	35527.39
644.419	35312.25
644.771	35032.03
645.124	34771.92
645.477	34541.2
645.83	34366.74
646.182	34464.59
646.535	34227.31
646.888	34390.69
647.24	34081.77
647.593	34332.39
647.945	34260.3
648.298	34148.21
648.65	34243.13
649.002	34145.05
649.355	34226.4
649.707	34211.71
650.059	34399.96
650.411	34707.07
650.763	34781.19
651.115	35109.99
651.467	34949.32
651.819	34830.23
652.171	34863.67
652.523	34926.5
652.875	34873.84
653.227	34798.14
653.578	35116.32
653.93	34779.61
654.282	34686.73
654.633	34602.44
654.985	34667.52
655.337	34781.64
655.688	34742.77
656.039	35020.05
656.391	34579.16
656.742	34633.17
657.094	34617.35
657.445	34875.2
657.796	34782.32
658.147	34613.51
658.498	34543.68
658.849	34574.42
659.2	34579.84
659.551	34579.16
659.902	34725.37
660.253	34506.39
660.604	34634.75
660.955	34536.9
661.306	34690.57
661.656	34523.12
662.007	34533.06
662.358	34494.42
662.708	34681.98
663.059	34662.1
663.409	34333.29
663.76	34525.6
664.11	34498.49
664.461	34604.92
664.811	34637.24
665.161	34473.18
665.511	34527.86
665.862	34488.77
666.212	34603.57
666.562	34660.74
666.912	34559.27
667.262	34530.35
667.612	34481.76
667.962	34613.06
668.312	34560.4
668.662	34697.8
669.011	34479.28
669.361	34453.74
669.711	34547.98
670.06	34429.33
670.41	34444.02
670.76	34382.1
671.109	34293.97
671.459	34388.21
671.808	34430.69
672.157	34451.48
672.507	34206.97
672.856	34300.98
673.205	34285.84
673.554	34382.1
673.904	34220.75
674.253	34477.7
674.602	34310.02
674.951	33838.16
675.3	33675.91
675.649	34199.74
675.998	34136.69
676.346	34114.77
676.695	34263.92
677.044	33981.89
677.393	34277.25
677.741	34153.41
678.09	33995.22
678.438	33966.97
678.787	33985.73
679.135	34093.75
679.484	33811.72
679.832	33918.84
680.181	33794.32
680.529	33963.36
680.877	33723.14
681.225	33697.38
681.573	33950.03
681.922	33609.7
682.27	33592.52
682.618	33615.12
682.966	33574.22
683.314	33610.37
683.661	33550.49
684.009	33385.75
684.357	33280.44
684.705	33119.31
685.053	33261.23
685.4	33274.79
685.748	33071.4
686.095	33015.81
686.443	33028.24
686.79	32958.64
687.138	33000.45
687.485	33069.37
687.832	32815.14
688.18	32854.91
688.527	32733.11
688.874	32761.81
689.221	32765.88
689.568	32522.04
689.915	32573.56
690.262	32568.59
690.609	32255.61
690.956	32320.69
691.303	32230.52
691.65	32136.51
691.997	32115.27
692.344	31925.9
692.69	31846.58
693.037	31977.2
693.383	31664.21
693.73	31829.63
694.077	31564.55
694.423	31645.45
694.769	31419.24
695.116	31469.86
695.462	31425.35
695.808	31279.59
696.155	31372.24
696.501	31143.09
696.847	31142.19
697.193	30875.98
697.539	30990.56
697.885	30798.92
698.231	30697.23
698.577	30709.88
698.923	30688.42
699.269	30574.29
699.614	30461.3
699.96	30303.34
700.306	30325.26
700.651	30268.31
700.997	30129.79
701.342	30109.22
701.688	30038.04
702.033	29894.09
702.379	29986.51
702.724	29756.69
703.069	29833.75
703.415	29611.83
703.76	29580.65
704.105	29593.08
704.45	29467.66
704.795	29383.14
705.14	29208
705.485	29148.8
705.83	29239.19
706.175	29160.32
706.52	29064.73
706.865	28860.67
707.209	28990.83
707.554	28839.43
707.899	28664.97
708.243	28721.46
708.588	28660.9
708.932	28495.03
709.277	28495.71
709.621	28547.68
709.966	28300.91
710.31	28488.02
710.654	28217.75
710.998	28175.49
711.342	28207.8
711.687	28067.24
712.031	28021.82
712.375	27909.28
712.719	27959
713.063	27839.45
713.407	27862.5
713.75	27838.1
714.094	27809.4
714.438	27672.22
714.782	27723.52
715.125	27580.93
715.469	27681.94
715.812	27446.47
716.156	27441.04
716.499	27317.66
716.843	27360.37
717.186	27105.01
717.53	27372.57
717.873	27267.49
718.216	27191.11
718.559	27150.66
718.902	26921.74
719.246	26977.78
719.589	26860.27
719.932	26664.34
720.275	26803.09
720.617	26764.68
720.96	26731.68
721.303	26664.34
721.646	26667.05
721.989	26416.89
722.331	26626.38
722.674	26450.11
723.016	26525.14
723.359	26405.59
723.701	26549.54
724.044	26251.47
724.386	26098.48
724.729	26398.13
725.071	26177.57
725.413	26173.05
725.755	26090.8
726.097	25939.61
726.439	25919.73
726.782	25981.65
727.124	26023
727.465	25809.67
727.807	25738.26
728.149	25712.05
728.491	25814.42
728.833	25790.92
729.175	25696.01
729.516	25613.07
729.858	25636.35
730.199	25544.6
730.541	25670.47
730.882	25543.92
731.224	25522.9
731.565	25418.72
731.906	25478.38
732.248	25372.4
732.589	25354.55
732.93	25258.05
733.271	25197.94
733.612	25243.36
733.953	25196.36
734.294	25127.66
734.635	25054.89
734.976	25100.09
735.317	24969.47
735.658	24990.04
735.999	24938.74
736.339	24898.06
736.68	24953.65
737.021	24835.24
737.361	24761.34
737.702	24860.77
738.042	24738.29
738.383	24716.82
738.723	24784.39
739.063	24674.56
739.404	24693.09
739.744	24657.39
740.084	24534.45
740.424	24567.22
740.764	24439.54
741.104	24496.94
741.444	24385.53
741.784	24331.75
742.124	24365.42
742.464	24243.84
742.804	24296.27
743.143	24199.77
743.483	24339.66
743.823	24134.46
744.162	24159.1
744.502	24186.44
744.841	24008.14
745.181	24117.52
745.52	23962.94
745.86	24014.47
746.199	23985.32
746.538	23864.64
746.877	24067.8
747.216	23922.04
747.556	23950.97
747.895	23823.29
748.234	23779.67
748.573	23729.5
748.911	23717.75
749.25	23648.38
749.589	23643.63
749.928	23663.74
750.267	23658.77
750.605	23465.33
750.944	23496.29
751.283	23445.67
751.621	23428.04
751.96	23275.28
752.298	23279.12
752.636	23253.13
752.975	23057.2
753.313	23084.55
753.651	23148.95
753.989	23019.69
754.327	23008.17
754.666	22807.49
755.004	22887.04
755.342	22884.78
755.679	22815.18
756.017	22666.93
756.355	22748.51
756.693	22656.31
757.031	22627.16
757.368	22560.95
757.706	22555.75
758.044	22429.88
758.381	22467.39
758.719	22366.15
759.056	22376.09
759.394	22307.62
759.731	22102.65
760.068	22230.79
760.405	22075.99
760.743	21917.8
761.08	22064.69
