Data from hue_70_FLMS001491_86.txt Node
Date: Mon Feb 06 15:21:33 GMT 2017
User: dcchb
Spectrometer: FLMS00149
Trigger mode: 0
Integration Time (sec): 2.000000E-2
Scans to average: 10
Electric dark correction enabled: true
Nonlinearity correction enabled: false
Boxcar width: 0
XAxis mode: Wavelengths
Number of Pixels in Spectrum: 2048
>>>>>Begin Spectral Data<<<<<
341.393	-4.9
341.776	-4.9
342.16	-4.9
342.543	-69.31
342.927	-48.52
343.31	-82.41
343.693	-77.22
344.077	-70.21
344.46	-56.65
344.843	-52.81
345.226	-17.78
345.61	-31.34
345.993	-8.52
346.376	0.97
346.759	-2.64
347.142	5.27
347.525	38.49
347.908	63.35
348.291	71.48
348.674	106.28
349.057	113.74
349.44	136.34
349.823	153.96
350.206	162.1
350.588	192.16
350.971	208.65
351.354	243.91
351.737	232.61
352.119	240.29
352.502	269.44
352.884	268.54
353.267	289.78
353.65	309.67
354.032	276.22
354.414	306.05
354.797	341.98
355.179	322.55
355.562	349.21
355.944	317.8
356.326	330.01
356.709	331.14
357.091	349.44
357.473	331.59
357.855	342.43
358.238	343.79
358.62	332.72
359.002	338.82
359.384	327.75
359.766	324.13
360.148	350.12
360.53	324.13
360.912	346.05
361.294	355.54
361.676	367.29
362.057	341.3
362.439	349.44
362.821	331.81
363.203	323
363.584	342.43
363.966	306.28
364.348	340.17
364.729	332.04
365.111	327.75
365.493	337.69
365.874	343.79
366.256	331.81
366.637	325.71
367.019	327.07
367.4	309.67
367.781	312.15
368.163	334.98
368.544	306.05
368.925	309.22
369.306	318.48
369.688	320.51
370.069	334.75
370.45	326.62
370.831	336.11
371.212	329.78
371.593	328.88
371.974	315.77
372.355	312.15
372.736	312.38
373.117	334.98
373.498	326.62
373.879	341.53
374.26	289.78
374.641	353.96
375.021	313.06
375.402	312.38
375.783	330.91
376.163	317.35
376.544	322.1
376.925	331.36
377.305	348.76
377.686	325.71
378.066	330.01
378.447	304.02
378.827	342.66
379.208	327.07
379.588	344.47
379.968	352.15
380.349	341.3
380.729	335.43
381.109	339.27
381.489	320.74
381.87	347.18
382.25	341.08
382.63	328.65
383.01	341.53
383.39	349.44
383.77	358.48
384.15	344.92
384.53	341.98
384.91	329.78
385.29	330.01
385.67	340.63
386.049	346.73
386.429	347.18
386.809	355.32
387.189	346.05
387.568	361.87
387.948	366.39
388.328	328.2
388.707	364.13
389.087	366.16
389.466	339.72
389.846	354.19
390.225	370.68
390.605	356.67
390.984	370
391.363	347.41
391.743	364.58
392.122	365.26
392.501	359.61
392.881	377.69
393.26	362.77
393.639	395.99
394.018	371.59
394.397	356.45
394.776	379.72
395.155	370.46
395.534	363.22
395.913	381.76
396.292	384.02
396.671	407.07
397.05	399.61
397.429	375.88
397.808	387.63
398.186	374.75
398.565	408.2
398.944	384.47
399.323	386.05
399.701	375.88
400.08	382.66
400.458	378.59
400.837	405.48
401.215	381.53
401.594	405.26
401.972	387.63
402.351	405.71
402.729	398.7
403.107	396.44
403.486	413.39
403.864	419.49
404.242	393.51
404.62	423.11
404.999	424.92
405.377	429.66
405.755	446.16
406.133	400.96
406.511	424.92
406.889	408.87
407.267	428.99
407.645	426.27
408.023	432.83
408.401	434.41
408.779	424.69
409.156	446.39
409.534	446.39
409.912	417.69
410.29	440.51
410.667	464.47
411.045	442.32
411.422	447.74
411.8	441.19
412.178	479.61
412.555	450.91
412.933	448.65
413.31	451.13
413.687	493.16
414.065	474.63
414.442	461.98
414.819	460.4
415.197	481.19
415.574	480.51
415.951	469.21
416.328	468.31
416.705	490.45
417.082	478.93
417.46	478.25
417.837	504.69
418.214	502.88
418.591	481.41
418.967	499.49
419.344	523.67
419.721	495.88
420.098	483.9
420.475	527.74
420.852	483.67
421.228	531.36
421.605	506.27
421.982	501.53
422.358	527.29
422.735	518.02
423.111	525.03
423.488	512.37
423.864	534.75
424.241	542.2
424.617	546.27
424.994	534.29
425.37	557.57
425.746	548.3
426.123	553.05
426.499	556.89
426.875	546.04
427.251	537.68
427.627	571.81
428.003	573.16
428.379	577.46
428.756	569.55
429.132	580.39
429.507	574.97
429.883	591.47
430.259	600.96
430.635	590.34
431.011	611.58
431.387	627.85
431.763	610.68
432.138	632.82
432.514	626.49
432.89	631.47
433.265	632.82
433.641	645.48
434.016	657.91
434.392	655.65
434.767	634.4
435.143	657.23
435.518	679.37
435.894	665.36
436.269	650
436.644	669.88
437.02	699.71
437.395	675.76
437.77	690
438.145	710.79
438.52	702.65
438.895	686.61
439.271	721.18
439.646	708.98
440.021	698.81
440.395	700.62
440.77	733.16
441.145	756.66
441.52	741.75
441.895	730.9
442.27	755.98
442.645	750.11
443.019	753.27
443.394	755.98
443.769	772.71
444.143	768.64
444.518	771.12
444.892	762.08
445.267	765.25
445.641	789.65
446.016	792.14
446.39	786.72
446.764	785.81
447.139	781.74
447.513	777.45
447.887	810.9
448.262	830.78
448.636	827.39
449.01	794.85
449.384	833.04
449.758	832.14
450.132	834.4
450.506	845.02
450.88	850.9
451.254	828.3
451.628	847.96
452.002	882.76
452.376	849.31
452.75	853.16
453.123	853.61
453.497	908.3
453.871	900.84
454.244	880.73
454.618	915.07
454.992	923.21
455.365	920.27
455.739	932.25
456.112	958.92
456.486	945.81
456.859	970.21
457.232	979.25
457.606	970.89
457.979	975.64
458.352	984.23
458.725	1008.18
459.099	1018.12
459.472	1043.43
459.845	1068.74
460.218	1066.94
460.591	1068.74
460.964	1074.17
461.337	1082.3
461.71	1100.83
462.083	1094.51
462.456	1121.85
462.829	1159.81
463.201	1129.31
463.574	1160.04
463.947	1182.41
464.32	1230.32
464.692	1234.16
465.065	1232.13
465.438	1264.22
465.81	1256.31
466.183	1300.83
466.555	1322.52
466.928	1316.87
467.3	1312.58
467.672	1368.17
468.045	1387.6
468.417	1407.49
468.789	1422.86
469.161	1459.92
469.534	1453.59
469.906	1477.09
470.278	1515.06
470.65	1530.65
471.022	1551.44
471.394	1600.48
471.766	1624.66
472.138	1627.6
472.51	1714.6
472.882	1700.82
473.253	1763.64
473.625	1798.89
473.997	1865.33
474.369	1854.94
474.74	1928.61
475.112	1960.7
475.484	2013.13
475.855	2063.29
476.227	2060.81
476.598	2165.44
476.97	2205.21
477.341	2217.41
477.713	2285.21
478.084	2371.99
478.455	2422.61
478.827	2466.22
479.198	2566.1
479.569	2593.9
479.94	2682.49
480.311	2776.27
480.682	2842.26
481.053	2952.08
481.424	3020.1
481.795	3136.94
482.166	3206.77
482.537	3299.42
482.908	3397.5
483.279	3509.13
483.65	3566.08
484.021	3655.12
484.391	3788.22
484.762	3899.18
485.133	3952.06
485.503	4104.6
485.874	4234.99
486.244	4328.09
486.615	4453.29
486.985	4587.75
487.356	4722.43
487.726	4854.63
488.097	4977.34
488.467	5035.42
488.837	5226.37
489.207	5332.13
489.578	5508.85
489.948	5664.1
490.318	5758.34
490.688	5899.12
491.058	6065.22
491.428	6126.46
491.798	6350.19
492.168	6535.94
492.538	6591.76
492.908	6859.55
493.278	6986.55
493.648	7084.63
494.017	7244.17
494.387	7416.82
494.757	7507.44
495.126	7729.36
495.496	7812.97
495.866	7957.83
496.235	8135.45
496.605	8266.75
496.974	8378.38
497.344	8565.27
497.713	8691.59
498.082	8881.42
498.452	8996.44
498.821	9133.62
499.19	9255.19
499.559	9451.8
499.928	9613.83
500.298	9731.57
500.667	9858.12
501.036	9941.96
501.405	10068.96
501.774	10196.64
502.143	10321.61
502.512	10471.21
502.88	10655.38
503.249	10745.78
503.618	10826.68
503.987	10980.35
504.356	11107.8
504.724	11207.91
505.093	11375.36
505.462	11452.88
505.83	11586.66
506.199	11686.54
506.567	11918.4
506.936	11955.91
507.304	12209.47
507.672	12327.2
508.041	12407.65
508.409	12430.93
508.777	12658.72
509.145	12763.12
509.514	12785.95
509.882	12985.94
510.25	13022.1
510.618	13162.66
510.986	13220.51
511.354	13392.03
511.722	13528.53
512.09	13727.17
512.458	13774.62
512.826	13872.02
513.193	13938.24
513.561	13998.57
513.929	14234.72
514.297	14319.02
514.664	14317.43
515.032	14412.35
515.4	14625.67
515.767	14659.8
516.135	14780.47
516.502	14748.61
516.869	15013.69
517.237	15173.23
517.604	15075.15
517.972	15278.76
518.339	15368.71
518.706	15417.74
519.073	15458.65
519.44	15572.32
519.808	15796.49
520.175	15770.5
520.542	15952.87
520.909	15927.34
521.276	15993.32
521.643	16230.83
522.009	16310.38
522.376	16491.61
522.743	16533.2
523.11	16661.33
523.477	16804.37
523.843	16825.16
524.21	16987.42
524.577	17115.1
524.943	17205.49
525.31	17263.35
525.676	17420.86
526.043	17537.46
526.409	17632.38
526.776	17793.95
527.142	17766.38
527.508	17887.28
527.874	18005.47
528.241	18022.2
528.607	18136.54
528.973	18302.19
529.339	18211.12
529.705	18426.25
530.071	18482.52
530.437	18680.48
530.803	18635.06
531.169	18747.37
531.535	18628.28
531.901	18715.96
532.267	18859.01
532.632	18998.22
532.998	18973.81
533.364	19072.34
533.73	19044.32
534.095	19232.33
534.461	19148.27
534.826	19292.9
535.192	19316.4
535.557	19466.23
535.923	19409.28
536.288	19440.01
536.653	19578.09
537.019	19403.18
537.384	19528.6
537.749	19652.89
538.114	19555.26
538.479	19603.85
538.845	19702.6
539.21	19595.49
539.575	19622.83
539.94	19718.87
540.305	19807.91
540.67	19725.43
541.034	19770.17
541.399	19898.3
541.764	19839.55
542.129	19910.51
542.494	19872.99
542.858	19915.03
543.223	19917.29
543.587	19981.69
543.952	20036.83
544.316	19937.85
544.681	19976.27
545.045	20098.75
545.41	20294.68
545.774	20231.63
546.138	20112.76
546.503	20200.44
546.867	20139.2
547.231	20359.76
547.595	20333.1
547.959	20290.61
548.324	20341.68
548.688	20416.26
549.052	20386.65
549.416	20370.61
549.779	20298.07
550.143	20394.79
550.507	20470.49
550.871	20443.37
551.235	20488.12
551.599	20491.06
551.962	20533.99
552.326	20597.27
552.689	20601.56
553.053	20568.57
553.417	20678.62
553.78	20875.91
554.143	20658.06
554.507	20776.7
554.87	20773.99
555.234	20926.3
555.597	20893.31
555.96	20915.23
556.323	20935.11
556.686	20941.44
557.05	21076.35
557.413	21089.23
557.776	21202
558.139	21265.95
558.502	21229.79
558.865	21297.82
559.228	21347.08
559.59	21345.72
559.953	21541.88
560.316	21614.19
560.679	21506.17
561.041	21687.41
561.404	21745.49
561.767	21840.85
562.129	21778.03
562.492	21919.95
562.854	21917.01
563.217	21915.65
563.579	21938.02
563.941	22077.91
564.304	22195.42
564.666	22335.08
565.028	22256.43
565.39	22306.38
565.753	22446.26
566.115	22454.4
566.477	22431.12
566.839	22567.16
567.201	22635.63
567.563	22732.81
567.925	22816.19
568.287	22840.15
568.648	22880.82
569.01	22992.01
569.372	23146.81
569.734	22972.8
570.095	23097.09
570.457	23173.25
570.819	23213.25
571.18	23243.08
571.542	23277.2
571.903	23298.89
572.265	23358.1
572.626	23523.29
572.987	23393.35
573.349	23559.45
573.71	23561.94
574.071	23677.19
574.432	23666.79
574.794	23859.56
575.155	23803.29
575.516	23798.54
575.877	23823.62
576.238	23901.59
576.599	24066.56
576.96	24034.24
577.32	23967.58
577.681	24023.17
578.042	24065.2
578.403	24110.4
578.763	24086.22
579.124	24214.58
579.485	24219.09
579.845	24293.44
580.206	24259.55
580.566	24279.43
580.927	24202.82
581.287	24410.05
581.648	24204.41
582.008	24305.87
582.368	24204.86
582.728	24354.01
583.089	24289.15
583.449	24273.1
583.809	24334.57
584.169	24375.25
584.529	24308.58
584.889	24375.02
585.249	24301.8
585.609	24214.58
585.969	24347.68
586.329	24363.72
586.688	24383.38
587.048	24311.07
587.408	24282.14
587.768	24284.4
588.127	24384.29
588.487	24237.4
588.846	24393.33
589.206	24272.43
589.565	24285.08
589.925	24436.49
590.284	24252.99
590.643	24304.52
591.003	24254.35
591.362	24436.04
591.721	24474
592.08	24420.9
592.44	24543.38
592.799	24446.21
593.158	24391.52
593.517	24390.84
593.876	24410.5
594.235	24380.9
594.593	24382.93
594.952	24425.64
595.311	24320.11
595.67	24400.33
596.029	24506.09
596.387	24511.06
596.746	24522.36
597.104	24487.34
597.463	24413.21
597.822	24518.52
598.18	24264.74
598.538	24372.31
598.897	24574.34
599.255	24294.12
599.613	24685.07
599.972	24448.47
600.33	24538.86
600.688	24488.69
601.046	24639.87
601.404	24663.6
601.762	24647.56
602.12	24701.57
602.478	24659.99
602.836	24810.94
603.194	24489.14
603.552	24653.21
603.91	24732.08
604.268	24718.29
604.625	24718.52
604.983	24862.02
605.341	24495.92
605.698	24785.18
606.056	24801
606.413	24759.42
606.771	24869.25
607.128	24884.84
607.485	24749.7
607.843	24954.67
608.2	24942.47
608.557	25097.94
608.914	24888.23
609.272	25113.53
609.629	25044.16
609.986	25130.03
610.343	25042.58
610.7	25316.24
611.057	25266.3
611.414	25162.35
611.771	25207.32
612.127	25273.98
612.484	25322.57
612.841	25418.39
613.198	25179.07
613.554	25359.18
613.911	25436.24
614.267	25498.16
614.624	25334.55
614.98	25527.76
615.337	25736.57
615.693	25568.66
616.05	25501.55
616.406	25817.92
616.762	25607.53
617.118	25651.6
617.475	25730.02
617.831	25852.5
618.187	25684.37
618.543	25785.61
618.899	25844.59
619.255	26004.81
619.611	25887.75
619.967	25904.47
620.323	25974.75
620.678	25982.66
621.034	25889.11
621.39	25957.81
621.746	25958.94
622.101	26152.6
622.457	25902.44
622.812	25997.81
623.168	26105.37
623.523	26064.92
623.879	26093.4
624.234	25869.67
624.589	26047.75
624.945	26084.36
625.3	26101.31
625.655	26165.26
626.01	26082.32
626.365	26243
626.72	26120.29
627.075	26061.76
627.43	26246.61
627.785	26148.31
628.14	26158.25
628.495	26087.52
628.85	26120.06
629.205	26091.36
629.559	26232.38
629.914	26155.77
630.269	26111.25
630.623	25954.19
630.978	26080.06
631.332	26070.57
631.687	26153.28
632.041	26054.75
632.396	26095.2
632.75	26089.78
633.104	26036.67
633.459	25904.93
633.813	25863.57
634.167	25966.17
634.521	25979.27
634.875	25958.03
635.229	25813.63
635.583	25895.89
635.937	25837.81
636.291	25720.07
636.645	25796.68
636.999	25806.4
637.352	25769.11
637.706	25532.96
638.06	25649.57
638.413	25696.34
638.767	25631.26
639.121	25729.11
639.474	25441.44
639.828	25474.66
640.181	25467.2
640.534	25608.21
640.888	25409.57
641.241	25437.59
641.594	25536.35
641.947	25537.93
642.301	25418.39
642.654	25411.38
643.007	25393.53
643.36	25501.55
643.713	25321.89
644.066	25426.75
644.419	25304.49
644.771	25026.08
645.124	24933.88
645.477	24884.16
645.83	24704.05
646.182	24537.73
646.535	24536.15
646.888	24525.08
647.24	24416.15
647.593	24604.85
647.945	24526.66
648.298	24459.09
648.65	24394.01
649.002	24285.76
649.355	24503.38
649.707	24374.12
650.059	24568.69
650.411	24866.54
650.763	24803.26
651.115	25147.88
651.467	25013.65
651.819	24982.69
652.171	24924.61
652.523	25061.78
652.875	24947.44
653.227	24844.16
653.578	25053.65
653.93	24926.65
654.282	24812.07
654.633	24759.19
654.985	24893.88
655.337	24982.92
655.688	24857.5
656.039	24957.61
656.391	24782.02
656.742	24765.07
657.094	24795.35
657.445	24886.65
657.796	24892.98
658.147	24843.94
658.498	24888.23
658.849	24863.82
659.2	24824.5
659.551	24709.48
659.902	24838.29
660.253	24885.07
660.604	24979.3
660.955	24804.39
661.306	24784.05
661.656	24822.02
662.007	24925.52
662.358	24821.79
662.708	24913.99
663.059	24934.56
663.409	24717.39
663.76	24888.46
664.11	24896.37
664.461	24985.4
664.811	24923.71
665.161	24924.39
665.511	24763.71
665.862	24905.86
666.212	25046.87
666.562	24914.9
666.912	24897.95
667.262	24872.86
667.612	24901.34
667.962	24908.79
668.312	24840.1
668.662	25009.13
669.011	24903.6
669.361	24774.11
669.711	24789.02
670.06	24793.32
670.41	24730.04
670.76	24670.61
671.109	24797.16
671.459	24745.86
671.808	24659.99
672.157	24802.58
672.507	24676.94
672.856	24603.27
673.205	24623.38
673.554	24722.81
673.904	24710.38
674.253	24687.11
674.602	24588.12
674.951	24211.41
675.3	24234.91
675.649	24537.28
675.998	24532.53
676.346	24493.21
676.695	24568.24
677.044	24369.15
677.393	24429.26
677.741	24485.75
678.09	24339.54
678.438	24418.41
678.787	24443.5
679.135	24342.48
679.484	24215.71
679.832	24337.96
680.181	24227
680.529	24241.47
680.877	24178.19
681.225	24140.68
681.573	24213.67
681.922	24041.92
682.27	24083.51
682.618	24018.42
682.966	23994.24
683.314	23952.66
683.661	23940.01
684.009	23765.55
684.357	23794.93
684.705	23719.45
685.053	23803.51
685.4	23643.52
685.748	23596.96
686.095	23622.95
686.443	23589.73
686.79	23436.52
687.138	23528.27
687.485	23425.67
687.832	23416.63
688.18	23335.5
688.527	23419.34
688.874	23307.48
689.221	23251.21
689.568	23180.25
689.915	23144.09
690.262	23108.16
690.609	22928.51
690.956	22917.66
691.303	22858.9
691.65	22803.99
691.997	22721.28
692.344	22625.92
692.69	22593.83
693.037	22552.7
693.383	22221.41
693.73	22433.61
694.077	22310.9
694.423	22391.35
694.769	22193.61
695.116	22195.65
695.462	22192.93
695.808	22070.68
696.155	22116.1
696.501	21971.24
696.847	21879.95
697.193	21664.13
697.539	21768.31
697.885	21573.06
698.231	21563.8
698.577	21593.63
698.923	21468.21
699.269	21311.37
699.614	21432.5
699.96	21175.33
700.306	21272.28
700.651	21102.34
700.997	21058.5
701.342	21031.61
701.688	20959.07
702.033	20827.09
702.379	20902.57
702.724	20753.42
703.069	20760.2
703.415	20622.81
703.76	20607.44
704.105	20635.23
704.45	20531.06
704.795	20416.26
705.14	20374.22
705.485	20291.51
705.83	20098.98
706.175	20207.67
706.52	20181.69
706.865	20060.79
707.209	20005.65
707.554	20007.23
707.899	20082.03
708.243	19955.93
708.588	19856.95
708.932	19731.76
709.277	19732.89
709.621	19760.91
709.966	19591.19
710.31	19698.99
710.654	19502.83
710.998	19478.43
711.342	19573.79
711.687	19417.64
712.031	19322.95
712.375	19221.71
712.719	19281.15
713.063	19264.2
713.407	19265.1
713.75	19159.11
714.094	19228.49
714.438	18995.05
714.782	19072.11
715.125	18983.98
715.469	18984.88
715.812	18898.56
716.156	18800.25
716.499	18772.91
716.843	18762.29
717.186	18754.61
717.53	18827.6
717.873	18731.33
718.216	18772.01
718.559	18650.2
718.902	18536.08
719.246	18623.99
719.589	18442.98
719.932	18453.37
720.275	18489.98
720.617	18354.39
720.96	18435.29
721.303	18415.86
721.646	18349.42
721.989	18253.83
722.331	18402.52
722.674	18237.33
723.016	18325.24
723.359	18204.79
723.701	18260.61
724.044	18221.51
724.386	17981.29
724.729	18204.34
725.071	18182.19
725.413	18116.88
725.755	18087.05
726.097	17985.81
726.439	17901.52
726.782	17981.74
727.124	17982.2
727.465	17870.34
727.807	17883.67
728.149	17914.63
728.491	17908.3
728.833	17838.25
729.175	17822.43
729.516	17770.22
729.858	17815.87
730.199	17854.52
730.541	17687.29
730.882	17638.7
731.224	17840.28
731.565	17731.81
731.906	17716.44
732.248	17583.56
732.589	17647.52
732.93	17605.48
733.271	17591.7
733.612	17658.59
733.953	17612.04
734.294	17560.29
734.635	17572.04
734.976	17611.81
735.317	17586.95
735.658	17554.64
735.999	17569.33
736.339	17514.41
736.68	17511.93
737.021	17429.89
737.361	17478.71
737.702	17540.85
738.042	17494.53
738.383	17404.81
738.723	17536.56
739.063	17398.71
739.404	17482.1
739.744	17443.23
740.084	17410.46
740.424	17444.81
740.764	17464.02
741.104	17434.41
741.444	17365.26
741.784	17320.52
742.124	17461.98
742.464	17419.95
742.804	17364.13
743.143	17458.82
743.483	17488.88
743.823	17457.46
744.162	17485.03
744.502	17546.05
744.841	17469.44
745.181	17555.32
745.52	17502.44
745.86	17577.69
746.199	17523
746.538	17557.12
746.877	17737.01
747.216	17771.13
747.556	17661.53
747.895	17751.69
748.234	17737.46
748.573	17864.46
748.911	17717.57
749.25	17834.4
749.589	17819.26
749.928	17948.07
750.267	17936.1
750.605	17925.02
750.944	17902.65
751.283	18008.86
751.621	18040.73
751.96	18068.07
752.298	18167.5
752.636	18197.33
752.975	18176.99
753.313	18279.14
753.651	18405.69
753.989	18353.03
754.327	18454.95
754.666	18465.57
755.004	18586.7
755.342	18681.39
755.679	18679.58
756.017	18694.27
756.355	18798.9
756.693	18851.33
