Data from hue_30_FLMS001491_16.txt Node
Date: Mon Feb 06 15:04:49 GMT 2017
User: dcchb
Spectrometer: FLMS00149
Trigger mode: 0
Integration Time (sec): 2.000000E-2
Scans to average: 10
Electric dark correction enabled: true
Nonlinearity correction enabled: false
Boxcar width: 0
XAxis mode: Wavelengths
Number of Pixels in Spectrum: 2048
>>>>>Begin Spectral Data<<<<<
341.393	-31.28
341.776	-31.28
342.16	-31.28
342.543	-40.32
342.927	-71.51
343.31	-63.37
343.693	-55.01
344.077	-61.34
344.46	-68.8
344.843	-64.96
345.226	-36.26
345.61	-40.1
345.993	-24.28
346.376	-7.56
346.759	24.99
347.142	32.22
347.525	46.45
347.908	48.49
348.291	68.37
348.674	97.98
349.057	103.18
349.44	146.11
349.823	155.83
350.206	151.08
350.588	194.92
350.971	189.95
351.354	206
351.737	230.86
352.119	230.86
352.502	250.74
352.884	263.17
353.267	288.93
353.65	281.02
354.032	295.03
354.414	312.44
354.797	302.27
355.179	330.06
355.562	306.56
355.944	342.04
356.326	326.9
356.709	339.55
357.091	318.31
357.473	337.75
357.855	339.1
358.238	338.2
358.62	334.13
359.002	333.23
359.384	342.49
359.766	330.29
360.148	323.96
360.53	359.21
360.912	356.28
361.294	363.73
361.676	342.49
362.057	330.06
362.439	319.89
362.821	338.65
363.203	335.03
363.584	329.38
363.966	317.86
364.348	331.42
364.729	322.83
365.111	311.98
365.493	303.17
365.874	316.5
366.256	309.27
366.637	314.7
367.019	297.52
367.4	321.02
367.781	308.59
368.163	308.14
368.544	314.47
368.925	302.49
369.306	334.81
369.688	284.87
370.069	303.4
370.45	321.02
370.831	325.99
371.212	325.77
371.593	312.44
371.974	319.21
372.355	296.16
372.736	316.5
373.117	297.29
373.498	317.41
373.879	317.63
374.26	317.41
374.641	327.35
375.021	308.14
375.402	329.61
375.783	330.06
376.163	328.03
376.544	326.22
376.925	334.36
377.305	309.05
377.686	335.03
378.066	313.11
378.447	321.47
378.827	319.44
379.208	333.23
379.588	317.63
379.968	325.09
380.349	340.46
380.729	323.06
381.109	313.34
381.489	316.73
381.87	344.98
382.25	354.69
382.63	347.01
383.01	323.28
383.39	347.24
383.77	351.3
384.15	335.94
384.53	351.3
384.91	328.93
385.29	346.56
385.67	344.52
386.049	355.15
386.429	386.11
386.809	361.47
387.189	324.86
387.568	337.07
387.948	347.46
388.328	347.46
388.707	357.18
389.087	359.89
389.466	356.28
389.846	368.7
390.225	349.27
390.605	355.15
390.984	360.8
391.363	365.32
391.743	359.67
392.122	358.31
392.501	380.68
392.881	369.83
393.26	373.68
393.639	380.46
394.018	370.74
394.397	375.71
394.776	386.33
395.155	381.81
395.534	378.87
395.913	372.77
396.292	376.61
396.671	387.01
397.05	384.98
397.429	377.29
397.808	395.37
398.186	375.03
398.565	384.07
398.944	379.1
399.323	407.12
399.701	381.36
400.08	366.67
400.458	394.47
400.837	410.06
401.215	394.47
401.594	382.49
401.972	370.51
402.351	394.69
402.729	405.77
403.107	387.01
403.486	404.41
403.864	377.07
404.242	397.4
404.62	408.93
404.999	388.82
405.377	412.77
405.755	402.6
406.133	412.09
406.511	422.26
406.889	422.71
407.267	440.79
407.645	422.71
408.023	427.69
408.401	428.36
408.779	447.57
409.156	427.91
409.534	451.87
409.912	433.34
410.29	445.09
410.667	448.7
411.045	470.85
411.422	440.12
411.8	461.36
412.178	467.69
412.555	471.53
412.933	446.67
413.31	457.97
413.687	490.06
414.065	462.49
414.442	471.3
414.819	478.31
415.197	485.31
415.574	491.19
415.951	487.8
416.328	483.28
416.705	491.64
417.082	475.14
417.46	494.8
417.837	489.15
418.214	478.08
418.591	515.37
418.967	495.93
419.344	514.46
419.721	524.41
420.098	510.85
420.475	490.06
420.852	498.42
421.228	507.91
421.605	514.69
421.982	532.09
422.358	516.27
422.735	523.73
423.111	508.14
423.488	518.31
423.864	532.09
424.241	545.2
424.617	547.23
424.994	540.68
425.37	556.04
425.746	564.86
426.123	543.62
426.499	570.28
426.875	568.93
427.251	567.34
427.627	566.21
428.003	574.12
428.379	577.74
428.756	555.14
429.132	597.85
429.507	594.24
429.883	601.47
430.259	610.05
430.635	587
431.011	611.18
431.387	639.66
431.763	628.13
432.138	642.6
432.514	631.52
432.89	621.58
433.265	636.49
433.641	678.98
434.016	645.99
434.392	654.35
434.767	654.35
435.143	665.42
435.518	668.81
435.894	677.62
436.269	672.43
436.644	663.16
437.02	697.74
437.395	699.54
437.77	699.09
438.145	713.55
438.52	710.62
438.895	693.89
439.271	732.54
439.646	710.84
440.021	724.18
440.395	718.53
440.77	724.18
441.145	740.67
441.52	734.35
441.895	715.14
442.27	744.51
442.645	756.94
443.019	735.7
443.394	749.03
443.769	779.77
444.143	750.62
444.518	756.49
444.892	770.95
445.267	780.45
445.641	778.86
446.016	802.14
446.39	783.84
446.764	801.69
447.139	803.95
447.513	785.64
447.887	780.45
448.262	800.11
448.636	799.65
449.01	839.65
449.384	832.87
449.758	831.74
450.132	860.67
450.506	853.66
450.88	843.49
451.254	850.05
451.628	867.9
452.002	846.43
452.376	845.3
452.75	853.66
453.123	866.32
453.497	902.25
453.871	903.38
454.244	894.57
454.618	930.95
454.992	938.63
455.365	911.29
455.739	942.93
456.112	958.29
456.486	958.07
456.859	971.85
457.232	984.51
457.606	984.28
457.979	998.07
458.352	1006.88
458.725	1027.9
459.099	1019.31
459.472	1049.37
459.845	1051.62
460.218	1062.47
460.591	1047.56
460.964	1085.07
461.337	1103.37
461.71	1103.83
462.083	1120.55
462.456	1124.84
462.829	1109.48
463.201	1154.45
463.574	1139.08
463.947	1156.93
464.32	1156.03
464.692	1195.35
465.065	1183.82
465.438	1205.97
465.81	1236.7
466.183	1238.06
466.555	1281.68
466.928	1285.29
467.3	1276.93
467.672	1312.18
468.045	1311.96
468.417	1347.66
468.789	1352.41
469.161	1366.42
469.534	1365.74
469.906	1407.32
470.278	1428.11
470.65	1466.53
471.022	1479.64
471.394	1463.14
471.766	1508.56
472.138	1545.85
472.51	1569.13
472.882	1609.8
473.253	1611.16
473.625	1594.44
473.997	1651.38
474.369	1686.41
474.74	1706.07
475.112	1716.01
475.484	1764.6
475.855	1802.79
476.227	1807.09
476.598	1849.8
476.97	1899.29
477.341	1952.39
477.713	1973.86
478.084	1983.13
478.455	1999.4
478.827	2049.79
479.198	2125.27
479.569	2137.7
479.94	2218.37
480.311	2238.94
480.682	2286.39
481.053	2391.02
481.424	2411.14
481.795	2400.97
482.166	2454.75
482.537	2543.11
482.908	2561.87
483.279	2603.45
483.65	2668.08
484.021	2745.37
484.391	2787.62
484.762	2761.86
485.133	2854.97
485.503	2888.41
485.874	2990.1
486.244	3011.8
486.615	3106.49
486.985	3171.12
487.356	3223.32
487.726	3246.14
488.097	3297.22
488.467	3345.8
488.837	3466.7
489.207	3452.69
489.578	3553.48
489.948	3621.05
490.318	3652.01
490.688	3670.99
491.058	3750.54
491.428	3840.03
491.798	3929.74
492.168	3977.88
492.538	3998.44
492.908	4069.85
493.278	4081.6
493.648	4160.92
494.017	4226.91
494.387	4249.51
494.757	4309.84
495.126	4366.34
495.496	4370.63
495.866	4498.09
496.235	4537.41
496.605	4569.95
496.974	4585.77
497.344	4655.37
497.713	4725.2
498.082	4758.19
498.452	4794.13
498.821	4862.82
499.19	4824.18
499.559	4947.79
499.928	4931.75
500.298	4968.13
500.667	5068.69
501.036	5079.77
501.405	5098.07
501.774	5135.13
502.143	5181.23
502.512	5192.08
502.88	5259.42
503.249	5297.84
503.618	5343.26
503.987	5370.61
504.356	5430.72
504.724	5444.05
505.093	5477.95
505.462	5451.28
505.83	5479.08
506.199	5513.43
506.567	5645.18
506.936	5646.76
507.304	5752.74
507.672	5736.93
508.041	5774.21
508.409	5768.34
508.777	5881.78
509.145	5813.99
509.514	5874.55
509.882	5892.4
510.25	5939.18
510.618	5952.06
510.986	5955.68
511.354	6064.15
511.722	6102.79
512.09	6156.8
512.458	6136.46
512.826	6188.89
513.193	6218.49
513.561	6223.92
513.929	6270.47
514.297	6303.01
514.664	6334.42
515.032	6446.51
515.4	6396.12
515.767	6417.59
516.135	6504.81
516.502	6484.7
516.869	6524.02
517.237	6589.78
517.604	6564.02
517.972	6646.51
518.339	6658.94
518.706	6681.76
519.073	6685.15
519.44	6745.49
519.808	6756.33
520.175	6801.3
520.542	6859.61
520.909	6882.88
521.276	6868.87
521.643	6942.54
522.009	6979.15
522.376	7012.37
522.743	7022.99
523.11	7106.61
523.477	7123.56
523.843	7165.59
524.21	7252.82
524.577	7325.58
524.943	7314.96
525.31	7325.58
525.676	7376.43
526.043	7432.25
526.409	7533.04
526.776	7504.79
527.142	7539.59
527.508	7584.33
527.874	7639.25
528.241	7699.81
528.607	7689.19
528.973	7749.53
529.339	7736.65
529.705	7898.45
530.071	7944.78
530.437	7908.39
530.803	7973.25
531.169	8040.14
531.535	8040.59
531.901	8053.47
532.267	8089.18
532.632	8154.04
532.998	8161.95
533.364	8226.8
533.73	8236.97
534.095	8330.53
534.461	8304.99
534.826	8313.13
535.192	8451.66
535.557	8515.38
535.923	8394.71
536.288	8468.38
536.653	8450.07
537.019	8450.07
537.384	8582.27
537.749	8666.57
538.114	8673.8
538.479	8669.73
538.845	8711.08
539.21	8671.99
539.575	8789.73
539.94	8743.63
540.305	8892.77
540.67	8876.28
541.034	8884.87
541.399	8942.04
541.764	8942.94
542.129	8967.12
542.494	9048.48
542.858	9053.67
543.223	9067.01
543.587	9144.07
543.952	9136.84
544.316	9220.22
544.681	9204.18
545.045	9269.26
545.41	9318.3
545.774	9352.65
546.138	9392.87
546.503	9418.86
546.867	9431.07
547.231	9586.32
547.595	9532.31
547.959	9588.12
548.324	9595.58
548.688	9661.12
549.052	9673.77
549.416	9664.96
549.779	9649.82
550.143	9756.25
550.507	9763.71
550.871	9797.84
551.235	9815.01
551.599	9923.71
551.962	9909.02
552.326	9925.74
552.689	10011.62
553.053	9976.81
553.417	9987.21
553.78	10125.28
554.143	10069.24
554.507	10140.65
554.87	10108.56
555.234	10243.02
555.597	10160.76
555.96	10249.12
556.323	10259.97
556.686	10330.25
557.05	10336.35
557.413	10359.4
557.776	10405.28
558.139	10461.09
558.502	10499.06
558.865	10518.49
559.228	10555.78
559.59	10621.32
559.953	10604.59
560.316	10704.03
560.679	10640.98
561.041	10764.14
561.404	10796.68
561.767	10872.38
562.129	10805.04
562.492	10928.43
562.854	10955.32
563.217	10897.69
563.579	10951.03
563.941	10967.97
564.304	11088.88
564.666	11202.09
565.028	11116.22
565.39	11145.6
565.753	11240.51
566.115	11240.96
566.477	11329.09
566.839	11354.63
567.201	11359.6
567.563	11398.47
567.925	11482.54
568.287	11580.84
568.648	11529.54
569.01	11577.68
569.372	11642.31
569.734	11657.22
570.095	11720.27
570.457	11753.26
570.819	11797.56
571.18	11798.69
571.542	11901.74
571.903	12001.17
572.265	12022.86
572.626	12089.07
572.987	12221.73
573.349	12180.37
573.71	12244.78
574.071	12388.05
574.432	12402.51
574.794	12509.4
575.155	12559.12
575.516	12590.3
575.877	12745.1
576.238	12673.47
576.599	12921.37
576.96	12777.87
577.32	12980.12
577.681	13088.82
578.042	13208.14
578.403	13245.65
578.763	13301.25
579.124	13413.79
579.485	13532.2
579.845	13723.38
580.206	13703.72
580.566	13835.47
580.927	14012.87
581.287	14150.49
581.648	14255.35
582.008	14472.51
582.368	14550.03
582.728	14782.34
583.089	14919.73
583.449	15112.27
583.809	15222.55
584.169	15470.45
584.529	15507.74
584.889	15870.22
585.249	15979.14
585.609	16104.79
585.969	16336.42
586.329	16474.5
586.688	16801.49
587.048	16869.74
587.408	17143.18
587.768	17338.88
588.127	17472.44
588.487	17732.99
588.846	18023.83
589.206	18098.41
589.565	18474.67
589.925	18783.36
590.284	18952.4
590.643	19169.79
591.003	19479.16
591.362	19691.36
591.721	19932.26
592.08	20182.87
592.44	20499.02
592.799	20696.98
593.158	20941.72
593.517	21110.98
593.876	21342.62
594.235	21716.62
594.593	21996.61
594.952	22226.89
595.311	22386.66
595.67	22721.79
596.029	23083.14
596.387	23370.81
596.746	23504.82
597.104	23648.77
597.463	24038.37
597.822	24241.98
598.18	24388.86
598.538	24690.1
598.897	25011.22
599.255	24995.63
599.613	25645.1
599.972	25710.19
600.33	25980.46
600.688	26063.62
601.046	26436.04
601.404	26681.01
601.762	26937.95
602.12	27234.89
602.478	27357.83
602.836	27602.79
603.194	27790.81
603.552	27829.68
603.91	28051.14
604.268	28387.4
604.625	28571.81
604.983	28763.89
605.341	28898.8
605.698	29319.13
606.056	29463.99
606.413	29623.3
606.771	29902.17
607.128	30170.86
607.485	30223.51
607.843	30266.22
608.2	30632.99
608.557	30913.66
608.914	30986.88
609.272	31299.19
609.629	31359.08
609.986	31663.25
610.343	31705.28
610.7	32186.85
611.057	32157.02
611.414	32355.43
611.771	32424.59
612.127	32688.53
612.484	32840.39
612.841	33041.97
613.198	33053.04
613.554	33220.27
613.911	33480.38
614.267	33653.03
614.624	33708.62
614.98	33935.51
615.337	34109.06
615.693	34234.93
616.05	34215.05
616.406	34512.21
616.762	34474.47
617.118	34642.83
617.475	34693.23
617.831	34920.56
618.187	35114.01
618.543	35039.88
618.899	35499.08
619.255	35321.91
619.611	35470.38
619.967	35850.94
620.323	35829.69
620.678	35721.67
621.034	35689.81
621.39	35852.52
621.746	35911.5
622.101	36302.22
622.457	36234.43
622.812	36307.87
623.168	36475.55
623.523	36475.33
623.879	36530.47
624.234	36421.32
624.589	36725.49
624.945	36801.65
625.3	36887.07
625.655	37015.65
626.01	36967.52
626.365	37042.77
626.72	37120.96
627.075	37192.82
627.43	37263.1
627.785	37080.96
628.14	37208.41
628.495	37319.37
628.85	37192.6
629.205	37163.67
629.559	37435.08
629.914	37335.64
630.269	37472.14
630.623	37296.32
630.978	37227.4
631.332	37480.72
631.687	37654.05
632.041	37456.32
632.396	37662.19
632.75	37400.27
633.104	37519.82
633.459	37350.11
633.813	37449.54
634.167	37458.35
634.521	37528.18
634.875	37538.35
635.229	37569.99
635.583	37413.61
635.937	37431.23
636.291	37393.27
636.645	37345.13
636.999	37457.22
637.352	37560.72
637.706	37280.73
638.06	37533.83
638.413	37446.37
638.767	37297.9
639.121	37443.66
639.474	37209.32
639.828	37250.9
640.181	37330.44
640.534	37339.94
640.888	37317.79
641.241	37175.42
641.594	37298.58
641.947	37309.43
642.301	37186.04
642.654	37309.65
643.007	37314.85
643.36	37278.47
643.713	37102.43
644.066	37252.03
644.419	37160.96
644.771	36827.41
645.124	36510.13
645.477	36550.8
645.83	36247.08
646.182	36284.82
646.535	36029.46
646.888	36119.18
647.24	35990.82
647.593	36190.36
647.945	36031.95
648.298	35981.55
648.65	35976.58
649.002	35880.77
649.355	36007.54
649.707	35984.04
650.059	36086.18
650.411	36519.17
650.763	36681.2
651.115	36960.74
651.467	36748.31
651.819	36853.85
652.171	36738.6
652.523	36685.94
652.875	36736.11
653.227	36602.1
653.578	36796
653.93	36731.14
654.282	36516
654.633	36653.17
654.985	36611.82
655.337	36658.6
655.688	36629.67
656.039	36705.38
656.391	36458.38
656.742	36506.06
657.094	36540.86
657.445	36547.64
657.796	36492.5
658.147	36512.16
658.498	36624.02
658.849	36490.92
659.2	36478.72
659.551	36361.2
659.902	36423.35
660.253	36513.52
660.604	36460.41
660.955	36311.49
661.306	36630.8
661.656	36383.35
662.007	36559.84
662.358	36422.22
662.708	36450.24
663.059	36310.36
663.409	36095
663.76	36407.76
664.11	36303.35
664.461	36384.93
664.811	36463.35
665.161	36351.94
665.511	36281.21
665.862	36285.95
666.212	36541.09
666.562	36435.55
666.912	36299.74
667.262	36326.63
667.612	36338.83
667.962	36394.2
668.312	36356.01
668.662	36334.31
669.011	36307.2
669.361	36162.57
669.711	36173.41
670.06	36171.15
670.41	36215.67
670.76	36135.22
671.109	36235.11
671.459	36073.75
671.808	36135.45
672.157	36279.17
672.507	36039.41
672.856	36047.31
673.205	36049.12
673.554	36141.78
673.904	36124.6
674.253	36348.78
674.602	36011.16
674.951	35492.75
675.3	35423.38
675.649	36036.24
675.998	35971.16
676.346	35956.7
676.695	36054.55
677.044	35732.52
677.393	35900.2
677.741	35981.55
678.09	35766.19
678.438	35620.66
678.787	35752.63
679.135	35874.44
679.484	35516.71
679.832	35675.8
680.181	35446.88
680.529	35702.69
680.877	35451.85
681.225	35487.33
681.573	35647.1
681.922	35284.17
682.27	35375.02
682.618	35283.72
682.966	35255.02
683.314	35417.73
683.661	35147
684.009	35116.04
684.357	34908.36
684.705	34969.15
685.053	34926.21
685.4	34971.18
685.748	34784.98
686.095	34849.15
686.443	34660.68
686.79	34658.42
687.138	34725.99
687.485	34690.74
687.832	34471.99
688.18	34550.41
688.527	34298.21
688.874	34290.52
689.221	34271.77
689.568	34175.5
689.915	33969.18
690.262	34185.44
690.609	33919.46
690.956	33912.23
691.303	33850.31
691.65	33766.24
691.997	33744.32
692.344	33517.66
692.69	33431.56
693.037	33446.93
693.383	33213.94
693.73	33467.95
694.077	33217.33
694.423	33168.97
694.769	33050.78
695.116	32973.5
695.462	33042.2
695.808	32849.66
696.155	32945.02
696.501	32797.68
696.847	32602.43
697.193	32600.63
697.539	32598.59
697.885	32345.49
698.231	32272.95
698.577	32265.95
698.923	32089.45
699.269	32085.61
699.614	31972.85
699.96	31962.22
700.306	31944.82
700.651	31765.17
700.997	31690.14
701.342	31641.56
701.688	31537.38
702.033	31349.13
702.379	31417.15
702.724	31388
703.069	31411.96
703.415	31026.2
703.76	31023.04
704.105	31094.45
704.45	30985.98
704.795	30738.3
705.14	30727.68
705.485	30682.48
705.83	30664.18
706.175	30495.14
706.52	30396.84
706.865	30312.78
707.209	30361.59
707.554	30226.9
707.899	30297.41
708.243	30110.3
708.588	30105.55
708.932	29958.21
709.277	29970.86
709.621	29873.01
709.966	29727.03
710.31	29801.6
710.654	29470.54
710.998	29549.18
711.342	29621.72
711.687	29522.29
712.031	29437.55
712.375	29399.13
712.719	29412.01
713.063	29308.51
713.407	29281.62
713.75	29231.67
714.094	29193.03
714.438	28985.35
714.782	29134.5
715.125	28851.8
715.469	28849.09
715.812	28802.53
716.156	28653.61
716.499	28673.5
716.843	28739.03
717.186	28503.56
717.53	28651.35
717.873	28608.87
718.216	28534.74
718.559	28425.82
718.902	28097.47
719.246	28349.44
719.589	28275.09
719.932	28146.51
720.275	28091.59
720.617	28059.73
720.96	27957.81
721.303	28033.29
721.646	27968.43
721.989	27751.94
722.331	27890.02
722.674	27815.89
723.016	27797.14
723.359	27762.79
723.701	27781.32
724.044	27669.68
724.386	27497.94
724.729	27504.04
725.071	27392.85
725.413	27540.65
725.755	27358.96
726.097	27330.03
726.439	27146.31
726.782	27276.7
727.124	27232.63
727.465	27151.73
727.807	27074.9
728.149	27169.81
728.491	27041.9
728.833	27041.68
729.175	26991.96
729.516	26831.74
729.858	26974.79
730.199	26864.28
730.541	26779.08
730.882	26800.55
731.224	26744.51
731.565	26694.57
731.906	26617.28
732.248	26652.76
732.589	26593.55
732.93	26526.21
733.271	26498.87
733.612	26550.39
733.953	26597.62
734.294	26422.03
734.635	26407.79
734.976	26408.92
735.317	26266.33
735.658	26318.98
735.999	26235.82
736.339	26226.56
736.68	26282.15
737.021	26160.8
737.361	26025.21
737.702	26201.7
738.042	26118.08
738.383	26103.17
738.723	25971.87
739.063	25872.89
739.404	25893.01
739.744	25903.17
740.084	25781.37
740.424	25810.3
740.764	25728.94
741.104	25716.29
741.444	25636.06
741.784	25532.56
742.124	25629.51
742.464	25547.7
742.804	25511.55
743.143	25363.75
743.483	25435.39
743.823	25269.52
744.162	25328.95
744.502	25317.43
744.841	25208.28
745.181	25326.01
745.52	25266.58
745.86	25309.07
746.199	25309.52
746.538	25160.82
746.877	25259.12
747.216	25222.97
747.556	24952.01
747.895	25030.88
748.234	24960.6
748.573	24994.72
748.911	24946.59
749.25	24891.45
749.589	24738.46
749.928	24808.29
750.267	24738.69
750.605	24709.99
750.944	24658.24
751.283	24660.5
751.621	24600.16
751.96	24513.83
752.298	24514.06
752.636	24421.41
752.975	24358.58
753.313	24270.22
753.651	24396.1
753.989	24166.72
754.327	24247.85
754.666	24119.04
755.004	24133.73
755.342	24218.25
755.679	24100.51
756.017	23955.88
756.355	24081.98
756.693	23930.8
757.031	23944.36
757.368	23893.28
757.706	23814.19
758.044	23796.56
758.381	23804.7
758.719	23706.62
759.056	23602.67
