Data from hue_260_FLMS001491_00060.txt Node
Date: Tue Feb 07 15:59:13 GMT 2017
User: dcchb
Spectrometer: FLMS00149
Trigger mode: 0
Integration Time (sec): 2.000000E-2
Scans to average: 10
Electric dark correction enabled: true
Nonlinearity correction enabled: false
Boxcar width: 0
XAxis mode: Wavelengths
Number of Pixels in Spectrum: 2048
>>>>>Begin Spectral Data<<<<<
341.393	5.72
341.776	5.72
342.16	5.72
342.543	-61.85
342.927	-78.57
343.31	-84.67
343.693	-65.01
344.077	-56.2
344.46	-54.62
344.843	-25.01
345.226	-56.2
345.61	-29.53
345.993	-15.3
346.376	-15.07
346.759	14.08
347.142	26.96
347.525	31.03
347.908	53.4
348.291	69
348.674	91.14
349.057	116
349.44	96.57
349.823	143.8
350.206	172.27
350.588	191.7
350.971	203.91
351.354	190.35
351.737	235.09
352.119	223.12
352.502	265.83
352.884	255.43
353.267	281.65
353.65	291.36
354.032	295.66
354.414	297.01
354.797	302.66
355.179	312.38
355.562	331.36
355.944	315.77
356.326	334.3
356.709	314.41
357.091	308.09
357.473	313.28
357.855	325.26
358.238	324.58
358.62	320.97
359.002	327.75
359.384	319.84
359.766	332.04
360.148	329.78
360.53	337.24
360.912	334.75
361.294	318.93
361.676	319.16
362.057	321.42
362.439	316.67
362.821	333.4
363.203	309.44
363.584	324.81
363.966	324.36
364.348	311.25
364.729	316.45
365.111	300.63
365.493	318.48
365.874	314.19
366.256	321.19
366.637	321.42
367.019	309.44
367.4	331.36
367.781	289.33
368.163	308.31
368.544	331.36
368.925	312.83
369.306	313.06
369.688	302.21
370.069	301.76
370.45	324.58
370.831	294.07
371.212	305.6
371.593	293.85
371.974	325.26
372.355	303.57
372.736	304.47
373.117	306.5
373.498	320.06
373.879	317.58
374.26	313.51
374.641	301.08
375.021	310.57
375.402	315.99
375.783	330.91
376.163	315.32
376.544	309.22
376.925	307.18
377.305	293.17
377.686	312.38
378.066	335.88
378.447	331.36
378.827	338.59
379.208	341.53
379.588	342.21
379.968	315.77
380.349	338.37
380.729	312.38
381.109	337.24
381.489	329.55
381.87	346.73
382.25	355.09
382.63	362.09
383.01	339.27
383.39	361.64
383.77	346.28
384.15	340.63
384.53	359.38
384.91	349.67
385.29	334.07
385.67	338.37
386.049	359.16
386.429	348.08
386.809	356.22
387.189	355.54
387.568	359.38
387.948	357.35
388.328	379.27
388.707	347.41
389.087	356.45
389.466	336.78
389.846	341.3
390.225	352.38
390.605	369.33
390.984	360.51
391.363	363.45
391.743	368.42
392.122	362.77
392.501	372.26
392.881	381.76
393.26	371.59
393.639	368.87
394.018	367.97
394.397	374.52
394.776	387.63
395.155	380.63
395.534	397.57
395.913	367.74
396.292	382.89
396.671	396.44
397.05	390.12
397.429	393.96
397.808	388.53
398.186	401.87
398.565	397.57
398.944	407.52
399.323	388.76
399.701	404.13
400.08	400.74
400.458	409.33
400.837	404.13
401.215	411.81
401.594	390.57
401.972	414.07
402.351	428.53
402.729	417.23
403.107	434.41
403.486	415.65
403.864	445.93
404.242	415.2
404.62	445.48
404.999	454.3
405.377	425.82
405.755	419.95
406.133	458.82
406.511	436.9
406.889	458.14
407.267	460.85
407.645	470.79
408.023	515.76
408.401	483.45
408.779	497.68
409.156	511.02
409.534	497.68
409.912	499.49
410.29	469.44
410.667	510.11
411.045	506.95
411.422	512.83
411.8	507.18
412.178	519.38
412.555	535.65
412.933	557.57
413.31	546.95
413.687	566.84
414.065	562.77
414.442	571.13
414.819	590.34
415.197	557.8
415.574	590.79
415.951	602.77
416.328	598.02
416.705	614.97
417.082	617.91
417.46	628.75
417.837	630.56
418.214	632.6
418.591	651.58
418.967	645.48
419.344	647.29
419.721	672.82
420.098	659.04
420.475	666.27
420.852	678.92
421.228	693.84
421.605	712.14
421.982	727.51
422.358	711.46
422.735	723.67
423.111	754.63
423.488	750.11
423.864	776.1
424.241	772.03
424.617	778.13
424.994	790.56
425.37	831.69
425.746	793.95
426.123	826.26
426.499	838.92
426.875	844.34
427.251	851.35
427.627	895.41
428.003	872.59
428.379	856.32
428.756	882.99
429.132	892.25
429.507	908.3
429.883	940.61
430.259	942.42
430.635	943.1
431.011	924.34
431.387	987.84
431.763	961.4
432.138	971.12
432.514	991.23
432.89	998.24
433.265	1040.72
433.641	1059.25
434.016	1061.96
434.392	1093.15
434.767	1110.32
435.143	1101.96
435.518	1142.64
435.894	1141.51
436.269	1172.92
436.644	1165.46
437.02	1180.15
437.395	1214.95
437.77	1235.97
438.145	1267.83
438.52	1256.76
438.895	1296.08
439.271	1281.17
439.646	1323.43
440.021	1334.27
440.395	1363.65
440.77	1324.33
441.145	1343.76
441.52	1389.64
441.895	1379.92
442.27	1385.57
442.645	1403.2
443.019	1405.91
443.394	1442.74
443.769	1458.56
444.143	1433.48
444.518	1475.96
444.892	1455.4
445.267	1503.76
445.641	1503.08
446.016	1515.74
446.39	1513.93
446.764	1557.54
447.139	1554.15
447.513	1575.17
447.887	1568.39
448.262	1578.33
448.636	1576.07
449.01	1606.13
449.384	1607.94
449.758	1622.17
450.132	1631.89
450.506	1670.54
450.88	1682.96
451.254	1679.57
451.628	1688.16
452.002	1726.13
452.376	1734.94
452.75	1742.4
453.123	1731.32
453.497	1778.55
453.871	1797.31
454.244	1816.52
454.618	1793.92
454.992	1843.64
455.365	1840.25
455.739	1900.13
456.112	1924.31
456.486	1881.6
456.859	1922.51
457.232	1972.9
457.606	1945.33
457.979	1971.32
458.352	2010.64
458.725	2028.04
459.099	2076.85
459.472	2133.8
459.845	2076.63
460.218	2134.25
460.591	2137.87
460.964	2153.01
461.337	2160.92
461.71	2249.05
462.083	2244.08
462.456	2256.73
462.829	2275.04
463.201	2288.37
463.574	2298.32
463.947	2325.66
464.32	2366.56
464.692	2404.98
465.065	2397.3
465.438	2451.98
465.81	2476.62
466.183	2472.55
466.555	2525.2
466.928	2551.19
467.3	2516.16
467.672	2578.08
468.045	2636.39
468.417	2653.79
468.789	2653.79
469.161	2660.57
469.534	2739.66
469.906	2788.02
470.278	2790.96
470.65	2842.71
471.022	2881.8
471.394	2905.98
471.766	2927.68
472.138	2975.59
472.51	3036.6
472.882	3053.78
473.253	3096.94
473.625	3126.09
473.997	3209.03
474.369	3202.7
474.74	3223.71
475.112	3263.49
475.484	3306.65
475.855	3360.21
476.227	3384.39
476.598	3471.62
476.97	3465.74
477.341	3562.46
477.713	3602.46
478.084	3567.21
478.455	3679.52
478.827	3709.58
479.198	3832.29
479.569	3786.19
479.94	3893.08
480.311	3958.38
480.682	4030.93
481.053	4098.27
481.424	4130.13
481.795	4180.07
482.166	4202.45
482.537	4217.59
482.908	4363.57
483.279	4376
483.65	4408.32
484.021	4482.89
484.391	4538.71
484.762	4609.44
485.133	4627.75
485.503	4648.76
485.874	4750.68
486.244	4763.79
486.615	4873.84
486.985	4901.41
487.356	5003.78
487.726	5040.62
488.097	5097.11
488.467	5133.27
488.837	5167.39
489.207	5235.87
489.578	5368.74
489.948	5356.54
490.318	5429.08
490.688	5429.53
491.058	5514.28
491.428	5544.11
491.798	5587.49
492.168	5677.44
492.538	5677.44
492.908	5736.19
493.278	5897.77
493.648	5853.02
494.017	5855.28
494.387	5898.9
494.757	5982.51
495.126	6010.76
495.496	6054.37
495.866	6026.35
496.235	6103.64
496.605	6128.27
496.974	6180.25
497.344	6207.59
497.713	6207.59
498.082	6278.78
498.452	6340.24
498.821	6355.16
499.19	6296.63
499.559	6389.06
499.928	6451.88
500.298	6483.74
500.667	6499.11
501.036	6511.31
501.405	6549.95
501.774	6606.45
502.143	6576.17
502.512	6564.87
502.88	6663.4
503.249	6629.73
503.618	6685.77
503.987	6686.67
504.356	6727.58
504.724	6785.43
505.093	6739.33
505.462	6753.57
505.83	6822.49
506.199	6828.14
506.567	6928.7
506.936	6897.52
507.304	6982.49
507.672	6975.48
508.041	7035.14
508.409	7053.67
508.777	7053.9
509.145	7045.31
509.514	7095.93
509.882	7104.97
510.25	7135.7
510.618	7133.67
510.986	7128.24
511.354	7170.5
511.722	7229.71
512.09	7251.86
512.458	7247.79
512.826	7274
513.193	7269.03
513.561	7298.41
513.929	7313.55
514.297	7404.62
514.664	7391.51
515.032	7383.15
515.4	7426.32
515.767	7406.88
516.135	7469.7
516.502	7401.01
516.869	7491.85
517.237	7434
517.604	7490.04
517.972	7561.23
518.339	7568.91
518.706	7598.06
519.073	7586.31
519.44	7596.48
519.808	7630.6
520.175	7610.72
520.542	7614.56
520.909	7680.09
521.276	7595.58
521.643	7695.01
522.009	7677.16
522.376	7815.68
522.743	7721.22
523.11	7822.01
523.477	7833.31
523.843	7828.34
524.21	7919.86
524.577	7951.27
524.943	7963.93
525.31	7902.46
525.676	8005.06
526.043	7995.79
526.409	7983.14
526.776	8048.45
527.142	8016.13
527.508	8062.01
527.874	8053.87
528.241	8139.29
528.607	8070.14
528.973	8144.94
529.339	8146.3
529.705	8154.66
530.071	8166.64
530.437	8180.42
530.803	8167.31
531.169	8211.83
531.535	8184.04
531.901	8198.95
532.267	8272.85
532.632	8201.66
532.998	8264.03
533.364	8287.31
533.73	8211.15
534.095	8281.89
534.461	8174.32
534.826	8262.23
535.192	8260.42
535.557	8297.25
535.923	8208.44
536.288	8229.91
536.653	8283.47
537.019	8166.64
537.384	8225.84
537.749	8271.72
538.114	8210.25
538.479	8247.99
538.845	8264.49
539.21	8241.44
539.575	8211.61
539.94	8248.22
540.305	8276.24
540.67	8218.39
541.034	8203.02
541.399	8162.34
541.764	8224.71
542.129	8207.31
542.494	8178.16
542.858	8256.8
543.223	8238.05
543.587	8240.08
543.952	8160.99
544.316	8200.98
544.681	8171.16
545.045	8227.65
545.41	8165.96
545.774	8175.9
546.138	8175.22
546.503	8210.25
546.867	8118.05
547.231	8176.8
547.595	8199.18
547.959	8214.77
548.324	8180.87
548.688	8202.11
549.052	8145.17
549.416	8104.04
549.779	8121.21
550.143	8143.13
550.507	8184.49
550.871	8178.16
551.235	8148.78
551.599	8135.22
551.962	8106.75
552.326	8104.49
552.689	8133.64
553.053	8125.96
553.417	8063.59
553.78	8181.55
554.143	8118.95
554.507	8139.29
554.87	8145.62
555.234	8177.03
555.597	8163.92
555.96	8160.08
556.323	8143.81
556.686	8144.04
557.05	8193.53
557.413	8212.51
557.776	8182.68
558.139	8195.11
558.502	8197.6
558.865	8198.05
559.228	8228.55
559.59	8300.64
559.953	8205.28
560.316	8319.63
560.679	8300.42
561.041	8299.51
561.404	8291.83
561.767	8349.46
562.129	8324.82
562.492	8378.61
562.854	8407.53
563.217	8332.05
563.579	8419.28
563.941	8427.19
564.304	8464.48
564.666	8461.54
565.028	8424.48
565.39	8524.37
565.753	8490.69
566.115	8498.83
566.477	8486.85
566.839	8537.02
567.201	8609.34
567.563	8677.58
567.925	8641.43
568.287	8633.52
568.648	8692.27
569.01	8680.52
569.372	8694.98
569.734	8647.98
570.095	8739.05
570.457	8785.6
570.819	8719.39
571.18	8782.89
571.542	8815.88
571.903	8844.58
572.265	8847.97
572.626	8883.9
572.987	8897.24
573.349	8916.9
573.71	8981.08
574.071	8864.47
574.432	8946.95
574.794	9127.97
575.155	9014.97
575.516	9025.6
575.877	9018.82
576.238	9079.15
576.599	9089.1
576.96	9096.33
577.32	9114.18
577.681	9205.48
578.042	9202.09
578.403	9231.92
578.763	9171.58
579.124	9248.42
579.485	9263.33
579.845	9267.4
580.206	9293.16
580.566	9295.65
580.927	9279.83
581.287	9331.35
581.648	9325.25
582.008	9356.66
582.368	9380.61
582.728	9421.07
583.089	9451.8
583.449	9424.68
583.809	9475.53
584.169	9499.26
584.529	9372.03
584.889	9565.02
585.249	9491.35
585.609	9496.32
585.969	9581.06
586.329	9512.14
586.688	9580.61
587.048	9543.32
587.408	9566.37
587.768	9528.63
588.127	9566.6
588.487	9590.33
588.846	9690.21
589.206	9610.21
589.565	9595.75
589.925	9721.62
590.284	9665.13
590.643	9661.96
591.003	9766.14
591.362	9787.38
591.721	9770.66
592.08	9857.66
592.44	9774.28
592.799	9817.89
593.158	9808.63
593.517	9815.18
593.876	9826.25
594.235	9795.75
594.593	9772.02
594.952	9872.81
595.311	9867.16
595.67	9861.28
596.029	9923.88
596.387	9926.82
596.746	9905.35
597.104	9893.14
597.463	9788.97
597.822	9856.99
598.18	9908.06
598.538	9909.41
598.897	10015.63
599.255	9831.68
599.613	10055.4
599.972	9958.68
600.33	9974.72
600.688	10006.14
601.046	10072.57
601.404	10058.11
601.762	10081.16
602.12	10099.69
602.478	10077.09
602.836	10059.24
603.194	10033.93
603.552	10053.14
603.91	9981.96
604.268	10041.61
604.625	10066.7
604.983	10047.94
605.341	10015.85
605.698	10108.51
606.056	10090.88
606.413	10054.5
606.771	10102.63
607.128	10076.87
607.485	9990.54
607.843	10074.61
608.2	10135.85
608.557	10183.98
608.914	10123.42
609.272	10196.41
609.629	10248.16
609.986	10257.65
610.343	10195.73
610.7	10227.6
611.057	10239.35
611.414	10234.6
611.771	10238.22
612.127	10306.47
612.484	10319.12
612.841	10286.13
613.198	10323.64
613.554	10279.57
613.911	10315.05
614.267	10307.6
614.624	10286.58
614.98	10349.4
615.337	10329.74
615.693	10295.17
616.05	10339.69
616.406	10423.07
616.762	10433.02
617.118	10382.4
617.475	10382.4
617.831	10369.29
618.187	10383.98
618.543	10346.47
618.899	10525.9
619.255	10490.87
619.611	10448.16
619.967	10466.24
620.323	10496.74
620.678	10496.74
621.034	10400.48
621.39	10368.16
621.746	10436.18
622.101	10504.65
622.457	10423.75
622.812	10457.87
623.168	10511.66
623.523	10506.24
623.879	10478.89
624.234	10440.93
624.589	10459.23
624.945	10457.65
625.3	10485.44
625.655	10447.48
626.01	10461.72
626.365	10463.52
626.72	10482.05
627.075	10397.54
627.43	10406.8
627.785	10393.7
628.14	10462.39
628.495	10447.25
628.85	10460.36
629.205	10461.72
629.559	10471.89
629.914	10312.12
630.269	10404.99
630.623	10377.88
630.978	10382.17
631.332	10361.38
631.687	10372.68
632.041	10350.98
632.396	10325.9
632.75	10287.94
633.104	10288.61
633.459	10295.62
633.813	10267.6
634.167	10278.22
634.521	10233.47
634.875	10322.74
635.229	10194.15
635.583	10122.74
635.937	10319.8
636.291	10236.19
636.645	10209.07
636.999	10143.53
637.352	10180.14
637.706	10114.38
638.06	10157.54
638.413	10111.67
638.767	10043.42
639.121	10046.36
639.474	10081.16
639.828	10014.5
640.181	10050.88
640.534	10078.9
640.888	10029.86
641.241	9971.11
641.594	9981.96
641.947	10021.28
642.301	9988.06
642.654	9966.59
643.007	10020.37
643.36	10013.59
643.713	9885.46
644.066	9992.8
644.419	9971.11
644.771	9824.22
645.124	9852.24
645.477	9787.84
645.83	9680.04
646.182	9708.74
646.535	9691.34
646.888	9699.02
647.24	9572.7
647.593	9675.52
647.945	9585.13
648.298	9592.81
648.65	9600.5
649.002	9572.25
649.355	9583.1
649.707	9575.19
650.059	9645.01
650.411	9810.66
650.763	9748.29
651.115	9842.52
651.467	9883.2
651.819	9825.12
652.171	9819.25
652.523	9839.81
652.875	9777.67
653.227	9795.52
653.578	9788.06
653.93	9762.07
654.282	9753.94
654.633	9754.16
654.985	9746.03
655.337	9728.4
655.688	9808.4
656.039	9800.04
656.391	9705.35
656.742	9725.92
657.094	9803.65
657.445	9765.92
657.796	9736.09
658.147	9762.53
658.498	9646.6
658.849	9823.32
659.2	9749.87
659.551	9752.81
659.902	9734.96
660.253	9768.18
660.604	9777.21
660.955	9737.67
661.306	9806.37
661.656	9744.9
662.007	9745.58
662.358	9779.47
662.708	9776.99
663.059	9819.93
663.409	9707.16
663.76	9796.42
664.11	9754.62
664.461	9800.94
664.811	9770.89
665.161	9710.32
665.511	9737.22
665.862	9824.22
666.212	9803.43
666.562	9859.47
666.912	9779.93
667.262	9727.05
667.612	9787.84
667.962	9743.54
668.312	9692.25
668.662	9878.45
669.011	9826.25
669.361	9766.14
669.711	9705.13
670.06	9719.14
670.41	9768.18
670.76	9760.72
671.109	9772.7
671.459	9777.67
671.808	9748.06
672.157	9726.37
672.507	9672.13
672.856	9642.08
673.205	9672.36
673.554	9689.99
673.904	9704
674.253	9692.02
674.602	9718.01
674.951	9540.84
675.3	9468.75
675.649	9649.08
675.998	9687.27
676.346	9613.38
676.695	9616.31
677.044	9509.43
677.393	9621.51
677.741	9680.49
678.09	9554.62
678.438	9530.89
678.787	9562.76
679.135	9608.63
679.484	9557.11
679.832	9561.4
680.181	9438.92
680.529	9483.21
680.877	9518.46
681.225	9467.39
681.573	9513.27
681.922	9419.94
682.27	9420.16
682.618	9433.27
682.966	9354.63
683.314	9353.5
683.661	9344.68
684.009	9314.4
684.357	9314.63
684.705	9258.13
685.053	9255.65
685.4	9254.29
685.748	9271.01
686.095	9232.82
686.443	9155.54
686.79	9188.08
687.138	9207.74
687.485	9083
687.832	9169.55
688.18	9061.08
688.527	9029.66
688.874	9006.16
689.221	9015.88
689.568	9010.68
689.915	9016.78
690.262	8933.4
690.609	8958.93
690.956	8894.75
691.303	8820.86
691.65	8804.58
691.997	8810.01
692.344	8840.97
692.69	8706.51
693.037	8702.21
693.383	8658.83
693.73	8707.64
694.077	8668.77
694.423	8626.74
694.769	8581.99
695.116	8514.65
695.462	8605.72
695.808	8540.41
696.155	8586.29
696.501	8449.57
696.847	8427.19
697.193	8328.21
697.539	8415.67
697.885	8351.04
698.231	8299.51
698.577	8288.44
698.923	8268.1
699.269	8232.62
699.614	8158.05
699.96	8219.06
700.306	8202.11
700.651	8112.4
700.997	8132.96
701.342	8162.57
701.688	8090.03
702.033	8063.36
702.379	7975.68
702.724	7948.11
703.069	8025.62
703.415	7890.71
703.76	7885.06
704.105	7908.11
704.45	7909.47
704.795	7801.22
705.14	7844.61
705.485	7813.2
705.83	7736.36
706.175	7752.18
706.52	7735.91
706.865	7694.56
707.209	7723.71
707.554	7668.12
707.899	7678.06
708.243	7611.4
708.588	7550.15
708.932	7570.49
709.277	7618.4
709.621	7551.74
709.966	7478.74
710.31	7522.36
710.654	7436.26
710.998	7492.53
711.342	7393.77
711.687	7444.62
712.031	7343.61
712.375	7389.25
712.719	7360.78
713.063	7372.76
713.407	7366.2
713.75	7313.78
714.094	7324.4
714.438	7277.62
714.782	7299.99
715.125	7263.83
715.469	7224.74
715.812	7223.84
716.156	7164.4
716.499	7196.04
716.843	7200.33
717.186	7149.71
717.53	7186.55
717.873	7162.82
718.216	7178.19
718.559	7142.03
718.902	7070.17
719.246	7081.01
719.589	7082.82
719.932	7093.44
720.275	7063.39
720.617	7029.04
720.96	7055.93
721.303	7093.44
721.646	7039.21
721.989	6980
722.331	7036.27
722.674	7041.02
723.016	7002.15
723.359	6976.61
723.701	6985.42
724.044	6923.28
724.386	6924.41
724.729	6959.44
725.071	6940.68
725.413	6920.34
725.755	6917.63
726.097	6868.59
726.439	6908.14
726.782	6900.91
727.124	6928.93
727.465	6838.31
727.807	6863.84
728.149	6854.81
728.491	6874.69
728.833	6831.08
729.175	6872.66
729.516	6817.74
729.858	6840.57
730.199	6802.83
730.541	6844.41
730.882	6859.78
731.224	6831.76
731.565	6783.62
731.906	6856.39
732.248	6845.54
732.589	6853.68
732.93	6806.45
733.271	6793.11
733.612	6846.44
733.953	6826.33
734.294	6759.44
734.635	6809.38
734.976	6827.01
735.317	6772.55
735.658	6808.71
735.999	6797.18
736.339	6812.55
736.68	6817.97
737.021	6783.85
737.361	6743.17
737.702	6780.01
738.042	6795.15
738.383	6797.18
738.723	6810.51
739.063	6788.14
739.404	6814.81
739.744	6827.01
740.084	6810.51
740.424	6847.8
740.764	6774.36
741.104	6842.15
741.444	6881.02
741.784	6913.79
742.124	6851.19
742.464	6830.63
742.804	6896.39
743.143	6945.88
743.483	6911.3
743.823	6918.31
744.162	6954.01
744.502	6981.58
744.841	6938.19
745.181	7008.02
745.52	7044.18
745.86	7093.22
746.199	7093.22
746.538	7079.66
746.877	7112.43
747.216	7199.43
747.556	7179.54
747.895	7278.3
748.234	7155.59
748.573	7232.65
748.911	7314.23
749.25	7319.65
749.589	7350.16
749.928	7489.59
750.267	7571.85
750.605	7567.78
750.944	7572.3
751.283	7688.46
751.621	7741.56
751.96	7761.22
752.298	7791.73
752.636	7855.68
752.975	7963.25
753.313	8049.8
753.651	8107.43
753.989	8163.92
754.327	8245.73
754.666	8284.37
755.004	8387.42
755.342	8499.06
755.679	8649.56
756.017	8630.8
756.355	8774.98
756.693	8891.81
757.031	9036.9
757.368	9025.14
757.706	9165.71
758.044	9293.39
758.381	9358.69
758.719	9541.74
759.056	9711.45
759.394	9736.09
759.731	9847.5
760.068	9954.16
760.405	10016.76
760.743	10183.53
761.08	10353.02
761.417	10506.69
761.754	10567.93
762.091	10634.37
762.428	10796.17
762.765	10890.63
763.102	11147.12
763.438	11207.91
763.775	11279.32
764.112	11370.39
764.449	11543.72
764.785	11618.75
765.122	11709.37
765.458	11764.73
765.795	11911.4
766.131	12032.97
766.467	12179.41
766.804	12119.75
