Data from hue_330_FLMS001491_13.txt Node
Date: Mon Feb 06 15:44:58 GMT 2017
User: dcchb
Spectrometer: FLMS00149
Trigger mode: 0
Integration Time (sec): 2.000000E-2
Scans to average: 10
Electric dark correction enabled: true
Nonlinearity correction enabled: false
Boxcar width: 0
XAxis mode: Wavelengths
Number of Pixels in Spectrum: 2048
>>>>>Begin Spectral Data<<<<<
341.393	-6.53
341.776	-6.53
342.16	-6.53
342.543	-87.88
342.927	-53.98
343.31	-79.74
343.693	-74.09
344.077	-45.17
344.46	-57.15
344.843	-49.69
345.226	-54.21
345.61	-34.32
345.993	-20.99
346.376	-2.68
346.759	13.59
347.142	22.63
347.525	28.28
347.908	62.63
348.291	74.38
348.674	103.53
349.057	113.02
349.44	152.11
349.823	138.78
350.206	154.37
350.588	189.4
350.971	205.45
351.354	219.91
351.737	235.05
352.119	262.62
352.502	267.14
352.884	292.68
353.267	274.15
353.65	287.25
354.032	315.5
354.414	311.88
354.797	334.26
355.179	326.57
355.562	327.25
355.944	328.16
356.326	335.84
356.709	348.49
357.091	342.17
357.473	345.78
357.855	341.94
358.238	368.15
358.62	329.06
359.002	336.29
359.384	347.59
359.766	345.1
360.148	344.65
360.53	342.17
360.912	338.55
361.294	339
361.676	329.96
362.057	348.95
362.439	340.81
362.821	334.48
363.203	344.65
363.584	320.02
363.966	335.16
364.348	324.54
364.729	324.99
365.111	318.89
365.493	341.04
365.874	335.16
366.256	305.1
366.637	314.14
367.019	294.94
367.4	302.85
367.781	307.82
368.163	305.56
368.544	333.58
368.925	319.79
369.306	315.5
369.688	301.94
370.069	299.46
370.45	315.27
370.831	310.75
371.212	319.79
371.593	323.18
371.974	330.64
372.355	311.88
372.736	320.02
373.117	327.93
373.498	322.51
373.879	317.76
374.26	312.79
374.641	317.31
375.021	325.44
375.402	311.66
375.783	329.29
376.163	312.11
376.544	312.34
376.925	347.82
377.305	319.57
377.686	324.31
378.066	335.16
378.447	332.45
378.827	351.21
379.208	332.22
379.588	327.03
379.968	342.17
380.349	326.57
380.729	337.65
381.109	342.39
381.489	341.94
381.87	337.65
382.25	364.09
382.63	346.23
383.01	331.32
383.39	338.32
383.77	334.93
384.15	348.04
384.53	343.52
384.91	321.83
385.29	330.19
385.67	348.04
386.049	340.36
386.429	358.21
386.809	343.52
387.189	344.43
387.568	347.59
387.948	347.36
388.328	368.15
388.707	336.74
389.087	365.67
389.466	372.9
389.846	375.39
390.225	355.95
390.605	343.3
390.984	341.71
391.363	371.32
391.743	388.49
392.122	372.67
392.501	368.15
392.881	364.76
393.26	357.31
393.639	375.16
394.018	385.33
394.397	389.85
394.776	378.55
395.155	393.01
395.534	367.7
395.913	379.68
396.292	396.4
396.671	372.45
397.05	401.6
397.429	376.97
397.808	395.95
398.186	382.84
398.565	385.55
398.944	380.13
399.323	426.23
399.701	397.08
400.08	388.04
400.458	393.24
400.837	401.15
401.215	400.92
401.594	404.31
401.972	391.43
402.351	395.95
402.729	411.54
403.107	409.06
403.486	433.69
403.864	417.42
404.242	421.26
404.62	425.78
404.999	410.41
405.377	447.02
405.755	414.71
406.133	428.27
406.511	437.98
406.889	418.32
407.267	449.96
407.645	444.99
408.023	444.76
408.401	459.23
408.779	457.19
409.156	464.42
409.534	448.83
409.912	476.4
410.29	475.95
410.667	471.2
411.045	486.57
411.422	496.96
411.8	505.33
412.178	506.91
412.555	487.47
412.933	503.97
413.31	511.65
413.687	506
414.065	521.6
414.442	521.14
414.819	534.48
415.197	524.08
415.574	548.94
415.951	553.69
416.328	552.78
416.705	547.81
417.082	562.5
417.46	571.76
417.837	566.57
418.214	571.76
418.591	594.81
418.967	576.28
419.344	579.45
419.721	616.06
420.098	606.11
420.475	611.31
420.852	609.05
421.228	609.96
421.605	649.05
421.982	647.47
422.358	643.4
422.735	645.21
423.111	654.7
423.488	686.11
423.864	666.23
424.241	670.29
424.617	700.12
424.994	686.11
425.37	713.68
425.746	696.28
426.123	699.67
426.499	704.19
426.875	707.13
427.251	720.46
427.627	730.18
428.003	734.7
428.379	731.08
428.756	755.71
429.132	740.8
429.507	756.17
429.883	748.03
430.259	794.36
430.635	787.58
431.011	792.32
431.387	810.18
431.763	814.02
432.138	828.03
432.514	846.56
432.89	839.1
433.265	850.85
433.641	853.11
434.016	863.73
434.392	868.48
434.767	888.82
435.143	873.9
435.518	885.65
435.894	900.34
436.269	893.34
436.644	904.41
437.02	935.14
437.395	931.98
437.77	946.9
438.145	956.61
438.52	966.33
438.895	969.95
439.271	976.05
439.646	987.8
440.021	981.7
440.395	985.54
440.77	1006.56
441.145	1006.1
441.52	1016.5
441.895	1039.1
442.27	988.93
442.645	990.06
443.019	1036.61
443.394	1038.19
443.769	1060.11
444.143	1069.83
444.518	1054.24
444.892	1046.33
445.267	1050.17
445.641	1077.51
446.016	1078.64
446.39	1060.79
446.764	1055.59
447.139	1082.71
447.513	1091.3
447.887	1077.51
448.262	1090.85
448.636	1102.15
449.01	1112.32
449.384	1095.37
449.758	1115.93
450.132	1130.17
450.506	1132.88
450.88	1101.47
451.254	1120.9
451.628	1115.25
452.002	1145.08
452.376	1163.39
452.75	1176.04
453.123	1163.84
453.497	1175.59
453.871	1153.9
454.244	1184.18
454.618	1206.78
454.992	1204.52
455.365	1223.27
455.739	1236.15
456.112	1246.55
456.486	1248.13
456.859	1238.19
457.232	1269.83
457.606	1300.56
457.979	1289.94
458.352	1289.49
458.725	1286.1
459.099	1312.31
459.472	1342.82
459.845	1310.95
460.218	1338.75
460.591	1323.16
460.964	1349.15
461.337	1331.52
461.71	1390.5
462.083	1412.19
462.456	1390.95
462.829	1403.61
463.201	1426.21
463.574	1429.6
463.947	1422.14
464.32	1469.59
464.692	1445.64
465.065	1474.79
465.438	1471.18
465.81	1506.2
466.183	1521.34
466.555	1485.64
466.928	1543.26
467.3	1524.06
467.672	1564.05
468.045	1575.81
468.417	1588.69
468.789	1605.86
469.161	1606.31
469.534	1638.18
469.906	1658.06
470.278	1682.7
470.65	1686.76
471.022	1689.7
471.394	1748.46
471.766	1739.19
472.138	1738.97
472.51	1763.82
472.882	1768.12
473.253	1806.08
473.625	1810.15
473.997	1867.32
474.369	1881.79
474.74	1865.06
475.112	1893.99
475.484	1915.23
475.855	1944.38
476.227	1968.11
476.598	1997.04
476.97	2032.07
477.341	2058.28
477.713	2092.18
478.084	2082.23
478.455	2178.28
478.827	2126.98
479.198	2190.93
479.569	2194.77
479.94	2223.92
480.311	2266.41
480.682	2293.53
481.053	2360.87
481.424	2354.32
481.795	2397.71
482.166	2381.89
482.537	2412.62
482.908	2448.33
483.279	2453.07
483.65	2538.04
484.021	2551.83
484.391	2610.36
484.762	2590.92
485.133	2630.69
485.503	2630.02
485.874	2685.61
486.244	2722.89
486.615	2722.22
486.985	2780.75
487.356	2826.17
487.726	2840.18
488.097	2900.29
488.467	2891.93
488.837	2928.76
489.207	2996.79
489.578	3001.08
489.948	3026.39
490.318	3033.62
490.688	3042.43
491.058	3104.35
491.428	3133.96
491.798	3162.88
492.168	3234.97
492.538	3224.58
492.908	3291.02
493.278	3305.7
493.648	3287.63
494.017	3326.49
494.387	3338.47
494.757	3379.6
495.126	3390.22
495.496	3461.63
495.866	3414.85
496.235	3463.89
496.605	3519.94
496.974	3507.51
497.344	3529.43
497.713	3547.51
498.082	3562.19
498.452	3552.48
498.821	3602.65
499.19	3619.82
499.559	3642.64
499.928	3689.87
500.298	3708.63
500.667	3731
501.036	3704.34
501.405	3759.93
501.774	3745.01
502.143	3756.77
502.512	3815.97
502.88	3842.19
503.249	3822.07
503.618	3797.44
503.987	3826.59
504.356	3830.66
504.724	3863.66
505.093	3903.88
505.462	3871.34
505.83	3866.37
506.199	3904.33
506.567	3971.22
506.936	3952.24
507.304	4001.28
507.672	4022.07
508.041	4025.46
508.409	4037.44
508.777	4023.88
509.145	4069.75
509.514	4096.64
509.882	4086.02
510.25	4079.24
510.618	4125.8
510.986	4119.02
511.354	4152.24
511.722	4155.63
512.09	4200.6
512.458	4198.11
512.826	4169.41
513.193	4211.22
513.561	4209.86
513.929	4233.36
514.297	4324.21
514.664	4264.55
515.032	4283.53
515.4	4300.03
515.767	4342.96
516.135	4350.42
516.502	4330.54
516.869	4381.61
517.237	4334.15
517.604	4383.87
517.972	4394.04
518.339	4373.02
518.706	4379.12
519.073	4445.34
519.44	4468.61
519.808	4437.2
520.175	4468.16
520.542	4483.53
520.909	4517.88
521.276	4512
521.643	4524.88
522.009	4593.81
522.376	4573.24
522.743	4554.71
523.11	4618.44
523.477	4643.97
523.843	4633.58
524.21	4694.37
524.577	4662.5
524.943	4729.85
525.31	4688.04
525.676	4761.71
526.043	4771.43
526.409	4790.18
526.776	4849.17
527.142	4817.53
527.508	4827.02
527.874	4914.7
528.241	4918.77
528.607	4916.74
528.973	4958.09
529.339	4952.89
529.705	4956.73
530.071	5051.42
530.437	5004.64
530.803	5047.35
531.169	5120.8
531.535	5057.07
531.901	5079.22
532.267	5151.31
532.632	5140.91
532.998	5213.68
533.364	5241.7
533.73	5221.59
534.095	5266.56
534.461	5294.13
534.826	5315.59
535.192	5308.14
535.557	5324.63
535.923	5376.84
536.288	5344.29
536.653	5366.21
537.019	5387.23
537.384	5433.56
537.749	5413.22
538.114	5516.27
538.479	5454.8
538.845	5547.9
539.21	5530.73
539.575	5518.3
539.94	5607.11
540.305	5570.96
540.67	5649.6
541.034	5668.58
541.399	5652.53
541.764	5675.81
542.129	5790.38
542.494	5725.75
542.858	5733.89
543.223	5736.6
543.587	5766.66
543.952	5794.68
544.316	5798.52
544.681	5825.64
545.045	5890.72
545.41	5899.08
545.774	5938.63
546.138	5926.65
546.503	5935.92
546.867	6008.23
547.231	6031.73
547.595	6040.1
547.959	6042.58
548.324	6066.54
548.688	6106.08
549.052	6117.61
549.416	6165.74
549.779	6171.39
550.143	6097.95
550.507	6214.78
550.871	6204.61
551.235	6233.76
551.599	6276.47
551.962	6260.65
552.326	6269.47
552.689	6317.6
553.053	6274.67
553.417	6293.2
553.78	6395.11
554.143	6332.07
554.507	6417.03
554.87	6456.13
555.234	6469.46
555.597	6396.7
555.96	6513.98
556.323	6550.59
556.686	6475.56
557.05	6536.13
557.413	6525.05
557.776	6575.22
558.139	6650.25
558.502	6591.95
558.865	6599.63
559.228	6634.88
559.59	6673.3
559.953	6694.77
560.316	6781.54
560.679	6745.84
561.041	6737.7
561.404	6822.9
561.767	6847.76
562.129	6851.15
562.492	6894.99
562.854	6943.8
563.217	6842.11
563.579	6896.34
563.941	6925.72
564.304	7005.49
564.666	6961.2
565.028	7007.98
565.39	7038.04
565.753	7012.27
566.115	7114.87
566.477	7093.4
566.839	7137.24
567.201	7191.93
567.563	7201.87
567.925	7238.71
568.287	7196.68
568.648	7267.63
569.01	7294.98
569.372	7348.54
569.734	7329.1
570.095	7424.24
570.457	7495.42
570.819	7468.31
571.18	7475.31
571.542	7481.19
571.903	7574.74
572.265	7604.8
572.626	7627.85
572.987	7669.21
573.349	7703.1
573.71	7691.8
574.071	7832.14
574.432	7897.67
574.794	7926.6
575.155	7969.54
575.516	7977.9
575.877	8066.71
576.238	8079.82
576.599	8181.51
576.96	8292.24
577.32	8303.76
577.681	8415.4
578.042	8522.52
578.403	8516.64
578.763	8606.58
579.124	8716.86
579.485	8816.52
579.845	8982.84
580.206	9027.59
580.566	9143.29
580.927	9215.38
581.287	9358.88
581.648	9473.68
582.008	9645.88
582.368	9782.37
582.728	9884.06
583.089	9967
583.449	10133.55
583.809	10333.99
584.169	10524.27
584.529	10698.96
584.889	10854.66
585.249	11036.57
585.609	11216
585.969	11487.64
586.329	11616.22
586.688	11846.27
587.048	12024.8
587.408	12261.4
587.768	12519.02
588.127	12723.31
588.487	12937.77
588.846	13242.17
589.206	13410.52
589.565	13744.07
589.925	14013.67
590.284	14238.98
590.643	14491.17
591.003	14820.88
591.362	15076.92
591.721	15327.08
592.08	15547.42
592.44	15872.83
592.799	16113.28
593.158	16372.93
593.517	16703.09
593.876	17101.05
594.235	17323.41
594.593	17663.29
594.952	17990.52
595.311	18221.47
595.67	18632.76
596.029	18926.08
596.387	19100.99
596.746	19589.8
597.104	19750.47
597.463	20069.78
597.822	20431.81
598.18	20600.84
598.538	20902.76
598.897	21300.03
599.255	21465.45
599.613	21940.24
599.972	22102.05
600.33	22437.18
600.688	22726.66
601.046	23048.46
601.404	23416.59
601.762	23677.6
602.12	24041.66
602.478	24286.85
602.836	24508.08
603.194	24730.45
603.552	24928.41
603.91	25166.15
604.268	25585.57
604.625	25812.23
604.983	26151.88
605.341	26326.57
605.698	26662.15
606.056	26946.66
606.413	27087.9
606.771	27390.72
607.128	27684.5
607.485	27624.16
607.843	27917.49
608.2	28388.66
608.557	28686.96
608.914	28689.22
609.272	29023.67
609.629	29349.99
609.986	29550.44
610.343	29597.89
610.7	30025
611.057	30216.86
611.414	30449.85
611.771	30617.3
612.127	30927.35
612.484	31045.09
612.841	31389.26
613.198	31294.12
613.554	31506.54
613.911	31952.18
614.267	32043.48
614.624	32100.65
614.98	32318.27
615.337	32736.79
615.693	32688.89
616.05	32784.48
616.406	33260.62
616.762	33144.47
617.118	33351.69
617.475	33407.29
617.831	33803.89
618.187	33899.25
618.543	34008.63
618.899	34281.16
619.255	34265.12
619.611	34450.65
619.967	34569.29
620.323	34733.35
620.678	34736.52
621.034	34781.49
621.39	34899.68
621.746	35032.33
622.101	35541.92
622.457	35307.12
622.812	35607.91
623.168	35683.84
623.523	35686.32
623.879	35931.29
624.234	35827.56
624.589	35992.98
624.945	36193.65
625.3	36096.25
625.655	36195.01
626.01	36502.57
626.365	36469.13
626.72	36396.59
627.075	36487.66
627.43	36532.63
627.785	36557.71
628.14	36655.56
628.495	36749.8
628.85	36779.17
629.205	36720.64
629.559	36946.85
629.914	36837.03
630.269	36996.12
630.623	37041.77
630.978	36930.81
631.332	37107.53
631.687	37194.08
632.041	37153.63
632.396	37281.76
632.75	37231.14
633.104	37198.6
633.459	37159.5
633.813	37138.49
634.167	37143.23
634.521	37315.88
634.875	37413.51
635.229	37328.76
635.583	37214.42
635.937	37171.48
636.291	37229.33
636.645	37301.87
636.999	37269.33
637.352	37351.14
637.706	37156.34
638.06	37338.71
638.413	37317.69
638.767	37219.39
639.121	37410.57
639.474	37061.88
639.828	37117.02
640.181	37246.96
640.534	37187.07
640.888	37161.09
641.241	37063.91
641.594	37101.65
641.947	37332.83
642.301	37176.23
642.654	37326.5
643.007	37182.33
643.36	37154.31
643.713	37084.25
644.066	37343.45
644.419	37125.83
644.771	36749.34
645.124	36414.44
645.477	36593.64
645.83	36316.81
646.182	36196.36
646.535	36061.45
646.888	36199.08
647.24	35939.2
647.593	36220.54
647.945	36105.07
648.298	35908.91
648.65	35904.17
649.002	35845.19
649.355	35986.65
649.707	35932.87
650.059	36228.23
650.411	36589.35
650.763	36677.71
651.115	36992.05
651.467	36851.71
651.819	36823.92
652.171	36854.88
652.523	36688.56
652.875	36793.19
653.227	36640.87
653.578	36844.03
653.93	36780.08
654.282	36630.03
654.633	36649.46
654.985	36626.18
655.337	36688.56
655.688	36663.25
656.039	36712.51
656.391	36351.84
656.742	36594.55
657.094	36477.49
657.445	36637.71
657.796	36548.22
658.147	36456.92
658.498	36557.49
658.849	36607.2
659.2	36513.87
659.551	36387.77
659.902	36523.36
660.253	36477.94
660.604	36551.61
660.955	36285.63
661.306	36524.49
661.656	36453.53
662.007	36427.32
662.358	36403.59
662.708	36523.81
663.059	36311.84
663.409	36204.27
663.76	36566.52
664.11	36532.63
664.461	36495.11
664.811	36435.45
665.161	36438.39
665.511	36338.06
665.862	36418.51
666.212	36549.12
666.562	36431.61
666.912	36448.56
667.262	36272.97
667.612	36318.62
667.962	36470.48
668.312	36481.33
668.662	36528.56
669.011	36514.1
669.361	36331.95
669.711	36357.49
670.06	36270.71
670.41	36246.31
670.76	36306.87
671.109	36402.46
671.459	36323.59
671.808	36316.36
672.157	36362.46
672.507	36042.24
672.856	36157.72
673.205	36199.3
673.554	36321.33
673.904	36182.81
674.253	36232.97
674.602	36212.86
674.951	35784.62
675.3	35488.59
675.649	36147.78
675.998	36025.52
676.346	36069.14
676.695	36113.88
677.044	35890.16
677.393	36027.56
677.741	35936.71
678.09	35955.24
678.438	35748.47
678.787	35974.68
679.135	36007.9
679.484	35721.35
679.832	35874.34
680.181	35735.13
680.529	35786.88
680.877	35549.15
681.225	35586.89
681.573	35721.57
681.922	35524.07
682.27	35432.09
682.618	35482.26
682.966	35362.04
683.314	35466.89
683.661	35439.77
684.009	35038.2
684.357	35139.67
684.705	35040.91
685.053	35250.4
685.4	35072.78
685.748	34896.51
686.095	34848.83
686.443	34762.28
686.79	34782.84
687.138	34831.88
687.485	34866.23
687.832	34682.05
688.18	34641.6
688.527	34551.44
688.874	34566.58
689.221	34451.1
689.568	34433.47
689.915	34322.29
690.262	34390.08
690.609	34134.27
690.956	34152.58
691.303	33993.03
691.65	33928.18
691.997	33924.33
692.344	33724.79
692.69	33720.72
693.037	33689.76
693.383	33547.17
693.73	33532.71
694.077	33503.55
694.423	33384.46
694.769	33287.29
695.116	33084.13
695.462	33092.27
695.808	33066.96
696.155	33071.25
696.501	32839.39
696.847	32849.33
697.193	32532.28
697.539	32711.48
697.885	32498.38
698.231	32406.63
698.577	32433.53
698.923	32332.29
699.269	32144.95
699.614	32116.47
699.96	32160.99
700.306	32189.24
700.651	31934.33
700.997	31784.73
701.342	31852.52
701.688	31735.46
702.033	31581.8
702.379	31633.32
702.724	31405.08
703.069	31602.81
703.415	31269.26
703.76	31203.73
704.105	31319.88
704.45	31174.8
704.795	31037.86
705.14	30917.41
705.485	30893.23
705.83	30791.76
706.175	30793.12
706.52	30660.47
706.865	30512.45
707.209	30613.01
707.554	30430.19
707.899	30513.35
708.243	30339.34
708.588	30314.71
708.932	30135.96
709.277	30147.26
709.621	30099.35
709.966	29947.04
710.31	29974.16
710.654	29759.25
710.998	29817.55
711.342	29868.62
711.687	29666.82
712.031	29665.01
712.375	29532.13
712.719	29581.17
713.063	29466.15
713.407	29530.1
713.75	29354.06
714.094	29424.57
714.438	29226.6
714.782	29295.98
715.125	29165.82
715.469	29178.24
715.812	29042.88
716.156	28849.89
716.499	28884.92
716.843	28865.03
717.186	28790.23
717.53	28840.17
717.873	28822.55
718.216	28718.37
718.559	28635.66
718.902	28399.73
719.246	28578.26
719.589	28454.87
719.932	28370.81
720.275	28393.41
720.617	28301.88
720.96	28268.66
721.303	28226.18
721.646	28213.3
721.989	27982.57
722.331	28199.06
722.674	28042.23
723.016	28234.99
723.359	28012.17
723.701	27975.11
724.044	27787.55
724.386	27759.75
724.729	27801.56
725.071	27718.4
725.413	27652.41
725.755	27796.13
726.097	27503.49
726.439	27447.44
726.782	27397.5
727.124	27517.27
727.465	27405.18
727.807	27384.39
728.149	27405.86
728.491	27252.87
728.833	27292.19
729.175	27185.08
729.516	27114.57
729.858	27034.57
730.199	27097.17
730.541	27137.85
730.882	26969.71
731.224	27101.24
731.565	26894.91
731.906	26980.11
732.248	26878.19
732.589	26690.63
732.93	26645.66
733.271	26658.99
733.612	26709.38
733.953	26682.26
734.294	26569.95
734.635	26615.37
734.976	26625.77
735.317	26357.98
735.658	26419.22
735.999	26489.05
736.339	26387.81
736.68	26426.9
737.021	26310.97
737.361	26242.28
737.702	26357.3
738.042	26363.63
738.383	26176.97
738.723	26123.41
739.063	26152.11
739.404	26135.61
739.744	26044.09
740.084	25924.09
740.424	26056.07
740.764	25910.99
741.104	26063.52
741.444	25878.9
741.784	25627.15
742.124	25747.37
742.464	25792.57
742.804	25704.44
743.143	25545.35
743.483	25777.43
743.823	25618.11
744.162	25587.38
744.502	25472.13
744.841	25502.41
745.181	25501.5
745.52	25419.02
745.86	25461.51
746.199	25401.85
746.538	25341.51
746.877	25320.94
747.216	25275.3
747.556	25197.11
747.895	25172.47
748.234	25156.43
748.573	25061.06
748.911	24956.89
749.25	24912.59
749.589	24891.58
749.928	24940.62
750.267	24947.39
750.605	24841.63
750.944	24762.32
751.283	24713.73
751.621	24737.68
751.96	24540.4
752.298	24554.64
752.636	24632.83
752.975	24449.55
753.313	24362.78
753.651	24536.33
753.989	24329.33
754.327	24297.92
754.666	24132.5
755.004	24206.85
755.342	24327.52
755.679	24101.77
756.017	23977.93
756.355	24039.4
756.693	23953.75
757.031	23995.56
757.368	23892.51
757.706	23836.01
758.044	23791.49
758.381	23782
758.719	23620.88
759.056	23605.51
759.394	23535
759.731	23413.88
760.068	23450.94
