Data from hue_200_FLMS001491_00039.txt Node
Date: Tue Feb 07 16:43:12 GMT 2017
User: dcchb
Spectrometer: FLMS00149
Trigger mode: 0
Integration Time (sec): 2.000000E-2
Scans to average: 10
Electric dark correction enabled: true
Nonlinearity correction enabled: false
Boxcar width: 0
XAxis mode: Wavelengths
Number of Pixels in Spectrum: 2048
>>>>>Begin Spectral Data<<<<<
341.393	22.91
341.776	22.91
342.16	22.91
342.543	-41.95
342.927	-84.88
343.31	-71.1
343.693	-66.58
344.077	-55.96
344.46	-69.74
344.843	-72
345.226	-31.78
345.61	-22.06
345.993	-21.84
346.376	-11.21
346.759	-0.82
347.142	43.93
347.525	41.21
347.908	62
348.291	82.79
348.674	85.05
349.057	108.1
349.44	125.05
349.823	151.49
350.206	165.73
350.588	193.07
350.971	215.9
351.354	224.49
351.737	232.62
352.119	259.74
352.502	262.22
352.884	261.77
353.267	293.86
353.65	295.9
354.032	290.92
354.414	300.19
354.797	309.91
355.179	330.92
355.562	313.52
355.944	298.83
356.326	340.87
356.709	335.9
357.091	343.58
357.473	321.88
357.855	338.38
358.238	321.43
358.62	339.74
359.002	325.73
359.384	346.06
359.766	334.99
360.148	336.57
360.53	328.66
360.912	331.6
361.294	333.41
361.676	326.63
362.057	349.23
362.439	314.88
362.821	333.64
363.203	323.69
363.584	336.57
363.966	349.23
364.348	319.85
364.729	324.6
365.111	315.33
365.493	338.61
365.874	329.57
366.256	320.3
366.637	323.24
367.019	299.06
367.4	315.1
367.781	316.23
368.163	318.04
368.544	323.24
368.925	301.77
369.306	338.38
369.688	306.07
370.069	299.51
370.45	320.98
370.831	329.12
371.212	295.9
371.593	325.27
371.974	311.94
372.355	305.39
372.736	320.75
373.117	299.96
373.498	304.71
373.879	342.45
374.26	328.66
374.641	321.88
375.021	307.42
375.402	312.17
375.783	322.11
376.163	330.7
376.544	336.35
376.925	334.09
377.305	332.73
377.686	339.51
378.066	326.4
378.447	325.95
378.827	340.19
379.208	338.15
379.588	331.83
379.968	340.19
380.349	343.58
380.729	356.69
381.109	364.37
381.489	375.44
381.87	331.15
382.25	330.92
382.63	361.88
383.01	366.18
383.39	363.69
383.77	346.97
384.15	353.3
384.53	379.06
384.91	351.04
385.29	367.76
385.67	353.75
386.049	377.93
386.429	346.29
386.809	363.47
387.189	378.15
387.568	365.72
387.948	373.41
388.328	380.64
388.707	364.82
389.087	359.85
389.466	396.68
389.846	368.21
390.225	376.35
390.605	391.49
390.984	375.22
391.363	383.13
391.743	379.51
392.122	396.01
392.501	387.65
392.881	377.48
393.26	375.67
393.639	383.35
394.018	404.59
394.397	388.1
394.776	401.66
395.155	402.11
395.534	388.1
395.913	397.36
396.292	410.47
396.671	434.2
397.05	412.28
397.429	427.64
397.808	398.94
398.186	423.35
398.565	426.97
398.944	421.99
399.323	418.38
399.701	431.26
400.08	428.77
400.458	419.06
400.837	447.98
401.215	440.53
401.594	428.1
401.972	436.46
402.351	438.94
402.729	446.4
403.107	467.19
403.486	477.59
403.864	477.81
404.242	462.22
404.62	477.59
404.999	494.99
405.377	484.14
405.755	486.4
406.133	496.34
406.511	487.08
406.889	523.69
407.267	508.55
407.645	515.78
408.023	537.25
408.401	517.59
408.779	542.67
409.156	541.54
409.534	550.58
409.912	559.17
410.29	573.4
410.667	572.95
411.045	568.43
411.422	595.32
411.8	603.23
412.178	613.63
412.555	613.4
412.933	625.61
413.31	659.95
413.687	667.86
414.065	660.18
414.442	670.35
414.819	680.07
415.197	705.83
415.574	693.4
415.951	712.61
416.328	726.39
416.705	733.17
417.082	743.34
417.46	783.57
417.837	771.14
418.214	774.53
418.591	780.86
418.967	798.03
419.344	801.19
419.721	812.49
420.098	822.66
420.475	847.07
420.852	838.93
421.228	867.63
421.605	900.17
421.982	868.54
422.358	930.46
422.735	946.95
423.111	942.88
423.488	985.37
423.864	981.3
424.241	1008.87
424.617	1009.1
424.994	1036.44
425.37	1072.15
425.746	1043.9
426.123	1094.75
426.499	1092.03
426.875	1107.85
427.251	1141.07
427.627	1155.76
428.003	1174.74
428.379	1199.83
428.756	1210.67
429.132	1214.74
429.507	1188.98
429.883	1245.93
430.259	1253.61
430.635	1266.49
431.011	1307.85
431.387	1301.52
431.763	1347.17
432.138	1334.74
432.514	1382.65
432.89	1392.36
433.265	1436.88
433.641	1453.15
434.016	1457.22
434.392	1509.65
434.767	1540.38
435.143	1581.29
435.518	1561.4
435.894	1580.61
436.269	1645.69
436.644	1674.62
437.02	1681.17
437.395	1717.33
437.77	1726.14
438.145	1754.16
438.52	1781.28
438.895	1820.83
439.271	1854.95
439.646	1908.74
440.021	1938.79
440.395	1931.11
440.77	1919.81
441.145	2001.39
441.52	2048.39
441.895	2050.65
442.27	2092.01
442.645	2043.87
443.019	2108.96
443.394	2115.06
443.769	2137.66
444.143	2159.12
444.518	2172.01
444.892	2176.52
445.267	2256.97
445.641	2228.95
446.016	2275.28
446.39	2278.67
446.764	2300.82
447.139	2309.85
447.513	2356.18
447.887	2357.99
448.262	2372.9
448.636	2394.37
449.01	2440.02
449.384	2438.21
449.758	2494.71
450.132	2502.39
450.506	2539.9
450.88	2506.23
451.254	2546.01
451.628	2555.5
452.002	2629.39
452.376	2635.5
452.75	2669.85
453.123	2676.17
453.497	2715.72
453.871	2725.89
454.244	2824.19
454.618	2827.13
454.992	2852.44
455.365	2828.26
455.739	2939.44
456.112	2942.15
456.486	2996.84
456.859	2969.72
457.232	3080
457.606	3044.75
457.979	3075.71
458.352	3181.92
458.725	3162.49
459.099	3225.08
459.472	3291.52
459.845	3320.9
460.218	3329.49
460.591	3338.3
460.964	3380.79
461.337	3467.34
461.71	3528.81
462.083	3507.79
462.456	3593.89
462.829	3602.93
463.201	3656.03
463.574	3682.7
463.947	3682.02
464.32	3798.63
464.692	3804.73
465.065	3874.33
465.438	3888.8
465.81	3928.57
466.183	4012.86
466.555	4133.08
466.928	4122.24
467.3	4113.65
467.672	4205.85
468.045	4277.71
468.417	4284.72
468.789	4321.1
469.161	4362.68
469.534	4436.58
469.906	4543.92
470.278	4556.35
470.65	4685.16
471.022	4679.28
471.394	4803.57
471.766	4824.14
472.138	4885.83
472.51	4961.54
472.882	5029.11
473.253	5086.28
473.625	5157.69
473.997	5287.63
474.369	5332.6
474.74	5328.08
475.112	5411.24
475.484	5529.88
475.855	5631.58
476.227	5653.72
476.598	5815.3
476.97	5866.6
477.341	5956.99
477.713	5991.34
478.084	6098.46
478.455	6226.14
478.827	6265.23
479.198	6412.8
479.569	6507.03
479.94	6627.93
480.311	6683.3
480.682	6765.33
481.053	6960.58
481.424	7054.14
481.795	7169.61
482.166	7234.24
482.537	7282.61
482.908	7418.65
483.279	7471.75
483.65	7625.87
484.021	7761.91
484.391	7848.24
484.762	7878.07
485.133	7994.9
485.503	8099.31
485.874	8261.79
486.244	8282.8
486.615	8449.81
486.985	8635.79
487.356	8711.04
487.726	8802.34
488.097	8958.72
488.467	9001.66
488.837	9149.45
489.207	9206.17
489.578	9313.96
489.948	9379.05
490.318	9524.58
490.688	9527.29
491.058	9683.9
491.428	9743.33
491.798	9769.09
492.168	10018.58
492.538	10040.05
492.908	10105.58
493.278	10200.72
493.648	10296.09
494.017	10389.87
494.387	10433.71
494.757	10505.8
495.126	10550.99
495.496	10607.94
495.866	10650.65
496.235	10810.42
496.605	10881.15
496.974	10932.23
497.344	10939.23
497.713	11080.02
498.082	11118.44
498.452	11210.41
498.821	11210.64
499.19	11235.72
499.559	11307.81
499.928	11346.23
500.298	11368.15
500.667	11496.51
501.036	11389.39
501.405	11520.23
501.774	11540.8
502.143	11621.93
502.512	11724.75
502.88	11715.48
503.249	11743.28
503.618	11742.37
503.987	11797.97
504.356	11870.96
504.724	11889.72
505.093	11912.54
505.462	11906.66
505.83	11941.92
506.199	12080.22
506.567	12131.74
506.936	12128.13
507.304	12184.4
507.672	12206.09
508.041	12237.05
508.409	12341
508.777	12390.95
509.145	12435.24
509.514	12376.48
509.882	12478.4
510.25	12455.58
510.618	12540.55
510.986	12460.1
511.354	12576.7
511.722	12622.58
512.09	12719.98
512.458	12662.58
512.826	12669.58
513.193	12689.69
513.561	12740.54
513.929	12841.1
514.297	12891.05
514.664	12899.63
515.032	12949.35
515.4	12914.77
515.767	12994.77
516.135	12988.67
516.502	12894.43
516.869	13031.61
517.237	13017.82
517.604	13002.45
517.972	13029.57
518.339	13018.95
518.706	13092.62
519.073	13077.93
519.44	13122.9
519.808	13155.67
520.175	13117.93
520.542	13241.32
520.909	13289.23
521.276	13149.12
521.643	13259.62
522.009	13353.18
522.376	13310.24
522.743	13326.29
523.11	13406.96
523.477	13371.26
523.843	13476.11
524.21	13498.49
524.577	13564.02
524.943	13542.1
525.31	13595.43
525.676	13578.48
526.043	13545.72
526.409	13550.24
526.776	13621.2
527.142	13616.9
527.508	13654.41
527.874	13665.94
528.241	13646.05
528.607	13545.04
528.973	13691.25
529.339	13653.06
529.705	13695.32
530.071	13660.97
530.437	13718.82
530.803	13673.62
531.169	13753.85
531.535	13576.68
531.901	13604.47
532.267	13512.27
532.632	13561.99
532.998	13547.3
533.364	13546.17
533.73	13529.22
534.095	13598.37
534.461	13563.12
534.826	13525.38
535.192	13458.94
535.557	13502.33
535.923	13459.62
536.288	13344.14
536.653	13466.4
537.019	13285.61
537.384	13284.48
537.749	13301.66
538.114	13259.4
538.479	13188.66
538.845	13205.61
539.21	13115.45
539.575	13101.89
539.94	13148.67
540.305	13157.93
540.67	12916.58
541.034	13014.66
541.399	12998.61
541.764	12960.42
542.129	12863.02
542.494	12785.06
542.858	12870.48
543.223	12738.05
543.587	12764.72
543.952	12705.97
544.316	12623.93
544.681	12528.34
545.045	12527.66
545.41	12595.91
545.774	12480.43
546.138	12476.59
546.503	12439.08
546.867	12359.76
547.231	12324.05
547.595	12420.1
547.959	12305.3
548.324	12256.94
548.688	12178.75
549.052	12185.75
549.416	12111.63
549.779	12074.34
550.143	12073.67
550.507	11978.3
550.871	11989.83
551.235	11937.62
551.599	11908.02
551.962	11881.81
552.326	11915.93
552.689	11807.23
553.053	11742.83
553.417	11727.23
553.78	11794.58
554.143	11703.73
554.507	11630.51
554.87	11691.08
555.234	11714.8
555.597	11616.05
555.96	11600.46
556.323	11544.41
556.686	11495.38
557.05	11600.46
557.413	11497.86
557.776	11530.18
558.139	11521.14
558.502	11448.82
558.865	11431.65
559.228	11509.39
559.59	11415.15
559.953	11401.82
560.316	11502.61
560.679	11516.62
561.041	11421.48
561.404	11446.34
561.767	11488.14
562.129	11374.93
562.492	11456.05
562.854	11431.2
563.217	11424.64
563.579	11338.54
563.941	11435.04
564.304	11403.63
564.666	11496.28
565.028	11416.73
565.39	11430.29
565.753	11357.98
566.115	11323.4
566.477	11487.01
566.839	11456.51
567.201	11484.08
567.563	11422.84
567.925	11504.87
568.287	11458.77
568.648	11539.89
569.01	11533.57
569.372	11581.93
569.734	11538.76
570.095	11536.5
570.457	11535.37
570.819	11533.34
571.18	11471.42
571.542	11532.89
571.903	11582.83
572.265	11640.68
572.626	11650.85
572.987	11567.92
573.349	11550.97
573.71	11618.31
574.071	11609.05
574.432	11628.48
574.794	11685.2
575.155	11611.76
575.516	11602.49
575.877	11738.53
576.238	11618.31
576.599	11753.45
576.96	11612.21
577.32	11669.16
577.681	11680
578.042	11722.04
578.403	11673.45
578.763	11724.97
579.124	11682.94
579.485	11842.71
579.845	11746.89
580.206	11730.62
580.566	11729.95
580.927	11748.02
581.287	11729.72
581.648	11665.31
582.008	11796.38
582.368	11646.11
582.728	11688.36
583.089	11654.47
583.449	11753.67
583.809	11683.85
584.169	11707.12
584.529	11644.52
584.889	11802.03
585.249	11667.35
585.609	11578.31
585.969	11759.78
586.329	11682.72
586.688	11690.4
587.048	11702.6
587.408	11705.31
587.768	11603.62
588.127	11619.44
588.487	11619.89
588.846	11657.86
589.206	11611.53
589.565	11658.99
589.925	11679.78
590.284	11535.6
590.643	11622.83
591.003	11610.63
591.362	11644.98
591.721	11615.15
592.08	11581.02
592.44	11539.44
592.799	11570.63
593.158	11554.58
593.517	11462.61
593.876	11567.01
594.235	11574.02
594.593	11589.38
594.952	11553
595.311	11434.36
595.67	11554.58
596.029	11580.35
596.387	11572.66
596.746	11621.93
597.104	11530.4
597.463	11504.64
597.822	11562.49
598.18	11520.69
598.538	11530.18
598.897	11541.02
599.255	11456.96
599.613	11574.02
599.972	11562.04
600.33	11571.98
600.688	11490.63
601.046	11539.89
601.404	11507.13
601.762	11469.16
602.12	11529.73
602.478	11521.36
602.836	11535.6
603.194	11489.5
603.552	11439.78
603.91	11473.46
604.268	11489.95
604.625	11428.48
604.983	11501.93
605.341	11457.18
605.698	11503.29
606.056	11519.1
606.413	11532.66
606.771	11510.06
607.128	11528.82
607.485	11503.06
607.843	11491.53
608.2	11535.37
608.557	11604.07
608.914	11587.12
609.272	11571.53
609.629	11562.94
609.986	11557.97
610.343	11576.96
610.7	11652.66
611.057	11619.67
611.414	11641.13
611.771	11676.84
612.127	11639.1
612.484	11588.03
612.841	11691.08
613.198	11618.08
613.554	11654.24
613.911	11677.07
614.267	11648.59
614.624	11682.04
614.98	11629.84
615.337	11731.53
615.693	11723.17
616.05	11716.61
616.406	11816.05
616.762	11714.8
617.118	11724.97
617.475	11741.7
617.831	11741.02
618.187	11734.01
618.543	11801.58
618.899	11870.73
619.255	11808.59
619.611	11749.15
619.967	11793.22
620.323	11833.22
620.678	11760.91
621.034	11801.58
621.39	11720.68
621.746	11737.63
622.101	11896.95
622.457	11743.28
622.812	11744.18
623.168	11840
623.523	11773.79
623.879	11768.81
624.234	11746.22
624.589	11741.47
624.945	11751.87
625.3	11784.41
625.655	11776.95
626.01	11722.26
626.365	11818.76
626.72	11744.86
627.075	11749.83
627.43	11707.35
627.785	11656.5
628.14	11707.57
628.495	11753
628.85	11732.88
629.205	11645.88
629.559	11722.94
629.914	11677.07
630.269	11706.9
630.623	11679.55
630.978	11592.1
631.332	11739.21
631.687	11716.61
632.041	11687.24
632.396	11639.78
632.75	11581.93
633.104	11560.68
633.459	11596.39
633.813	11581.93
634.167	11551.42
634.521	11523.4
634.875	11506.67
635.229	11501.03
635.583	11397.98
635.937	11442.72
636.291	11464.64
636.645	11461.03
636.999	11435.94
637.352	11413.34
637.706	11424.64
638.06	11379.22
638.413	11398.66
638.767	11328.6
639.121	11411.54
639.474	11311.88
639.828	11289.05
640.181	11270.75
640.534	11354.81
640.888	11226.91
641.241	11258.55
641.594	11277.08
641.947	11310.75
642.301	11233.91
642.654	11270.52
643.007	11199.56
643.36	11214.48
643.713	11228.04
644.066	11233.46
644.419	11249.28
644.771	11160.92
645.124	11020.13
645.477	11021.49
645.83	10965.9
646.182	10900.36
646.535	10887.71
646.888	10837.54
647.24	10769.97
647.593	10827.6
647.945	10743.98
648.298	10739.69
648.65	10690.2
649.002	10754.6
649.355	10789.41
649.707	10742.18
650.059	10868.27
650.411	10977.65
650.763	11026.24
651.115	11095.84
651.467	11013.58
651.819	10967.03
652.171	11000.02
652.523	11030.08
652.875	10956.18
653.227	10919.12
653.578	11082.51
653.93	11009.51
654.282	11009.06
654.633	10948.95
654.985	10980.81
655.337	10939.01
655.688	11051.09
656.039	11140.13
656.391	11020.36
656.742	11007.03
657.094	11007.25
657.445	11075.05
657.796	11022.39
658.147	11032.34
658.498	10947.37
658.849	11032.79
659.2	11011.09
659.551	11028.95
659.902	11079.57
660.253	10985.78
660.604	11002.73
660.955	11013.13
661.306	11020.36
661.656	11028.04
662.007	10999.57
662.358	11051.77
662.708	11008.83
663.059	11140.13
663.409	10953.92
663.76	10994.37
664.11	11136.97
664.461	11138.55
664.811	11052.9
665.161	11014.94
665.511	11004.09
665.862	11038.66
666.212	11124.99
666.562	11075.5
666.912	11079.57
667.262	11089.74
667.612	11073.47
667.962	11050.19
668.312	11053.81
668.662	11076.86
669.011	11145.33
669.361	11052.9
669.711	11006.35
670.06	11008.38
670.41	11040.92
670.76	10977.42
671.109	10993.92
671.459	10977.88
671.808	10955.28
672.157	10974.49
672.507	10873.7
672.856	10928.16
673.205	11001.15
673.554	11034.14
673.904	10936.07
674.253	10962.06
674.602	10858.78
674.951	10842.74
675.3	10753.02
675.649	10918.22
675.998	10892.68
676.346	10874.6
676.695	10940.59
677.044	10841.38
677.393	10830.53
677.741	10855.84
678.09	10828.5
678.438	10818.33
678.787	10805.68
679.135	10753.93
679.484	10777.2
679.832	10781.27
680.181	10668.96
680.529	10756.86
680.877	10732.91
681.225	10698.11
681.573	10757.09
681.922	10584.44
682.27	10641.16
682.618	10613.82
682.966	10601.16
683.314	10576.3
683.661	10591.67
684.009	10547.6
684.357	10518.9
684.705	10457.44
685.053	10439.81
685.4	10417.21
685.748	10361.17
686.095	10331.11
686.443	10301.28
686.79	10351
687.138	10254.28
687.485	10295.41
687.832	10304.45
688.18	10257.89
688.527	10162.98
688.874	10146.48
689.221	10248.18
689.568	10123.43
689.915	10078.46
690.262	10127.73
690.609	9987.17
690.956	9995.53
691.303	9964.57
691.65	9934.96
691.997	9891.35
692.344	9843.89
692.69	9814.29
693.037	9832.14
693.383	9714.18
693.73	9789.88
694.077	9683.67
694.423	9688.19
694.769	9643.67
695.116	9695.2
695.462	9662.66
695.808	9588.99
696.155	9506.28
696.501	9465.82
696.847	9492.49
697.193	9400.74
697.539	9470.8
697.885	9321.2
698.231	9392.15
698.577	9315.77
698.923	9314.19
699.269	9198.26
699.614	9109.22
699.96	9147.41
700.306	9136.57
700.651	9017.25
700.997	9039.4
701.342	9053.86
701.688	9003.92
702.033	8915.33
702.379	8993.97
702.724	8921.66
703.069	8982.67
703.415	8826.52
703.76	8856.35
704.105	8830.81
704.45	8805.05
704.795	8723.25
705.14	8744.26
705.485	8696.35
705.83	8635.79
706.175	8642.57
706.52	8664.04
706.865	8597.37
707.209	8559.41
707.554	8550.37
707.899	8579.07
708.243	8465.62
708.588	8444.16
708.932	8445.96
709.277	8427.21
709.621	8466.08
709.966	8349.02
710.31	8320.32
710.654	8331.62
710.998	8315.57
711.342	8322.35
711.687	8272.86
712.031	8219.76
712.375	8146.99
712.719	8205.29
713.063	8231.96
713.407	8177.72
713.75	8213.2
714.094	8150.6
714.438	8073.09
714.782	8118.74
715.125	8089.59
715.469	8101.34
715.812	8025.86
716.156	7992.19
716.499	7961.23
716.843	7999.42
717.186	7950.38
717.53	8017.73
717.873	7992.42
718.216	7975.69
718.559	7949.71
718.902	7916.94
719.246	7908.58
719.589	7843.49
719.932	7847.11
720.275	7862.25
720.617	7823.61
720.96	7855.7
721.303	7855.47
721.646	7825.87
721.989	7809.37
722.331	7801.01
722.674	7822.25
723.016	7823.83
723.359	7732.08
723.701	7834.68
724.044	7740.9
724.386	7706.32
724.729	7810.27
725.071	7723.27
725.413	7779.99
725.755	7730.5
726.097	7639.43
726.439	7656.83
726.782	7687.79
727.124	7758.52
727.465	7684.18
727.807	7662.93
728.149	7689.37
728.491	7637.4
728.833	7689.37
729.175	7661.8
729.516	7705.42
729.858	7652.09
730.199	7620.68
730.541	7629.26
730.882	7657.96
731.224	7610.96
731.565	7567.12
731.906	7603.95
732.248	7664.97
732.589	7595.82
732.93	7569.15
733.271	7612.77
733.612	7614.12
733.953	7612.77
734.294	7582.94
734.635	7543.62
734.976	7583.84
735.317	7592.2
735.658	7623.39
735.999	7624.07
736.339	7652.54
736.68	7632.88
737.021	7685.53
737.361	7601.47
737.702	7680.79
738.042	7635.82
738.383	7653.22
738.723	7648.02
739.063	7615.93
739.404	7686.89
739.744	7658.41
740.084	7671.52
740.424	7673.1
740.764	7623.16
741.104	7739.77
741.444	7720.79
741.784	7732.31
742.124	7782.93
742.464	7794.68
742.804	7799.88
743.143	7726.66
743.483	7836.26
743.823	7800.33
744.162	7759.43
744.502	7873.78
744.841	7898.18
745.181	7980.89
745.52	7969.59
745.86	8034
746.199	8016.37
746.538	8039.65
746.877	8182.24
747.216	8152.64
747.556	8169.36
747.895	8255.46
748.234	8290.49
748.573	8404.84
748.911	8448
749.25	8464.27
749.589	8536.13
749.928	8523.93
750.267	8628.78
750.605	8719.18
750.944	8794.43
751.283	8804.37
751.621	8950.13
751.96	8990.13
752.298	9055.44
752.636	9270.8
752.975	9315.09
753.313	9346.96
753.651	9568.42
753.989	9570.45
754.327	9658.14
754.666	9823.78
755.004	9952.82
755.342	10110.55
755.679	10241.17
756.017	10366.37
756.355	10516.42
756.693	10608.39
757.031	10733.59
757.368	10963.41
757.706	11085.44
758.044	11249.05
