Data from hue_24_FLMS001491_00065.txt Node
Date: Tue Feb 07 17:12:36 GMT 2017
User: dcchb
Spectrometer: FLMS00149
Trigger mode: 0
Integration Time (sec): 2.000000E-2
Scans to average: 10
Electric dark correction enabled: true
Nonlinearity correction enabled: false
Boxcar width: 0
XAxis mode: Wavelengths
Number of Pixels in Spectrum: 2048
>>>>>Begin Spectral Data<<<<<
341.393	0.44
341.776	0.44
342.16	0.44
342.543	-70.29
342.927	-67.58
343.31	-58.32
343.693	-47.7
344.077	-81.82
344.46	-66.91
344.843	-58.09
345.226	-57.19
345.61	-15.83
345.993	-21.03
346.376	-12.22
346.759	15.35
347.142	10.16
347.525	62.81
347.908	52.64
348.291	75.24
348.674	106.88
349.057	96.03
349.44	112.3
349.823	139.64
350.206	174.9
350.588	191.62
350.971	215.8
351.354	242.92
351.737	263.26
352.119	244.95
352.502	271.39
352.884	277.49
353.267	287.44
353.65	296.7
354.032	305.51
354.414	303.71
354.797	328.34
355.179	328.11
355.562	324.05
355.944	320.43
356.326	317.04
356.709	337.15
357.091	338.28
357.473	341.22
357.855	339.86
358.238	353.2
358.62	359.52
359.002	347.77
359.384	352.74
359.766	328.79
360.148	351.39
360.53	339.19
360.912	347.1
361.294	355
361.676	356.59
362.057	344.84
362.439	329.47
362.821	338.51
363.203	329.47
363.584	327.66
363.966	345.29
364.348	319.75
364.729	324.72
365.111	337.15
365.493	344.16
365.874	324.72
366.256	313.2
366.637	317.72
367.019	328.34
367.4	327.89
367.781	308.68
368.163	321.33
368.544	323.59
368.925	347.55
369.306	328.79
369.688	300.54
370.069	312.07
370.45	337.6
370.831	329.24
371.212	335.34
371.593	318.17
371.974	321.33
372.355	308.23
372.736	327.43
373.117	331.5
373.498	331.73
373.879	325.4
374.26	327.66
374.641	324.5
375.021	330.15
375.402	317.72
375.783	332.86
376.163	356.59
376.544	331.95
376.925	345.06
377.305	336.7
377.686	354.55
378.066	330.37
378.447	340.09
378.827	357.26
379.208	326.08
379.588	350.03
379.968	377.38
380.349	338.28
380.729	357.04
381.109	330.15
381.489	347.77
381.87	364.27
382.25	346.87
382.63	355
383.01	361.11
383.39	340.09
383.77	357.49
384.15	356.36
384.53	359.07
384.91	366.3
385.29	375.12
385.67	357.94
386.049	373.31
386.429	366.76
386.809	358.62
387.189	372.41
387.568	362.24
387.948	391.39
388.328	377.6
388.707	355.68
389.087	377.6
389.466	386.64
389.846	362.01
390.225	410.37
390.605	394.1
390.984	386.87
391.363	402.24
391.743	394.1
392.122	376.7
392.501	414.21
392.881	387.32
393.26	388.45
393.639	393.42
394.018	408.34
394.397	423.7
394.776	410.6
395.155	408.34
395.534	390.03
395.913	418.96
396.292	409.24
396.671	421.9
397.05	421.9
397.429	416.02
397.808	393.2
398.186	438.39
398.565	430.93
398.944	417.83
399.323	427.09
399.701	428.45
400.08	419.41
400.458	416.92
400.837	434.1
401.215	437.49
401.594	423.93
401.972	468.22
402.351	438.62
402.729	423.93
403.107	441.56
403.486	462.8
403.864	447.21
404.242	450.82
404.62	462.35
404.999	462.57
405.377	445.85
405.755	473.65
406.133	486.53
406.511	471.61
406.889	469.58
407.267	479.75
407.645	471.84
408.023	491.05
408.401	474.78
408.779	473.42
409.156	490.14
409.534	485.4
409.912	499.18
410.29	498.28
410.667	519.07
411.045	508
411.422	509.8
411.8	515
412.178	518.16
412.555	537.15
412.933	515.23
413.31	545.51
413.687	537.37
414.065	537.82
414.442	551.38
414.819	535.11
415.197	565.39
415.574	558.62
415.951	581.44
416.328	583.25
416.705	561.33
417.082	578.28
417.46	557.26
417.837	595
418.214	602.91
418.591	565.85
418.967	587.77
419.344	615.34
419.721	610.82
420.098	589.8
420.475	606.3
420.852	611.72
421.228	632.06
421.605	628.44
421.982	629.35
422.358	612.4
422.735	651.27
423.111	642.68
423.488	621.44
423.864	617.82
424.241	677.71
424.617	658.73
424.994	655.79
425.37	668.89
425.746	662.34
426.123	691.27
426.499	685.39
426.875	673.41
427.251	695.56
427.627	704.83
428.003	725.16
428.379	716.58
428.756	713.64
429.132	729.01
429.507	730.14
429.883	733.07
430.259	744.83
430.635	759.06
431.011	754.54
431.387	731.49
431.763	766.52
432.138	771.04
432.514	795.22
432.89	821.43
433.265	795.9
433.641	800.19
434.016	829.34
434.392	797.03
434.767	829.12
435.143	825.05
435.518	845.84
435.894	841.55
436.269	850.81
436.644	839.51
437.02	867.08
437.395	905.95
437.77	888.1
438.145	892.17
438.52	912.05
438.895	922.45
439.271	917.25
439.646	943.01
440.021	938.94
440.395	924.48
440.77	948.66
441.145	945.72
441.52	952.73
441.895	963.58
442.27	966.97
442.645	984.14
443.019	998.38
443.394	966.06
443.769	1034.99
444.143	975.1
444.518	1010.58
444.892	1000.64
445.267	1024.37
445.641	1032.28
446.016	1026.63
446.39	1050.58
446.764	1024.37
447.139	1018.72
447.513	1025.27
447.887	1053.29
448.262	1068.66
448.636	1062.56
449.01	1080.41
449.384	1091.03
449.758	1123.35
450.132	1088.32
450.506	1098.26
450.88	1109.34
451.254	1113.18
451.628	1147.07
452.002	1129.67
452.376	1161.31
452.75	1135.1
453.123	1174.19
453.497	1178.71
453.871	1165.6
454.244	1204.7
454.618	1210.35
454.992	1226.39
455.365	1243.12
455.739	1274.08
456.112	1286.73
456.486	1288.31
456.859	1307.3
457.232	1314.3
457.606	1314.53
457.979	1332.15
458.352	1353.85
458.725	1370.8
459.099	1365.37
459.472	1411.47
459.845	1416.9
460.218	1448.99
460.591	1423.45
460.964	1465.94
461.337	1480.4
461.71	1483.56
462.083	1521.08
462.456	1517.46
462.829	1520.4
463.201	1556.78
463.574	1575.09
463.947	1590
464.32	1618.7
464.692	1615.31
465.065	1654.41
465.438	1670.9
465.81	1698.92
466.183	1691.69
466.555	1756.55
466.928	1747.06
467.3	1739.83
467.672	1799.94
468.045	1833.61
468.417	1836.77
468.789	1866.38
469.161	1871.8
469.534	1923.78
469.906	1914.96
470.278	1934.85
470.65	1980.5
471.022	1995.19
471.394	2018.01
471.766	2086.03
472.138	2093.49
472.51	2168.97
472.882	2164.45
473.253	2222.53
473.625	2237.89
473.997	2295.97
474.369	2280.38
474.74	2351.34
475.112	2368.51
475.484	2420.04
475.855	2491.67
476.227	2479.24
476.598	2588.17
476.97	2609.18
477.341	2667.26
477.713	2699.35
478.084	2730.54
478.455	2776.18
478.827	2838.1
479.198	2905.9
479.569	2919.68
479.94	3007.14
480.311	3048.27
480.682	3095.05
481.053	3206.46
481.424	3245.32
481.795	3265.21
482.166	3340.46
482.537	3387.47
482.908	3504.98
483.279	3525.54
483.65	3611.64
484.021	3718.53
484.391	3747.68
484.762	3765.76
485.133	3823.61
485.503	3903.61
485.874	3937.06
486.244	4040.33
486.615	4163.49
486.985	4165.3
487.356	4250.72
487.726	4327.33
488.097	4355.13
488.467	4437.84
488.837	4502.01
489.207	4625.4
489.578	4650.71
489.948	4706.53
490.318	4810.93
490.688	4871.5
491.058	4873.76
491.428	4973.64
491.798	5027.2
492.168	5132.73
492.538	5202.79
492.908	5271.71
493.278	5316.68
493.648	5349
494.017	5393.74
494.387	5500.63
494.757	5537.02
495.126	5560.97
495.496	5617.24
495.866	5699.95
496.235	5726.84
496.605	5853.39
496.974	5864.46
497.344	5917.57
497.713	5904.46
498.082	5986.95
498.452	6116.66
498.821	6061.97
499.19	6126.83
499.559	6190.56
499.928	6207.05
500.298	6261.97
500.667	6333.38
501.036	6411.57
501.405	6451.34
501.774	6435.3
502.143	6543.54
502.512	6508.29
502.88	6560.27
503.249	6617.21
503.618	6713.48
503.987	6690.66
504.356	6798.45
504.724	6806.81
505.093	6788.96
505.462	6862.18
505.83	6910.99
506.199	6963.87
506.567	7086.13
506.936	7079.35
507.304	7133.58
507.672	7126.8
508.041	7250.87
508.409	7191.21
508.777	7312.34
509.145	7377.64
509.514	7367.02
509.882	7416.97
510.25	7369.28
510.618	7498.09
510.986	7492.44
511.354	7588.03
511.722	7630.07
512.09	7670.97
512.458	7606.11
512.826	7729.73
513.193	7799.78
513.561	7800.01
513.929	7854.47
514.297	7913
514.664	8004.97
515.032	7961.13
515.4	8005.43
515.767	8050.4
516.135	8048.81
516.502	8007.68
516.869	8218.3
517.237	8178.08
517.604	8172.88
517.972	8293.78
518.339	8308.24
518.706	8358.18
519.073	8336.49
519.44	8418.75
519.808	8463.04
520.175	8519.99
520.542	8624.84
520.909	8675.24
521.276	8610.83
521.643	8688.12
522.009	8795.69
522.376	8785.07
522.743	8813.09
523.11	8899.64
523.477	8967.66
523.843	9068
524.21	9075.45
524.577	9175.34
524.943	9214.88
525.31	9287.43
525.676	9256.92
526.043	9320.42
526.409	9422.56
526.776	9501.66
527.142	9440.42
527.508	9611.71
527.874	9601.99
528.241	9702.33
528.607	9723.57
528.973	9764.02
529.339	9755.21
529.705	9874.53
530.071	9970.57
530.437	10008.99
530.803	10024.36
531.169	10076.56
531.535	10125.37
531.901	10129.89
532.267	10210.34
532.632	10265.7
532.998	10347.28
533.364	10332.82
533.73	10372.37
534.095	10449.2
534.461	10491.01
534.826	10556.77
535.192	10630.89
535.557	10639.48
535.923	10714.28
536.288	10734.84
536.653	10760.61
537.019	10776.43
537.384	10846.71
537.749	10918.57
538.114	10951.11
538.479	10950.43
538.845	11006.93
539.21	11028.62
539.575	11007.38
539.94	11156.53
540.305	11194.72
540.67	11151.56
541.034	11187.94
541.399	11303.64
541.764	11389.52
542.129	11297.09
542.494	11399.91
542.858	11379.57
543.223	11512.9
543.587	11562.85
543.952	11613.01
544.316	11677.42
544.681	11659.34
545.045	11715.61
545.41	11788.38
545.774	11778.43
546.138	11848.49
546.503	11905.44
546.867	11914.02
547.231	12005.77
547.595	11930.07
547.959	12051.19
548.324	12075.83
548.688	12196.28
549.052	12171.64
549.416	12273.11
549.779	12262.04
550.143	12239.44
550.507	12338.19
550.871	12322.37
551.235	12343.84
551.599	12439.66
551.962	12561.69
552.326	12565.98
552.689	12708.13
553.053	12543.84
553.417	12611.41
553.78	12769.14
554.143	12692.99
554.507	12774.34
554.87	12845.3
555.234	13015.24
555.597	12935.46
555.96	12977.05
556.323	13036.48
556.686	13053.2
557.05	13116.25
557.413	13082.35
557.776	13244.61
558.139	13259.3
558.502	13308.56
558.865	13390.14
559.228	13403.93
559.59	13393.31
559.953	13504.94
560.316	13598.95
560.679	13640.76
561.041	13697.93
561.404	13665.84
561.767	13751.94
562.129	13727.99
562.492	13964.59
562.854	13870.58
563.217	13885.72
563.579	14012.5
563.941	14045.94
564.304	14150.57
564.666	14120.97
565.028	14175.88
565.39	14265.6
565.753	14331.13
566.115	14363.68
566.477	14339.27
566.839	14397.8
567.201	14499.04
567.563	14549.89
567.925	14683.89
568.287	14621.3
568.648	14714.4
569.01	14754.4
569.372	14953.27
569.734	14764.34
570.095	15027.61
570.457	15039.14
570.819	15040.72
571.18	15176.08
571.542	15209.08
571.903	15326.59
572.265	15413.82
572.626	15380.82
572.987	15557.32
573.349	15543.31
573.71	15587.82
574.071	15680.7
574.432	15697.2
574.794	15884.54
575.155	15911.66
575.516	15896.97
575.877	15967.93
576.238	16059.9
576.599	16164.98
576.96	16324.08
577.32	16350.52
577.681	16543.05
578.042	16684.97
578.403	16708.7
578.763	16816.49
579.124	16976.94
579.485	17103.72
579.845	17363.82
580.206	17352.75
580.566	17457.61
580.927	17671.61
581.287	17823.02
581.648	17912.74
582.008	18183.46
582.368	18118.61
582.728	18491.48
583.089	18615.54
583.449	18866.83
583.809	18966.04
584.169	19240.16
584.529	19285.35
584.889	19698
585.249	19866.58
585.609	19915.17
585.969	20178.66
586.329	20455.72
586.688	20718.99
587.048	20956.27
587.408	21173.67
587.768	21527.56
588.127	21786.76
588.487	21871.05
588.846	22447.76
589.206	22474.65
589.565	22784.02
589.925	23288.19
590.284	23483.66
590.643	23783.54
591.003	24072.57
591.362	24442.51
591.721	24527.25
592.08	25024.86
592.44	25357.51
592.799	25671.85
593.158	25921.11
593.517	26290.59
593.876	26600.19
594.235	26847.87
594.593	27291.7
594.952	27505.48
595.311	27866.6
595.67	28237.89
596.029	28723.52
596.387	29015.27
596.746	29377.29
597.104	29579.32
597.463	29974.79
597.822	30362.35
598.18	30387.21
598.538	30913.75
598.897	31288.88
599.255	31570.46
599.613	32256.99
599.972	32388.29
600.33	32848.16
600.688	32948.5
601.046	33331.09
601.404	33796.84
601.762	33991.86
602.12	34491.06
602.478	34707.77
602.836	34938.73
603.194	35116.35
603.552	35489.45
603.91	35723.79
604.268	36220.28
604.625	36249.88
604.983	36798.79
605.341	36809.41
605.698	37435.16
606.056	37649.39
606.413	37848.71
606.771	38226.33
607.128	38597.84
607.485	38621.34
607.843	38890.94
608.2	39381.1
608.557	39636.01
608.914	39836.23
609.272	40316.67
609.629	40486.38
609.986	40736.77
610.343	40892.7
610.7	41203.42
611.057	41446.35
611.414	41620.36
611.771	41774.71
612.127	42096.28
612.484	42353
612.841	42539.66
613.198	42631.41
613.554	42781.01
613.911	43207.44
614.267	43347.32
614.624	43445.4
614.98	43662.34
615.337	44033.86
615.693	44027.08
616.05	44241.08
616.406	44643.33
616.762	44607.85
617.118	44806.04
617.475	44964.91
617.831	45273.6
618.187	45312.47
618.543	45440.37
618.899	45890.76
619.255	45769.18
619.611	45949.96
619.967	46227.02
620.323	46461.14
620.678	46269.28
621.034	46296.62
621.39	46527.58
621.746	46525.54
622.101	47044.62
622.457	46771.19
622.812	46942.71
623.168	47156.26
623.523	47205.52
623.879	47325.97
624.234	47150.61
624.589	47439.64
624.945	47563.93
625.3	47625.63
625.655	47685.51
626.01	47738.62
626.365	47920.53
626.72	47786.53
627.075	47842.12
627.43	47952.4
627.785	47967.54
628.14	48093.64
628.495	48205.95
628.85	48167.31
629.205	48022.23
629.559	48333.63
629.914	48186.74
630.269	48244.59
630.623	48272.16
630.978	48264.48
631.332	48447.53
631.687	48513.06
632.041	48246.17
632.396	48537.47
632.75	48454.98
633.104	48492.27
633.459	48312.84
633.813	48398.49
634.167	48439.62
634.521	48490.69
634.875	48555.09
635.229	48523.68
635.583	48466.28
635.937	48378.6
636.291	48405.94
636.645	48388.77
636.999	48477.81
637.352	48469.9
637.706	48314.2
638.06	48548.77
638.413	48472.84
638.767	48315.55
639.121	48431.25
639.474	48336.79
639.828	48412.95
640.181	48402.78
640.534	48451.37
640.888	48361.43
641.241	48095.44
641.594	48254.99
641.947	48421.54
642.301	48316.23
642.654	48275.1
643.007	48339.05
643.36	48296.12
643.713	48185.61
644.066	48297.25
644.419	48240.3
644.771	47854.77
645.124	47568.68
645.477	47532.75
645.83	47240.33
646.182	47174.56
646.535	47089.37
646.888	47131.85
647.24	47071.29
647.593	47284.39
647.945	47132.31
648.298	46978.41
648.65	46936.15
649.002	46896.38
649.355	47102.7
649.707	46910.39
650.059	47237.84
650.411	47608.45
650.763	47650.48
651.115	48033.75
651.467	47896.13
651.819	47932.51
652.171	47763.02
652.523	47733.87
652.875	47709.47
653.227	47577.27
653.578	47820.88
653.93	47718.51
654.282	47559.87
654.633	47516.02
654.985	47530.71
655.337	47647.32
655.688	47610.94
656.039	47831.27
656.391	47444.84
656.742	47500.66
657.094	47544.5
657.445	47691.84
657.796	47602.58
658.147	47563.03
658.498	47406.87
658.849	47570.26
659.2	47466.99
659.551	47469.02
659.902	47592.86
660.253	47401.68
660.604	47579.98
660.955	47355.12
661.306	47558.74
661.656	47514.67
662.007	47455.69
662.358	47554.22
662.708	47428.12
663.059	47377.05
663.409	47175.69
663.76	47555.8
664.11	47408.46
664.461	47485.74
664.811	47401.9
665.161	47318.74
665.511	47339.53
665.862	47460.43
666.212	47441.22
666.562	47530.71
666.912	47347.67
667.262	47273.09
667.612	47256.14
667.962	47370.27
668.312	47334.56
668.662	47421.11
669.011	47297.95
669.361	47324.62
669.711	47231.96
670.06	47156.71
670.41	47117.62
670.76	47122.36
671.109	47194.9
671.459	47125.3
671.808	47093.21
672.157	47224.96
672.507	46980.22
672.856	46910.16
673.205	47071.52
673.554	47261.34
673.904	47201
674.253	47182.02
674.602	47089.14
674.951	46534.81
675.3	46286
675.649	47017.96
675.998	46922.14
676.346	46962.82
676.695	47138.63
677.044	46717.85
677.393	46840.56
677.741	46985.64
678.09	46825.42
678.438	46758.3
678.787	46737.06
679.135	46737.29
679.484	46529.16
679.832	46629.04
680.181	46461.59
680.529	46551.98
680.877	46412.1
681.225	46287.58
681.573	46559.44
681.922	46319.9
682.27	46238.32
682.618	46382.5
682.966	46157.64
683.314	46247.13
683.661	46156.96
684.009	45945.22
684.357	45848.27
684.705	45820.7
685.053	45852.11
685.4	45785.67
685.748	45577.54
686.095	45502.97
686.443	45440.6
686.79	45432.46
687.138	45463.65
687.485	45465.01
687.832	45274.28
688.18	45297.55
688.527	45141.85
688.874	45087.61
689.221	45032.7
689.568	44964.68
689.915	44834.97
690.262	44895.75
690.609	44656.89
690.956	44632.26
691.303	44486.95
691.65	44343.68
691.997	44356.56
692.344	44187.75
692.69	44159.73
693.037	44138.26
693.383	43641.78
693.73	43841.77
694.077	43726.07
694.423	43731.72
694.769	43489.92
695.116	43451.5
695.462	43357.49
695.808	43243.37
696.155	43368.34
696.501	43013.54
696.847	43028.91
697.193	42603.61
697.539	42898.74
697.885	42633.44
698.231	42513.67
698.577	42653.1
698.923	42583.95
699.269	42242.49
699.614	42155.26
699.96	42180.12
700.306	42097.86
700.651	41907.58
700.997	41783.29
701.342	41912.33
701.688	41781.03
702.033	41634.6
702.379	41421.5
702.724	41398.9
703.069	41292.91
703.415	41054.95
703.76	41061.96
704.105	41067.38
704.45	41003.88
704.795	40704.9
705.14	40657
705.485	40661.52
705.83	40448.19
706.175	40621.06
706.52	40373.39
706.865	40223.11
707.209	40325.93
707.554	40053.85
707.899	40194.64
708.243	39905.83
708.588	39823.57
708.932	39624.48
709.277	39686.63
709.621	39728.66
709.966	39386.07
710.31	39646.63
710.654	39225.17
710.998	39339.06
711.342	39214.1
711.687	39204.83
712.031	38965.29
712.375	38946.31
712.719	39043.93
713.063	38871.51
713.407	38948.11
713.75	38820.89
714.094	38683.94
714.438	38555.36
714.782	38685.07
715.125	38408.92
715.469	38511.06
715.812	38260.45
716.156	38163.28
716.499	38036.27
716.843	38135.93
717.186	37925.32
717.53	38110.85
717.873	38153.78
718.216	37924.41
718.559	37797.41
718.902	37572.78
719.246	37580.01
719.589	37424.99
719.932	37286.01
720.275	37277.2
720.617	37229.06
720.96	37141.61
721.303	37196.97
721.646	37138.9
721.989	36918.34
722.331	37147.71
722.674	37002.18
723.016	36984.78
723.359	36999.01
723.701	36914.5
724.044	36704.33
724.386	36505.01
724.729	36800.15
725.071	36680.15
725.413	36581.4
725.755	36490.33
726.097	36358.13
726.439	36289.43
726.782	36161.75
727.124	36367.39
727.465	36099.15
727.807	36099.38
728.149	36039.04
728.491	35985.71
728.833	36051.24
729.175	35941.41
729.516	35734.64
729.858	35728.76
730.199	35823
730.541	35648.31
730.882	35659.16
731.224	35790.68
731.565	35370.13
731.906	35480.63
732.248	35467.53
732.589	35272.05
732.93	35334.65
733.271	35216.91
733.612	35169.46
733.953	35270.02
734.294	35117.25
734.635	35002.23
734.976	35117.71
735.317	34847.88
735.658	34953.87
735.999	34920.65
736.339	34835.91
736.68	34882.68
737.021	34769.02
737.361	34692.18
737.702	34806.75
738.042	34606.53
738.383	34630.94
738.723	34582.35
739.063	34537.16
739.404	34657.15
739.744	34505.29
740.084	34242.25
740.424	34338.97
740.764	34279.54
741.104	34417.61
741.444	34123.38
741.784	34148.01
742.124	34075.47
742.464	34093.1
742.804	34090.39
743.143	33942.6
743.483	33901.47
743.823	33815.37
744.162	33831.64
744.502	33781.02
744.841	33651.98
745.181	33825.09
745.52	33605.2
745.86	33685.65
746.199	33616.05
746.538	33607.92
746.877	33562.95
747.216	33546.45
747.556	33535.6
747.895	33538.54
748.234	33278.43
748.573	33275.5
748.911	33271.88
749.25	33265.1
749.589	33084.31
749.928	33253.8
750.267	33234.14
750.605	33023.75
750.944	32983.53
751.283	32889.74
751.621	33056.52
751.96	32696.75
752.298	32778.56
752.636	32774.04
752.975	32659.01
753.313	32546.7
753.651	32693.14
753.989	32482.3
754.327	32385.8
754.666	32398.68
755.004	32380.6
755.342	32289.76
755.679	32362.07
756.017	32025.58
756.355	32133.83
756.693	31910.79
757.031	32026.71
757.368	31760.51
757.706	31696.55
758.044	31548.99
