Data from hue_38_FLMS001491_00073.txt Node
Date: Tue Feb 07 17:31:57 GMT 2017
User: dcchb
Spectrometer: FLMS00149
Trigger mode: 0
Integration Time (sec): 2.000000E-2
Scans to average: 10
Electric dark correction enabled: true
Nonlinearity correction enabled: false
Boxcar width: 0
XAxis mode: Wavelengths
Number of Pixels in Spectrum: 2048
>>>>>Begin Spectral Data<<<<<
341.393	-10.27
341.776	-10.27
342.16	-10.27
342.543	-56.82
342.927	-86.88
343.31	-60.89
343.693	-94.33
344.077	-60.66
344.46	-80.32
344.843	-58.4
345.226	-37.61
345.61	-29.7
345.993	-23.6
346.376	-12.75
346.759	32.22
347.142	35.61
347.525	40.8
347.908	75.38
348.291	68.37
348.674	88.94
349.057	116.96
349.44	136.17
349.823	136.17
350.206	147.92
350.588	182.72
350.971	223.4
351.354	237.63
351.737	251.42
352.119	237.41
352.502	261.36
352.884	270.85
353.267	289.16
353.65	302.49
354.032	305.66
354.414	315.15
354.797	308.37
355.179	326.45
355.562	316.5
355.944	346.11
356.326	354.24
356.709	346.56
357.091	340.23
357.473	353.56
357.855	354.92
358.238	340.23
358.62	337.52
359.002	341.36
359.384	358.99
359.766	352.89
360.148	337.75
360.53	349.95
360.912	340.23
361.294	348.59
361.676	331.19
362.057	339.55
362.439	341.36
362.821	342.49
363.203	336.39
363.584	337.29
363.966	324.64
364.348	328.48
364.729	336.62
365.111	319.89
365.493	335.03
365.874	323.96
366.256	316.73
366.637	331.87
367.019	336.16
367.4	331.42
367.781	318.54
368.163	330.97
368.544	314.7
368.925	331.87
369.306	333.23
369.688	309.72
370.069	327.58
370.45	312.21
370.831	343.62
371.212	342.72
371.593	312.44
371.974	323.73
372.355	322.6
372.736	340.23
373.117	351.98
373.498	318.99
373.879	302.72
374.26	318.31
374.641	307.46
375.021	324.19
375.402	316.5
375.783	326.67
376.163	333.9
376.544	325.77
376.925	334.13
377.305	331.64
377.686	325.09
378.066	343.62
378.447	333
378.827	346.56
379.208	352.66
379.588	331.19
379.968	321.7
380.349	341.81
380.729	325.77
381.109	333.9
381.489	343.85
381.87	350.85
382.25	359.44
382.63	349.27
383.01	347.01
383.39	333.45
383.77	348.59
384.15	345.2
384.53	353.34
384.91	351.08
385.29	340.23
385.67	354.02
386.049	358.76
386.429	362.15
386.809	365.77
387.189	367.35
387.568	357.18
387.948	361.7
388.328	390.17
388.707	360.34
389.087	377.07
389.466	359.89
389.846	358.31
390.225	380.91
390.605	367.35
390.984	359.44
391.363	364.19
391.743	375.48
392.122	368.7
392.501	395.6
392.881	376.61
393.26	386.78
393.639	366.22
394.018	367.35
394.397	396.95
394.776	371.42
395.155	367.58
395.534	388.37
395.913	375.71
396.292	394.24
396.671	376.39
397.05	387.01
397.429	390.17
397.808	384.3
398.186	398.53
398.565	407.57
398.944	387.69
399.323	403.05
399.701	395.6
400.08	399.21
400.458	384.07
400.837	376.84
401.215	397.18
401.594	423.17
401.972	404.64
402.351	413
402.729	413.45
403.107	412.09
403.486	411.19
403.864	416.39
404.242	417.52
404.62	419.1
404.999	431.53
405.377	424.97
405.755	428.14
406.133	419.78
406.511	433.79
406.889	424.3
407.267	423.84
407.645	448.02
408.023	430.17
408.401	445.09
408.779	422.71
409.156	446.44
409.534	455.93
409.912	447.8
410.29	447.8
410.667	448.48
411.045	463.62
411.422	455.93
411.8	479.21
412.178	469.95
412.555	481.92
412.933	501.13
413.31	485.31
413.687	489.83
414.065	509.49
414.442	493.22
414.819	503.84
415.197	502.49
415.574	509.94
415.951	495.71
416.328	489.61
416.705	496.39
417.082	486.89
417.46	523.96
417.837	523.5
418.214	517.4
418.591	501.36
418.967	530.96
419.344	538.42
419.721	527.57
420.098	544.75
420.475	516.72
420.852	533.67
421.228	565.31
421.605	532.99
421.982	549.49
422.358	541.36
422.735	550.4
423.111	556.04
423.488	542.71
423.864	568.7
424.241	575.03
424.617	572.99
424.994	587.68
425.37	575.71
425.746	573.22
426.123	581.81
426.499	595.14
426.875	606.66
427.251	603.73
427.627	605.08
428.003	606.66
428.379	610.05
428.756	617.51
429.132	601.02
429.507	611.86
429.883	641.01
430.259	637.4
430.635	602.6
431.011	636.72
431.387	670.17
431.763	653.22
432.138	651.64
432.514	665.42
432.89	668.58
433.265	664.52
433.641	678.75
434.016	705.42
434.392	688.02
434.767	692.54
435.143	719.2
435.518	685.53
435.894	697.06
436.269	710.16
436.644	725.53
437.02	727.11
437.395	750.16
437.77	742.25
438.145	753.1
438.52	724.85
438.895	770.95
439.271	769.6
439.646	771.41
440.021	787
440.395	770.28
440.77	785.87
441.145	765.76
441.52	803.04
441.895	790.39
442.27	804.85
442.645	800.11
443.019	799.43
443.394	804.85
443.769	803.95
444.143	810.5
444.518	824.51
444.892	822.93
445.267	841.91
445.641	837.85
446.016	844.4
446.39	826.09
446.764	844.85
447.139	841.01
447.513	855.02
447.887	842.59
448.262	858.64
448.636	865.42
449.01	862.03
449.384	868.8
449.758	889.37
450.132	892.76
450.506	907.9
450.88	912.42
451.254	883.27
451.628	894.11
452.002	913.78
452.376	911.97
452.75	932.31
453.123	926.66
453.497	932.31
453.871	946.32
454.244	959.42
454.618	982.7
454.992	1004.17
455.365	974.79
455.739	1026.99
456.112	1024.28
456.486	1031.06
456.859	1053.21
457.232	1045.98
457.606	1055.24
457.979	1067.22
458.352	1069.48
458.725	1089.14
459.099	1099.31
459.472	1098.4
459.845	1132.53
460.218	1118.74
460.591	1143.83
460.964	1161.45
461.337	1168.23
461.71	1178.4
462.083	1210.04
462.456	1185.41
462.829	1217.04
463.201	1239.42
463.574	1236.7
463.947	1230.38
464.32	1308.79
464.692	1273.99
465.065	1306.76
465.438	1316.7
465.81	1330.49
466.183	1341.11
466.555	1379.07
466.928	1404.84
467.3	1380.43
467.672	1433.31
468.045	1461.33
468.417	1470.37
468.789	1485.96
469.161	1491.16
469.534	1556.02
469.906	1565.51
470.278	1557.83
470.65	1582.01
471.022	1642.34
471.394	1641.21
471.766	1705.17
472.138	1721.89
472.51	1735
472.882	1778.39
473.253	1794.43
473.625	1843.02
473.997	1871.72
474.369	1894.31
474.74	1905.61
475.112	1984.48
475.484	2029.9
475.855	2084.59
476.227	2107.19
476.598	2182.67
476.97	2205.04
477.341	2266.28
477.713	2268.32
478.084	2322.33
478.455	2408.88
478.827	2448.65
479.198	2540.63
479.569	2544.92
479.94	2658.81
480.311	2669.44
480.682	2784.01
481.053	2847.96
481.424	2894.29
481.795	2958.24
482.166	3042.53
482.537	3144
482.908	3203.43
483.279	3286.14
483.65	3367.72
484.021	3474.84
484.391	3532.46
484.762	3597.32
485.133	3642.29
485.503	3780.37
485.874	3880.93
486.244	3948.72
486.615	4057.65
486.985	4124.76
487.356	4296.51
487.726	4339.9
488.097	4442.04
488.467	4508.48
488.837	4649.5
489.207	4740.57
489.578	4879.32
489.948	4970.62
490.318	5073.67
490.688	5141.91
491.058	5271.63
491.428	5364.96
491.798	5507.33
492.168	5633.65
492.538	5699.86
492.908	5830.03
493.278	5942.8
493.648	6020.99
494.017	6140.76
494.387	6191.6
494.757	6292.17
495.126	6397.02
495.496	6483.8
495.866	6641.53
496.235	6731.7
496.605	6783.23
496.974	6849.21
497.344	7009.89
497.713	7069.55
498.082	7142.76
498.452	7274.96
498.821	7388.41
499.19	7448.52
499.559	7559.93
499.928	7677.89
500.298	7726.03
500.667	7867.49
501.036	7856.19
501.405	7992.69
501.774	8057.99
502.143	8102.29
502.512	8298.44
502.88	8336.63
503.249	8383.64
503.618	8501.82
503.987	8573.91
504.356	8666.34
504.724	8680.8
505.093	8796.51
505.462	8864.75
505.83	8996.27
506.199	9056.84
506.567	9226.78
506.936	9201.47
507.304	9343.84
507.672	9400.78
508.041	9454.57
508.409	9537.96
508.777	9654.34
509.145	9817.95
509.514	9723.26
509.882	9811.17
510.25	9859.08
510.618	9978.85
510.986	10014.1
511.354	10076.92
511.722	10210.93
512.09	10307.65
512.458	10295.68
512.826	10419.74
513.193	10469.23
513.561	10534.54
513.929	10586.52
514.297	10732.5
514.664	10837.81
515.032	10848.66
515.4	10958.94
515.767	11050.68
516.135	10987.41
516.502	11048.65
516.869	11256.78
517.237	11287.51
517.604	11256.78
517.972	11386.49
518.339	11483.22
518.706	11474.4
519.073	11566.38
519.44	11634.62
519.808	11730.67
520.175	11732.02
520.542	11920.72
520.909	11979.47
521.276	12018.57
521.643	12071.9
522.009	12223.08
522.376	12305.11
522.743	12309.86
523.11	12408.39
523.477	12580.14
523.843	12574.26
524.21	12769.06
524.577	12756.63
524.943	12857.19
525.31	13004.08
525.676	13042.72
526.043	13113.91
526.409	13077.3
526.776	13308.93
527.142	13383.73
527.508	13411.3
527.874	13496.27
528.241	13636.6
528.607	13689.26
528.973	13783.04
529.339	13754.34
529.705	13892.42
530.071	14013.77
530.437	14037.72
530.803	14164.95
531.169	14254.67
531.535	14184.84
531.901	14305.74
532.267	14372.18
532.632	14372.86
532.998	14511.84
533.364	14604.49
533.73	14646.52
534.095	14764.48
534.461	14825.95
534.826	14918.6
535.192	14893.29
535.557	15036.12
535.923	15041.31
536.288	15116.79
536.653	15167.64
537.019	15146.17
537.384	15272.27
537.749	15367.18
538.114	15396.11
538.479	15446.95
538.845	15434.75
539.21	15493.96
539.575	15627.96
539.94	15704.35
540.305	15772.82
540.67	15716.78
541.034	15821.63
541.399	15879.03
541.764	15859.82
542.129	15980.72
542.494	16101.4
542.858	16163.32
543.223	16227.05
543.587	16369.87
543.952	16326.25
544.316	16376.87
544.681	16389.75
545.045	16483.31
545.41	16578.67
545.774	16591.56
546.138	16650.99
546.503	16694.15
546.867	16730.76
547.231	16820.25
547.595	16915.16
547.959	17006.91
548.324	16988.61
548.688	17048.04
549.052	17042.62
549.416	17180.69
549.779	17212.56
550.143	17214.14
550.507	17326.68
550.871	17351.31
551.235	17373.68
551.599	17536.39
551.962	17589.95
552.326	17686.67
552.689	17726.67
553.053	17627.01
553.417	17683.5
553.78	17985.42
554.143	17883.95
554.507	18007.56
554.87	18010.5
555.234	18150.84
555.597	18176.37
555.96	18248.69
556.323	18286.88
556.686	18337.27
557.05	18553.31
557.413	18557.38
557.776	18575.01
558.139	18586.53
558.502	18739.07
558.865	18781.55
559.228	18851.61
559.59	18891.38
559.953	18872.85
560.316	19155.1
560.679	19054.99
561.041	19104.26
561.404	19259.73
561.767	19523.46
562.129	19400.97
562.492	19616.33
562.854	19575.88
563.217	19476.45
563.579	19593.06
563.941	19713.51
564.304	19887.97
564.666	19887.97
565.028	19943.56
565.39	19951.92
565.753	20105.81
566.115	20165.25
566.477	20372.47
566.839	20416.31
567.201	20529.98
567.563	20447.5
567.925	20622.86
568.287	20633.03
568.648	20722.29
569.01	20754.84
569.372	20988.28
569.734	20870.76
570.095	21102.62
570.457	21133.13
570.819	21184.2
571.18	21236.63
571.542	21428.94
571.903	21409.51
572.265	21566.79
572.626	21647.24
572.987	21690.86
573.349	21748.03
573.71	21967.46
574.071	21962.26
574.432	22049.04
574.794	22263.04
575.155	22331.29
575.516	22368.35
575.877	22431.63
576.238	22564.96
576.599	22653.54
576.96	22785.97
577.32	22812.18
577.681	23015.34
578.042	23326.29
578.403	23270.25
578.763	23318.61
579.124	23648.09
579.485	23795.43
579.845	23986.16
580.206	23994.75
580.566	24150.45
580.927	24299.38
581.287	24513.83
581.648	24599.03
582.008	24814.16
582.368	24930.09
582.728	25161.95
583.089	25159.01
583.449	25314.94
583.809	25547.03
584.169	25774.36
584.529	25853.46
584.889	26308.59
585.249	26248.93
585.609	26418.64
585.969	26735.92
586.329	26765.75
586.688	27132.07
587.048	27218.39
587.408	27321.44
587.768	27592.62
588.127	27994.87
588.487	28058.37
588.846	28489.32
589.206	28374.3
589.565	28611.13
589.925	28942.64
590.284	29056.99
590.643	29379.92
591.003	29362.07
591.362	29829.63
591.721	29990.75
592.08	30195.27
592.44	30439.78
592.799	30590.06
593.158	30826.44
593.517	30999.76
593.876	31104.17
594.235	31303.94
594.593	31599.07
594.952	31797.48
595.311	31822.79
595.67	32227.98
596.029	32590.91
596.387	32721.75
596.746	32811.47
597.104	32911.13
597.463	33232.7
597.822	33542.75
598.18	33513.6
598.538	33772.8
598.897	34090.08
599.255	33959.23
599.613	34615.94
599.972	34508.82
600.33	34667.24
600.688	34809.61
601.046	35101.35
601.404	35392.19
601.762	35434
602.12	35768
602.478	35857.72
602.836	36152.4
603.194	36076.01
603.552	36318.95
603.91	36189.23
604.268	36665.38
604.625	36548.32
604.983	36917.35
605.341	36770.91
605.698	37304.46
606.056	37325.25
606.413	37443.66
606.771	37627.61
607.128	37797.1
607.485	37688.85
607.843	37915.29
608.2	38118.22
608.557	38379
608.914	38341.72
609.272	38676.17
609.629	38657.42
609.986	38975.83
610.343	38923.4
610.7	39240.45
611.057	39282.03
611.414	39260.34
611.771	39467.79
612.127	39559.76
612.484	39677.5
612.841	39882.47
613.198	39939.64
613.554	40002.24
613.911	40299.41
614.267	40250.14
614.624	40223.25
614.98	40496.69
615.337	40691.26
615.693	40773.07
616.05	40788.89
616.406	41176.9
616.762	41135.09
617.118	41107.52
617.475	41152.49
617.831	41234.75
618.187	41465.7
618.543	41444.91
618.899	41855.52
619.255	41717.22
619.611	41604.91
619.967	41863.66
620.323	41854.85
620.678	42023.2
621.034	41839.7
621.39	41999.25
621.746	42024.56
622.101	42473.13
622.457	42113.82
622.812	42185.91
623.168	42319.01
623.523	42445.34
623.879	42569.18
624.234	42319.24
624.589	42489.41
624.945	42556.3
625.3	42653.47
625.655	42785.22
626.01	42794.71
626.365	42771.88
626.72	42839
627.075	42777.08
627.43	42849.62
627.785	42879
628.14	42998.09
628.495	42964.2
628.85	42945.89
629.205	42664.09
629.559	42987.47
629.914	42839.9
630.269	43114.25
630.623	43014.59
630.978	42875.38
631.332	43093.91
631.687	43164.64
632.041	42826.35
632.396	43109.28
632.75	42960.58
633.104	43069.96
633.459	42889.62
633.813	42849.4
634.167	42777.76
634.521	42868.6
634.875	43001.03
635.229	43026.79
635.583	42763.07
635.937	42852.79
636.291	42759.91
636.645	42833.8
636.999	42657.08
637.352	42837.19
637.706	42586.35
638.06	42785.89
638.413	42493.93
638.767	42486.92
639.121	42685.56
639.474	42549.52
639.828	42460.25
640.181	42581.15
640.534	42456.64
640.888	42395.4
641.241	42229.53
641.594	42381.39
641.947	42514.49
642.301	42461.61
642.654	42406.47
643.007	42422.97
643.36	42422.74
643.713	42295.51
644.066	42567.82
644.419	42204.89
644.771	42099.36
645.124	41727.39
645.477	41540.96
645.83	41540.28
646.182	41204.24
646.535	41159.72
646.888	41161.98
647.24	41028.2
647.593	41232.94
647.945	41135.77
648.298	40901.42
648.65	40998.6
649.002	40887.64
649.355	41008.54
649.707	40972.84
650.059	41057.8
650.411	41543.22
650.763	41609.65
651.115	41867.05
651.467	41795.41
651.819	41845.13
652.171	41703.89
652.523	41685.36
652.875	41762.42
653.227	41529.43
653.578	41772.59
653.93	41747.05
654.282	41590.67
654.633	41466.16
654.985	41512.48
655.337	41648.3
655.688	41551.58
656.039	41696.43
656.391	41328.53
656.742	41441.75
657.094	41578.24
657.445	41657.79
657.796	41564.91
658.147	41360.85
658.498	41400.17
658.849	41530.11
659.2	41407.85
659.551	41336.44
659.902	41459.38
660.253	41324.46
660.604	41306.16
660.955	41255.54
661.306	41437.23
661.656	41158.82
662.007	41272.49
662.358	41208.08
662.708	41242.88
663.059	41247.63
663.409	40978.94
663.76	41366.72
664.11	41221.87
664.461	41335.99
664.811	41172.15
665.161	41160.4
665.511	41187.52
665.862	41235.2
666.212	41209.89
666.562	41346.84
666.912	41327.85
667.262	41234.3
667.612	41161.3
667.962	41284.24
668.312	41016
668.662	41418.7
669.011	41242.21
669.361	41240.17
669.711	41170.34
670.06	41032.27
670.41	40997.02
670.76	40946.85
671.109	41133.51
671.459	40991.59
671.808	40923.8
672.157	41084.7
672.507	40836.79
672.856	40933.29
673.205	40858.49
673.554	41035.21
673.904	40826.4
674.253	41108.88
674.602	40921.09
674.951	40349.35
675.3	40185.06
675.649	40858.49
675.998	40950.91
676.346	40827.75
676.695	41000.63
677.044	40666.18
677.393	40780.3
677.741	40731.49
678.09	40812.16
678.438	40534.43
678.787	40620.53
679.135	40582.56
679.484	40338.95
679.832	40522.9
680.181	40348.67
680.529	40426.18
680.877	40326.98
681.225	40236.81
681.573	40466.18
681.922	40171.27
682.27	39979.87
682.618	39977.61
682.966	39942.13
683.314	40025.97
683.661	39987.78
684.009	39713.43
684.357	39616.94
684.705	39581.01
685.053	39764.51
685.4	39689.7
685.748	39629.37
686.095	39303.95
686.443	39306.44
686.79	39240.68
687.138	39278.87
687.485	39232.09
687.832	39249.04
688.18	39250.62
688.527	38882.49
688.874	38952.55
689.221	38838.65
689.568	38885.21
689.915	38769.05
690.262	38784.64
690.609	38637.3
690.956	38517.08
691.303	38430.08
691.65	38346.24
691.997	38405.44
692.344	38057.43
692.69	38163.19
693.037	38241.83
693.383	37899.7
693.73	37903.76
694.077	37781.73
694.423	37813.37
694.769	37611.57
695.116	37632.81
695.462	37436.2
695.808	37433.49
696.155	37441.18
696.501	36960.51
696.847	37042.09
697.193	36864.69
697.539	37026.05
697.885	36625.38
698.231	36700.86
698.577	36633.51
698.923	36584.25
699.269	36423.12
699.614	36273.07
699.96	36109.23
700.306	36182.68
700.651	36002.8
700.997	35906.53
701.342	35887.55
701.688	35963.48
702.033	35737.04
702.379	35743.59
702.724	35645.07
703.069	35714.67
703.415	35183.38
703.76	35329.82
704.105	35385.64
704.45	35269.26
704.795	34996.95
705.14	34954.69
705.485	35004.4
705.83	34831.98
706.175	34838.76
706.52	34662.72
706.865	34620.46
707.209	34613.23
707.554	34388.83
707.899	34476.06
708.243	34212.56
708.588	34009.85
708.932	34009.63
709.277	34057.54
709.621	34042.17
709.966	33919.91
710.31	33880.14
710.654	33555.63
710.998	33643.76
711.342	33754.95
711.687	33519.25
712.031	33378.68
712.375	33349.08
712.719	33434.95
713.063	33291
713.407	33301.85
713.75	33105.02
714.094	33141.4
714.438	33056.89
714.782	32904.57
715.125	32851.24
715.469	32969.43
715.812	32736.67
716.156	32597.01
716.499	32716.1
716.843	32713.84
717.186	32550.46
717.53	32649.44
717.873	32488.54
718.216	32567.63
718.559	32240.18
718.902	32216.68
719.246	32201.99
719.589	32021.66
719.932	32068.89
720.275	31940.3
720.617	32018.72
720.96	31947.99
721.303	31809.91
721.646	31831.15
721.989	31813.53
722.331	31710.25
722.674	31764.26
723.016	31683.14
723.359	31589.13
723.701	31572.4
724.044	31448.11
724.386	31211.28
724.729	31492.63
725.071	31244.73
725.413	31227.1
725.755	31218.74
726.097	31143.49
726.439	30955.02
726.782	31003.15
727.124	31121.34
727.465	30905.98
727.807	30841.8
728.149	30870.5
728.491	30691.07
728.833	30750.28
729.175	30622.6
729.516	30628.25
729.858	30592.54
730.199	30606.78
730.541	30479.55
730.882	30445.43
731.224	30633.22
731.565	30537.18
731.906	30376.28
732.248	30473.68
732.589	30209.5
732.93	30139.9
733.271	30230.74
733.612	30232.55
733.953	30160.69
734.294	30072.56
734.635	30108.71
734.976	30037.53
735.317	29807.25
735.658	29864.65
735.999	29855.39
736.339	29835.95
736.68	29937.65
737.021	29839.34
737.361	29669.4
737.702	29815.84
738.042	29769.74
738.383	29699.46
738.723	29683.19
739.063	29564.77
739.404	29559.12
739.744	29515.74
740.084	29374.72
740.424	29466.02
740.764	29358.68
741.104	29394.16
741.444	29193.48
741.784	29163.2
742.124	29296.08
742.464	29145.35
742.804	29095.41
743.143	29031.23
743.483	28939.03
743.823	28902.64
744.162	28923.89
744.502	28842.08
744.841	28741.29
745.181	28869.65
745.52	28792.14
745.86	28918.91
746.199	28643.67
746.538	28538.36
746.877	28618.36
747.216	28584.46
747.556	28500.39
747.895	28572.94
748.234	28278.48
748.573	28347.86
748.911	28314.86
749.25	28268.08
749.589	28181.98
749.928	28174.08
750.267	28277.35
750.605	28000.75
750.944	28160.52
751.283	28025.38
751.621	28043.91
751.96	27829.68
752.298	27855.67
752.636	27843.46
752.975	27619.97
753.313	27602.11
753.651	27721.43
753.989	27568.89
754.327	27555.11
754.666	27435.34
755.004	27438.5
755.342	27393.08
755.679	27391.5
756.017	27289.13
756.355	27216.59
756.693	27136.14
757.031	27147.89
757.368	27031.51
