Data from hue_90_FLMS001491_16.txt Node
Date: Mon Feb 06 15:24:45 GMT 2017
User: dcchb
Spectrometer: FLMS00149
Trigger mode: 0
Integration Time (sec): 2.000000E-2
Scans to average: 10
Electric dark correction enabled: true
Nonlinearity correction enabled: false
Boxcar width: 0
XAxis mode: Wavelengths
Number of Pixels in Spectrum: 2048
>>>>>Begin Spectral Data<<<<<
341.393	-0.3
341.776	-0.3
342.16	-0.3
342.543	-67.87
342.927	-85.04
343.31	-51.59
343.693	-94.98
344.077	-62.67
344.46	-69.45
344.843	-36.68
345.226	-43.69
345.61	-56.57
345.993	-16.12
346.376	-7.53
346.759	24.56
347.142	4.68
347.525	34.73
347.908	69.31
348.291	81.51
348.674	103.66
349.057	120.83
349.44	142.3
349.823	149.53
350.206	152.24
350.588	176.65
350.971	205.8
351.354	225.69
351.737	223.88
352.119	245.8
352.502	262.75
352.884	261.84
353.267	263.88
353.65	303.2
354.032	275.4
354.414	315.18
354.797	321.73
355.179	313.82
355.562	299.13
355.944	324.67
356.326	315.85
356.709	337.1
357.091	326.02
357.473	351.11
357.855	328.73
358.238	344.55
358.62	335.06
359.002	332.12
359.384	307.94
359.766	342.75
360.148	334.16
360.53	340.94
360.912	325.8
361.294	338
361.676	329.41
362.057	313.82
362.439	316.31
362.821	321.5
363.203	328.06
363.584	322.63
363.966	331.45
364.348	314.27
364.729	312.01
365.111	309.98
365.493	321.73
365.874	296.87
366.256	321.05
366.637	300.03
367.019	295.74
367.4	308.85
367.781	300.94
368.163	309.07
368.544	306.14
368.925	298.68
369.306	284.89
369.688	323.76
370.069	309.3
370.45	313.82
370.831	300.03
371.212	316.98
371.593	298.45
371.974	286.93
372.355	306.81
372.736	289.41
373.117	308.4
373.498	291.22
373.879	298.9
374.26	305.68
374.641	318.34
375.021	317.21
375.402	303.88
375.783	316.31
376.163	309.98
376.544	316.98
376.925	317.21
377.305	330.77
377.686	328.73
378.066	328.96
378.447	318.34
378.827	325.34
379.208	313.82
379.588	315.85
379.968	329.41
380.349	324.44
380.729	326.02
381.109	321.28
381.489	323.76
381.87	321.5
382.25	333.93
382.63	321.73
383.01	335.74
383.39	348.62
383.77	340.71
384.15	342.75
384.53	325.34
384.91	337.1
385.29	329.41
385.67	327.6
386.049	339.36
386.429	352.46
386.809	343.2
387.189	336.87
387.568	315.63
387.948	351.33
388.328	342.97
388.707	338.68
389.087	341.39
389.466	353.37
389.846	356.3
390.225	353.82
390.605	355.63
390.984	336.87
391.363	369.86
391.743	351.78
392.122	350.65
392.501	354.04
392.881	379.35
393.26	399.01
393.639	368.96
394.018	380.03
394.397	380.03
394.776	377.77
395.155	363.54
395.534	376.19
395.913	356.76
396.292	379.13
396.671	376.64
397.05	375.06
397.429	361.05
397.808	369.19
398.186	379.58
398.565	396.98
398.944	386.36
399.323	379.13
399.701	378.9
400.08	393.37
400.458	369.86
400.837	383.2
401.215	386.36
401.594	375.51
401.972	375.06
402.351	391.11
402.729	386.81
403.107	425.91
403.486	383.42
403.864	394.27
404.242	416.87
404.62	393.82
404.999	425.23
405.377	426.81
405.755	405.79
406.133	396.98
406.511	409.86
406.889	432.23
407.267	424.78
407.645	413.03
408.023	418.9
408.401	433.59
408.779	432.69
409.156	448.05
409.534	434.04
409.912	449.86
410.29	449.18
410.667	435.85
411.045	452.35
411.422	421.84
411.8	450.99
412.178	471.1
412.555	466.36
412.933	461.39
413.31	438.11
413.687	464.1
414.065	478.33
414.442	434.04
414.819	489.18
415.197	458.45
415.574	471.1
415.951	486.24
416.328	475.17
416.705	464.32
417.082	495.51
417.46	490.99
417.837	476.75
418.214	510.2
418.591	508.16
418.967	478.11
419.344	508.16
419.721	506.81
420.098	505.45
420.475	515.85
420.852	519.46
421.228	506.13
421.605	522.4
421.982	510.65
422.358	506.81
422.735	524.21
423.111	533.02
423.488	552.68
423.864	556.75
424.241	546.13
424.617	539.58
424.994	563.98
425.37	550.65
425.746	553.59
426.123	556.52
426.499	565.56
426.875	546.36
427.251	583.87
427.627	566.02
428.003	573.02
428.379	573.7
428.756	577.99
429.132	574.38
429.507	582.29
429.883	599.46
430.259	615.73
430.635	616.18
431.011	611.89
431.387	610.76
431.763	628.39
432.138	652.12
432.514	637.65
432.89	633.59
433.265	657.09
433.641	658.44
434.016	656.64
434.392	651.44
434.767	672.45
435.143	668.84
435.518	665
435.894	685.56
436.269	723.98
436.644	696.63
437.02	715.62
437.395	686.92
437.77	697.76
438.145	720.14
438.52	728.72
438.895	686.01
439.271	719.68
439.646	725.33
440.021	727.14
440.395	745.67
440.77	735.96
441.145	759.46
441.52	765.56
441.895	760.14
442.27	748.38
442.645	745.9
443.019	784.99
443.394	778.67
443.769	768.72
444.143	770.98
444.518	796.74
444.892	802.62
445.267	820.92
445.641	788.16
446.016	808.72
446.39	816.63
446.764	804.65
447.139	814.37
447.513	815.73
447.887	828.16
448.262	832
448.636	839
449.01	832.22
449.384	853.47
449.758	839.23
450.132	881.04
450.506	856.63
450.88	866.57
451.254	870.87
451.628	882.62
452.002	901.37
452.376	916.06
452.75	905.67
453.123	920.13
453.497	917.65
453.871	929.62
454.244	950.19
454.618	947.93
454.992	967.81
455.365	981.37
455.739	984.31
456.112	979.34
456.486	984.31
456.859	1011.65
457.232	1030.41
457.606	1035.16
457.979	1029.73
458.352	1039.9
458.725	1083.74
459.099	1075.83
459.472	1072.22
459.845	1093.46
460.218	1122.61
460.591	1119.45
460.964	1141.59
461.337	1158.54
461.71	1150.86
462.083	1168.26
462.456	1171.2
462.829	1191.76
463.201	1209.62
463.574	1228.82
463.947	1248.03
464.32	1270.18
464.692	1268.37
465.065	1259.33
465.438	1309.27
465.81	1330.29
466.183	1365.32
466.555	1373
466.928	1393.57
467.3	1390.18
467.672	1424.3
468.045	1464.98
468.417	1442.83
468.789	1491.19
469.161	1504.3
469.534	1538.19
469.906	1559.44
470.278	1586.33
470.65	1633.78
471.022	1634.46
471.394	1667.91
471.766	1711.75
472.138	1751.07
472.51	1766.21
472.882	1791.75
473.253	1840.33
473.625	1820.22
473.997	1917.17
474.369	1913.78
474.74	1947.9
475.112	1992.19
475.484	2071.29
475.855	2089.59
476.227	2154.45
476.598	2218.4
476.97	2234.9
477.341	2302.24
477.713	2351.96
478.084	2390.38
478.455	2490.03
478.827	2532.07
479.198	2601.89
479.569	2677.6
479.94	2737.71
480.311	2777.71
480.682	2882.79
481.053	3008.66
481.424	3032.84
481.795	3112.84
482.166	3219.51
482.537	3271.48
482.908	3380.41
483.279	3443
483.65	3579.27
484.021	3678.25
484.391	3769.32
484.762	3801.19
485.133	3913.27
485.503	4035.08
485.874	4168.63
486.244	4193.27
486.615	4330.44
486.985	4456.99
487.356	4533.14
487.726	4616.31
488.097	4797.54
488.467	4871.21
488.837	5019.46
489.207	5152.56
489.578	5241.6
489.948	5363.86
490.318	5526.79
490.688	5578.54
491.058	5713.68
491.428	5803.39
491.798	5890.4
492.168	6120.45
492.538	6185.08
492.908	6289.03
493.278	6453.55
493.648	6510.94
494.017	6652.41
494.387	6810.37
494.757	6857.83
495.126	7028.45
495.496	7051.95
495.866	7122.23
496.235	7327.42
496.605	7446.06
496.974	7539.17
497.344	7680.86
497.713	7740.97
498.082	7897.57
498.452	7932.83
498.821	8039.72
499.19	8135.76
499.559	8197.68
499.928	8300.73
500.298	8431.8
500.667	8542.76
501.036	8623.43
501.405	8692.58
501.774	8754.95
502.143	8886.93
502.512	8875.4
502.88	8968.51
503.249	9111.1
503.618	9224.32
503.987	9266.13
504.356	9348.61
504.724	9364.65
505.093	9479.68
505.462	9540.47
505.83	9585.44
506.199	9629.51
506.567	9811.42
506.936	9827.02
507.304	9958.54
507.672	9935.94
508.041	10061.36
508.409	10132.54
508.777	10221.36
509.145	10238.76
509.514	10223.39
509.882	10275.14
510.25	10362.59
510.618	10423.38
510.986	10566.21
511.354	10584.51
511.722	10629.25
512.09	10794.9
512.458	10697.28
512.826	10739.31
513.193	10939.08
513.561	10837.84
513.929	10963.93
514.297	10963.03
514.664	11026.31
515.032	11078.73
515.4	11112.86
515.767	11223.82
516.135	11213.42
516.502	11226.75
516.869	11313.76
517.237	11309.69
517.604	11275.57
517.972	11353.76
518.339	11416.58
518.706	11426.75
519.073	11536.8
519.44	11569.34
519.808	11618.38
520.175	11580.19
520.542	11653.63
520.909	11734.08
521.276	11661.09
521.643	11812.05
522.009	11799.39
522.376	11877.58
522.743	11940.86
523.11	11967.07
523.477	11972.72
523.843	12022.66
524.21	12099.5
524.577	12184.47
524.943	12158.25
525.31	12189.89
525.676	12270.34
526.043	12244.81
526.409	12237.57
526.776	12299.94
527.142	12324.58
527.508	12349.89
527.874	12367.51
528.241	12386.95
528.607	12371.81
528.973	12429.89
529.339	12423.11
529.705	12533.16
530.071	12490.22
530.437	12503.1
530.803	12590.78
531.169	12547.85
531.535	12494.74
531.901	12467.4
532.267	12490.45
532.632	12535.87
532.998	12552.82
533.364	12543.33
533.73	12622.42
534.095	12587.85
534.461	12479.83
534.826	12564.34
535.192	12591.46
535.557	12474.86
535.923	12532.26
536.288	12482.31
536.653	12530
537.019	12470.11
537.384	12385.14
537.749	12507.17
538.114	12397.12
538.479	12430.79
538.845	12436.89
539.21	12296.78
539.575	12264.69
539.94	12358.02
540.305	12352.15
540.67	12236.44
541.034	12254.07
541.399	12169.1
541.764	12250.23
542.129	12226.27
542.494	12185.15
542.858	12283.22
543.223	12232.38
543.587	12149.67
543.952	12138.37
544.316	12074.41
544.681	12027.64
545.045	12013.4
545.41	12051.59
545.774	11989.44
546.138	11892.72
546.503	12034.42
546.867	11931.14
547.231	11985.15
547.595	11863.35
547.959	11880.97
548.324	11855.66
548.688	11844.36
549.052	11819.28
549.416	11725.72
549.779	11737.25
550.143	11697.02
550.507	11675.33
550.871	11737.47
551.235	11595.78
551.599	11725.5
551.962	11740.41
552.326	11680.3
552.689	11670.13
553.053	11613.41
553.417	11527.08
553.78	11673.07
554.143	11500.64
554.507	11629
554.87	11510.14
555.234	11640.08
555.597	11428.1
555.96	11507.42
556.323	11507.2
556.686	11495.67
557.05	11497.71
557.413	11494.09
557.776	11487.54
558.139	11437.59
558.502	11502.68
558.865	11496.35
559.228	11531.38
559.59	11517.37
559.953	11498.16
560.316	11596.91
560.679	11477.82
561.041	11548.55
561.404	11468.1
561.767	11613.86
562.129	11491.38
562.492	11543.81
562.854	11478.27
563.217	11531.6
563.579	11550.59
563.941	11587.87
564.304	11604.6
564.666	11628.32
565.028	11668.55
565.39	11690.92
565.753	11687.31
566.115	11718.94
566.477	11681.88
566.839	11749.9
567.201	11723.69
567.563	11632.84
567.925	11756.46
568.287	11746.51
568.648	11708.32
569.01	11830.35
569.372	11807.08
569.734	11784.93
570.095	11814.99
570.457	11843.91
570.819	11790.81
571.18	11738.83
571.542	11848.66
571.903	11886.85
572.265	11866.51
572.626	11896.11
572.987	11942.89
573.349	11910.12
573.71	11974.98
574.071	11943.8
574.432	11862.67
574.794	12037.35
575.155	12044.13
575.516	11926.17
575.877	11989.44
576.238	11986.73
576.599	12024.02
576.96	11947.41
577.32	11954.87
577.681	12098.82
578.042	12034.42
578.403	11978.15
578.763	12026.28
579.124	11965.49
579.485	12003
579.845	12071.25
580.206	12094.75
580.566	11975.66
580.927	12018.14
581.287	12086.17
581.648	11910.35
582.008	12083.68
582.368	12080.52
582.728	12077.8
583.089	12067.41
583.449	12037.8
583.809	11962.55
584.169	12058.37
584.529	12091.59
584.889	12048.88
585.249	11981.76
585.609	11993.06
585.969	12055.43
586.329	11974.98
586.688	12026.96
587.048	11935.66
587.408	12003.23
587.768	11933.4
588.127	11921.42
588.487	11863.35
588.846	12047.75
589.206	11917.81
589.565	11918.94
589.925	11843.69
590.284	11842.1
590.643	11890.01
591.003	11893.85
591.362	11949.22
591.721	11918.71
592.08	11822.44
592.44	11947.64
592.799	11963.91
593.158	11877.81
593.517	11887.53
593.876	11881.42
594.235	11802.1
594.593	11827.42
594.952	11855.89
595.311	11809.11
595.67	11850.92
596.029	11899.05
596.387	11880.52
596.746	11961.65
597.104	11859.96
597.463	11802.1
597.822	11797.36
598.18	11722.78
598.538	11860.86
598.897	11838.26
599.255	11761.43
599.613	11858.83
599.972	11824.25
600.33	11796.91
600.688	11789
601.046	11838.04
601.404	11930.46
601.762	11881.88
602.12	11959.61
602.478	11833.74
602.836	11874.65
603.194	11883.68
603.552	11838.26
603.91	11744.03
604.268	11830.58
604.625	11770.02
604.983	11792.84
605.341	11739.96
605.698	11868.77
606.056	11901.76
606.413	11838.26
606.771	11826.29
607.128	11895.89
607.485	11754.42
607.843	11777.7
608.2	11894.08
608.557	11897.7
608.914	11884.59
609.272	11874.19
609.629	11966.85
609.986	11946.73
610.343	11878.04
610.7	12023.57
611.057	12065.6
611.414	11948.09
611.771	11998.71
612.127	12001.65
612.484	11934.53
612.841	12052.95
613.198	11922.1
613.554	12004.36
613.911	12010.46
614.267	12011.59
614.624	12042.55
614.98	11991.48
615.337	12074.87
615.693	12052.72
616.05	12010.01
616.406	12068.76
616.762	12122.77
617.118	12164.13
617.475	12039.39
617.831	12050.91
618.187	12140.85
618.543	12086.62
618.899	12183.11
619.255	12130.23
619.611	12135.66
619.967	12212.26
620.323	12123.9
620.678	12153.28
621.034	12062.89
621.39	12140.4
621.746	12144.69
622.101	12165.03
622.457	12180.63
622.812	12196.67
623.168	12188.99
623.523	12225.37
623.879	12213.39
624.234	12089.33
624.589	12179.5
624.945	12195.31
625.3	12255.88
625.655	12209.78
626.01	12139.5
626.365	12211.81
626.72	12263.79
627.075	12237.57
627.43	12073.96
627.785	12063.57
628.14	12226.05
628.495	12124.81
628.85	12148.54
629.205	12043.23
629.559	12169.55
629.914	12069.67
630.269	12091.36
630.623	12033.96
630.978	12078.71
631.332	12023.57
631.687	12066.96
632.041	12047.75
632.396	12065.83
632.75	11972.95
633.104	12054.08
633.459	12014.53
633.813	11951.93
634.167	12000.29
634.521	11953.74
634.875	11944.93
635.229	11953.51
635.583	11892.95
635.937	11872.84
636.291	11892.27
636.645	11870.8
636.999	11809.11
637.352	11887.98
637.706	11831.26
638.06	11899.5
638.413	11758.72
638.767	11764.14
639.121	11866.74
639.474	11775.44
639.828	11738.6
640.181	11782.9
640.534	11783.57
640.888	11715.78
641.241	11709.23
641.594	11642.34
641.947	11694.54
642.301	11684.82
642.654	11671.71
643.007	11664.03
643.36	11664.93
643.713	11605.73
644.066	11699.28
644.419	11575.67
644.771	11572.96
645.124	11537.03
645.477	11391.04
645.83	11327.54
646.182	11312.17
646.535	11177.71
646.888	11278.5
647.24	11261.1
647.593	11303.81
647.945	11236.02
648.298	11185.17
648.65	11199.41
649.002	11220.43
649.355	11192.63
649.707	11219.07
650.059	11264.72
650.411	11467.2
650.763	11422.68
651.115	11556.69
651.467	11474.43
651.819	11522.34
652.171	11510.36
652.523	11532.06
652.875	11502.45
653.227	11432.17
653.578	11478.5
653.93	11516.24
654.282	11474.88
654.633	11441.66
654.985	11414.77
655.337	11417.48
655.688	11487.99
656.039	11513.3
656.391	11276.02
656.742	11416.8
657.094	11509.46
657.445	11457.48
657.796	11449.57
658.147	11446.63
658.498	11456.58
658.849	11456.8
659.2	11473.98
659.551	11397.37
659.902	11485.05
660.253	11480.53
660.604	11446.86
660.955	11407.54
661.306	11496.35
661.656	11521.21
662.007	11475.11
662.358	11493.19
662.708	11447.99
663.059	11393.98
663.409	11453.87
663.76	11528.21
664.11	11437.82
664.461	11492.73
664.811	11518.04
665.161	11492.28
665.511	11528.89
665.862	11519.17
666.212	11527.31
666.562	11481.21
666.912	11485.05
667.262	11474.88
667.612	11540.64
667.962	11510.81
668.312	11527.54
668.662	11559.63
669.011	11512.85
669.361	11485.05
669.711	11474.66
670.06	11459.06
670.41	11440.08
670.76	11467.42
671.109	11474.88
671.459	11471.49
671.808	11497.03
672.157	11480.76
672.507	11390.59
672.856	11386.97
673.205	11380.87
673.554	11393.75
673.904	11399.18
674.253	11393.75
674.602	11370.7
674.951	11214.1
675.3	11143.37
675.649	11376.81
675.998	11275.34
676.346	11313.98
676.695	11320.99
677.044	11260.2
677.393	11282.8
677.741	11290.48
678.09	11222.91
678.438	11273.76
678.787	11253.87
679.135	11271.27
679.484	11201.22
679.832	11239.41
680.181	11221.33
680.529	11244.15
680.877	11178.84
681.225	11117.38
681.573	11195.12
681.922	11068.34
682.27	11055.01
682.618	11075.12
682.966	11028.34
683.314	11058.85
683.661	10988.34
684.009	10984.73
684.357	10953.09
684.705	10924.16
685.053	10925.74
685.4	10854.56
685.748	10845.52
686.095	10903.15
686.443	10747.22
686.79	10789.7
687.138	10781.79
687.485	10788.35
687.832	10749.25
688.18	10705.18
688.527	10613.44
688.874	10634.23
689.221	10682.36
689.568	10596.94
689.915	10604.4
690.262	10629.03
690.609	10521.46
690.956	10452.31
691.303	10400.56
691.65	10441.46
691.997	10371.18
692.344	10371.63
692.69	10275.14
693.037	10304.29
693.383	10244.18
693.73	10257.29
694.077	10212.77
694.423	10159.44
694.769	10124.18
695.116	10134.8
695.462	10100.23
695.808	9992.21
696.155	10022.72
696.501	9969.61
696.847	10020.23
697.193	9867.47
697.539	9911.08
697.885	9886.68
698.231	9794.02
698.577	9795.15
698.923	9760.35
699.269	9743.85
699.614	9639.22
699.96	9613.69
700.306	9647.59
700.651	9583.86
700.997	9535.95
701.342	9570.98
701.688	9450.3
702.033	9448.04
702.379	9456.63
702.724	9306.58
703.069	9416.18
703.415	9373.69
703.76	9333.02
704.105	9265.67
704.45	9218.67
704.795	9214.38
705.14	9147.94
705.485	9195.85
705.83	9150.2
706.175	9148.39
706.52	9075.17
706.865	8977.32
707.209	9027.04
707.554	8972.12
707.899	9009.86
708.243	8944.1
708.588	8922.63
708.932	8809.87
709.277	8815.29
709.621	8855.52
709.966	8827.72
710.31	8841.73
710.654	8709.08
710.998	8683.77
711.342	8654.39
711.687	8712.92
712.031	8698.01
712.375	8535.98
712.719	8685.58
713.063	8622.75
713.407	8654.62
713.75	8596.77
714.094	8568.74
714.438	8582.53
714.782	8565.35
715.125	8551.57
715.469	8567.39
715.812	8480.84
716.156	8497.56
716.499	8474.51
716.843	8449.42
717.186	8470.89
717.53	8496.66
717.873	8450.1
718.216	8377.56
718.559	8437.45
718.902	8388.64
719.246	8345.7
719.589	8331.24
719.932	8324.23
720.275	8308.19
720.617	8294.17
720.96	8307.28
721.303	8332.59
721.646	8279.71
721.989	8251.69
722.331	8251.69
722.674	8236.55
723.016	8283.78
723.359	8253.27
723.701	8272.48
724.044	8215.53
724.386	8163.56
724.729	8216.21
725.071	8169.66
725.413	8127.4
725.755	8171.69
726.097	8124.91
726.439	8068.42
726.782	8069.1
727.124	8128.08
727.465	8059.15
727.807	8102.77
728.149	8113.16
728.491	8117.46
728.833	8041.75
729.175	8060.73
729.516	8071.58
729.858	8051.7
730.199	8088.08
730.541	8022.77
730.882	8065.03
731.224	8060.51
731.565	8044.92
731.906	8025.71
732.248	8074.97
732.589	8058.25
732.93	8016.89
733.271	8055.99
733.612	8031.81
733.953	8109.77
734.294	7998.36
734.635	8022.77
734.976	8049.66
735.317	8015.76
735.658	8019.15
735.999	8027.29
736.339	8015.99
736.68	8092.82
737.021	8066.84
737.361	8038.59
737.702	8081.75
738.042	8054.41
738.383	8019.38
738.723	8038.14
739.063	8034.07
739.404	8068.42
739.744	8089.66
740.084	8087.17
740.424	8107.51
740.764	8066.16
741.104	8111.13
741.444	8088.53
741.784	8088.98
742.124	8118.59
742.464	8163.33
742.804	8128.3
743.143	8196.78
743.483	8194.74
743.823	8178.02
744.162	8228.87
744.502	8206.95
744.841	8266.83
745.181	8325.81
745.52	8246.27
745.86	8309.54
746.199	8338.02
746.538	8413.72
746.877	8459.14
747.216	8491.91
747.556	8466.83
747.895	8542.3
748.234	8525.35
748.573	8583.21
748.911	8721.51
749.25	8663.43
749.589	8721.73
749.928	8819.81
750.267	8868.85
750.605	8916.31
750.944	8985.68
751.283	9008.51
751.621	9115.62
751.96	9161.72
752.298	9260.93
752.636	9393.35
752.975	9371.89
753.313	9406.46
753.651	9634.48
753.989	9576.4
754.327	9740.24
754.666	9820.46
755.004	9865.21
755.342	10077.86
755.679	10131.19
756.017	10188.36
756.355	10341.13
756.693	10435.59
757.031	10615.47
757.368	10659.31
757.706	10785.41
758.044	10839.19
758.381	11030.6
758.719	11099.3
759.056	11274.66
759.394	11422.68
759.731	11505.39
760.068	11702.45
