Data from hue_130_FLMS001491_00098.txt Node
Date: Tue Feb 07 16:58:21 GMT 2017
User: dcchb
Spectrometer: FLMS00149
Trigger mode: 0
Integration Time (sec): 2.000000E-2
Scans to average: 10
Electric dark correction enabled: true
Nonlinearity correction enabled: false
Boxcar width: 0
XAxis mode: Wavelengths
Number of Pixels in Spectrum: 2048
>>>>>Begin Spectral Data<<<<<
341.393	-3.32
341.776	-3.32
342.16	-3.32
342.543	-60.04
342.927	-87.38
343.31	-51
343.693	-55.75
344.077	-71.34
344.46	-55.97
344.843	-63.66
345.226	-49.19
345.61	-35.86
345.993	-11.91
346.376	-15.3
346.759	20.18
347.142	20.86
347.525	46.4
347.908	52.27
348.291	70.8
348.674	85.72
349.057	113.74
349.44	123.46
349.823	133.4
350.206	160.74
350.588	181.53
350.971	182.89
351.354	200.52
351.737	231.25
352.119	261.53
352.502	256.11
352.884	264.92
353.267	257.01
353.65	268.54
354.032	304.92
354.414	286.84
354.797	309.22
355.179	313.28
355.562	314.41
355.944	307.63
356.326	330.46
356.709	315.32
357.091	329.55
357.473	343.11
357.855	313.96
358.238	340.17
358.62	343.56
359.002	340.17
359.384	316.67
359.766	321.87
360.148	325.94
360.53	323.23
360.912	331.36
361.294	314.86
361.676	333.17
362.057	340.63
362.439	332.04
362.821	315.99
363.203	314.64
363.584	321.19
363.966	312.83
364.348	316.67
364.729	313.73
365.111	318.25
365.493	299.05
365.874	303.34
366.256	293.4
366.637	294.53
367.019	299.72
367.4	299.27
367.781	325.03
368.163	318.25
368.544	291.36
368.925	314.86
369.306	326.39
369.688	297.69
370.069	289.33
370.45	313.06
370.831	313.28
371.212	304.24
371.593	309.89
371.974	304.24
372.355	312.83
372.736	305.37
373.117	313.51
373.498	309.22
373.879	304.24
374.26	297.92
374.641	308.31
375.021	290.23
375.402	316.9
375.783	311.47
376.163	302.66
376.544	328.65
376.925	330.23
377.305	347.86
377.686	335.43
378.066	315.99
378.447	339.27
378.827	320.74
379.208	328.42
379.588	331.36
379.968	318.71
380.349	328.2
380.729	314.64
381.109	328.65
381.489	321.64
381.87	326.84
382.25	320.29
382.63	328.42
383.01	321.42
383.39	344.92
383.77	314.64
384.15	330.91
384.53	338.37
384.91	339.04
385.29	343.79
385.67	320.97
386.049	344.47
386.429	330.68
386.809	342.21
387.189	346.5
387.568	345.6
387.948	323.9
388.328	349.21
388.707	344.24
389.087	361.64
389.466	355.77
389.846	340.17
390.225	364.35
390.605	337.46
390.984	357.12
391.363	366.61
391.743	348.76
392.122	361.87
392.501	346.28
392.881	361.87
393.26	372.49
393.639	366.84
394.018	358.25
394.397	369.33
394.776	370.68
395.155	368.87
395.534	365.48
395.913	381.98
396.292	371.81
396.671	381.98
397.05	362.55
397.429	386.73
397.808	382.66
398.186	364.81
398.565	385.6
398.944	391.7
399.323	382.21
399.701	379.72
400.08	381.08
400.458	374.98
400.837	387.86
401.215	395.99
401.594	399.38
401.972	414.75
402.351	393.73
402.729	394.64
403.107	417.46
403.486	386.73
403.864	403.9
404.242	402.32
404.62	392.6
404.999	401.19
405.377	407.74
405.755	396.44
406.133	424.69
406.511	398.7
406.889	404.35
407.267	428.08
407.645	423.79
408.023	426.73
408.401	410.68
408.779	416.33
409.156	419.95
409.534	418.59
409.912	427.18
410.29	439.61
410.667	439.83
411.045	462.66
411.422	436.67
411.8	462.66
412.178	457.69
412.555	450.45
412.933	466.05
413.31	448.87
413.687	468.31
414.065	470.79
414.442	464.69
414.819	464.69
415.197	487.06
415.574	456.78
415.951	474.41
416.328	469.44
416.705	455.43
417.082	461.75
417.46	475.54
417.837	474.41
418.214	490
418.591	487.06
418.967	487.74
419.344	505.59
419.721	489.78
420.098	488.87
420.475	502.66
420.852	492.04
421.228	516.44
421.605	508.31
421.982	526.84
422.358	512.83
422.735	505.37
423.111	518.02
423.488	520.28
423.864	530
424.241	530.9
424.617	535.2
424.994	540.62
425.37	544.24
425.746	533.62
426.123	556.44
426.499	543.56
426.875	544.01
427.251	553.05
427.627	556.21
428.003	570.45
428.379	577.91
428.756	594.63
429.132	582.2
429.507	575.87
429.883	596.89
430.259	590.79
430.635	605.25
431.011	609.55
431.387	607.74
431.763	623.56
432.138	622.2
432.514	601.41
432.89	629.66
433.265	635.76
433.641	623.56
434.016	639.38
434.392	655.87
434.767	663.33
435.143	650.9
435.518	656.1
435.894	671.69
436.269	654.29
436.644	673.5
437.02	682.09
437.395	677.11
437.77	667.4
438.145	690.22
438.52	692.48
438.895	702.88
439.271	725.48
439.646	710.33
440.021	720.73
440.395	717.79
440.77	745.36
441.145	732.48
441.52	718.24
441.895	753.5
442.27	760.05
442.645	760.05
443.019	740.39
443.394	745.59
443.769	773.61
444.143	769.09
444.518	776.32
444.892	771.35
445.267	796.89
445.641	787.62
446.016	785.36
446.39	774.74
446.764	815.87
447.139	819.71
447.513	809.99
447.887	812.93
448.262	831.91
448.636	836.21
449.01	821.07
449.384	844.34
449.758	841.18
450.132	862.87
450.506	851.12
450.88	854.51
451.254	876.43
451.628	867.39
452.002	856.55
452.376	887.96
452.75	897.22
453.123	893.15
453.497	889.31
453.871	921.63
454.244	923.44
454.618	932.02
454.992	952.14
455.365	922.53
455.739	968.63
456.112	963.89
456.486	981.74
456.859	968.18
457.232	1022.42
457.606	993.26
457.979	1027.39
458.352	1029.42
458.725	1031
459.099	1047.05
459.472	1059.93
459.845	1077.1
460.218	1081.85
460.591	1092.25
460.964	1108.74
461.337	1139.02
461.71	1148.51
462.083	1151.23
462.456	1169.31
462.829	1147.39
463.201	1186.71
463.574	1202.75
463.947	1214.5
464.32	1229.42
464.692	1264.22
465.065	1257.89
465.438	1296.53
465.81	1297.89
466.183	1302.64
466.555	1357.1
466.928	1362.97
467.3	1343.09
467.672	1373.37
468.045	1430.54
468.417	1428.73
468.789	1430.32
469.161	1491.56
469.534	1494.49
469.906	1550.09
470.278	1573.81
470.65	1594.15
471.022	1623.76
471.394	1680.25
471.766	1680.03
472.138	1718.22
472.51	1736.75
472.882	1780.81
473.253	1790.76
473.625	1846.58
473.997	1886.8
474.369	1903.75
474.74	1967.02
475.112	2011.32
475.484	2067.13
475.855	2127.92
476.227	2135.83
476.598	2193.69
476.97	2232.33
477.341	2291.54
477.713	2367.24
478.084	2381.02
478.455	2447.01
478.827	2530.85
479.198	2628.7
479.569	2639.78
479.94	2784.18
480.311	2805.87
480.682	2917.06
481.053	2993.44
481.424	3096.26
481.795	3158.41
482.166	3245.86
482.537	3308.01
482.908	3368.8
483.279	3535.12
483.65	3600.2
484.021	3738.28
484.391	3836.58
484.762	3914.54
485.133	3947.99
485.503	4050.36
485.874	4207.42
486.244	4283.8
486.615	4415.32
486.985	4522.44
487.356	4687.4
487.726	4760.4
488.097	4938.92
488.467	4995.65
488.837	5144.12
489.207	5272.7
489.578	5381.4
489.948	5495.52
490.318	5674.27
490.688	5718.56
491.058	5874.94
491.428	6013.02
491.798	6138.89
492.168	6302.05
492.538	6370.52
492.908	6530.29
493.278	6739.78
493.648	6751.53
494.017	6940
494.387	7091.86
494.757	7168.47
495.126	7298.41
495.496	7404.17
495.866	7521.91
496.235	7716.7
496.605	7836.25
496.974	7918.96
497.344	8072.85
497.713	8163.25
498.082	8237.37
498.452	8406.86
498.821	8466.29
499.19	8502.67
499.559	8654.98
499.928	8791.25
500.298	8922.77
500.667	9030.34
501.036	9031.25
501.405	9183.78
501.774	9209.32
502.143	9319.83
502.512	9411.35
502.88	9547.62
503.249	9562.31
503.618	9609.31
503.987	9715.97
504.356	9874.39
504.724	9952.8
505.093	9975.63
505.462	10038.22
505.83	10152.35
506.199	10294.26
506.567	10447.25
506.936	10382.85
507.304	10573.8
507.672	10557.53
508.041	10598.66
508.409	10644.99
508.777	10785.1
509.145	10830.97
509.514	10875.04
509.882	10996.39
510.25	11014.24
510.618	11072.1
510.986	11087.91
511.354	11261.02
511.722	11256.27
512.09	11353.22
512.458	11434.12
512.826	11419.43
513.193	11496.94
513.561	11461.69
513.929	11544.4
514.297	11675.7
514.664	11632.31
515.032	11768.8
515.4	11759.08
515.767	11774.22
516.135	11847.67
516.502	11823.26
516.869	11971.51
517.237	11965.86
517.604	11950.49
517.972	12020.32
518.339	11981
518.706	12073.43
519.073	12038.4
519.44	12110.94
519.808	12295.11
520.175	12194.1
520.542	12319.29
520.909	12343.25
521.276	12269.13
521.643	12437.71
522.009	12393.19
522.376	12444.72
522.743	12464.15
523.11	12544.6
523.477	12608.33
523.843	12571.94
524.21	12754.31
524.577	12703.92
524.943	12794.08
525.31	12802.22
525.676	12805.84
526.043	12769.9
526.409	12811.71
526.776	12904.14
527.142	12887.42
527.508	12886.74
527.874	12945.94
528.241	12913.86
528.607	12989.11
528.973	12992.5
529.339	12898.26
529.705	12907.75
530.071	13071.59
530.437	13043.57
530.803	13016.45
531.169	13097.13
531.535	12997.69
531.901	13006.96
532.267	12980.52
532.632	12975.77
532.998	12988.43
533.364	12981.42
533.73	12928.32
534.095	13067.07
534.461	12980.97
534.826	12983.46
535.192	13049.22
535.557	12946.62
535.923	12922.44
536.288	12937.36
536.653	12897.13
537.019	12801.54
537.384	12840.18
537.749	12825.95
538.114	12798.38
538.479	12794.99
538.845	12752.5
539.21	12609.68
539.575	12668.89
539.94	12615.33
540.305	12713.41
540.67	12621.43
541.034	12601.77
541.399	12654.2
541.764	12472.51
542.129	12530.36
542.494	12448.56
542.858	12518.16
543.223	12422.57
543.587	12440.42
543.952	12309.35
544.316	12352.06
544.681	12294.66
545.045	12320.88
545.41	12237.94
545.774	12309.13
546.138	12136.7
546.503	12136.7
546.867	12068.68
547.231	12187.55
547.595	12097.38
547.959	12117.04
548.324	12031.17
548.688	11940.1
549.052	11953.2
549.416	11961.79
549.779	11910.49
550.143	11884.96
550.507	12020.09
550.871	11924.28
551.235	11792.08
551.599	11866.88
551.962	11805.41
552.326	11818.52
552.689	11762.7
553.053	11677.28
553.417	11716.15
553.78	11800.44
554.143	11665.53
554.507	11675.24
554.87	11680.22
555.234	11636.15
555.597	11541.46
555.96	11572.65
556.323	11564.06
556.686	11513.89
557.05	11576.04
557.413	11536.72
557.776	11529.94
558.139	11470.05
558.502	11506.66
558.865	11577.85
559.228	11518.64
559.59	11545.53
559.953	11502.14
560.316	11557.96
560.679	11511.41
561.041	11531.74
561.404	11470.28
561.767	11587.79
562.129	11509.82
562.492	11584.17
562.854	11511.18
563.217	11478.64
563.579	11562.7
563.941	11573.1
564.304	11580.11
564.666	11505.76
565.028	11574.23
565.39	11624.85
565.753	11662.81
566.115	11597.73
566.477	11601.35
566.839	11587.56
567.201	11641.12
567.563	11643.61
567.925	11635.7
568.287	11670.72
568.648	11716.15
569.01	11735.58
569.372	11668.92
569.734	11648.13
570.095	11699.88
570.457	11741.23
570.819	11736.03
571.18	11771.96
571.542	11761.34
571.903	11726.32
572.265	11761.8
572.626	11766.09
572.987	11836.37
573.349	11757.95
573.71	11813.77
574.071	11812.19
574.432	11841.57
574.794	11885.18
575.155	11872.3
575.516	11822.36
575.877	11840.44
576.238	11830.04
576.599	11891.06
576.96	11919.76
577.32	11885.86
577.681	11835.01
578.042	11845.18
578.403	11958.63
578.763	11950.26
579.124	11989.13
579.485	11869.82
579.845	11921.79
580.206	11903.26
580.566	11879.31
580.927	11886.99
581.287	11955.69
581.648	11910.04
582.008	11964.73
582.368	11827.56
582.728	11989.81
583.089	11966.31
583.449	11966.54
583.809	11927.44
584.169	11886.54
584.529	11815.81
584.889	11896.93
585.249	11821.91
585.609	11795.92
585.969	11872.75
586.329	11833.43
586.688	11819.87
587.048	11796.6
587.408	11767.22
587.768	11741.23
588.127	11767.9
588.487	11705.07
588.846	11885.41
589.206	11743.49
589.565	11709.14
589.925	11795.01
590.284	11666.88
590.643	11726.99
591.003	11755.02
591.362	11816.48
591.721	11686.54
592.08	11666.43
592.44	11701.23
592.799	11700.78
593.158	11728.58
593.517	11716.37
593.876	11660.1
594.235	11635.7
594.593	11630.95
594.952	11661.91
595.311	11594.12
595.67	11681.12
596.029	11748.69
596.387	11658.3
596.746	11705.53
597.104	11631.4
597.463	11609.71
597.822	11661.23
598.18	11694.45
598.538	11665.98
598.897	11708.46
599.255	11625.98
599.613	11766.77
599.972	11576.26
600.33	11686.09
600.688	11593.66
601.046	11666.43
601.404	11683.61
601.762	11722.7
602.12	11758.63
602.478	11704.62
602.836	11721.8
603.194	11640.44
603.552	11571.29
603.91	11607.9
604.268	11625.08
604.625	11603.38
604.983	11635.24
605.341	11560.67
605.698	11602.48
606.056	11624.85
606.413	11576.04
606.771	11705.75
607.128	11610.84
607.485	11590.73
607.843	11627.11
608.2	11625.98
608.557	11739.42
608.914	11678.63
609.272	11740.1
609.629	11688.58
609.986	11652.65
610.343	11703.49
610.7	11734.9
611.057	11709.37
611.414	11781.46
611.771	11724.96
612.127	11795.01
612.484	11801.79
612.841	11768.12
613.198	11717.95
613.554	11836.6
613.911	11804.05
614.267	11834.34
614.624	11815.13
614.98	11751.63
615.337	11823.26
615.693	11856.48
616.05	11792.53
616.406	11931.96
616.762	11852.87
617.118	11862.58
617.475	11857.61
617.831	11895.13
618.187	11917.05
618.543	11886.99
618.899	11990.94
619.255	11867.1
619.611	11959.08
619.967	11949.36
620.323	11969.47
620.678	11943.94
621.034	11927.67
621.39	11931.06
621.746	11930.38
622.101	12047.89
622.457	11956.59
622.812	11972.64
623.168	11942.13
623.523	11996.37
623.879	12031.17
624.234	11913.66
624.589	11983.94
624.945	11912.53
625.3	11951.62
625.655	11971.06
626.01	11946.2
626.365	11963.6
626.72	11954.11
627.075	11980.09
627.43	11999.98
627.785	11919.76
628.14	11958.4
628.495	11935.8
628.85	11884.96
629.205	11844.73
629.559	11912.53
629.914	11868.23
630.269	11876.59
630.623	11788.46
630.978	11881.79
631.332	11883.6
631.687	11898.74
632.041	11797.27
632.396	11852.19
632.75	11784.39
633.104	11814
633.459	11701.68
633.813	11753.21
634.167	11846.76
634.521	11741
634.875	11783.72
635.229	11664.17
635.583	11678.41
635.937	11729.48
636.291	11623.72
636.645	11674.34
636.999	11702.59
637.352	11686.77
637.706	11623.27
638.06	11658.75
638.413	11584.17
638.767	11545.98
639.121	11544.85
639.474	11485.42
639.828	11567.22
640.181	11591.86
640.534	11543.27
640.888	11518.41
641.241	11434.35
641.594	11459.2
641.947	11564.74
642.301	11550.05
642.654	11508.24
643.007	11455.14
643.36	11416.49
643.713	11464.63
644.066	11493.33
644.419	11412.65
644.771	11368.13
645.124	11290.4
645.477	11280.68
645.83	11136.5
646.182	11160.91
646.535	11075.03
646.888	11186.67
647.24	10994.36
647.593	11151.87
647.945	11132.89
648.298	11000.01
648.65	11051.98
649.002	10960.91
649.355	11089.95
649.707	11047.69
650.059	11089.95
650.411	11183.73
650.763	11235.71
651.115	11403.84
651.467	11362.26
651.819	11381.69
652.171	11395.25
652.523	11298.98
652.875	11289.72
653.227	11301.92
653.578	11379.88
653.93	11358.19
654.282	11291.07
654.633	11216.95
654.985	11231.19
655.337	11352.54
655.688	11266.22
656.039	11282.26
656.391	11316.84
656.742	11309.83
657.094	11371.07
657.445	11355.93
657.796	11312.54
658.147	11321.13
658.498	11339.89
658.849	11333.33
659.2	11272.54
659.551	11282.03
659.902	11327.68
660.253	11374.69
660.604	11341.02
660.955	11319.32
661.306	11378.3
661.656	11327.46
662.007	11292.88
662.358	11364.97
662.708	11296.04
663.059	11321.81
663.409	11336.27
663.76	11315.03
664.11	11367.46
664.461	11386.66
664.811	11407.45
665.161	11301.69
665.511	11310.51
665.862	11336.04
666.212	11390.73
666.562	11397.74
666.912	11388.02
667.262	11406.32
667.612	11395.25
667.962	11342.15
668.312	11305.76
668.662	11387.57
669.011	11380.56
669.361	11333.56
669.711	11333.33
670.06	11282.71
670.41	11327.46
670.76	11327.68
671.109	11370.85
671.459	11329.49
671.808	11308.25
672.157	11316.16
672.507	11225.31
672.856	11338.3
673.205	11336.04
673.554	11326.33
673.904	11324.07
674.253	11343.95
674.602	11314.12
674.951	11072.55
675.3	11046.79
675.649	11185.54
675.998	11246.1
676.346	11194.8
676.695	11229.61
677.044	11208.59
677.393	11174.92
677.741	11211.75
678.09	11124.07
678.438	11167.91
678.787	11174.47
679.135	11075.71
679.484	11138.76
679.832	11051.08
680.181	11052.21
680.529	11083.4
680.877	11063.73
681.225	11046.33
681.573	11031.87
681.922	10922.5
682.27	10916.39
682.618	10913.46
682.966	10824.87
683.314	10953.68
683.661	10908.26
684.009	10870.52
684.357	10816.28
684.705	10793.46
685.053	10817.87
685.4	10732.22
685.748	10750.52
686.095	10724.99
686.443	10701.03
686.79	10620.36
687.138	10657.64
687.485	10665.1
687.832	10581.04
688.18	10639.56
688.527	10528.16
688.874	10608.15
689.221	10518.21
689.568	10484.54
689.915	10462.85
690.262	10506.91
690.609	10398.89
690.956	10405.9
691.303	10355.73
691.65	10260.14
691.997	10296.75
692.344	10201.38
692.69	10221.04
693.037	10230.76
693.383	10086.59
693.73	10200.71
694.077	10120.03
694.423	10023.76
694.769	9974.5
695.116	9987.83
695.462	9911.22
695.808	9969.98
696.155	9941.5
696.501	9859.7
696.847	9849.08
697.193	9788.51
697.539	9832.35
697.885	9712.36
698.231	9699.48
698.577	9674.84
698.923	9651.57
699.269	9666.26
699.614	9597.78
699.96	9539.48
700.306	9588.75
700.651	9436.66
700.997	9464.23
701.342	9490.44
701.688	9406.83
702.033	9332.71
702.379	9318.47
702.724	9340.16
703.069	9210.22
703.415	9147.4
703.76	9213.61
704.105	9165.48
704.45	9173.84
704.795	9050.91
705.14	9087.06
705.485	9046.84
705.83	8983.34
706.175	9006.16
706.52	8980.4
706.865	8984.02
707.209	8918.03
707.554	8879.39
707.899	8895.88
708.243	8824.47
708.588	8814.08
708.932	8799.16
709.277	8753.29
709.621	8766.85
709.966	8703.34
710.31	8728.2
710.654	8575.21
710.998	8665.38
711.342	8615.44
711.687	8618.15
712.031	8576.34
712.375	8595.55
712.719	8579.51
713.063	8549.9
713.407	8637.36
713.75	8504.71
714.094	8517.36
714.438	8464.25
714.782	8444.59
715.125	8406.86
715.469	8482.56
715.812	8328.89
716.156	8385.61
716.499	8301.32
716.843	8365.27
717.186	8345.39
717.53	8369.12
717.873	8371.6
718.216	8267.88
718.559	8348.78
718.902	8234.66
719.246	8325.73
719.589	8306.29
719.932	8205.5
720.275	8325.5
720.617	8250.02
720.96	8198.5
721.303	8195.79
721.646	8219.52
721.989	8147.2
722.331	8160.31
722.674	8153.75
723.016	8140.2
723.359	8135.45
723.701	8186.07
724.044	8126.41
724.386	8094.55
724.729	8104.26
725.071	8115.11
725.413	8085.28
725.755	8069.24
726.097	7980.88
726.439	8012.52
726.782	8005.74
727.124	8077.15
727.465	8028.11
727.807	8012.74
728.149	7953.99
728.491	7961.67
728.833	8024.72
729.175	8022.68
729.516	7963.93
729.858	7991.95
730.199	7988.34
730.541	8028.56
730.882	7930.71
731.224	7986.98
731.565	7987.43
731.906	7982.46
732.248	7970.48
732.589	7985.85
732.93	7983.82
733.271	7930.48
733.612	7951.05
733.953	7955.57
734.294	8015.91
734.635	7939.75
734.976	8031.72
735.317	7974.32
735.658	8037.15
735.999	8004.83
736.339	7943.59
736.68	8040.99
737.021	7964.61
737.361	7920.54
737.702	7939.3
738.042	7943.36
738.383	8012.74
738.723	8057.71
739.063	7934.78
739.404	8022.68
739.744	8019.52
740.084	8034.44
740.424	7998.05
740.764	8008.22
741.104	8074.43
741.444	8096.81
741.784	8082.12
742.124	8141.33
742.464	8138.39
742.804	8126.86
743.143	8157.82
743.483	8204.37
743.823	8125.96
744.162	8205.28
744.502	8272.85
744.841	8240.76
745.181	8264.71
745.52	8305.84
745.86	8341.09
746.199	8355.56
746.538	8437.36
746.877	8452.73
747.216	8570.47
747.556	8591.26
747.895	8537.47
748.234	8654.31
748.573	8711.93
748.911	8715.55
749.25	8790.57
749.589	8841.87
749.928	8942.66
750.267	8972.49
750.605	9056.78
750.944	9123.9
751.283	9130.23
751.621	9250
751.96	9232.14
752.298	9415.42
752.636	9524.57
752.975	9599.37
753.313	9640.95
753.651	9800.94
753.989	9840.72
754.327	9985.8
754.666	10054.27
755.004	10155.51
755.342	10348.5
755.679	10397.31
756.017	10555.27
756.355	10676.4
756.693	10703.74
757.031	10898.99
757.368	11011.53
757.706	11189.61
758.044	11289.49
758.381	11500.79
758.719	11617.84
759.056	11833.66
759.394	11914.56
759.731	12060.77
760.068	12166.3
