Data from hue_70_FLMS001491_18.txt Node
Date: Mon Feb 06 15:20:12 GMT 2017
User: dcchb
Spectrometer: FLMS00149
Trigger mode: 0
Integration Time (sec): 2.000000E-2
Scans to average: 10
Electric dark correction enabled: true
Nonlinearity correction enabled: false
Boxcar width: 0
XAxis mode: Wavelengths
Number of Pixels in Spectrum: 2048
>>>>>Begin Spectral Data<<<<<
341.393	1.09
341.776	1.09
342.16	1.09
342.543	-74.84
342.927	-75.07
343.31	-61.96
343.693	-80.27
344.077	-66.93
344.46	-76.2
344.843	-58.12
345.226	-35.52
345.61	-42.53
345.993	-27.39
346.376	-17.67
346.759	33.63
347.142	27.53
347.525	31.14
347.908	70.01
348.291	77.02
348.674	113.4
349.057	113.85
349.44	123.57
349.823	139.39
350.206	160.18
350.588	174.19
350.971	213.96
351.354	224.58
351.737	240.4
352.119	227.52
352.502	264.13
352.884	286.5
353.267	294.87
353.65	311.81
354.032	288.31
354.414	302.1
354.797	306.39
355.179	305.49
355.562	345.26
355.944	333.73
356.326	324.92
356.709	340.29
357.091	350.91
357.473	335.54
357.855	373.96
358.238	358.37
358.62	340.29
359.002	350.91
359.384	342.32
359.766	335.32
360.148	343.45
360.53	335.09
360.912	340.74
361.294	314.75
361.676	340.97
362.057	315.88
362.439	361.3
362.821	319.27
363.203	327.86
363.584	328.31
363.966	321.76
364.348	329.44
364.729	323.34
365.111	323.34
365.493	326.5
365.874	319.95
366.256	327.18
366.637	328.54
367.019	305.49
367.4	318.37
367.781	315.88
368.163	329.67
368.544	330.34
368.925	321.98
369.306	312.49
369.688	299.16
370.069	304.81
370.45	329.21
370.831	307.07
371.212	326.95
371.593	314.98
371.974	312.94
372.355	310.01
372.736	330.8
373.117	343.68
373.498	324.92
373.879	317.24
374.26	322.21
374.641	309.1
375.021	308.65
375.402	329.21
375.783	336.67
376.163	317.01
376.544	325.82
376.925	337.12
377.305	317.69
377.686	321.53
378.066	324.24
378.447	317.92
378.827	325.15
379.208	330.8
379.588	334.64
379.968	341.19
380.349	335.09
380.729	327.63
381.109	347.29
381.489	317.46
381.87	331.02
382.25	337.8
382.63	331.7
383.01	340.97
383.39	338.71
383.77	339.38
384.15	347.29
384.53	361.08
384.91	345.71
385.29	344.13
385.67	357.46
386.049	355.2
386.429	350.68
386.809	361.53
387.189	351.81
387.568	343.9
387.948	341.87
388.328	366.05
388.707	360.17
389.087	352.04
389.466	347.52
389.846	342.77
390.225	346.62
390.605	357.24
390.984	372.83
391.363	348.2
391.743	383.45
392.122	359.5
392.501	364.47
392.881	375.54
393.26	379.83
393.639	373.96
394.018	354.98
394.397	368.08
394.776	381.87
395.155	376.22
395.534	375.54
395.913	362.21
396.292	382.32
396.671	388.65
397.05	359.95
397.429	363.34
397.808	378.03
398.186	390.91
398.565	378.48
398.944	386.39
399.323	390.46
399.701	364.24
400.08	392.94
400.458	372.38
400.837	388.87
401.215	372.83
401.594	390.68
401.972	395.65
402.351	375.99
402.729	395.65
403.107	405.82
403.486	413.28
403.864	379.16
404.242	386.84
404.62	386.84
404.999	413.28
405.377	414.18
405.755	394.75
406.133	389.1
406.511	391.81
406.889	400.4
407.267	429.32
407.645	395.2
408.023	397.24
408.401	408.53
408.779	399.27
409.156	451.02
409.534	430.23
409.912	434.3
410.29	419.61
410.667	425.48
411.045	433.17
411.422	438.36
411.8	428.87
412.178	423.9
412.555	453.51
412.933	438.36
413.31	435.2
413.687	461.41
414.065	442.88
414.442	460.06
414.819	460.06
415.197	447.86
415.574	453.05
415.951	463.22
416.328	454.86
416.705	463
417.082	456.67
417.46	457.57
417.837	468.42
418.214	471.36
418.591	464.13
418.967	481.3
419.344	476.33
419.721	461.41
420.098	484.46
420.475	481.3
420.852	471.81
421.228	491.02
421.605	475.65
421.982	493.96
422.358	497.35
422.735	500.96
423.111	514.52
423.488	504.58
423.864	499.38
424.241	498.7
424.617	516.1
424.994	496.89
425.37	528.31
425.746	515.42
426.123	505.03
426.499	520.62
426.875	539.15
427.251	523.33
427.627	534.86
428.003	529.89
428.379	534.86
428.756	546.61
429.132	533.5
429.507	552.26
429.883	545.48
430.259	571.02
430.635	580.06
431.011	582.77
431.387	556.33
431.763	555.2
432.138	563.56
432.514	583.67
432.89	596.55
433.265	590.22
433.641	605.59
434.016	611.92
434.392	614.4
434.767	601.75
435.143	618.25
435.518	636.33
435.894	637.23
436.269	635.42
436.644	639.49
437.02	613.5
437.395	628.87
437.77	653.05
438.145	665.7
438.52	665.02
438.895	642.2
439.271	640.84
439.646	674.29
440.021	674.06
440.395	678.36
440.77	673.39
441.145	659.83
441.52	663.67
441.895	667.96
442.27	670.45
442.645	699.15
443.019	686.04
443.394	689.43
443.769	704.57
444.143	715.42
444.518	693.5
444.892	700.28
445.267	724.91
445.641	711.8
446.016	717
446.39	732.59
446.764	727.85
447.139	729.2
447.513	729.2
447.887	715.42
448.262	720.84
448.636	750.9
449.01	764.46
449.384	773.72
449.758	754.74
450.132	769.88
450.506	753.84
450.88	757.45
451.254	795.19
451.628	770.33
452.002	782.08
452.376	779.82
452.75	796.55
453.123	813.5
453.497	790.22
453.871	806.26
454.244	814.17
454.618	829.99
454.992	839.71
455.365	872.93
455.739	852.82
456.112	875.41
456.486	874.51
456.859	892.36
457.232	884.45
457.606	894.17
457.979	877.67
458.352	930.78
458.725	940.27
459.099	929.88
459.472	941.63
459.845	955.86
460.218	946.83
460.591	973.27
460.964	963.77
461.337	957.22
461.71	972.81
462.083	1005.13
462.456	980.27
462.829	1034.28
463.201	1042.87
463.574	1064.11
463.947	1041.29
464.32	1081.29
464.692	1089.19
465.065	1117.22
465.438	1123.77
465.81	1109.08
466.183	1123.09
466.555	1159.7
466.928	1175.29
467.3	1175.97
467.672	1209.64
468.045	1224.33
468.417	1247.38
468.789	1238.12
469.161	1272.24
469.534	1318.12
469.906	1306.36
470.278	1326.48
470.65	1360.6
471.022	1414.84
471.394	1452.12
471.766	1435.4
472.138	1464.33
472.51	1493.48
472.882	1524.89
473.253	1581.61
473.625	1590.65
473.997	1636.75
474.369	1656.64
474.74	1680.82
475.112	1735.96
475.484	1759.69
475.855	1829.06
476.227	1842.17
476.598	1911.55
476.97	1957.65
477.341	1987.48
477.713	2060.47
478.084	2083.29
478.455	2153.8
478.827	2221.59
479.198	2283.51
479.569	2336.85
479.94	2398.99
480.311	2466.33
480.682	2540.91
481.053	2623.39
481.424	2675.59
481.795	2759.43
482.166	2871.75
482.537	2904.51
482.908	3001.46
483.279	3065.64
483.65	3169.82
484.021	3250.72
484.391	3365.07
484.762	3461.79
485.133	3506.76
485.503	3598.96
485.874	3743.14
486.244	3826.52
486.615	3910.14
486.985	4048.66
487.356	4162.79
487.726	4270.81
488.097	4449.11
488.467	4546.73
488.837	4647.52
489.207	4779.49
489.578	4862.88
489.948	4986.49
490.318	5185.36
490.688	5255.41
491.058	5389.19
491.428	5517.33
491.798	5599.13
492.168	5814.04
492.538	5906.69
492.908	6045.67
493.278	6167.93
493.648	6303.52
494.017	6498.77
494.387	6555.72
494.757	6747.8
495.126	6866.44
495.496	6997.06
495.866	7107.34
496.235	7257.39
496.605	7403.6
496.974	7494.45
497.344	7628.91
497.713	7777.38
498.082	7873.42
498.452	8067.77
498.821	8156.58
499.19	8268.44
499.559	8374.43
499.928	8510.92
500.298	8626.85
500.667	8787.07
501.036	8857.8
501.405	9052.6
501.774	9048.53
502.143	9209.21
502.512	9354.06
502.88	9553.38
503.249	9568.97
503.618	9707.27
503.987	9817.1
504.356	9931.22
504.724	10026.36
505.093	10098.22
505.462	10219.12
505.83	10335.73
506.199	10447.59
506.567	10689.17
506.936	10647.59
507.304	10845.55
507.672	10992.21
508.041	11029.95
508.409	11064.75
508.777	11213.45
509.145	11363.27
509.514	11405.99
509.882	11568.47
510.25	11598.3
510.618	11659.99
510.986	11819.99
511.354	11929.36
511.722	12085.52
512.09	12177.26
512.458	12318.28
512.826	12334.77
513.193	12404.83
513.561	12520.08
513.929	12686.63
514.297	12761.88
514.664	12892.05
515.032	12887.08
515.4	13083
515.767	13054.98
516.135	13146.05
516.502	13151.02
516.869	13423.79
517.237	13446.84
517.604	13446.16
517.972	13621.75
518.339	13704.68
518.706	13645.93
519.073	13837.33
519.44	13894.73
519.808	14077.33
520.175	14094.05
520.542	14210.21
520.909	14327.26
521.276	14304.67
521.643	14461.05
522.009	14445.68
522.376	14717.08
522.743	14676.41
523.11	14832.11
523.477	14988.04
523.843	15019.68
524.21	15176.73
524.577	15260.12
524.943	15314.58
525.31	15440.91
525.676	15531.07
526.043	15558.64
526.409	15599.55
526.776	15748.02
527.142	15856.04
527.508	15791.18
527.874	16008.58
528.241	16035.02
528.607	16044.96
528.973	16188.68
529.339	16163.37
529.705	16369.02
530.071	16498.28
530.437	16517.49
530.803	16527.88
531.169	16635.68
531.535	16534.66
531.901	16624.61
532.267	16709.57
532.632	16811.49
532.998	16862.34
533.364	16847.42
533.73	16913.41
534.095	17051.49
534.461	17144.14
534.826	17107.08
535.192	17192.95
535.557	17259.39
535.923	17188.21
536.288	17210.13
536.653	17366.73
537.019	17237.92
537.384	17403.12
537.749	17408.54
538.114	17374.64
538.479	17358.15
538.845	17521.76
539.21	17473.62
539.575	17522.43
539.94	17523.79
540.305	17520.4
540.67	17570.12
541.034	17598.82
541.399	17549.1
541.764	17654.63
542.129	17749.55
542.494	17717.01
542.858	17720.62
543.223	17724.01
543.587	17779.6
543.952	17740.06
544.316	17758.81
544.681	17762.65
545.045	17854.18
545.41	17958.13
545.774	17924.01
546.138	17880.17
546.503	17942.54
546.867	17943.44
547.231	17946.38
547.595	17952.03
547.959	17984.12
548.324	17995.42
548.688	18018.01
549.052	18072.02
549.416	18133.72
549.779	18060.27
550.143	18051.46
550.507	18208.29
550.871	18195.41
551.235	18117.9
551.599	18163.1
551.962	18274.05
552.326	18284.9
552.689	18416.65
553.053	18307.72
553.417	18291.23
553.78	18524.89
554.143	18393.6
554.507	18394.95
554.87	18560.6
555.234	18549.07
555.597	18505.46
555.96	18554.72
556.323	18602.86
556.686	18651.9
557.05	18714.95
557.413	18655.96
557.776	18780.93
558.139	18843.76
558.502	18765.34
558.865	18855.73
559.228	18975.05
559.59	18996.75
559.953	18886.47
560.316	19130.3
560.679	19144.99
561.041	19187.25
561.404	19305.89
561.767	19350.41
562.129	19286.46
562.492	19482.84
562.854	19426.57
563.217	19427.02
563.579	19531.65
563.941	19630.4
564.304	19555.83
564.666	19681.93
565.028	19707.91
565.39	19693.45
565.753	19807.35
566.115	19842.37
566.477	19928.25
566.839	19992.65
567.201	20073.55
567.563	19997.4
567.925	20198.52
568.287	20154.46
568.648	20200.78
569.01	20323.04
569.372	20336.15
569.734	20287.33
570.095	20418.86
570.457	20573.88
570.819	20705.85
571.18	20571.85
571.542	20640.09
571.903	20730.49
572.265	20770.26
572.626	20796.25
572.987	20793.08
573.349	20803.03
573.71	20961.67
574.071	21031.27
574.432	20976.58
574.794	21156.69
575.155	21086.86
575.516	21038.73
575.877	21092.74
576.238	21131.38
576.599	21189.23
576.96	21226.52
577.32	21181.55
577.681	21312.84
578.042	21374.08
578.403	21280.08
578.763	21334.76
579.124	21594.87
579.485	21401.88
579.845	21513.52
580.206	21501.09
580.566	21432.61
580.927	21499.51
581.287	21563.23
581.648	21372.73
582.008	21610.91
582.368	21486.62
582.728	21535.21
583.089	21553.97
583.449	21596.68
583.809	21508.09
584.169	21573.18
584.529	21484.36
584.889	21698.14
585.249	21558.49
585.609	21578.6
585.969	21678.48
586.329	21565.72
586.688	21627.41
587.048	21642.33
587.408	21585.83
587.768	21673.06
588.127	21587.19
588.487	21574.76
588.846	21772.72
589.206	21525.27
589.565	21588.54
589.925	21668.99
590.284	21585.38
590.643	21591.25
591.003	21630.35
591.362	21673.96
591.721	21691.82
592.08	21659.05
592.44	21718.71
592.799	21645.49
593.158	21576.79
593.517	21701.08
593.876	21604.81
594.235	21637.13
594.593	21678.26
594.952	21620.86
595.311	21587.64
595.67	21732.04
596.029	21734.75
596.387	21730.91
596.746	21813.62
597.104	21736.56
597.463	21607.98
597.822	21770.23
598.18	21745.15
598.538	21814.75
598.897	21815.43
599.255	21554.42
599.613	21838.93
599.972	21800.97
600.33	21864.92
600.688	21732.27
601.046	21832.83
601.404	21947.63
601.762	21908.31
602.12	22040.06
602.478	21921.64
602.836	21974.97
603.194	21904.92
603.552	21880.29
603.91	21856.33
604.268	21986.05
604.625	21853.85
604.983	22018.59
605.341	21864.47
605.698	22046.61
606.056	22066.5
606.413	21977.68
606.771	22009.1
607.128	22029.89
607.485	22010.68
607.843	22043.45
608.2	22230.11
608.557	22216.1
608.914	22163.44
609.272	22246.38
609.629	22317.11
609.986	22415.64
610.343	22353.27
610.7	22508.74
611.057	22452.93
611.414	22417
611.771	22412.02
612.127	22432.81
612.484	22611.79
612.841	22624.67
613.198	22598.46
613.554	22453.15
613.911	22606.14
614.267	22649.76
614.624	22547.39
614.98	22639.59
615.337	22786.03
615.693	22697.44
616.05	22706.93
616.406	22853.59
616.762	22794.84
617.118	22739.02
617.475	22759.13
617.831	22920.71
618.187	22915.06
618.543	22977.21
618.899	23044.32
619.255	23046.81
619.611	23038.67
619.967	23045.23
620.323	23191.89
620.678	22996.87
621.034	23009.97
621.39	23053.59
621.746	22988.96
622.101	23411.77
622.457	23085.45
622.812	23137.2
623.168	23252.68
623.523	23256.97
623.879	23245.22
624.234	23089.52
624.589	23239.12
624.945	23209.52
625.3	23242.51
625.655	23216.97
626.01	23264.88
626.365	23272.11
626.72	23169.52
627.075	23199.35
627.43	23219.91
627.785	23247.48
628.14	23156.18
628.495	23239.12
628.85	23257.43
629.205	23210.42
629.559	23273.47
629.914	23147.6
630.269	23141.95
630.623	23076.64
630.978	23162.06
631.332	23194.38
631.687	23208.16
632.041	23170.65
632.396	23111.67
632.75	22987.15
633.104	23096.3
633.459	23069.86
633.813	22990.54
634.167	22946.7
634.521	22978.11
634.875	23068.96
635.229	22990.54
635.583	22850.88
635.937	22915.97
636.291	22977.88
636.645	22874.61
636.999	22903.08
637.352	23013.36
637.706	22803.65
638.06	22892.92
638.413	22779.92
638.767	22773.82
639.121	22812.24
639.474	22697.89
639.828	22732.24
640.181	22788.74
640.534	22761.17
640.888	22683.65
641.241	22618.12
641.594	22685.91
641.947	22689.76
642.301	22548.74
642.654	22521.85
643.007	22696.99
643.36	22624
643.713	22535.86
644.066	22689.76
644.419	22577.9
644.771	22465.81
645.124	22167.06
645.477	22198.02
645.83	21979.94
646.182	21967.29
646.535	21888.87
646.888	21892.72
647.24	21804.58
647.593	21930
647.945	21897.46
648.298	21737.92
648.65	21800.51
649.002	21722.32
649.355	21767.07
649.707	21725.49
650.059	21795.99
650.411	22113.5
650.763	22142.43
651.115	22332.93
651.467	22293.83
651.819	22295.64
652.171	22247.73
652.523	22202.54
652.875	22233.05
653.227	22084.8
653.578	22349.43
653.93	22281.18
654.282	22163.67
654.633	22058.81
654.985	22200.73
655.337	22128.42
655.688	22221.29
656.039	22247.96
656.391	22131.81
656.742	22115.53
657.094	22157.57
657.445	22253.16
657.796	22150.56
658.147	22191.46
658.498	22217.68
658.849	22250.9
659.2	22210.67
659.551	22202.54
659.902	22286.38
660.253	22103.56
660.604	22244.34
660.955	22153.5
661.306	22161.86
661.656	22069.89
662.007	22158.47
662.358	22111.69
662.708	22213.38
663.059	22089.09
663.409	22059.49
663.76	22179.26
664.11	22102.43
664.461	22236.44
664.811	22156.89
665.161	22077.12
665.511	22140.84
665.862	22192.14
666.212	22224.01
666.562	22198.92
666.912	22091.13
667.262	22186.04
667.612	22197.79
667.962	22164.57
668.312	22177.91
668.662	22208.87
669.011	22013.62
669.361	22073.28
669.711	21999.61
670.06	22048.87
670.41	22078.47
670.76	22010.68
671.109	22083.9
671.459	22031.92
671.808	22101.52
672.157	22038.7
672.507	21924.8
672.856	21946.27
673.205	21960.51
673.554	22132.93
673.904	21917.8
674.253	22056.33
674.602	21975.43
674.951	21647.07
675.3	21632.38
675.649	21868.31
675.998	21840.97
676.346	21917.57
676.695	21921.42
677.044	21734.98
677.393	21823.34
677.741	21888.42
678.09	21794.64
678.438	21718.71
678.787	21827.18
679.135	21804.36
679.484	21651.59
679.832	21772.27
680.181	21584.25
680.529	21674.42
680.877	21601.42
681.225	21541.54
681.573	21633.51
681.922	21525.04
682.27	21488.21
682.618	21503.35
682.966	21414.76
683.314	21471.71
683.661	21338.83
684.009	21250.25
684.357	21098.61
684.705	21102.23
685.053	21168.67
685.4	21187.42
685.748	21057.26
686.095	20945.4
686.443	20920.09
686.79	20897.04
687.138	20953.53
687.485	20969.8
687.832	20905.4
688.18	20867.21
688.527	20758.06
688.874	20781.33
689.221	20596.48
689.568	20637.38
689.915	20541.56
690.262	20572.75
690.609	20483.71
690.956	20303.6
691.303	20338.18
691.65	20387.44
691.997	20273.32
692.344	20210.5
692.69	20125.98
693.037	20123.72
693.383	19952.88
693.73	20099.54
694.077	19913.56
694.423	19905.42
694.769	19803.5
695.116	19757.4
695.462	19744.07
695.808	19610.52
696.155	19679.44
696.501	19539.33
696.847	19541.82
697.193	19314.93
697.539	19456.62
697.885	19243.29
698.231	19260.69
698.577	19217.08
698.923	19150.41
699.269	19146.8
699.614	18983.19
699.96	18982.96
700.306	19000.59
700.651	18884.21
700.997	18841.27
701.342	18769.63
701.688	18718.34
702.033	18632.46
702.379	18671.78
702.724	18466.36
703.069	18519.92
703.415	18397.89
703.76	18426.59
704.105	18345.92
704.45	18286.26
704.795	18220.04
705.14	18146.15
705.485	18109.76
705.83	18028.18
706.175	17986.15
706.52	17923.1
706.865	17865.93
707.209	17793.39
707.554	17825.03
707.899	17802.43
708.243	17715.42
708.588	17737.8
708.932	17597.01
709.277	17607.4
709.621	17613.28
709.966	17424.13
710.31	17514.53
710.654	17388.65
710.998	17369.67
711.342	17376.9
711.687	17293.74
712.031	17210.58
712.375	17203.8
712.719	17192.5
713.063	17174.2
713.407	17286.28
713.75	17100.75
714.094	17125.61
714.438	17108.89
714.782	16997.02
715.125	16891.94
715.469	16946.86
715.812	16794.54
716.156	16792.96
716.499	16758.84
716.843	16754.55
717.186	16713.19
717.53	16733.98
717.873	16785.05
718.216	16703.93
718.559	16653.08
718.902	16470.03
719.246	16594.1
719.589	16461.67
719.932	16511.39
720.275	16517.26
720.617	16416.7
720.96	16456.47
721.303	16402.01
721.646	16338.51
721.989	16343.48
722.331	16416.7
722.674	16308.46
723.016	16346.65
723.359	16307.55
723.701	16306.2
724.044	16157.95
724.386	16196.14
724.729	16240.89
725.071	16209.93
725.413	16143.71
725.755	16105.75
726.097	16054.45
726.439	15976.26
726.782	16024.17
727.124	16123.83
727.465	15966.54
727.807	15994.79
728.149	15985.53
728.491	15919.54
728.833	16002.93
729.175	15903.04
729.516	15824.85
729.858	15842.7
730.199	15918.18
730.541	15855.13
730.882	15798.41
731.224	15807.68
731.565	15743.72
731.906	15754.12
732.248	15840.9
732.589	15736.27
732.93	15726.32
733.271	15731.3
733.612	15675.25
733.953	15737.85
734.294	15601.36
734.635	15640.68
734.976	15712.99
735.317	15644.52
735.658	15712.76
735.999	15556.84
736.339	15588.93
736.68	15629.83
737.021	15606.78
737.361	15592.77
737.702	15585.99
738.042	15566.33
738.383	15731.3
738.723	15559.77
739.063	15590.51
739.404	15583.05
739.744	15643.39
740.084	15588.7
740.424	15590.96
740.764	15556.16
741.104	15715.48
741.444	15580.11
741.784	15501.47
742.124	15605.87
742.464	15568.59
742.804	15614.46
743.143	15503.73
743.483	15649.72
743.823	15590.73
744.162	15656.95
744.502	15642.03
744.841	15661.47
745.181	15698.75
745.52	15693.56
745.86	15614.01
746.199	15651.3
746.538	15654.24
746.877	15724.06
747.216	15847
747.556	15806.32
747.895	15863.95
748.234	15820.78
748.573	15815.59
748.911	15966.32
749.25	16003.83
749.589	15899.2
749.928	15962.02
750.267	16116.82
750.605	16076.6
750.944	16144.62
751.283	16104.39
751.621	16227.55
751.96	16232.98
752.298	16331.28
752.636	16343.93
752.975	16350.04
753.313	16458.51
753.651	16513.2
753.989	16581.44
754.327	16508
754.666	16547.09
755.004	16759.29
755.342	16729.91
755.679	16897.37
756.017	16795
756.355	16947.31
756.693	17076.34
757.031	17110.69
