Data from hue_70_FLMS001491_75.txt Node
Date: Mon Feb 06 15:21:25 GMT 2017
User: dcchb
Spectrometer: FLMS00149
Trigger mode: 0
Integration Time (sec): 2.000000E-2
Scans to average: 10
Electric dark correction enabled: true
Nonlinearity correction enabled: false
Boxcar width: 0
XAxis mode: Wavelengths
Number of Pixels in Spectrum: 2048
>>>>>Begin Spectral Data<<<<<
341.393	-22.98
341.776	-22.98
342.16	-22.98
342.543	-45.13
342.927	-67.27
343.31	-32.7
343.693	-69.76
344.077	-55.52
344.46	-64.79
344.843	-71.11
345.226	-47.84
345.61	-22.53
345.993	-15.97
346.376	-2.19
346.759	9.56
347.142	23.12
347.525	30.8
347.908	60.18
348.291	85.94
348.674	70.35
349.057	102.44
349.44	125.04
349.823	153.74
350.206	179.95
350.588	189.67
350.971	205.04
351.354	215.88
351.737	241.65
352.119	240.06
352.502	274.19
352.884	278.26
353.267	289.1
353.65	287.29
354.032	300.63
354.414	301.76
354.797	322.55
355.179	347.86
355.562	328.65
355.944	327.97
356.326	326.62
356.709	322.55
357.091	352.6
357.473	349.89
357.855	351.7
358.238	334.07
358.62	339.04
359.002	332.94
359.384	351.25
359.766	349.89
360.148	353.28
360.53	366.16
360.912	348.76
361.294	339.72
361.676	344.92
362.057	332.94
362.439	336.78
362.821	324.36
363.203	339.27
363.584	306.96
363.966	306.5
364.348	320.74
364.729	338.82
365.111	317.35
365.493	321.87
365.874	333.62
366.256	324.58
366.637	313.51
367.019	327.52
367.4	313.28
367.781	294.07
368.163	318.48
368.544	332.94
368.925	305.37
369.306	329.1
369.688	320.29
370.069	323.9
370.45	318.93
370.831	322.77
371.212	336.33
371.593	304.47
371.974	311.7
372.355	326.84
372.736	303.57
373.117	339.04
373.498	308.99
373.879	323.68
374.26	314.64
374.641	314.41
375.021	319.16
375.402	311.02
375.783	317.58
376.163	324.81
376.544	315.77
376.925	311.47
377.305	330.23
377.686	309.67
378.066	337.91
378.447	299.05
378.827	317.8
379.208	313.73
379.588	315.99
379.968	327.97
380.349	316.9
380.729	346.95
381.109	345.6
381.489	354.86
381.87	333.62
382.25	310.12
382.63	355.54
383.01	333.85
383.39	351.47
383.77	359.61
384.15	358.71
384.53	342.21
384.91	345.82
385.29	348.54
385.67	348.76
386.049	341.76
386.429	343.11
386.809	349.67
387.189	353.28
387.568	330.01
387.948	348.54
388.328	342.21
388.707	358.25
389.087	362.55
389.466	371.36
389.846	357.35
390.225	388.31
390.605	380.17
390.984	364.81
391.363	367.52
391.743	348.99
392.122	361.87
392.501	354.64
392.881	368.42
393.26	371.13
393.639	397.35
394.018	363.45
394.397	385.37
394.776	380.85
395.155	376.78
395.534	355.77
395.913	381.76
396.292	378.37
396.671	384.69
397.05	394.64
397.429	359.61
397.808	381.08
398.186	349.67
398.565	358.71
398.944	401.42
399.323	407.29
399.701	387.63
400.08	377.69
400.458	390.12
400.837	373.85
401.215	383.11
401.594	387.86
401.972	383.34
402.351	374.98
402.729	395.54
403.107	399.16
403.486	400.96
403.864	390.57
404.242	374.07
404.62	401.42
404.999	396.22
405.377	412.72
405.755	414.07
406.133	406.16
406.511	399.16
406.889	436.44
407.267	417.91
407.645	403.22
408.023	429.66
408.401	422.66
408.779	438.25
409.156	416.78
409.534	434.18
409.912	435.99
410.29	446.39
410.667	442.32
411.045	428.31
411.422	463.56
411.8	438.93
412.178	436.44
412.555	438.03
412.933	451.81
413.31	448.87
413.687	449.78
414.065	444.58
414.442	476.22
414.819	450.45
415.197	457.46
415.574	472.6
415.951	465.37
416.328	455.43
416.705	475.09
417.082	466.95
417.46	462.43
417.837	478.7
418.214	476.67
418.591	459.27
418.967	485.71
419.344	470.34
419.721	490.23
420.098	479.15
420.475	501.98
420.852	494.07
421.228	519.83
421.605	498.59
421.982	506.05
422.358	530
422.735	487.29
423.111	513.05
423.488	535.65
423.864	532.71
424.241	533.16
424.617	518.48
424.994	536.1
425.37	519.38
425.746	539.72
426.123	526.38
426.499	541.98
426.875	540.4
427.251	568.64
427.627	565.71
428.003	561.86
428.379	564.58
428.756	555.76
429.132	559.15
429.507	583.33
429.883	551.47
430.259	558.25
430.635	588.98
431.011	580.17
431.387	583.11
431.763	610.22
432.138	615.65
432.514	621.07
432.89	591.02
433.265	604.35
433.641	591.24
434.016	636.66
434.392	637.79
434.767	652.93
435.143	639.15
435.518	629.21
435.894	662.2
436.269	665.82
436.644	667.85
437.02	655.19
437.395	661.52
437.77	675.31
438.145	695.19
438.52	684.12
438.895	684.8
439.271	676.66
439.646	687.28
440.021	707.62
440.395	711.92
440.77	694.06
441.145	723.22
441.52	710.33
441.895	722.54
442.27	726.61
442.645	728.87
443.019	750.33
443.394	752.14
443.769	746.04
444.143	729.09
444.518	736.55
444.892	732.71
445.267	735.42
445.641	775.19
446.016	745.36
446.39	775.19
446.764	760.95
447.139	758.24
447.513	802.54
447.887	791.24
448.262	789.2
448.636	798.92
449.01	788.07
449.384	774.74
449.758	796.43
450.132	802.99
450.506	820.39
450.88	822.42
451.254	823.1
451.628	830.78
452.002	852.7
452.376	830.11
452.75	844.79
453.123	864.23
453.497	868.97
453.871	890.44
454.244	868.52
454.618	871.23
454.992	907.17
455.365	889.99
455.739	911.69
456.112	936.77
456.486	932.48
456.859	918.24
457.232	943.1
457.606	962.53
457.979	944.68
458.352	959.37
458.725	965.69
459.099	967.28
459.472	1017.9
459.845	1008.63
460.218	1020.83
460.591	1037.78
460.964	1065.58
461.337	1078.46
461.71	1072.36
462.083	1077.33
462.456	1094.28
462.829	1108.52
463.201	1111.68
463.574	1134.96
463.947	1154.84
464.32	1137.22
464.692	1176.76
465.065	1175.63
465.438	1191.68
465.81	1236.2
466.183	1237.1
466.555	1253.6
466.928	1251.79
467.3	1279.81
467.672	1294.05
468.045	1330.43
468.417	1339.7
468.789	1314.61
469.161	1352.13
469.534	1420.15
469.906	1429.64
470.278	1450.65
470.65	1463.76
471.022	1503.99
471.394	1522.97
471.766	1553.25
472.138	1560.26
472.51	1596.86
472.882	1647.48
473.253	1681.61
473.625	1680.48
473.997	1750.08
474.369	1752.11
474.74	1804.99
475.112	1850.42
475.484	1907.37
475.855	1900.59
476.227	1996.63
476.598	2028.49
476.97	2070.07
477.341	2137.19
477.713	2171.54
478.084	2197.07
478.455	2309.84
478.827	2379.67
479.198	2453.34
479.569	2488.82
479.94	2549.38
480.311	2581.7
480.682	2695.14
481.053	2788.25
481.424	2870.5
481.795	2925.87
482.166	3013.55
482.537	3107.56
482.908	3227.56
483.279	3261.68
483.65	3400.21
484.021	3461.67
484.391	3502.35
484.762	3631.84
485.133	3719.07
485.503	3806.75
485.874	3981.89
486.244	4031.83
486.615	4174.2
486.985	4305.04
487.356	4418.26
487.726	4541.65
488.097	4680.63
488.467	4750.91
488.837	4967.17
489.207	5008.75
489.578	5130.56
489.948	5301.17
490.318	5433.6
490.688	5538
491.058	5679.92
491.428	5801.73
491.798	5918.56
492.168	6115.84
492.538	6190.19
492.908	6387.7
493.278	6488.49
493.648	6558.54
494.017	6716.73
494.387	6907.69
494.757	6989.49
495.126	7138.64
495.496	7294.12
495.866	7434.68
496.235	7519.65
496.605	7687.33
496.974	7838.06
497.344	8030.82
497.713	8169.57
498.082	8287.99
498.452	8430.81
498.821	8563.91
499.19	8648.66
499.559	8808.88
499.928	8951.47
500.298	8999.16
500.667	9137.46
501.036	9256.55
501.405	9441.18
501.774	9492.02
502.143	9678.69
502.512	9713.26
502.88	9960.94
503.249	10071.22
503.618	10110.77
503.987	10282.51
504.356	10298.78
504.724	10433.02
505.093	10521.38
505.462	10711.88
505.83	10815.38
506.199	10981.02
506.567	11107.8
506.936	11093.56
507.304	11323.84
507.672	11423.5
508.041	11543.72
508.409	11543.27
508.777	11715.24
509.145	11889.25
509.514	11921.34
509.882	11989.81
510.25	12122.46
510.618	12207.43
510.986	12284.95
511.354	12430.03
511.722	12602.23
512.09	12684.48
512.458	12705.27
512.826	12812.16
513.193	12959.28
513.561	13044.93
513.929	13119.95
514.297	13209.89
514.664	13357.69
515.032	13396.33
515.4	13548.64
515.767	13680.16
516.135	13667.28
516.502	13650.79
516.869	13903.89
517.237	14027.27
517.604	13895.75
517.972	14141.62
518.339	14253.93
518.706	14365.12
519.073	14343.42
519.44	14465.23
519.808	14652.79
520.175	14575.28
520.542	14822.96
520.909	14897.31
521.276	14851.43
521.643	15063.63
522.009	15078.32
522.376	15279.67
522.743	15320.57
523.11	15447.35
523.477	15596.95
523.843	15627.23
524.21	15894.34
524.577	15851.63
524.943	15929.37
525.31	16029.48
525.676	16183.37
526.043	16312.18
526.409	16380.2
526.776	16442.58
527.142	16528.9
527.508	16503.14
527.874	16694.77
528.241	16733.42
528.607	16752.62
528.973	16956.69
529.339	16857.25
529.705	17095.67
530.071	17214.08
530.437	17117.81
530.803	17202.33
531.169	17337.02
531.535	17328.2
531.901	17346.51
532.267	17419.5
532.632	17521.42
532.998	17528.65
533.364	17653.17
533.73	17733.62
534.095	17755.31
534.461	17791.02
534.826	17782.2
535.192	17888.41
535.557	18025.59
535.923	18035.53
536.288	18097.22
536.653	18065.81
537.019	17991.91
537.384	18098.35
537.749	18143.55
538.114	18090.89
538.479	18113.04
538.845	18162.53
539.21	18119.14
539.575	18291.57
539.94	18222.64
540.305	18429.87
540.67	18259.93
541.034	18424.22
541.399	18430.09
541.764	18322.3
542.129	18445.69
542.494	18426.03
542.858	18446.14
543.223	18495.4
543.587	18605.46
543.952	18501.28
544.316	18597.32
544.681	18513.71
545.045	18546.48
545.41	18673.03
545.774	18708.05
546.138	18688.62
546.503	18758.45
546.867	18680.03
547.231	18842.96
547.595	18787.15
547.959	18783.53
548.324	18803.19
548.688	18828.28
549.052	18861.27
549.416	18861.95
549.779	18883.42
550.143	18873.7
550.507	18966.13
550.871	18959.35
551.235	18952.57
551.599	19011.32
551.962	19020.81
552.326	19115.95
552.689	19183.52
553.053	19022.62
553.417	19140.36
553.78	19334.93
554.143	19243.41
554.507	19293.35
554.87	19337.19
555.234	19432.78
555.597	19279.11
555.96	19343.06
556.323	19459.67
556.686	19450.18
557.05	19495.38
557.413	19552.32
557.776	19642.72
558.139	19581.48
558.502	19675.49
558.865	19637.75
559.228	19849.04
559.59	19787.35
559.953	19820.79
560.316	20005.87
560.679	19913.45
561.041	20070.73
561.404	20121.8
561.767	20084.29
562.129	20150.95
562.492	20277.05
562.854	20308.46
563.217	20260.1
563.579	20220.1
563.941	20455.8
564.304	20492.19
564.666	20558.63
565.028	20608.57
565.39	20682.24
565.753	20713.88
566.115	20857.38
566.477	20800.43
566.839	20814.21
567.201	20999.07
567.563	21006.07
567.925	21189.34
568.287	21219.17
568.648	21137.82
569.01	21277.48
569.372	21328.32
569.734	21249.91
570.095	21454.87
570.457	21475.66
570.819	21433.41
571.18	21424.59
571.542	21652.16
571.903	21551.37
572.265	21649.22
572.626	21778.26
572.987	21734.41
573.349	21846.73
573.71	21960.62
574.071	21972.83
574.432	22012.6
574.794	22138.02
575.155	22037.01
575.516	22073.39
575.877	22077
576.238	22105.48
576.599	22164.91
576.96	22226.6
577.32	22116.55
577.681	22324.23
578.042	22291.46
578.403	22308.41
578.763	22317.45
579.124	22321.97
579.485	22549.99
579.845	22415.07
580.206	22478.8
580.566	22307.05
580.927	22387.96
581.287	22620.27
581.648	22415.3
582.008	22499.37
582.368	22449.42
582.728	22556.77
583.089	22552.92
583.449	22513.38
583.809	22543.43
584.169	22524.22
584.529	22605.13
584.889	22617.56
585.249	22532.81
585.609	22539.14
585.969	22553.6
586.329	22516.54
586.688	22651
587.048	22588.86
587.408	22511.12
587.768	22526.26
588.127	22478.8
588.487	22444.68
588.846	22714.28
589.206	22423.21
589.565	22515.18
589.925	22571.68
590.284	22561.51
590.643	22648.74
591.003	22646.25
591.362	22574.39
591.721	22587.05
592.08	22559.03
592.44	22589.99
592.799	22646.93
593.158	22533.94
593.517	22572.36
593.876	22617.78
594.235	22591.34
594.593	22539.59
594.952	22584.11
595.311	22544.79
595.67	22580.49
596.029	22701.39
596.387	22724.67
596.746	22811
597.104	22597.22
597.463	22609.87
597.822	22699.13
598.18	22631.57
598.538	22579.36
598.897	22720.15
599.255	22493.94
599.613	22914.72
599.972	22732.81
600.33	22780.49
600.688	22603.32
601.046	22784.56
601.404	22780.71
601.762	22840.15
602.12	22920.37
602.478	22908.85
602.836	22921.5
603.194	22700.26
603.552	22760.15
603.91	22712.69
604.268	22875.18
604.625	22875.18
604.983	22943.65
605.341	22709.76
605.698	22948.17
606.056	23061.39
606.413	22941.84
606.771	23041.72
607.128	23119.91
607.485	22914.5
607.843	22980.48
608.2	23148.16
608.557	23083.08
608.914	23126.69
609.272	23194.94
609.629	23321.72
609.986	23320.14
610.343	23293.02
610.7	23419.79
611.057	23403.07
611.414	23359.23
611.771	23405.78
612.127	23456.4
612.484	23457.08
612.841	23589.28
613.198	23464.99
613.554	23505.89
613.911	23576.4
614.267	23571.88
614.624	23567.59
614.98	23700.24
615.337	23708.37
615.693	23608.49
616.05	23738.66
616.406	23878.54
616.762	23724.64
617.118	23748.15
617.475	23868.6
617.831	23857.75
618.187	23890.29
618.543	23935.94
618.899	23980.01
619.255	23951.08
619.611	23970.74
619.967	24035.37
620.323	24046.9
620.678	24010.51
621.034	23942.27
621.39	24105.43
621.746	24022.04
622.101	24179.32
622.457	24037.4
622.812	24148.81
623.168	24289.83
623.523	24090.28
623.879	24201.24
624.234	24225.42
624.589	24192.65
624.945	24221.13
625.3	24231.07
625.655	24197.85
626.01	24132.32
626.365	24260
626.72	24170.73
627.075	24213.22
627.43	24174.12
627.785	24185.65
628.14	24282.14
628.495	24158.76
628.85	24272.2
629.205	24057.74
629.559	24212.32
629.914	24026.56
630.269	24201.47
630.623	24058.65
630.978	24027.46
631.332	24124.86
631.687	24269.04
632.041	24130.06
632.396	24020.68
632.75	24107.69
633.104	24045.99
633.459	23943.4
633.813	23915.83
634.167	23843.74
634.521	23942.27
634.875	23945.43
635.229	23959.44
635.583	23789.5
635.937	23848.03
636.291	23800.35
636.645	23798.77
636.999	23698.43
637.352	23814.13
637.706	23683.06
638.06	23723.06
638.413	23741.14
638.767	23621.37
639.121	23766.23
639.474	23503.18
639.828	23515.61
640.181	23633.35
640.534	23575.72
640.888	23559
641.241	23517.87
641.594	23576.85
641.947	23480.58
642.301	23454.82
642.654	23520.36
643.007	23506.12
643.36	23529.17
643.713	23337.31
644.066	23562.16
644.419	23397.42
644.771	23229.06
645.124	23020.93
645.477	22992.23
645.83	22908.85
646.182	22803.09
646.535	22794.5
646.888	22826.59
647.24	22678.8
647.593	22800.15
647.945	22750.88
648.298	22618.68
648.65	22612.58
649.002	22623.66
649.355	22556.77
649.707	22594.73
650.059	22598.35
650.411	22974.16
650.763	22977.55
651.115	23169.63
651.467	23133.25
651.819	23190.65
652.171	23128.05
652.523	23015.96
652.875	23064.32
653.227	22970.77
653.578	23146.58
653.93	23107.49
654.282	23016.41
654.633	22892.8
654.985	23006.25
655.337	23055.28
655.688	23039.92
656.039	23114.27
656.391	23045.57
656.742	23006.47
657.094	22988.62
657.445	23130.31
657.796	23093.93
658.147	23010.54
658.498	22886.93
658.849	22978.68
659.2	22959.24
659.551	22942.74
659.902	22979.13
660.253	22992.91
660.604	22981.16
660.955	22802.41
661.306	22987.26
661.656	23062.52
662.007	22970.09
662.358	23034.95
662.708	22915.4
663.059	22893.25
663.409	22888.96
663.76	23035.62
664.11	23035.4
664.461	23008.05
664.811	22944.78
665.161	22907.94
665.511	22904.33
665.862	22949.07
666.212	22996.98
666.562	22999.47
666.912	23082.4
667.262	22983.42
667.612	22967.38
667.962	22974.83
668.312	22960.14
668.662	23018.45
669.011	23081.5
669.361	22958.34
669.711	23006.25
670.06	22844.22
670.41	22864.55
670.76	22674.5
671.109	22967.83
671.459	22796.99
671.808	22853.71
672.157	22848.28
672.507	22771.68
672.856	22710.21
673.205	22726.7
673.554	22829.3
673.904	22753.6
674.253	22904.33
674.602	22791.56
674.951	22560.16
675.3	22392.93
675.649	22680.38
675.998	22744.33
676.346	22613.49
676.695	22821.39
677.044	22651
677.393	22724.67
677.741	22769.87
678.09	22616.88
678.438	22473.38
678.787	22565.35
679.135	22668.4
679.484	22431.12
679.832	22436.09
680.181	22506.37
680.529	22472.7
680.877	22375.75
681.225	22295.08
681.573	22529.42
681.922	22266.83
682.27	22263.89
682.618	22257.34
682.966	22133.27
683.314	22141.64
683.661	22057.34
684.009	22080.62
684.357	21940.96
684.705	21947.97
685.053	22002.43
685.4	21923.34
685.748	21885.14
686.095	21733.51
686.443	21669.56
686.79	21671.59
687.138	21714.3
687.485	21668.88
687.832	21549.33
688.18	21592.05
688.527	21442.67
688.874	21454.87
689.221	21422.33
689.568	21377.36
689.915	21300.98
690.262	21281.54
690.609	21200.87
690.956	21185.5
691.303	21205.84
691.65	20982.12
691.997	21074.54
692.344	20896.47
692.69	20947.54
693.037	20884.27
693.383	20709.81
693.73	20737.83
694.077	20598.85
694.423	20584.39
694.769	20443.83
695.116	20434.79
695.462	20552.75
695.808	20399.99
696.155	20430.72
696.501	20231.63
696.847	20266.66
697.193	20076.83
697.539	20130.16
697.885	20055.14
698.231	19825.09
698.577	19950.73
698.923	19898.76
699.269	19838.42
699.614	19680.46
699.96	19586
700.306	19598.65
700.651	19474.13
700.997	19474.13
701.342	19470.52
701.688	19404.76
702.033	19275.95
702.379	19187.81
702.724	19167.7
703.069	19156.86
703.415	18976.07
703.76	19028.5
704.105	19016.52
704.45	18899.69
704.795	18920.03
705.14	18789.63
705.485	18773.59
705.83	18607.72
706.175	18680.48
706.52	18547.15
706.865	18521.62
707.209	18421.51
707.554	18492.92
707.899	18493.6
708.243	18373.37
708.588	18276.65
708.932	18153.72
709.277	18199.37
709.621	18085.47
709.966	18040.27
710.31	18115.75
710.654	17920.05
710.998	17964.34
711.342	17989.88
711.687	17932.25
712.031	17844.8
712.375	17790.11
712.719	17877.34
713.063	17720.06
713.407	17839.38
713.75	17670.57
714.094	17781.52
714.438	17563
714.782	17614.3
715.125	17491.36
715.469	17541.08
715.812	17458.14
716.156	17370.91
716.499	17333.17
716.843	17391.03
717.186	17333.17
717.53	17357.13
717.873	17216.57
718.216	17235.55
718.559	17270.8
718.902	17165.27
719.246	17168.21
719.589	17094.76
719.932	17020.41
720.275	17012.96
720.617	17050.24
720.96	16960.75
721.303	17031.04
721.646	16962.56
721.989	16937.03
722.331	16937.93
722.674	16999.62
723.016	16952.39
723.359	16872.4
723.701	16919.4
724.044	16712.17
724.386	16609.8
724.729	16714.66
725.071	16691.84
725.413	16787.2
725.755	16739.29
726.097	16618.16
726.439	16598.96
726.782	16537.71
727.124	16667.65
727.465	16582.69
727.807	16536.58
728.149	16480.54
728.491	16567.09
728.833	16552.63
729.175	16488.45
729.516	16370.26
729.858	16383.59
730.199	16475.8
730.541	16375.91
730.882	16417.94
731.224	16444.38
731.565	16304.27
731.906	16314.44
732.248	16405.29
732.589	16252.98
732.93	16283.94
733.271	16302.92
733.612	16391.28
733.953	16331.39
734.294	16217.27
734.635	16261.79
734.976	16302.69
735.317	16243.26
735.658	16220.89
735.999	16171.4
736.339	16121.23
736.68	16297.04
737.021	16291.17
737.361	16209.14
737.702	16177.5
738.042	16165.07
738.383	16127.33
738.723	16153.32
739.063	16032.19
739.404	16206.88
739.744	16178.63
740.084	16137.95
740.424	16173.66
740.764	16121.68
741.104	16174.79
741.444	16055.02
741.784	16015.92
742.124	16129.82
742.464	16123.04
742.804	16123.49
743.143	16143.37
743.483	16184.96
743.823	16128.69
744.162	16099.08
744.502	16171.62
744.841	16168.69
745.181	16299.3
745.52	16243.03
745.86	16235.8
746.199	16279.87
746.538	16245.75
746.877	16335.23
747.216	16330.71
747.556	16332.97
747.895	16451.16
748.234	16434.67
748.573	16461.11
748.911	16382.92
749.25	16430.15
749.589	16434.89
749.928	16607.54
750.267	16583.36
750.605	16619.97
750.944	16591.95
751.283	16727.77
751.621	16753.75
751.96	16733.64
752.298	16820.42
752.636	16871.72
752.975	16894.77
753.313	16932.05
753.651	17083.69
753.989	17038.04
754.327	17149.68
754.666	17111.94
755.004	17302.44
755.342	17313.06
755.679	17357.13
756.017	17440.06
756.355	17433.96
756.693	17594.86
