Data from hue_34_FLMS001491_00050.txt Node
Date: Tue Feb 07 17:25:41 GMT 2017
User: dcchb
Spectrometer: FLMS00149
Trigger mode: 0
Integration Time (sec): 2.000000E-2
Scans to average: 10
Electric dark correction enabled: true
Nonlinearity correction enabled: false
Boxcar width: 0
XAxis mode: Wavelengths
Number of Pixels in Spectrum: 2048
>>>>>Begin Spectral Data<<<<<
341.393	-5.64
341.776	-5.64
342.16	-5.64
342.543	-63.49
342.927	-69.81
343.31	-73.66
343.693	-78.85
344.077	-60.78
344.46	-60.1
344.843	-53.54
345.226	-61.68
345.61	-38.85
345.993	6.34
346.376	-6.99
346.759	27.81
347.142	38.21
347.525	41.59
347.908	50.18
348.291	82.05
348.674	84.08
349.057	104.19
349.44	136.51
349.823	148.03
350.206	151.65
350.588	197.3
350.971	214.02
351.354	231.65
351.737	255.15
352.119	263.28
352.502	266
352.884	262.38
353.267	285.43
353.65	290.4
354.032	322.04
354.414	304.64
354.797	305.32
355.179	313.23
355.562	320.91
355.944	321.36
356.326	322.72
356.709	339.67
357.091	324.3
357.473	351.19
357.855	356.16
358.238	342.6
358.62	355.03
359.002	353.9
359.384	336.95
359.766	321.14
360.148	359.55
360.53	318.42
360.912	331.98
361.294	343.73
361.676	325.2
362.057	342.83
362.439	330.63
362.821	337.63
363.203	328.82
363.584	334.02
363.966	317.07
364.348	346.67
364.729	342.83
365.111	329.95
365.493	333.11
365.874	306.67
366.256	326.79
366.637	320.46
367.019	307.35
367.4	320.23
367.781	338.08
368.163	328.37
368.544	317.75
368.925	298.99
369.306	339.21
369.688	305.77
370.069	320.23
370.45	328.37
370.831	318.88
371.212	305.09
371.593	324.75
371.974	325.43
372.355	305.54
372.736	320.01
373.117	318.2
373.498	294.7
373.879	309.38
374.26	337.41
374.641	337.41
375.021	338.76
375.402	342.6
375.783	331.3
376.163	347.35
376.544	345.32
376.925	315.03
377.305	324.53
377.686	318.88
378.066	338.08
378.447	346.45
378.827	323.85
379.208	323.85
379.588	345.77
379.968	310.74
380.349	329.5
380.729	342.38
381.109	334.02
381.489	374.02
381.87	341.02
382.25	335.37
382.63	345.32
383.01	338.08
383.39	353.23
383.77	353.9
384.15	333.11
384.53	374.47
384.91	344.19
385.29	341.93
385.67	353
386.049	361.13
386.429	368.59
386.809	365.2
387.189	347.35
387.568	334.47
387.948	362.49
388.328	372.66
388.707	383.73
389.087	357.52
389.466	356.61
389.846	354.81
390.225	383.96
390.605	385.31
390.984	353.9
391.363	375.6
391.743	402.72
392.122	372.66
392.501	368.59
392.881	400.68
393.26	380.57
393.639	380.12
394.018	409.95
394.397	390.96
394.776	383.96
395.155	391.19
395.534	378.31
395.913	382.83
396.292	388.93
396.671	402.49
397.05	387.57
397.429	404.3
397.808	389.16
398.186	393.9
398.565	396.39
398.944	409.95
399.323	407.91
399.701	405.88
400.08	409.95
400.458	408.14
400.837	417.18
401.215	415.82
401.594	408.59
401.972	407.24
402.351	433.45
402.729	422.83
403.107	433.45
403.486	424.41
403.864	425.09
404.242	418.99
404.62	442.71
404.999	418.99
405.377	432.55
405.755	415.14
406.133	423.51
406.511	437.29
406.889	428.03
407.267	442.71
407.645	449.95
408.023	449.95
408.401	448.14
408.779	442.49
409.156	441.36
409.534	461.7
409.912	481.58
410.29	464.86
410.667	465.76
411.045	480.45
411.422	481.58
411.8	487.91
412.178	477.97
412.555	483.84
412.933	498.53
413.31	479.1
413.687	489.72
414.065	503.28
414.442	501.47
414.819	497.18
415.197	489.04
415.574	495.82
415.951	505.09
416.328	513.45
416.705	516.38
417.082	508.02
417.46	508.7
417.837	512.77
418.214	529.27
418.591	523.62
418.967	553.9
419.344	528.36
419.721	552.99
420.098	542.6
420.475	522.49
420.852	531.75
421.228	564.52
421.605	533.33
421.982	564.75
422.358	560.45
422.735	569.94
423.111	560.45
423.488	564.07
423.864	582.15
424.241	587.12
424.617	557.97
424.994	589.83
425.37	574.91
425.746	571.75
426.123	612.2
426.499	595.03
426.875	604.52
427.251	589.15
427.627	606.33
428.003	611.75
428.379	632.54
428.756	640.68
429.132	623.95
429.507	643.61
429.883	634.35
430.259	670.05
430.635	665.99
431.011	643.84
431.387	678.87
431.763	662.82
432.138	660.56
432.514	682.26
432.89	684.74
433.265	678.19
433.641	702.14
434.016	688.36
434.392	706.44
434.767	727.23
435.143	702.82
435.518	710.73
435.894	723.38
436.269	747.34
436.644	729.26
437.02	726.55
437.395	718.41
437.77	736.27
438.145	782.14
438.52	758.19
438.895	758.86
439.271	795.25
439.646	752.54
440.021	799.77
440.395	786.66
440.77	783.27
441.145	808.13
441.52	816.94
441.895	802.48
442.27	802.93
442.645	809.03
443.019	843.83
443.394	822.82
443.769	828.47
444.143	826.66
444.518	816.72
444.892	832.76
445.267	849.94
445.641	842.7
446.016	850.16
446.39	844.06
446.764	860.33
447.139	859.43
447.513	862.59
447.887	892.19
448.262	894.91
448.636	891.52
449.01	905.53
449.384	909.37
449.758	896.94
450.132	905.3
450.506	930.16
450.88	905.3
451.254	917.96
451.628	931.29
452.002	943.04
452.376	963.38
452.75	936.03
453.123	958.18
453.497	997.95
453.871	967.67
454.244	1005.19
454.618	977.39
454.992	993.21
455.365	1025.07
455.739	1025.3
456.112	1021.91
456.486	1037.27
456.859	1065.07
457.232	1076.14
457.606	1085.86
457.979	1073.21
458.352	1110.95
458.725	1119.76
459.099	1113.66
459.472	1155.92
459.845	1162.47
460.218	1161.11
460.591	1148.01
460.964	1170.15
461.337	1199.98
461.71	1199.98
462.083	1216.03
462.456	1231.39
462.829	1245.18
463.201	1232.07
463.574	1252.64
463.947	1260.77
464.32	1286.31
464.692	1302.8
465.065	1343.03
465.438	1357.49
465.81	1367.21
466.183	1361.56
466.555	1380.09
466.928	1402.24
467.3	1403.82
467.672	1436.36
468.045	1474.33
468.417	1491.73
468.789	1497.38
469.161	1520.65
469.534	1538.73
469.906	1596.13
470.278	1575.57
470.65	1603.14
471.022	1632.29
471.394	1665.96
471.766	1678.84
472.138	1703.47
472.51	1731.27
472.882	1766.97
473.253	1776.01
473.625	1866.63
473.997	1876.12
474.369	1901.66
474.74	1946.86
475.112	1976.01
475.484	1991.83
475.855	2065.5
476.227	2098.94
476.598	2160.41
476.97	2159.73
477.341	2211.48
477.713	2278.6
478.084	2298.26
478.455	2348.88
478.827	2408.54
479.198	2492.38
479.569	2494.64
479.94	2622.32
480.311	2617.35
480.682	2686.95
481.053	2747.29
481.424	2854.18
481.795	2897.57
482.166	2987.51
482.537	3040.61
482.908	3118.58
483.279	3138.69
483.65	3230.66
484.021	3335.07
484.391	3413.48
484.762	3445.57
485.133	3498.23
485.503	3612.8
485.874	3681.73
486.244	3787.49
486.615	3848.73
486.985	3928.95
487.356	4077.2
487.726	4123.3
488.097	4231.99
488.467	4267.47
488.837	4345.21
489.207	4457.3
489.578	4536.62
489.948	4618.42
490.318	4772.77
490.688	4794.46
491.058	4878.76
491.428	4986.1
491.798	5098.19
492.168	5222.25
492.538	5274.23
492.908	5376.6
493.278	5427.44
493.648	5469.02
494.017	5632.86
494.387	5671.5
494.757	5829.24
495.126	5859.52
495.496	5953.53
495.866	6076.24
496.235	6063.58
496.605	6161.89
496.974	6263.13
497.344	6313.52
497.713	6397.13
498.082	6501.09
498.452	6577.24
498.821	6634.42
499.19	6658.14
499.559	6796.9
499.928	6879.61
500.298	6921.19
500.667	6979.27
501.036	7055.87
501.405	7146.27
501.774	7200.05
502.143	7255.64
502.512	7292.7
502.88	7438.69
503.249	7447.95
503.618	7452.25
503.987	7560.95
504.356	7560.95
504.724	7726.59
505.093	7775.63
505.462	7815.18
505.83	7869.64
506.199	7983.98
506.567	8025.11
506.936	8023.98
507.304	8158.9
507.672	8126.13
508.041	8250.19
508.409	8324.54
508.777	8412.45
509.145	8466.46
509.514	8554.14
509.882	8584.65
510.25	8636.4
510.618	8682.5
510.986	8713.23
511.354	8740.58
511.722	8885.43
512.09	8919.1
512.458	9026.44
512.826	9002.04
513.193	9089.72
513.561	9129.72
513.929	9177.63
514.297	9253.33
514.664	9304.63
515.032	9320.9
515.4	9428.69
515.767	9474.57
516.135	9549.14
516.502	9487.22
516.869	9626.43
517.237	9657.16
517.604	9646.09
517.972	9738.74
518.339	9849.02
518.706	9780.32
519.073	9813.99
519.44	9916.59
519.808	10041.11
520.175	10022.35
520.542	10159.3
520.909	10236.36
521.276	10179.63
521.643	10284.49
522.009	10397.48
522.376	10316.35
522.743	10481.32
523.11	10646.29
523.477	10705.5
523.843	10776.91
524.21	10799.05
524.577	10900.97
524.943	10927.86
525.31	11010.12
525.676	11093.06
526.043	11079.04
526.409	11148.2
526.776	11258.7
527.142	11338.47
527.508	11390.45
527.874	11406.04
528.241	11470.22
528.607	11542.08
528.973	11668.63
529.339	11688.97
529.705	11782.53
530.071	11857.78
530.437	11919.25
530.803	11947.72
531.169	11992.02
531.535	11958.34
531.901	12045.57
532.267	12153.59
532.632	12165.12
532.998	12270.2
533.364	12319.01
533.73	12356.53
534.095	12480.14
534.461	12553.36
534.826	12671.32
535.192	12566.69
535.557	12716.29
535.923	12706.8
536.288	12786.57
536.653	12860.69
537.019	12823.86
537.384	12920.58
537.749	12995.15
538.114	12956.96
538.479	12993.57
538.845	13139.1
539.21	13148.82
539.575	13163.06
539.94	13207.8
540.305	13253
540.67	13252.55
541.034	13365.76
541.399	13379.32
541.764	13467.68
542.129	13524.63
542.494	13624.06
542.858	13576.61
543.223	13671.97
543.587	13800.78
543.952	13772.76
544.316	13842.81
544.681	13823.83
545.045	13954.68
545.41	14002.36
545.774	14010.95
546.138	14066.08
546.503	14132.98
546.867	14168.23
547.231	14257.72
547.595	14237.15
547.959	14394.44
548.324	14385.17
548.688	14348.34
549.052	14481.89
549.416	14581.33
549.779	14590.59
550.143	14527.09
550.507	14628.33
550.871	14731.15
551.235	14763.24
551.599	14818.83
551.962	14831.04
552.326	14998.72
552.689	15019.51
553.053	14935.67
553.417	14995.1
553.78	15183.57
554.143	15119.62
554.507	15214.3
554.87	15301.08
555.234	15372.94
555.597	15268.31
555.96	15390.34
556.323	15437.57
556.686	15483.22
557.05	15639.83
557.413	15631.47
557.776	15667.17
558.139	15786.94
558.502	15866.04
558.865	15813.16
559.228	15906.49
559.59	15946.71
559.953	16010.67
560.316	16153.94
560.679	16166.59
561.041	16322.3
561.404	16234.84
561.767	16381.73
562.129	16371.79
562.492	16596.41
562.854	16591.89
563.217	16471.9
563.579	16556.41
563.941	16701.04
564.304	16724.32
564.666	16891.32
565.028	16860.36
565.39	16917.76
565.753	16966.57
566.115	16998.89
566.477	17086.34
566.839	17148.72
567.201	17338.32
567.563	17295.38
567.925	17382.83
568.287	17494.24
568.648	17419.67
569.01	17473.9
569.372	17567.24
569.734	17637.74
570.095	17723.84
570.457	17889.94
570.819	17873.67
571.18	17850.84
571.542	18022.14
571.903	18117.05
572.265	18176.71
572.626	18277.27
572.987	18376.48
573.349	18424.61
573.71	18514.33
574.071	18569.47
574.432	18672.29
574.794	18794.32
575.155	18852.17
575.516	18880.42
575.877	19011.72
576.238	19051.04
576.599	19198.38
576.96	19256.91
577.32	19442.67
577.681	19533.06
578.042	19628.2
578.403	19733.96
578.763	19958.59
579.124	19998.36
579.485	20197
579.845	20399.93
580.206	20506.37
580.566	20599.25
580.927	20725.12
581.287	20948.16
581.648	21007.37
582.008	21331.66
582.368	21447.36
582.728	21682.16
583.089	21750.4
583.449	21885.54
583.809	22088.25
584.169	22276.26
584.529	22432.87
584.889	22715.8
585.249	22790.83
585.609	23005.06
585.969	23371.6
586.329	23471.94
586.688	23767.98
587.048	23939.5
587.408	24098.36
587.768	24280.96
588.127	24565.47
588.487	24774.73
588.846	25166.81
589.206	25267.6
589.565	25490.64
589.925	25805.66
590.284	25915.26
590.643	26239.55
591.003	26453.56
591.362	26831.85
591.721	26883.38
592.08	27230.48
592.44	27473.42
592.799	27705.5
593.158	27832.95
593.517	28171.25
593.876	28466.38
594.235	28528.76
594.593	28940.5
594.952	29327.6
595.311	29301.62
595.67	29632
596.029	30033.35
596.387	30362.15
596.746	30468.59
597.104	30551.53
597.463	30908.35
597.822	31107.44
598.18	31200.78
598.538	31496.36
598.897	31934.09
599.255	31866.97
599.613	32524.81
599.972	32545.37
600.33	32789.66
600.688	32894.74
601.046	33151.91
601.404	33451.11
601.762	33608.62
602.12	33959.8
602.478	34184.2
602.836	34441.59
603.194	34436.85
603.552	34562.04
603.91	34638.2
604.268	35115.02
604.625	35135.14
604.983	35409.7
605.341	35445.86
605.698	35739.19
606.056	36123.81
606.413	36115.9
606.771	36307.08
607.128	36498.26
607.485	36542.33
607.843	36737.13
608.2	37038.14
608.557	37225.7
608.914	37254.85
609.272	37566.94
609.629	37767.61
609.986	37947.49
610.343	37883.54
610.7	38354.94
611.057	38295.5
611.414	38445.78
611.771	38679
612.127	38865.43
612.484	38970.97
612.841	39208.25
613.198	39099.33
613.554	39351.75
613.911	39639.88
614.267	39703.38
614.624	39710.61
614.98	39867.44
615.337	40092.97
615.693	40054.1
616.05	40264.27
616.406	40525.73
616.762	40462.23
617.118	40647.76
617.475	40673.52
617.831	40828.32
618.187	41019.05
618.543	41058.37
618.899	41467.62
619.255	41337.91
619.611	41305.82
619.967	41596.89
620.323	41762.31
620.678	41581.97
621.034	41595.3
621.39	41771.57
621.746	41647.96
622.101	42186.93
622.457	41844.56
622.812	42056.76
623.168	42206.59
623.523	42185.35
623.879	42457.88
624.234	42193.25
624.589	42364.32
624.945	42370.43
625.3	42583.53
625.655	42448.39
626.01	42527.26
626.365	42635.73
626.72	42626.24
627.075	42689.51
627.43	42779.91
627.785	42607.03
628.14	42762.51
628.495	42819.45
628.85	42833.69
629.205	42743.3
629.559	42972.22
629.914	42834.82
630.269	42805.67
630.623	42722.05
630.978	42734.71
631.332	42855.61
631.687	43072.78
632.041	42916.85
632.396	43052.67
632.75	42926.34
633.104	42868.94
633.459	42835.27
633.813	42920.24
634.167	42935.83
634.521	42880.24
634.875	43054.02
635.229	42882.28
635.583	42708.5
635.937	42833.24
636.291	42828.72
636.645	42915.04
636.999	42786.23
637.352	42981.71
637.706	42696.74
638.06	42904.87
638.413	42767.25
638.767	42749.62
639.121	42788.95
639.474	42636.86
639.828	42667.14
640.181	42614.71
640.534	42675.28
640.888	42677.54
641.241	42460.59
641.594	42539.01
641.947	42600.25
642.301	42435.51
642.654	42579.01
643.007	42510.08
643.36	42422.18
643.713	42445
644.066	42655.62
644.419	42313.7
644.771	42122.52
645.124	41677.56
645.477	41749.2
645.83	41410.45
646.182	41382.88
646.535	41205.48
646.888	41416.78
647.24	41096.33
647.593	41472.82
647.945	41188.99
648.298	41224.47
648.65	41109.67
649.002	40934.76
649.355	41096.79
649.707	41100.63
650.059	41320.51
650.411	41813.6
650.763	41861.96
651.115	42181.05
651.467	41985.8
651.819	41960.27
652.171	41986.03
652.523	41865.58
652.875	41816.54
653.227	41789.42
653.578	42012.02
653.93	41870.78
654.282	41787.62
654.633	41648.86
654.985	41770.89
655.337	41771.12
655.688	41757.33
656.039	41975.41
656.391	41431.24
656.742	41649.09
657.094	41528.41
657.445	41849.99
657.796	41723.66
658.147	41573.84
658.498	41556.44
658.849	41682.31
659.2	41569.32
659.551	41386.04
659.902	41569.99
660.253	41534.52
660.604	41654.29
660.955	41347.4
661.306	41619.48
661.656	41488.41
662.007	41505.14
662.358	41505.82
662.708	41451.35
663.059	41522.99
663.409	41214.98
663.76	41476.89
664.11	41375.42
664.461	41413.61
664.811	41426.95
665.161	41555.53
665.511	41275.54
665.862	41391.92
666.212	41463.78
666.562	41503.56
666.912	41315.76
667.262	41323.9
667.612	41324.58
667.962	41393.05
668.312	41272.15
668.662	41447.96
669.011	41346.5
669.361	41234.86
669.711	41157.12
670.06	41078.71
670.41	41189.67
670.76	41097.69
671.109	41380.62
671.459	41172.26
671.808	41094.07
672.157	41099.95
672.507	41027.18
672.856	41144.24
673.205	41090.91
673.554	41335.42
673.904	41106.96
674.253	41203.45
674.602	41089.1
674.951	40554.43
675.3	40337.26
675.649	40956
675.998	40978.82
676.346	41046.39
676.695	41200.96
677.044	40906.06
677.393	40856.79
677.741	40901.99
678.09	40742.67
678.438	40666.97
678.787	40720.07
679.135	40863.12
679.484	40600.3
679.832	40673.97
680.181	40452.51
680.529	40615.22
680.877	40549.68
681.225	40313.3
681.573	40662.45
681.922	40267.66
682.27	40169.13
682.618	40204.15
682.966	40079.86
683.314	40202.8
683.661	40099.07
684.009	40005.06
684.357	39869.47
684.705	39853.66
685.053	39881.45
685.4	39725.07
685.748	39643.27
686.095	39705.41
686.443	39535.7
686.79	39487.34
687.138	39435.81
687.485	39542.25
687.832	39374.8
688.18	39318.53
688.527	39099.78
688.874	39224.07
689.221	39021.36
689.568	39095.26
689.915	38951.98
690.262	38967.35
690.609	38861.82
690.956	38750.63
691.303	38665.21
691.65	38542.28
691.997	38422.51
692.344	38236.97
692.69	38382.28
693.037	38257.54
693.383	38002.18
693.73	38174.38
694.077	37859.13
694.423	37930.09
694.769	37849.87
695.116	37703.88
695.462	37739.81
695.808	37653.26
696.155	37517.9
696.501	37422.76
696.847	37245.14
697.193	36942.55
697.539	37119.72
697.885	37011.47
698.231	36863.68
698.577	36987.52
698.923	36783.68
699.269	36665.94
699.614	36473.41
699.96	36414.88
700.306	36371.26
700.651	36220.3
700.997	36033.42
701.342	36172.4
701.688	35980.99
702.033	36073.19
702.379	35867.77
702.724	35747.32
703.069	35837.94
703.415	35442.92
703.76	35467.1
704.105	35417.84
704.45	35358.41
704.795	35198.86
705.14	35068.02
705.485	35066.89
705.83	34905.31
706.175	35051.75
706.52	34965.65
706.865	34774.24
707.209	34721.36
707.554	34579.67
707.899	34637.52
708.243	34284.54
708.588	34367.25
708.932	34116.86
709.277	34179.45
709.621	34289.51
709.966	33968.16
710.31	33942.4
710.654	33774.04
710.998	33822.63
711.342	33741.27
711.687	33737.43
712.031	33524.78
712.375	33458.57
712.719	33567.72
713.063	33465.57
713.407	33470.32
713.75	33274.85
714.094	33395.97
714.438	33193.94
714.782	33223.77
715.125	33079.14
715.469	33184.23
715.812	32945.14
716.156	32816.55
716.499	32808.87
716.843	32786.5
717.186	32703.56
717.53	32757.34
717.873	32758.93
718.216	32644.58
718.559	32439.16
718.902	32351.93
719.246	32332.95
719.589	32244.36
719.932	32085.95
720.275	32215.66
720.617	32162.11
720.96	31980.42
721.303	31985.39
721.646	32089.79
721.989	31924.15
722.331	31981.77
722.674	31848.44
723.016	31758.73
723.359	31676.47
723.701	31901.77
724.044	31527.32
724.386	31410.04
724.729	31725.96
725.071	31437.61
725.413	31435.35
725.755	31404.39
726.097	31255.46
726.439	31256.14
726.782	31362.35
727.124	31273.54
727.465	31006.66
727.807	31043.72
728.149	30900.67
728.491	31021.12
728.833	30994
729.175	30838.3
729.516	30881.01
729.858	30790.39
730.199	30804.4
730.541	30671.07
730.882	30611.19
731.224	30789.49
731.565	30422.94
731.906	30486.9
732.248	30474.47
732.589	30439.44
732.93	30326.22
733.271	30327.35
733.612	30388.14
733.953	30419.55
734.294	30193.34
734.635	30277.86
734.976	30237.64
735.317	30127.81
735.658	30016.63
735.999	29992.67
736.339	29860.7
736.68	30054.14
737.021	29889.62
737.361	29822.96
737.702	29921.71
738.042	29829.74
738.383	29694.15
738.723	29839
739.063	29741.38
739.404	29752.23
739.744	29651.89
740.084	29563.53
740.424	29589.74
740.764	29455.06
741.104	29611.44
741.444	29418.45
741.784	29396.3
742.124	29333.71
742.464	29359.24
742.804	29250.54
743.143	29125.35
743.483	29209.87
743.823	29105.92
744.162	29119.93
744.502	29083.32
744.841	28872.93
745.181	29064.79
745.52	28977.33
745.86	28897.11
746.199	28842.42
746.538	28785.25
746.877	28848.97
747.216	28755.64
747.556	28698.02
747.895	28723.33
748.234	28605.36
748.573	28511.13
748.911	28476.33
749.25	28572.14
749.589	28276.33
749.928	28374.64
750.267	28385.26
750.605	28314.98
750.944	28183.68
751.283	27999.05
751.621	28260.29
751.96	28030.24
752.298	28091.93
752.636	28029.33
752.975	27898.04
753.313	27752.5
753.651	27980.52
753.989	27746.4
754.327	27780.53
754.666	27626.63
755.004	27708.44
755.342	27653.3
755.679	27562.23
756.017	27372.85
756.355	27611.49
756.693	27363.36
757.031	27480.87
757.368	27257.83
