Data from hue_300_FLMS001491_00023.txt Node
Date: Tue Feb 07 15:50:30 GMT 2017
User: dcchb
Spectrometer: FLMS00149
Trigger mode: 0
Integration Time (sec): 2.000000E-2
Scans to average: 10
Electric dark correction enabled: true
Nonlinearity correction enabled: false
Boxcar width: 0
XAxis mode: Wavelengths
Number of Pixels in Spectrum: 2048
>>>>>Begin Spectral Data<<<<<
341.393	-10.97
341.776	-10.97
342.16	-10.97
342.543	-53.69
342.927	-66.79
343.31	-68.37
343.693	-65.66
344.077	-66.79
344.46	-51.88
344.843	-46.45
345.226	-44.19
345.61	-18.43
345.993	-25.21
346.376	-19.11
346.759	14.11
347.142	12.98
347.525	37.16
347.908	49.59
348.291	68.35
348.674	108.57
349.057	115.35
349.44	125.07
349.823	143.15
350.206	164.84
350.588	206.42
350.971	194.9
351.354	231.05
351.737	238.06
352.119	257.27
352.502	266.53
352.884	266.76
353.267	292.52
353.65	296.81
354.032	295.46
354.414	290.49
354.797	292.97
355.179	314.44
355.562	325.06
355.944	331.84
356.326	339.52
356.709	335.91
357.091	308.57
357.473	348.11
357.855	332.75
358.238	326.87
358.62	328.23
359.002	340.2
359.384	326.87
359.766	320.54
360.148	342.91
360.53	346.98
360.912	322.35
361.294	310.15
361.676	335.23
362.057	321.22
362.439	347.21
362.821	319.19
363.203	313.76
363.584	331.62
363.966	306.53
364.348	306.76
364.729	313.76
365.111	324.38
365.493	304.72
365.874	309.02
366.256	320.77
366.637	310.15
367.019	318.96
367.4	305.18
367.781	301.33
368.163	308.11
368.544	313.54
368.925	295.23
369.306	317.6
369.688	325.51
370.069	303.14
370.45	323.71
370.831	293.2
371.212	310.15
371.593	313.31
371.974	318.28
372.355	308.11
372.736	308.34
373.117	305.63
373.498	329.13
373.879	310.6
374.26	304.27
374.641	305.85
375.021	324.38
375.402	297.27
375.783	328.23
376.163	316.93
376.544	337.94
376.925	331.84
377.305	320.54
377.686	313.08
378.066	310.15
378.447	341.78
378.827	300.2
379.208	332.75
379.588	346.3
379.968	351.05
380.349	321.45
380.729	331.39
381.109	338.85
381.489	337.94
381.87	328.23
382.25	343.82
382.63	350.15
383.01	339.07
383.39	339.98
383.77	358.06
384.15	316.47
384.53	346.76
384.91	350.15
385.29	346.08
385.67	332.07
386.049	341.56
386.429	352.86
386.809	334.33
387.189	343.14
387.568	339.3
387.948	366.87
388.328	367.55
388.707	357.83
389.087	353.31
389.466	368.22
389.846	354.44
390.225	375
390.605	365.51
390.984	352.41
391.363	378.17
391.743	385.17
392.122	361.67
392.501	378.17
392.881	366.87
393.26	394.66
393.639	387.89
394.018	365.74
394.397	382.69
394.776	375
395.155	399.86
395.534	359.41
395.913	388.11
396.292	386.3
396.671	388.56
397.05	385.85
397.429	402.12
397.808	394.21
398.186	390.15
398.565	417.04
398.944	394.44
399.323	415.46
399.701	401.22
400.08	417.26
400.458	395.57
400.837	398.96
401.215	393.76
401.594	413.42
401.972	405.96
402.351	444.38
402.729	422.69
403.107	430.82
403.486	424.49
403.864	437.15
404.242	416.59
404.62	432.86
404.999	416.36
405.377	452.29
405.755	466.75
406.133	438.96
406.511	464.72
406.889	464.04
407.267	462.46
407.645	484.83
408.023	482.12
408.401	500.42
408.779	495.23
409.156	478.5
409.534	515.57
409.912	497.71
410.29	515.34
410.667	506.07
411.045	516.24
411.422	519.18
411.8	540.88
412.178	530.03
412.555	542.46
412.933	571.84
413.31	565.28
413.687	592.4
414.065	600.08
414.442	577.48
414.819	611.61
415.197	603.25
415.574	599.18
415.951	618.39
416.328	639.4
416.705	638.5
417.082	643.02
417.46	663.36
417.837	666.75
418.214	669.46
418.591	683.47
418.967	704.49
419.344	704.94
419.721	694.32
420.098	706.75
420.475	714.2
420.852	722.79
421.228	736.8
421.605	765.5
421.982	754.88
422.358	773.86
422.735	784.49
423.111	780.19
423.488	794.43
423.864	799.85
424.241	826.52
424.617	798.04
424.994	822.45
425.37	814.09
425.746	829.23
426.123	867.87
426.499	843.92
426.875	827.65
427.251	870.13
427.627	890.47
428.003	897.93
428.379	890.7
428.756	931.15
429.132	949.45
429.507	942
429.883	951.94
430.259	959.85
430.635	985.61
431.011	966.18
431.387	1000.52
431.763	1012.05
432.138	1018.6
432.514	1030.58
432.89	1057.47
433.265	1091.37
433.641	1078.94
434.016	1088.21
434.392	1088.43
434.767	1128.43
435.143	1148.09
435.518	1124.36
435.894	1108.09
436.269	1149.45
436.644	1173.85
437.02	1172.72
437.395	1182.21
437.77	1159.84
438.145	1197.13
438.52	1198.03
438.895	1230.8
439.271	1194.19
439.646	1268.54
440.021	1262.44
440.395	1247.75
440.77	1241.2
441.145	1285.04
441.52	1299.73
441.895	1303.34
442.27	1290.23
442.645	1308.99
443.019	1321.19
443.394	1325.26
443.769	1325.71
444.143	1316.9
444.518	1310.57
444.892	1297.69
445.267	1350.8
445.641	1337.01
446.016	1367.97
446.39	1348.54
446.764	1386.05
447.139	1350.35
447.513	1399.38
447.887	1381.98
448.262	1371.14
448.636	1387.63
449.01	1405.26
449.384	1405.49
449.758	1434.41
450.132	1423.79
450.506	1451.36
450.88	1432.38
451.254	1426.95
451.628	1423.34
452.002	1432.15
452.376	1433.28
452.75	1450
453.123	1482.77
453.497	1492.71
453.871	1489.33
454.244	1521.87
454.618	1511.25
454.992	1530
455.365	1505.37
455.739	1549.89
456.112	1552.83
456.486	1533.84
456.859	1558.25
457.232	1624.46
457.606	1590.79
457.979	1596.89
458.352	1590.79
458.725	1636.67
459.099	1634.41
459.472	1664.46
459.845	1673.95
460.218	1682.77
460.591	1691.58
460.964	1673.5
461.337	1726.83
461.71	1747.85
462.083	1769.32
462.456	1749.66
462.829	1729.09
463.201	1759.83
463.574	1764.57
463.947	1783.1
464.32	1842.76
464.692	1832.14
465.065	1825.59
465.438	1865.81
465.81	1895.42
466.183	1842.76
466.555	1912.82
466.928	1906.04
467.3	1891.8
467.672	1942.87
468.045	2011.8
468.417	1963.21
468.789	1991.23
469.161	2007.05
469.534	2019.48
469.906	2042.53
470.278	2053.15
470.65	2047.05
471.022	2084.56
471.394	2101.51
471.766	2111.46
472.138	2112.59
472.51	2153.26
472.882	2199.82
473.253	2220.83
473.625	2232.13
473.997	2263.77
474.369	2242.53
474.74	2277.33
475.112	2312.81
475.484	2334.05
475.855	2340.38
476.227	2376.31
476.598	2409.3
476.97	2403.88
477.341	2464.67
477.713	2478.23
478.084	2503.99
478.455	2543.53
478.827	2528.62
479.198	2584.21
479.569	2581.95
479.94	2630.99
480.311	2656.07
480.682	2717.32
481.053	2769.29
481.424	2753.02
481.795	2808.61
482.166	2812.68
482.537	2809.74
482.908	2844.09
483.279	2892.23
483.65	2910.3
484.021	2981.72
484.391	2988.95
484.762	2985.78
485.133	3025.1
485.503	3046.8
485.874	3060.81
486.244	3120.47
486.615	3106.91
486.985	3153.46
487.356	3194.14
487.726	3218.77
488.097	3253.8
488.467	3254.02
488.837	3361.82
489.207	3348.03
489.578	3351.88
489.948	3399.56
490.318	3437.07
490.688	3430.52
491.058	3514.58
491.428	3517.52
491.798	3534.47
492.168	3557.97
492.538	3584.41
492.908	3639.1
493.278	3590.29
493.648	3628.25
494.017	3677.52
494.387	3663.51
494.757	3716.84
495.126	3691.53
495.496	3716.84
495.866	3758.64
496.235	3785.54
496.605	3801.13
496.974	3794.35
497.344	3831.41
497.713	3861.69
498.082	3882.48
498.452	3889.04
498.821	3891.3
499.19	3911.41
499.559	3923.39
499.928	3952.31
500.298	3955.48
500.667	3982.59
501.036	3977.4
501.405	4060.56
501.774	4021.91
502.143	4075.25
502.512	4077.96
502.88	4089.71
503.249	4063.04
503.618	4139.88
503.987	4126.09
504.356	4166.99
504.724	4117.96
505.093	4157.05
505.462	4151.4
505.83	4197.28
506.199	4215.36
506.567	4240.44
506.936	4204.28
507.304	4272.75
507.672	4279.08
508.041	4279.99
508.409	4272.53
508.777	4334.22
509.145	4328.57
509.514	4352.98
509.882	4345.07
510.25	4337.16
510.618	4367.89
510.986	4403.37
511.354	4381.68
511.722	4397.05
512.09	4493.54
512.458	4431.39
512.826	4435.69
513.193	4475.01
513.561	4501.22
513.929	4468.23
514.297	4539.41
514.664	4543.93
515.032	4505.29
515.4	4555.23
515.767	4561.33
516.135	4621.9
516.502	4531.51
516.869	4646.98
517.237	4616.93
517.604	4619.86
517.972	4653.76
518.339	4637.04
518.706	4651.95
519.073	4714.33
519.44	4680.65
519.808	4719.52
520.175	4725.4
520.542	4749.13
520.909	4764.27
521.276	4768.56
521.643	4778.73
522.009	4821.89
522.376	4833.42
522.743	4843.36
523.11	4838.16
523.477	4902.34
523.843	4903.47
524.21	4939.86
524.577	4927.43
524.943	4977.6
525.31	4964.26
525.676	5002.45
526.043	5078.16
526.409	5058.5
526.776	5095.33
527.142	5082.23
527.508	5145.27
527.874	5140.3
528.241	5209.45
528.607	5205.84
528.973	5261.66
529.339	5196.35
529.705	5307.98
530.071	5322.44
530.437	5317.02
530.803	5305.95
531.169	5360.64
531.535	5375.78
531.901	5380.52
532.267	5444.7
532.632	5420.52
532.998	5478.6
533.364	5506.62
533.73	5549.56
534.095	5522.21
534.461	5511.37
534.826	5613.51
535.192	5602.89
535.557	5617.8
535.923	5614.41
536.288	5660.06
536.653	5638.59
537.019	5706.16
537.384	5711.36
537.749	5742.55
538.114	5795.65
538.479	5766.5
538.845	5778.48
539.21	5809.21
539.575	5862.32
539.94	5872.26
540.305	5946.38
540.67	5882.2
541.034	5938.7
541.399	5912.03
541.764	5946.16
542.129	5972.37
542.494	6015.76
542.858	6031.58
543.223	6061.41
543.587	6128.3
543.952	6102.31
544.316	6138.69
544.681	6147.06
545.045	6208.52
545.41	6231.8
545.774	6274.96
546.138	6254.62
546.503	6297.11
546.867	6258.01
547.231	6349.99
547.595	6296.66
547.959	6357.45
548.324	6443.77
548.688	6445.81
549.052	6424.56
549.416	6453.94
549.779	6423.88
550.143	6494.84
550.507	6524.22
550.871	6530.77
551.235	6487.84
551.599	6566.93
551.962	6615.97
552.326	6580.49
552.689	6643.54
553.053	6629.76
553.417	6647.83
553.78	6710.66
554.143	6689.41
554.507	6722.18
554.87	6726.25
555.234	6796.98
555.597	6721.96
555.96	6792.46
556.323	6844.66
556.686	6837.66
557.05	6806.7
557.413	6869.97
557.776	6868.62
558.139	6902.06
558.502	6959.01
558.865	6930.99
559.228	6941.84
559.59	6958.56
559.953	7004.66
560.316	7067.26
560.679	7091.44
561.041	7136.63
561.404	7154.49
561.767	7197.65
562.129	7103.41
562.492	7224.32
562.854	7199.46
563.217	7170.76
563.579	7238.33
563.941	7244.65
564.304	7309.74
564.666	7370.98
565.028	7340.02
565.39	7423.41
565.753	7327.82
566.115	7442.84
566.477	7463.63
566.839	7490.3
567.201	7515.16
567.563	7478.55
567.925	7605.1
568.287	7572.33
568.648	7612.33
569.01	7646.23
569.372	7743.4
569.734	7658.88
570.095	7747.24
570.457	7787.46
570.819	7877.18
571.18	7821.14
571.542	7843.28
571.903	7945.88
572.265	7895.94
572.626	7970.96
572.987	8040.79
573.349	8059.1
573.71	8107.91
574.071	8162.6
574.432	8157.85
574.794	8310.39
575.155	8307.45
575.516	8361.69
575.877	8448.92
576.238	8446.43
576.599	8576.37
576.96	8631.51
577.32	8685.07
577.681	8852.07
578.042	8921.9
578.403	8964.83
578.763	9087.09
579.124	9175.9
579.485	9302.91
579.845	9404.37
580.206	9432.62
580.566	9594.87
580.927	9693.18
581.287	9922.32
581.648	10019.5
582.008	10147.63
582.368	10316.66
582.728	10359.37
583.089	10530.9
583.449	10740.83
583.809	10953.03
584.169	11120.71
584.529	11268.73
584.889	11551.21
585.249	11683.63
585.609	11875.27
585.969	12170.17
586.329	12290.17
586.688	12540.56
587.048	12796.82
587.408	12991.17
587.768	13253.31
588.127	13549.35
588.487	13712.51
588.846	14049.22
589.206	14195.88
589.565	14456.22
589.925	14765.81
590.284	14988.18
590.643	15255.52
591.003	15673.13
591.362	15927.36
591.721	16171.43
592.08	16462.26
592.44	16774.12
592.799	17032.42
593.158	17304.05
593.517	17614.32
593.876	17941.77
594.235	18256.57
594.593	18561.64
594.952	18823.11
595.311	19102.65
595.67	19425.8
596.029	19776.08
596.387	20153.92
596.746	20476.62
597.104	20749.38
597.463	21095.59
597.822	21472.08
598.18	21639.98
598.538	21868.9
598.897	22337.59
599.255	22458.94
599.613	23048.98
599.972	23131.47
600.33	23433.61
600.688	23584.34
601.046	23925.8
601.404	24364.88
601.762	24554.26
602.12	24955.37
602.478	25285.08
602.836	25467.23
603.194	25650.72
603.552	25877.16
603.91	26075.8
604.268	26475.11
604.625	26586.29
604.983	26979.73
605.341	27074.19
605.698	27503.56
606.056	27772.02
606.413	27947.16
606.771	28310.54
607.128	28488.62
607.485	28656.75
607.843	28950.3
608.2	29151.87
608.557	29424.41
608.914	29541.47
609.272	29888.58
609.629	30229.13
609.986	30489.01
610.343	30564.49
610.7	30871.38
611.057	31018.49
611.414	31176
611.771	31454.19
612.127	31724.24
612.484	31858.92
612.841	32172.59
613.198	32242.87
613.554	32303.88
613.911	32634.95
614.267	32933.47
614.624	32824.09
614.98	33033.81
615.337	33293.46
615.693	33475.83
616.05	33641.25
616.406	33878.98
616.762	33863.39
617.118	34148.13
617.475	34192.19
617.831	34362.13
618.187	34556.93
618.543	34757.38
618.899	34954.21
619.255	34949.01
619.611	35120.53
619.967	35356.01
620.323	35518.94
620.678	35442.33
621.034	35430.58
621.39	35713.06
621.746	35669.9
622.101	36294.51
622.457	35888.19
622.812	36174.97
623.168	36252.7
623.523	36381.74
623.879	36457.67
624.234	36422.64
624.589	36577.22
624.945	36643.66
625.3	36735.63
625.655	36711.45
626.01	36961.39
626.365	36982.18
626.72	36929.52
627.075	36980.82
627.43	37106.02
627.785	37107.6
628.14	37320.47
628.495	37342.62
628.85	37299.68
629.205	37339.23
629.559	37571.09
629.914	37418.78
630.269	37459.9
630.623	37477.08
630.978	37411.54
631.332	37613.8
631.687	37879.78
632.041	37727.69
632.396	37710.29
632.75	37565.66
633.104	37790.29
633.459	37640.92
633.813	37538.77
634.167	37734.25
634.521	37680.92
634.875	37855.6
635.229	37809.95
635.583	37537.87
635.937	37712.1
636.291	37614.48
636.645	37768.82
636.999	37722.95
637.352	37889.27
637.706	37500.13
638.06	37778.31
638.413	37654.48
638.767	37679.33
639.121	37696.28
639.474	37668.49
639.828	37638.88
640.181	37729.73
640.534	37741.25
640.888	37611.31
641.241	37587.36
641.594	37622.16
641.947	37681.59
642.301	37620.8
642.654	37682.05
643.007	37628.94
643.36	37749.16
643.713	37589.62
644.066	37746.45
644.419	37546
644.771	37447.02
645.124	36972.01
645.477	36965.91
645.83	36659.47
646.182	36640.04
646.535	36693.37
646.888	36675.74
647.24	36528.63
647.593	36658.57
647.945	36564.79
648.298	36373.15
648.65	36363.66
649.002	36561.17
649.355	36485.92
649.707	36466.03
650.059	36712.58
650.411	37045.9
650.763	37042.74
651.115	37541.48
651.467	37345.56
651.819	37442.96
652.171	37219.01
652.523	37177.88
652.875	37238.89
653.227	37093.81
653.578	37469.85
653.93	37288.16
654.282	37162.74
654.633	36995.06
654.985	37118.22
655.337	37210.65
655.688	37128.61
656.039	37267.59
656.391	37034.15
656.742	37087.71
657.094	37152.12
657.445	37184.66
657.796	37064.66
658.147	37061.5
658.498	37061.5
658.849	37123.42
659.2	37031.67
659.551	37011.56
659.902	37078.45
660.253	36925.91
660.604	37120.48
660.955	36956.64
661.306	37068.73
661.656	37014.04
662.007	37164.77
662.358	36975.85
662.708	37052.46
663.059	37006.81
663.409	36864.67
663.76	37030.54
664.11	37004.32
664.461	37108.28
664.811	36974.49
665.161	37060.59
665.511	37028.96
665.862	37026.92
666.212	37036.87
666.562	37107.6
666.912	36894.27
667.262	37047.71
667.612	36927.94
667.962	36906.93
668.312	36894.27
668.662	37107.37
669.011	36953.93
669.361	36908.51
669.711	36931.11
670.06	37005.68
670.41	36762.75
670.76	36781.05
671.109	36805.23
671.459	36720.04
671.808	36920.26
672.157	36872.58
672.507	36669.64
672.856	36757.55
673.205	36770.66
673.554	36726.14
673.904	36734.95
674.253	36919.13
674.602	36820.83
674.951	36346.94
675.3	36090
675.649	36735.63
675.998	36625.58
676.346	36606.37
676.695	36777.21
677.044	36493.6
677.393	36378.13
677.741	36649.98
678.09	36535.18
678.438	36411.57
678.787	36506.71
679.135	36482.76
679.484	36191.46
679.832	36377.22
680.181	36080.51
680.529	36269.2
680.877	36209.32
681.225	36162.54
681.573	36379.93
681.922	36037.12
682.27	36021.3
682.618	36081.86
682.966	35921.87
683.314	35977.46
683.661	35832.38
684.009	35690.46
684.357	35800.51
684.705	35627.86
685.053	35669.9
685.4	35652.95
685.748	35521.2
686.095	35394.2
686.443	35220.19
686.79	35242.34
687.138	35447.98
687.485	35301.32
687.832	35228.33
688.18	35092.74
688.527	35015.22
688.874	34974.55
689.221	34906.53
689.568	34722.12
689.915	34711.05
690.262	34690.26
690.609	34619.08
690.956	34524.16
691.303	34531.85
691.65	34371.85
691.997	34382.92
692.344	34095.93
692.69	34170.05
693.037	34134.34
693.383	33787.46
693.73	34068.13
694.077	33924.63
694.423	33857.06
694.769	33666.33
695.116	33682.83
695.462	33686.67
695.808	33493.68
696.155	33591.31
696.501	33491.2
696.847	33294.36
697.193	33240.81
697.539	33213.91
697.885	32935.73
698.231	32849.18
698.577	32864.32
698.923	32902.28
699.269	32651.22
699.614	32601.73
699.96	32455.74
700.306	32521.28
700.651	32338.01
700.997	32278.57
701.342	32256.43
701.688	32272.02
702.033	32085.36
702.379	32109.31
702.724	31985.47
703.069	31969.65
703.415	31665.93
703.76	31588.42
704.105	31700.96
704.45	31571.92
704.795	31286.96
705.14	31383.23
705.485	31307.75
705.83	31215.55
706.175	31209.67
706.52	31020.53
706.865	30835.22
707.209	31021.43
707.554	30904.82
707.899	30959.28
708.243	30690.37
708.588	30580.76
708.932	30458.73
709.277	30550.03
709.621	30450.82
709.966	30282.24
710.31	30351.62
710.654	30100.78
710.998	30057.39
711.342	30121.34
711.687	30015.13
712.031	29916.83
712.375	29878.86
712.719	29791.63
713.063	29769.71
713.407	29839.54
713.75	29749.15
714.094	29795.93
714.438	29582.15
714.782	29595.7
715.125	29510.51
715.469	29424.86
715.812	29372.89
716.156	29198.2
716.499	29242.72
716.843	29340.8
717.186	29026.68
717.53	29295.6
717.873	29181.48
718.216	29009.05
718.559	29046.57
718.902	28796.18
719.246	28951.2
719.589	28866.46
719.932	28692.68
720.275	28643.41
720.617	28647.93
720.96	28560.93
721.303	28677.54
721.646	28575.39
721.989	28368.62
722.331	28464.44
722.674	28360.48
723.016	28395.51
723.359	28265.34
723.701	28280.26
724.044	28196.19
724.386	27956.65
724.729	28174.27
725.071	28040.27
725.413	28106.48
725.755	28006.37
726.097	27850.44
726.439	27785.13
726.782	27835.07
727.124	27931.57
727.465	27591.01
727.807	27755.53
728.149	27655.87
728.491	27621.07
728.833	27648.19
729.175	27599.83
729.516	27459.26
729.858	27420.85
730.199	27408.19
730.541	27412.26
730.882	27254.52
731.224	27532.48
731.565	27242.09
731.906	27257.46
732.248	27207.97
732.589	27120.06
732.93	27064.7
733.271	27187.18
733.612	27048.65
733.953	27047.3
734.294	26999.39
734.635	26947.19
734.976	27006.85
735.317	26812.28
735.658	26808.21
735.999	26898.37
736.339	26633.07
736.68	26816.34
737.021	26700.64
737.361	26569.57
737.702	26749
738.042	26632.39
738.383	26651.38
738.723	26645.95
739.063	26546.29
739.404	26578.38
739.744	26544.26
740.084	26394.66
740.424	26499.29
740.764	26486.41
741.104	26438.05
741.444	26380.87
741.784	26154.89
742.124	26274.21
742.464	26182.01
742.804	26128.9
743.143	26129.13
743.483	26180.43
743.823	26074.89
744.162	25982.01
744.502	26043.71
744.841	25834.9
745.181	26068.79
745.52	25904.73
745.86	26019.53
746.199	25932.3
746.538	25851.62
746.877	25916.25
747.216	25875.8
747.556	25779.76
747.895	25875.35
748.234	25642.59
748.573	25722.59
748.911	25740.21
749.25	25694.34
749.589	25573.66
749.928	25653.89
750.267	25701.12
750.605	25445.98
750.944	25504.06
751.283	25361.24
751.621	25428.58
751.96	25348.13
752.298	25350.17
752.636	25275.14
752.975	25220.68
753.313	25037.18
753.651	25335.25
753.989	25112.66
754.327	25064.75
754.666	24981.36
755.004	24983.62
755.342	25109.95
755.679	24970.06
756.017	24902.49
756.355	24924.42
756.693	24864.08
757.031	24888.94
757.368	24733.23
757.706	24706.12
758.044	24704.99
758.381	24644.87
758.719	24557.42
759.056	24675.16
