Data from hue_120_FLMS001491_00094.txt Node
Date: Tue Feb 07 17:00:16 GMT 2017
User: dcchb
Spectrometer: FLMS00149
Trigger mode: 0
Integration Time (sec): 2.000000E-2
Scans to average: 10
Electric dark correction enabled: true
Nonlinearity correction enabled: false
Boxcar width: 0
XAxis mode: Wavelengths
Number of Pixels in Spectrum: 2048
>>>>>Begin Spectral Data<<<<<
341.393	-9.49
341.776	-9.49
342.16	-9.49
342.543	-69.38
342.927	-71.18
343.31	-72.54
343.693	-78.64
344.077	-91.75
344.46	-54.01
344.843	-54.01
345.226	-46.55
345.61	-14.01
345.993	-26.89
346.376	-4.75
346.759	7.46
347.142	21.47
347.525	49.04
347.908	64.18
348.291	65.76
348.674	107.34
349.057	127.91
349.44	117.51
349.823	144.63
350.206	146.89
350.588	201.35
350.971	202.71
351.354	222.59
351.737	245.64
352.119	275.47
352.502	256.94
352.884	285.64
353.267	280.44
353.65	279.31
354.032	309.37
354.414	316.38
354.797	318.41
355.179	337.84
355.562	333.1
355.944	320.9
356.326	333.32
356.709	328.13
357.091	323.16
357.473	357.96
357.855	340.1
358.238	345.98
358.62	339.88
359.002	347.79
359.384	338.3
359.766	331.06
360.148	352.08
360.53	334.91
360.912	349.82
361.294	318.86
361.676	317.73
362.057	350.05
362.439	337.84
362.821	342.82
363.203	320.67
363.584	325.42
363.966	333.1
364.348	332.87
364.729	319.09
365.111	319.54
365.493	329.93
365.874	322.03
366.256	317.51
366.637	311.18
367.019	312.76
367.4	335.81
367.781	333.55
368.163	306.21
368.544	302.59
368.925	304.4
369.306	313.44
369.688	319.31
370.069	327.67
370.45	304.4
370.831	326.77
371.212	312.53
371.593	310.05
371.974	313.89
372.355	305.75
372.736	306.43
373.117	316.38
373.498	305.98
373.879	327.9
374.26	321.57
374.641	310.73
375.021	345.98
375.402	316.6
375.783	318.41
376.163	331.97
376.544	335.58
376.925	329.26
377.305	346.43
377.686	329.48
378.066	315.47
378.447	320.67
378.827	336.71
379.208	322.03
379.588	319.77
379.968	317.05
380.349	305.3
380.729	348.47
381.109	353.89
381.489	328.8
381.87	321.57
382.25	359.54
382.63	327
383.01	354.57
383.39	361.12
383.77	342.59
384.15	343.49
384.53	341.23
384.91	357.96
385.29	343.95
385.67	354.79
386.049	343.27
386.429	372.65
386.809	346.66
387.189	361.57
387.568	381.23
387.948	338.97
388.328	373.1
388.707	355.24
389.087	377.62
389.466	366.32
389.846	348.47
390.225	366.32
390.605	355.92
390.984	374.23
391.363	377.39
391.743	376.71
392.122	351.86
392.501	370.39
392.881	390.5
393.26	375.58
393.639	380.1
394.018	381.01
394.397	402.02
394.776	386.2
395.155	377.84
395.534	390.27
395.913	372.42
396.292	375.13
396.671	386.66
397.05	415.58
397.429	392.08
397.808	399.09
398.186	392.31
398.565	403.15
398.944	389.59
399.323	380.1
399.701	409.25
400.08	405.87
400.458	388.01
400.837	384.85
401.215	411.51
401.594	413.77
401.972	422.81
402.351	391.4
402.729	418.75
403.107	418.75
403.486	426.66
403.864	410.84
404.242	406.99
404.62	451.06
404.999	437.95
405.377	444.51
405.755	416.94
406.133	436.82
406.511	425.53
406.889	437.73
407.267	432.98
407.645	432.53
408.023	461.23
408.401	451.97
408.779	429.14
409.156	449.25
409.534	451.74
409.912	450.16
410.29	450.16
410.667	458.07
411.045	465.98
411.422	436.15
411.8	493.09
412.178	475.24
412.555	476.82
412.933	487.22
413.31	470.04
413.687	505.3
414.065	493.32
414.442	466.2
414.819	491.74
415.197	515.24
415.574	522.7
415.951	479.31
416.328	505.75
416.705	508.01
417.082	512.3
417.46	515.01
417.837	512.75
418.214	514.56
418.591	527.44
418.967	538.74
419.344	545.52
419.721	544.62
420.098	541.68
420.475	516.37
420.852	516.6
421.228	548.23
421.605	529.48
421.982	542.36
422.358	562.47
422.735	596.37
423.111	568.12
423.488	577.39
423.864	589.81
424.241	586.88
424.617	570.38
424.994	573.32
425.37	569.02
425.746	593.2
426.123	582.81
426.499	587.1
426.875	614.45
427.251	585.52
427.627	580.1
428.003	629.59
428.379	602.24
428.756	631.17
429.132	637.27
429.507	631.17
429.883	642.69
430.259	653.54
430.635	652.86
431.011	648.57
431.387	672.07
431.763	669.36
432.138	681.34
432.514	679.08
432.89	665.07
433.265	689.93
433.641	693.09
434.016	694.9
434.392	713.65
434.767	714.11
435.143	719.98
435.518	722.24
435.894	733.31
436.269	720.66
436.644	742.13
437.02	749.36
437.395	741.22
437.77	797.27
438.145	771.28
438.52	762.47
438.895	801.79
439.271	785.06
439.646	804.5
440.021	786.19
440.395	792.52
440.77	829.58
441.145	838.62
441.52	832.52
441.895	824.84
442.27	828.45
442.645	827.77
443.019	855.34
443.394	853.08
443.769	852.86
444.143	853.54
444.518	871.62
444.892	864.61
445.267	857.6
445.641	884.72
446.016	868.23
446.39	896.02
446.764	900.32
447.139	903.03
447.513	915.91
447.887	894.89
448.262	911.84
448.636	930.82
449.01	937.15
449.384	936.47
449.758	945.74
450.132	943.48
450.506	952.97
450.88	964.27
451.254	976.02
451.628	949.35
452.002	971.5
452.376	974.44
452.75	985.74
453.123	994.78
453.497	1019.63
453.871	1021.44
454.244	1041.33
454.618	1029.13
454.992	1080.42
455.365	1053.08
455.739	1076.13
456.112	1095.56
456.486	1093.98
456.859	1129.91
457.232	1145.96
457.606	1128.33
457.979	1147.09
458.352	1150.25
458.725	1175.34
459.099	1200.42
459.472	1219.4
459.845	1233.87
460.218	1223.47
460.591	1214.21
460.964	1224.6
461.337	1274.77
461.71	1298.5
462.083	1307.08
462.456	1325.16
462.829	1354.99
463.201	1332.62
463.574	1352.73
463.947	1368.1
464.32	1422.11
464.692	1431.15
465.065	1426.86
465.438	1439.74
465.81	1484.71
466.183	1484.71
466.555	1536.46
466.928	1522.67
467.3	1541.65
467.672	1611.26
468.045	1622.78
468.417	1639.73
468.789	1659.39
469.161	1696
469.534	1707.75
469.906	1758.37
470.278	1736.23
470.65	1796.34
471.022	1841.76
471.394	1896.67
471.766	1898.26
472.138	1943.9
472.51	1944.81
472.882	2003.79
473.253	2075.88
473.625	2061.87
473.997	2151.13
474.369	2208.76
474.74	2210.56
475.112	2264.35
475.484	2307.28
475.855	2389.32
476.227	2420.05
476.598	2516.09
476.97	2555.64
477.341	2616.88
477.713	2680.83
478.084	2711.79
478.455	2844.67
478.827	2841.51
479.198	2981.39
479.569	3021.84
479.94	3127.83
480.311	3161.95
480.682	3321.72
481.053	3407.14
481.424	3488.27
481.795	3542.05
482.166	3649.17
482.537	3712.44
482.908	3850.29
483.279	3925.09
483.65	4049.61
484.021	4177.29
484.391	4273.11
484.762	4338.87
485.133	4404.86
485.503	4519.88
485.874	4691.18
486.244	4784.73
486.615	4944.05
486.985	5022.92
487.356	5212.29
487.726	5349.46
488.097	5431.95
488.467	5502.45
488.837	5671.49
489.207	5806.4
489.578	5979.05
489.948	6071.03
490.318	6232.38
490.688	6341.98
491.058	6452.26
491.428	6665.36
491.798	6728.86
492.168	6925.69
492.538	7061.51
492.908	7231.9
493.278	7320.26
493.648	7439.8
494.017	7645.22
494.387	7712.11
494.757	7860.81
495.126	7943.29
495.496	8020.58
495.866	8181.93
496.235	8324.3
496.605	8477.97
496.974	8544.63
497.344	8711.86
497.713	8791.41
498.082	8928.13
498.452	9092.87
498.821	9159.08
499.19	9237.95
499.559	9476.36
499.928	9449.24
500.298	9600.88
500.667	9688.11
501.036	9771.04
501.405	9965.39
501.774	9920.64
502.143	10062.79
502.512	10147.98
502.88	10311.82
503.249	10286.06
503.618	10361.54
503.987	10513.85
504.356	10520.85
504.724	10676.33
505.093	10747.51
505.462	10838.36
505.83	10910.22
506.199	10998.81
506.567	11163.55
506.936	11163.32
507.304	11218.91
507.672	11335.07
508.041	11453.26
508.409	11478.12
508.777	11691.67
509.145	11598.34
509.514	11629.75
509.882	11766.7
510.25	11814.15
510.618	11857.32
510.986	11863.42
511.354	11992.45
511.722	12077.2
512.09	12167.36
512.458	12170.75
512.826	12383.63
513.193	12304.31
513.561	12337.08
513.929	12438.77
514.297	12496.39
514.664	12575.26
515.032	12664.07
515.4	12648.25
515.767	12721.25
516.135	12809.38
516.502	12653
516.869	12860.68
517.237	12900
517.604	12856.84
517.972	12913.56
518.339	12883.5
518.706	12963.5
519.073	13064.97
519.44	12991.07
519.808	13171.86
520.175	13109.49
520.542	13269.03
520.909	13335.69
521.276	13197.39
521.643	13351.51
522.009	13360.55
522.376	13425.64
522.743	13441.91
523.11	13569.59
523.477	13635.35
523.843	13673.76
524.21	13711.05
524.577	13714.22
524.943	13777.49
525.31	13777.94
525.676	13895.68
526.043	13819.75
526.409	13852.97
526.776	14041.21
527.142	13921.44
527.508	13937.26
527.874	14117.59
528.241	14105.62
528.607	14006.41
528.973	14135
529.339	14097.93
529.705	14160.76
530.071	14175.45
530.437	14126.63
530.803	14273.52
531.169	14214.09
531.535	14145.16
531.901	14181.77
532.267	14080.53
532.632	14135.9
532.998	14150.81
533.364	14197.14
533.73	14202.79
534.095	14227.65
534.461	14260.87
534.826	14150.14
535.192	14175.9
535.557	14230.81
535.923	14125.28
536.288	14130.93
536.653	14149.68
537.019	14065.84
537.384	14113.98
537.749	14019.29
538.114	14052.74
538.479	14047.31
538.845	13995.34
539.21	13971.84
539.575	13894.78
539.94	13900.2
540.305	13888.22
540.67	13891.84
541.034	13906.75
541.399	13864.95
541.764	13822.46
542.129	13896.58
542.494	13811.16
542.858	13818.17
543.223	13744.5
543.587	13754.44
543.952	13682.35
544.316	13693.43
544.681	13664.95
545.045	13601.22
545.41	13656.36
545.774	13597.61
546.138	13575.69
546.503	13550.6
546.867	13488.01
547.231	13633.99
547.595	13492.75
547.959	13443.04
548.324	13474
548.688	13416.82
549.052	13367.56
549.416	13318.29
549.779	13266.32
550.143	13296.15
550.507	13345.64
550.871	13244.17
551.235	13293.89
551.599	13289.37
551.962	13223.38
552.326	13215.02
552.689	13196.94
553.053	13128.02
553.417	13160.78
553.78	13219.09
554.143	13032.2
554.507	13122.82
554.87	13128.47
555.234	13148.58
555.597	13025.19
555.96	13077.4
556.323	13077.62
556.686	12932.99
557.05	13070.84
557.413	13049.83
557.776	13061.35
558.139	13057.28
558.502	13047.11
558.865	13007.12
559.228	13023.84
559.59	13093.22
559.953	13061.35
560.316	13043.05
560.679	13043.5
561.041	13022.48
561.404	13096.6
561.767	13028.81
562.129	12969.15
562.492	13096.6
562.854	13097.73
563.217	13108.13
563.579	13077.17
563.941	13039.21
564.304	13139.09
564.666	13122.37
565.028	13135.25
565.39	13159.65
565.753	13197.85
566.115	13129.6
566.477	13276.94
566.839	13260.67
567.201	13208.69
567.563	13291.4
567.925	13357.39
568.287	13354
568.648	13332.53
569.01	13353.32
569.372	13354.45
569.734	13272.19
570.095	13375.92
570.457	13389.93
570.819	13424.96
571.18	13432.64
571.542	13360.1
571.903	13476.93
572.265	13472.41
572.626	13507.44
572.987	13490.04
573.349	13506.31
573.71	13455.47
574.071	13535.24
574.432	13450.72
574.794	13560.77
575.155	13519.19
575.516	13537.72
575.877	13652.52
576.238	13551.96
576.599	13585.63
576.96	13540.89
577.32	13564.39
577.681	13654.1
578.042	13622.69
578.403	13636.48
578.763	13606.42
579.124	13611.17
579.485	13609.13
579.845	13752.41
580.206	13633.99
580.566	13609.13
580.927	13690.04
581.287	13657.95
581.648	13615.46
582.008	13705.4
582.368	13523.71
582.728	13670.6
583.089	13578.17
583.449	13603.94
583.809	13671.05
584.169	13606.2
584.529	13585.63
584.889	13644.39
585.249	13583.6
585.609	13492.3
585.969	13573.88
586.329	13508.57
586.688	13538.4
587.048	13517.61
587.408	13544.28
587.768	13502.92
588.127	13505.86
588.487	13466.76
588.846	13517.38
589.206	13506.54
589.565	13474.45
589.925	13506.54
590.284	13448.69
590.643	13460.44
591.003	13443.94
591.362	13455.24
591.721	13423.38
592.08	13432.42
592.44	13415.47
592.799	13483.49
593.158	13431.51
593.517	13409.14
593.876	13382.7
594.235	13390.38
594.593	13349.25
594.952	13421.79
595.311	13298.18
595.67	13322.81
596.029	13445.07
596.387	13421.79
596.746	13375.02
597.104	13347.22
597.463	13304.96
597.822	13397.61
598.18	13331.17
598.538	13322.14
598.897	13416.82
599.255	13275.81
599.613	13446.88
599.972	13355.81
600.33	13358.74
600.688	13336.6
601.046	13417.5
601.404	13405.3
601.762	13356.94
602.12	13456.37
602.478	13412.3
602.836	13451.17
603.194	13300.44
603.552	13365.3
603.91	13282.14
604.268	13381.57
604.625	13260.89
604.983	13410.04
605.341	13284.4
605.698	13409.36
606.056	13345.41
606.413	13392.64
606.771	13445.3
607.128	13400.55
607.485	13296.37
607.843	13394
608.2	13497.27
608.557	13346.99
608.914	13475.13
609.272	13408.91
609.629	13503.83
609.986	13576.14
610.343	13486.43
610.7	13522.13
611.057	13473.09
611.414	13459.99
611.771	13461.79
612.127	13520.32
612.484	13494.33
612.841	13544.95
613.198	13535.01
613.554	13541.56
613.911	13578.4
614.267	13519.42
614.624	13540.21
614.98	13554.45
615.337	13633.99
615.693	13646.87
616.05	13633.09
616.406	13719.87
616.762	13684.39
617.118	13750.82
617.475	13633.54
617.831	13715.57
618.187	13686.65
618.543	13695.69
618.899	13732.07
619.255	13703.37
619.611	13795.12
619.967	13771.62
620.323	13716.7
620.678	13788.11
621.034	13671.73
621.39	13703.82
621.746	13744.27
622.101	13864.27
622.457	13744.27
622.812	13669.25
623.168	13763.48
623.523	13712.18
623.879	13793.54
624.234	13686.87
624.589	13804.83
624.945	13694.33
625.3	13726.64
625.655	13812.97
626.01	13699.53
626.365	13774.33
626.72	13758.06
627.075	13824.72
627.43	13764.16
627.785	13746.76
628.14	13753.99
628.495	13724.61
628.85	13781.33
629.205	13720.09
629.559	13818.85
629.914	13645.74
630.269	13660.43
630.623	13667.44
630.978	13709.92
631.332	13753.31
631.687	13732.52
632.041	13670.38
632.396	13609.59
632.75	13577.72
633.104	13691.84
633.459	13578.85
633.813	13579.53
634.167	13565.07
634.521	13555.58
634.875	13551.73
635.229	13554.22
635.583	13506.99
635.937	13519.87
636.291	13516.71
636.645	13477.84
636.999	13471.74
637.352	13394.68
637.706	13329.82
638.06	13483.04
638.413	13312.19
638.767	13292.76
639.121	13343.15
639.474	13198.75
639.828	13259.99
640.181	13310.84
640.534	13261.35
640.888	13217.05
641.241	13198.3
641.594	13237.62
641.947	13299.31
642.301	13207.56
642.654	13180.44
643.007	13262.48
643.36	13216.15
643.713	13255.47
644.066	13192.87
644.419	13096.38
644.771	13147
645.124	13005.76
645.477	12986.1
645.83	12888.25
646.182	12798.53
646.535	12820.91
646.888	12836.05
647.24	12791.08
647.593	12855.48
647.945	12744.3
648.298	12823.39
648.65	12704.75
649.002	12692.55
649.355	12744.3
649.707	12796.95
650.059	12788.59
650.411	12937.29
650.763	12973.44
651.115	13040.56
651.467	13008.02
651.819	12989.49
652.171	12991.75
652.523	13022.93
652.875	12965.99
653.227	12925.76
653.578	13008.25
653.93	12975.7
654.282	12930.96
654.633	12972.09
654.985	12902.03
655.337	12939.09
655.688	12998.53
656.039	13001.01
656.391	12916.95
656.742	12958.98
657.094	12941.13
657.445	13042.37
657.796	12942.71
658.147	12942.03
658.498	12923.28
658.849	12985.2
659.2	13013.22
659.551	12942.26
659.902	12994.01
660.253	13053.67
660.604	13017.51
660.955	12980.9
661.306	13026.78
661.656	13004.63
662.007	13027.23
662.358	12973.67
662.708	12987.23
663.059	13029.26
663.409	12944.97
663.76	12987.23
664.11	13032.43
664.461	13135.7
664.811	13036.72
665.161	13010.51
665.511	13060
665.862	13044.18
666.212	13096.83
666.562	13102.48
666.912	13103.16
667.262	13046.89
667.612	13042.59
667.962	13048.92
668.312	13079.2
668.662	13032.88
669.011	13022.71
669.361	13029.49
669.711	13032.2
670.06	12945.87
670.41	12986.55
670.76	12996.95
671.109	12953.56
671.459	12928.93
671.808	12948.36
672.157	12960.11
672.507	12902.49
672.856	12897.51
673.205	12989.71
673.554	12974.8
673.904	12903.16
674.253	13003.5
674.602	12972.09
674.951	12707.24
675.3	12616.84
675.649	12949.72
675.998	12818.42
676.346	12812.09
676.695	12888.25
677.044	12738.65
677.393	12752.89
677.741	12833.56
678.09	12727.35
678.438	12684.86
678.787	12831.75
679.135	12737.97
679.484	12718.08
679.832	12689.61
680.181	12681.93
680.529	12671.98
680.877	12631.76
681.225	12591.31
681.573	12706.78
681.922	12573
682.27	12544.3
682.618	12558.99
682.966	12410.75
683.314	12548.6
683.661	12502.27
684.009	12415.94
684.357	12392.44
684.705	12354.25
685.053	12377.53
685.4	12324.65
685.748	12241.49
686.095	12291.88
686.443	12209.85
686.79	12223.63
687.138	12260.24
687.485	12178.44
687.832	12109.51
688.18	12184.99
688.527	12053.02
688.874	12088.5
689.221	12052.11
689.568	12009.18
689.915	11964.88
690.262	11998.33
690.609	11941.83
690.956	11856.64
691.303	11879.24
691.65	11919.46
691.997	11823.19
692.344	11697.55
692.69	11671.11
693.037	11664.33
693.383	11577.32
693.73	11495.97
694.077	11519.7
694.423	11542.52
694.769	11454.16
695.116	11500.49
695.462	11363.09
695.808	11445.35
696.155	11395.63
696.501	11250.1
696.847	11200.16
697.193	11134.17
697.539	11223.89
697.885	11107.96
698.231	11032.03
698.577	11096.88
698.923	11075.19
699.269	10999.26
699.614	10938.92
699.96	10861.18
700.306	10965.36
700.651	10775.08
700.997	10832.26
701.342	10701.41
701.688	10750.9
702.033	10674.07
702.379	10692.37
702.724	10652.6
703.069	10616.22
703.415	10514.75
703.76	10477.46
704.105	10512.72
704.45	10545.03
704.795	10385.04
705.14	10363.12
705.485	10365.38
705.83	10303.46
706.175	10292.61
706.52	10254.87
706.865	10159.51
707.209	10165.38
707.554	10147.3
707.899	10236.57
708.243	10176.23
708.588	10052.17
708.932	10042.22
709.277	9999.96
709.621	10042.22
709.966	10006.52
710.31	9957.48
710.654	9893.53
710.998	9897.14
711.342	9893.3
711.687	9801.78
712.031	9845.16
712.375	9722.91
712.719	9790.93
713.063	9736.92
713.407	9738.28
713.75	9685.62
714.094	9667.77
714.438	9668.22
714.782	9702.12
715.125	9632.74
715.469	9694.43
715.812	9587.54
716.156	9556.13
716.499	9584.38
716.843	9573.08
717.186	9470.03
717.53	9548.22
717.873	9587.09
718.216	9545.51
718.559	9484.5
718.902	9477.26
719.246	9437.49
719.589	9454.67
719.932	9397.72
720.275	9362.01
720.617	9411.96
720.96	9416.25
721.303	9408.57
721.646	9336.7
721.989	9358.4
722.331	9339.19
722.674	9312.98
723.016	9333.09
723.359	9268.68
723.701	9256.93
724.044	9297.61
724.386	9232.3
724.729	9278.63
725.071	9236.82
725.413	9247.21
725.755	9212.87
726.097	9209.7
726.439	9163.15
726.782	9162.7
727.124	9185.3
727.465	9112.98
727.807	9170.83
728.149	9144.84
728.491	9117.5
728.833	9189.81
729.175	9096.94
729.516	9103.04
729.858	9123.6
730.199	9189.14
730.541	9078.18
730.882	9098.07
731.224	9098.52
731.565	9051.29
731.906	9030.95
732.248	9100.78
732.589	9065.3
732.93	8952.98
733.271	9053.1
733.612	9081.8
733.953	9059.2
734.294	9009.93
734.635	9100.78
734.976	9088.57
735.317	9023.49
735.658	9052.19
735.999	9036.6
736.339	9023.49
736.68	9139.19
737.021	9129.25
737.361	9066.2
737.702	9104.85
738.042	9059.65
738.383	9057.61
738.723	9104.17
739.063	9119.08
739.404	9150.72
739.744	9133.77
740.084	9155.47
740.424	9109.59
740.764	9176.48
741.104	9178.74
741.444	9152.3
741.784	9119.99
742.124	9207.44
742.464	9206.09
742.804	9268.91
743.143	9283.15
743.483	9269.36
743.823	9317.72
744.162	9260.1
744.502	9294.67
744.841	9328.79
745.181	9384.61
745.52	9361.11
745.86	9459.64
746.199	9449.47
746.538	9504.16
746.877	9568.56
747.216	9570.14
747.556	9597.26
747.895	9736.24
748.234	9706.64
748.573	9778.05
748.911	9840.42
749.25	9894.43
749.589	9898.72
749.928	9971.26
750.267	10054.65
750.605	10137.81
750.944	10199.96
751.283	10240.18
751.621	10307.98
751.96	10379.84
752.298	10485.37
752.636	10597.01
752.975	10660.51
753.313	10731.24
753.651	10761.07
753.989	10905.25
754.327	11027.51
754.666	11088.07
755.004	11293.71
755.342	11418.46
755.679	11487.61
756.017	11590.66
756.355	11736.41
756.693	11830.88
757.031	11982.51
757.368	12068.16
757.706	12239.9
758.044	12425.44
758.381	12574.13
758.719	12620.91
