Data from hue_290_FLMS001491_00002.txt Node
Date: Tue Feb 07 15:52:06 GMT 2017
User: dcchb
Spectrometer: FLMS00149
Trigger mode: 0
Integration Time (sec): 2.000000E-2
Scans to average: 10
Electric dark correction enabled: true
Nonlinearity correction enabled: false
Boxcar width: 0
XAxis mode: Wavelengths
Number of Pixels in Spectrum: 2048
>>>>>Begin Spectral Data<<<<<
341.393	-20.3
341.776	-20.3
342.16	-20.3
342.543	-61.42
342.927	-66.62
343.31	-67.3
343.693	-63.91
344.077	-70.69
344.46	-71.14
344.843	-60.75
345.226	-27.3
345.61	-28.21
345.993	-25.04
346.376	-2.44
346.759	6.82
347.142	61.06
347.525	28.97
347.908	41.85
348.291	79.81
348.674	79.14
349.057	119.14
349.44	138.34
349.823	137.21
350.206	151.68
350.588	180.83
350.971	213.37
351.354	219.02
351.737	248.62
352.119	240.26
352.502	235.97
352.884	258.34
353.267	269.87
353.65	274.39
354.032	306.47
354.414	284.33
354.797	311.45
355.179	303.09
355.562	324.33
355.944	327.04
356.326	307.6
356.709	341.05
357.091	333.59
357.473	349.41
357.855	348.73
358.238	339.69
358.62	324.55
359.002	318.68
359.384	339.24
359.766	337.66
360.148	310.09
360.53	326.59
360.912	338.34
361.294	346.47
361.676	311.67
362.057	323.65
362.439	303.99
362.821	323.65
363.203	330.43
363.584	320.71
363.966	328.85
364.348	325.68
364.729	294.72
365.111	334.5
365.493	330.66
365.874	324.33
366.256	309.64
366.637	316.19
367.019	313.71
367.4	319.36
367.781	304.22
368.163	320.94
368.544	310.54
368.925	330.43
369.306	311.67
369.688	324.78
370.069	298.34
370.45	297.21
370.831	292.46
371.212	283.2
371.593	296.08
371.974	294.72
372.355	311.22
372.736	301.73
373.117	305.8
373.498	316.19
373.879	312.8
374.26	324.78
374.641	306.47
375.021	297.44
375.402	322.97
375.783	315.29
376.163	319.36
376.544	319.13
376.925	302.63
377.305	322.75
377.686	314.84
378.066	314.84
378.447	325.01
378.827	336.76
379.208	324.33
379.588	324.78
379.968	332.91
380.349	343.08
380.729	329.53
381.109	323.88
381.489	340.6
381.87	350.77
382.25	330.2
382.63	329.53
383.01	342.41
383.39	338.11
383.77	321.39
384.15	316.64
384.53	339.69
384.91	351.45
385.29	337.66
385.67	331.56
386.049	352.35
386.429	346.7
386.809	320.94
387.189	346.47
387.568	358.45
387.948	343.31
388.328	345.12
388.707	383.54
389.087	359.58
389.466	372.91
389.846	376.3
390.225	383.31
390.605	365.23
390.984	379.92
391.363	344.67
391.743	384.89
392.122	383.76
392.501	367.49
392.881	383.54
393.26	359.58
393.639	399.35
394.018	366.59
394.397	395.06
394.776	390.54
395.155	405.23
395.534	386.47
395.913	376.98
396.292	367.72
396.671	402.74
397.05	408.85
397.429	377.89
397.808	402.07
398.186	407.72
398.565	391.67
398.944	411.78
399.323	411.78
399.701	413.82
400.08	420.6
400.458	434.61
400.837	420.14
401.215	414.49
401.594	426.02
401.972	444.1
402.351	424.21
402.729	438.22
403.107	429.64
403.486	445
403.864	451.1
404.242	425.79
404.62	442.97
404.999	426.7
405.377	450.43
405.755	447.71
406.133	468.05
406.511	483.87
406.889	507.83
407.267	483.87
407.645	484.55
408.023	481.39
408.401	488.84
408.779	502.85
409.156	497.2
409.534	518.22
409.912	524.32
410.29	524.32
410.667	520.93
411.045	538.33
411.422	541.05
411.8	540.14
412.178	541.72
412.555	553.93
412.933	578.78
413.31	581.27
413.687	568.39
414.065	596.41
414.442	611.78
414.819	599.8
415.197	602.51
415.574	601.16
415.951	639.35
416.328	623.98
416.705	628.27
417.082	640.25
417.46	652.23
417.837	651.78
418.214	682.28
418.591	693.81
418.967	692
419.344	681.15
419.721	710.53
420.098	710.76
420.475	705.33
420.852	703.07
421.228	735.62
421.605	744.2
421.982	732.23
422.358	743.53
422.735	754.6
423.111	760.93
423.488	774.03
423.864	786.24
424.241	800.25
424.617	809.74
424.994	811.77
425.37	833.47
425.746	826.91
426.123	845.22
426.499	827.59
426.875	886.35
427.251	853.35
427.627	870.3
428.003	907.59
428.379	883.41
428.756	910.07
429.132	914.59
429.507	953.24
429.883	954.14
430.259	980.58
430.635	950.3
431.011	993.91
431.387	1011.32
431.763	1023.97
432.138	999.34
432.514	1049.96
432.89	1042.73
433.265	1067.36
433.641	1063.29
434.016	1096.96
434.392	1090.18
434.767	1116.4
435.143	1103.06
435.518	1124.98
435.894	1156.4
436.269	1159.79
436.644	1160.01
437.02	1177.86
437.395	1173.57
437.77	1184.42
438.145	1218.32
438.52	1244.3
438.895	1235.94
439.271	1242.04
439.646	1275.49
440.021	1285.88
440.395	1287.24
440.77	1257.18
441.145	1281.59
441.52	1317.75
441.895	1313.23
442.27	1325.66
442.645	1311.87
443.019	1343.51
443.394	1347.13
443.769	1368.59
444.143	1382.83
444.518	1381.47
444.892	1371.53
445.267	1374.7
445.641	1399.1
446.016	1409.72
446.39	1388.71
446.764	1424.86
447.139	1431.87
447.513	1436.61
447.887	1430.51
448.262	1447.01
448.636	1419.67
449.01	1468.7
449.384	1468.25
449.758	1459.67
450.132	1475.71
450.506	1520.68
450.88	1479.33
451.254	1508.7
451.628	1498.53
452.002	1525.65
452.376	1500.12
452.75	1557.06
453.123	1527.46
453.497	1589.15
453.871	1558.42
454.244	1550.51
454.618	1582.83
454.992	1605.88
455.365	1580.11
455.739	1633.45
456.112	1674.8
456.486	1672.99
456.859	1674.8
457.232	1713.22
457.606	1695.82
457.979	1726.78
458.352	1750.28
458.725	1766.32
459.099	1798.19
459.472	1798.87
459.845	1802.03
460.218	1809.49
460.591	1811.97
460.964	1828.92
461.337	1884.29
461.71	1907.79
462.083	1858.98
462.456	1900.56
462.829	1882.03
463.201	1943.04
463.574	1924.29
463.947	1951.18
464.32	1973.55
464.692	1989.82
465.065	1986.66
465.438	2051.51
465.81	2060.33
466.183	2046.09
466.555	2099.42
466.928	2098.07
467.3	2126.54
467.672	2126.31
468.045	2181.68
468.417	2136.03
468.789	2174.45
469.161	2193.66
469.534	2204.05
469.906	2240.89
470.278	2265.97
470.65	2273.43
471.022	2318.17
471.394	2315.01
471.766	2395.69
472.138	2349.36
472.51	2441.79
472.882	2454.22
473.253	2446.31
473.625	2476.14
473.997	2529.69
474.369	2563.36
474.74	2537.38
475.112	2582.35
475.484	2610.14
475.855	2663.25
476.227	2684.72
476.598	2724.49
476.97	2748.67
477.341	2774.88
477.713	2801.55
478.084	2820.31
478.455	2865.5
478.827	2918.61
479.198	2938.72
479.569	2949.8
479.94	3005.84
480.311	3015.1
480.682	3097.59
481.053	3128.77
481.424	3150.92
481.795	3183.24
482.166	3242.44
482.537	3286.28
482.908	3316.79
483.279	3336.68
483.65	3355.21
484.021	3428.43
484.391	3451.93
484.762	3446.73
485.133	3458.48
485.503	3487.63
485.874	3590.23
486.244	3623.22
486.615	3651.7
486.985	3711.13
487.356	3741.86
487.726	3729.89
488.097	3787.51
488.467	3811.92
488.837	3931.69
489.207	3897.79
489.578	3948.64
489.948	4001.52
490.318	4040.39
490.688	4000.16
491.058	4054.85
491.428	4105.47
491.798	4149.76
492.168	4239.93
492.538	4219.14
492.908	4243.32
493.278	4295.75
493.648	4301.85
494.017	4316.54
494.387	4352.24
494.757	4357.89
495.126	4418.68
495.496	4436.76
495.866	4485.8
496.235	4495.29
496.605	4509.75
496.974	4555.63
497.344	4581.16
497.713	4586.81
498.082	4608.06
498.452	4680.82
498.821	4668.39
499.19	4652.58
499.559	4709.07
499.928	4738.9
500.298	4768.5
500.667	4789.29
501.036	4742.06
501.405	4842.63
501.774	4796.75
502.143	4809.86
502.512	4824.77
502.88	4863.19
503.249	4909.74
503.618	4884.89
503.987	4950.87
504.356	4967.37
504.724	4888.73
505.093	4973.24
505.462	4955.39
505.83	4944.32
506.199	5047.14
506.567	5076.29
506.936	5085.78
507.304	5137.31
507.672	5080.81
508.041	5182.73
508.409	5147.7
508.777	5157.65
509.145	5256.85
509.514	5197.19
509.882	5231.77
510.25	5254.59
510.618	5258.89
510.986	5298.89
511.354	5324.2
511.722	5353.12
512.09	5345.89
512.458	5403.52
512.826	5405.78
513.193	5449.62
513.561	5375.95
513.929	5461.59
514.297	5460.92
514.664	5502.5
515.032	5479.67
515.4	5556.28
515.767	5542.95
516.135	5586.11
516.502	5521.25
516.869	5625.21
517.237	5564.19
517.604	5620.46
517.972	5664.07
518.339	5661.36
518.706	5665.2
519.073	5693.23
519.44	5720.57
519.808	5751.08
520.175	5727.35
520.542	5754.24
520.909	5787.23
521.276	5800.79
521.643	5845.31
522.009	5860.91
522.376	5903.62
522.743	5893.22
523.11	5972.31
523.477	6019.32
523.843	6028.58
524.21	6024.52
524.577	6053.89
524.943	6064.52
525.31	6092.31
525.676	6155.59
526.043	6173.44
526.409	6151.29
526.776	6276.49
527.142	6240.56
527.508	6280.1
527.874	6303.15
528.241	6330.05
528.607	6362.13
528.973	6384.06
529.339	6356.71
529.705	6396.94
530.071	6474
530.437	6540.66
530.803	6533.66
531.169	6597.16
531.535	6562.13
531.901	6560.1
532.267	6614.78
532.632	6545.18
532.998	6669.02
533.364	6639.42
533.73	6719.87
534.095	6760.99
534.461	6722.35
534.826	6724.16
535.192	6760.77
535.557	6810.26
535.923	6806.64
536.288	6822.46
536.653	6852.52
537.019	6797.15
537.384	6820.2
537.749	6908.34
538.114	6960.76
538.479	6991.04
538.845	6946.98
539.21	6927.54
539.575	6996.69
539.94	6968.67
540.305	7023.13
540.67	7032.4
541.034	7058.84
541.399	7078.5
541.764	7124.15
542.129	7181.1
542.494	7118.27
542.858	7172.06
543.223	7176.12
543.587	7228.1
543.952	7248.44
544.316	7217.71
544.681	7252.06
545.045	7339.51
545.41	7353.07
545.774	7365.95
546.138	7372.05
546.503	7403.69
546.867	7367.76
547.231	7427.42
547.595	7442.78
547.959	7416.8
548.324	7487.98
548.688	7537.92
549.052	7464.48
549.416	7479.39
549.779	7544.7
550.143	7545.83
550.507	7644.14
550.871	7600.75
551.235	7600.75
551.599	7624.7
551.962	7669.45
552.326	7630.58
552.689	7682.1
553.053	7671.93
553.417	7719.84
553.78	7791.48
554.143	7733.62
554.507	7803.68
554.87	7755.77
555.234	7859.5
555.597	7792.15
555.96	7869.44
556.323	7849.33
556.686	7876.22
557.05	7973.39
557.413	7926.16
557.776	7960.96
558.139	7995.31
558.502	8031.24
558.865	7964.58
559.228	8023.56
559.59	8073.95
559.953	8020.17
560.316	8118.7
560.679	8093.84
561.041	8190.79
561.404	8217.91
561.767	8242.09
562.129	8216.1
562.492	8317.34
562.854	8221.3
563.217	8275.31
563.579	8264.46
563.941	8377.45
564.304	8470.1
564.666	8390.78
565.028	8406.6
565.39	8450.89
565.753	8536.09
566.115	8506.71
566.477	8555.07
566.839	8616.31
567.201	8640.04
567.563	8672.58
567.925	8680.49
568.287	8715.52
568.648	8721.17
569.01	8723.65
569.372	8789.19
569.734	8840.94
570.095	8917.77
570.457	8940.37
570.819	8923.65
571.18	8915.06
571.542	9039.8
571.903	9037.32
572.265	9101.27
572.626	9085.23
572.987	9148.05
573.349	9157.09
573.71	9167.48
574.071	9286.8
574.432	9232.57
574.794	9353.24
575.155	9307.37
575.516	9380.59
575.877	9462.84
576.238	9418.55
576.599	9543.97
576.96	9550.3
577.32	9596.17
577.681	9635.95
578.042	9687.25
578.403	9786.23
578.763	9814.02
579.124	9911.19
579.485	9991.19
579.845	10024.41
580.206	10097.4
580.566	10097.18
580.927	10131.3
581.287	10263.95
581.648	10275.03
582.008	10463.5
582.368	10430.5
582.728	10600.44
583.089	10587.11
583.449	10740.78
583.809	10879.98
584.169	10935.35
584.529	10964.05
584.889	11145.74
585.249	11177.15
585.609	11282.68
585.969	11465.96
586.329	11465.28
586.688	11682.9
587.048	11707.53
587.408	11841.76
587.768	11865.27
588.127	12072.49
588.487	12202.89
588.846	12381.41
589.206	12484.46
589.565	12611.91
589.925	12776.2
590.284	12781.4
590.643	12955.18
591.003	13160.15
591.362	13322.4
591.721	13443.08
592.08	13513.59
592.44	13738.44
592.799	13773.24
593.158	13983.4
593.517	14102.72
593.876	14161.7
594.235	14319.44
594.593	14422.49
594.952	14619.54
595.311	14707
595.67	14927.33
596.029	15089.59
596.387	15234.44
596.746	15348.34
597.104	15410.48
597.463	15462.69
597.822	15631.95
598.18	15790.36
598.538	15805.95
598.897	16042.78
599.255	16017.7
599.613	16412.49
599.972	16387.41
600.33	16633.96
600.688	16615.42
601.046	16863.1
601.404	17011.57
601.762	17064.23
602.12	17209.76
602.478	17328.17
602.836	17365.01
603.194	17449.3
603.552	17610.88
603.91	17534.95
604.268	17732.01
604.625	17874.6
604.983	17923.64
605.341	17958.44
605.698	18178.77
606.056	18297.64
606.413	18412.44
606.771	18438.88
607.128	18588.03
607.485	18599.33
607.843	18658.76
608.2	18877.96
608.557	18949.6
608.914	18982.37
609.272	19096.26
609.629	19225.75
609.986	19298.52
610.343	19272.98
610.7	19475.01
611.057	19513.65
611.414	19484.05
611.771	19692.63
612.127	19755.68
612.484	19817.15
612.841	19928.11
613.198	19939.86
613.554	20028.89
613.911	20125.39
614.267	20201.77
614.624	20204.48
614.98	20277.25
615.337	20478.37
615.693	20410.13
616.05	20518.15
616.406	20548.65
616.762	20603.79
617.118	20578.03
617.475	20652.15
617.831	20632.95
618.187	20809.89
618.543	20934.41
618.899	21039.04
619.255	20841.98
619.611	20978.25
619.967	21078.58
620.323	21132.14
620.678	21086.49
621.034	21088.53
621.39	21149.09
621.746	21096.21
622.101	21450.55
622.457	21190.67
622.812	21246.94
623.168	21451.68
623.523	21383.43
623.879	21497.33
624.234	21314.06
624.589	21514.73
624.945	21518.8
625.3	21616.2
625.655	21479.48
626.01	21654.61
626.365	21502.08
626.72	21486.71
627.075	21519.93
627.43	21587.72
627.785	21652.58
628.14	21763.54
628.495	21723.54
628.85	21716.99
629.205	21597.89
629.559	21648.51
629.914	21648.74
630.269	21662.3
630.623	21687.83
630.978	21589.76
631.332	21651.22
631.687	21635.63
632.041	21564
632.396	21739.36
632.75	21526.48
633.104	21638.57
633.459	21571
633.813	21590.66
634.167	21527.39
634.521	21514.5
634.875	21578.68
635.229	21562.64
635.583	21406.03
635.937	21422.3
636.291	21516.09
636.645	21521.51
636.999	21553.6
637.352	21437.22
637.706	21326.04
638.06	21473.6
638.413	21436.77
638.767	21395.86
639.121	21356.09
639.474	21347.96
639.828	21376.66
640.181	21308.86
640.534	21361.06
640.888	21279.03
641.241	21197.9
641.594	21251.01
641.947	21354.51
642.301	21222.54
642.654	21246.72
643.007	21394.73
643.36	21325.58
643.713	21188.64
644.066	21458.46
644.419	21271.12
644.771	21170.33
645.124	20909.1
645.477	20905.03
645.83	20738.03
646.182	20642.21
646.535	20608.99
646.888	20654.41
647.24	20632.95
647.593	20659.61
647.945	20637.92
648.298	20543.23
648.65	20484.48
649.002	20498.71
649.355	20570.12
649.707	20577.58
650.059	20670.01
650.411	20927.18
650.763	20939.6
651.115	21182.31
651.467	21138.7
651.819	21121.75
652.171	21019.38
652.523	20999.94
652.875	20986.38
653.227	20975.31
653.578	20984.58
653.93	21059.6
654.282	20966.72
654.633	20899.83
654.985	21069.09
655.337	20958.14
655.688	20966.5
656.039	21105.7
656.391	20949.77
656.742	20978.47
657.094	21029.32
657.445	21091.92
657.796	20982.54
658.147	20908.42
658.498	21013.28
658.849	21176.21
659.2	21013.28
659.551	21068.87
659.902	21112.48
660.253	21124.46
660.604	21109.32
660.955	21040.62
661.306	21153.38
661.656	21053.95
662.007	21081.52
662.358	21158.13
662.708	21087.85
663.059	21086.04
663.409	21109.32
663.76	21134.85
664.11	21155.42
664.461	21174.4
664.811	21166.49
665.161	21194.29
665.511	21163.78
665.862	21131.01
666.212	21155.19
666.562	21105.7
666.912	21083.33
667.262	21097.34
667.612	21137.11
667.962	21135.76
668.312	20998.13
668.662	21171.46
669.011	21067.06
669.361	21138.24
669.711	21035.2
670.06	21097.11
670.41	21045.36
670.76	21066.61
671.109	21146.6
671.459	21012.82
671.808	21003.11
672.157	21020.96
672.507	20824.81
672.856	20930.11
673.205	20964.69
673.554	21095.76
673.904	20895.09
674.253	21065.03
674.602	20935.76
674.951	20706.39
675.3	20548.88
675.649	20918.81
675.998	20877.46
676.346	20897.12
676.695	20928.31
677.044	20712.27
677.393	20846.73
677.741	20806.95
678.09	20776.22
678.438	20707.97
678.787	20717.46
679.135	20730.8
679.484	20547.07
679.832	20702.77
680.181	20644.02
680.529	20558.82
680.877	20565.6
681.225	20417.36
681.573	20651.48
681.922	20486.74
682.27	20377.36
682.618	20317.02
682.966	20341.65
683.314	20450.35
683.661	20325.61
684.009	20314.76
684.357	20281.54
684.705	20216.69
685.053	20185.95
685.4	20124.03
685.748	20079.29
686.095	20093.07
686.443	19941.66
686.79	19944.6
687.138	19985.05
687.485	19952.74
687.832	19925.39
688.18	19946.18
688.527	19747.55
688.874	19701.9
689.221	19611.28
689.568	19639.98
689.915	19570.38
690.262	19470.72
690.609	19408.35
690.956	19312.3
691.303	19416.48
691.65	19278.41
691.997	19206.09
692.344	19085.64
692.69	19105.53
693.037	19261.23
693.383	18914.8
693.73	18988.24
694.077	18935.36
694.423	18866.44
694.769	18795.48
695.116	18802.94
695.462	18671.42
695.808	18757.97
696.155	18645.88
696.501	18570.18
696.847	18446.11
697.193	18436.62
697.539	18404.08
697.885	18283.86
698.231	18271.88
698.577	18105.78
698.923	18148.27
699.269	18071.66
699.614	17980.13
699.96	17873.47
700.306	17880.48
700.651	17794.38
700.997	17765.45
701.342	17703.76
701.688	17699.01
702.033	17645.68
702.379	17637.77
702.724	17452.24
703.069	17590.31
703.415	17395.29
703.76	17384.22
704.105	17273.26
704.45	17295.41
704.795	17093.83
705.14	17137.44
705.485	17125.02
705.83	17009.99
706.175	16985.36
706.52	16917.56
706.865	16873.27
707.209	16858.36
707.554	16756.21
707.899	16809.09
708.243	16772.48
708.588	16744.46
708.932	16524.35
709.277	16495.88
709.621	16532.04
709.966	16408.65
710.31	16474.64
710.654	16353.28
710.998	16267.41
711.342	16287.3
711.687	16303.57
712.031	16206.62
712.375	16163.91
712.719	16227.64
713.063	16111.71
713.407	16164.36
713.75	16067.19
714.094	16076.46
714.438	15994.42
714.782	16001.43
715.125	15967.08
715.469	15985.61
715.812	15986.51
716.156	15772.73
716.499	15785.39
716.843	15830.59
717.186	15681.44
717.53	15789.91
717.873	15795.33
718.216	15740.42
718.559	15655.9
718.902	15584.94
719.246	15594.66
719.589	15420.88
719.932	15428.79
720.275	15485.28
720.617	15472.63
720.96	15452.74
721.303	15420.65
721.646	15422.01
721.989	15388.11
722.331	15545.62
722.674	15359.64
723.016	15404.16
723.359	15356.47
723.701	15437.38
724.044	15312.63
724.386	15261.11
724.729	15274.67
725.071	15189.7
725.413	15197.83
725.755	15223.37
726.097	15200.32
726.439	15031.74
726.782	15163.26
727.124	15184.28
727.465	15085.52
727.807	15182.92
728.149	15077.84
728.491	14996.71
728.833	15098.85
729.175	15079.42
729.516	15035.13
729.858	15000.55
730.199	15012.98
730.541	14953.55
730.882	14930.5
731.224	15062.25
731.565	14914.68
731.906	14998.07
732.248	15059.08
732.589	14947.45
732.93	14834.45
733.271	14920.55
733.612	14986.09
733.953	14935.92
734.294	14893.66
734.635	14866.32
734.976	14930.27
735.317	14792.65
735.658	14859.99
735.999	14872.19
736.339	14876.04
736.68	14873.55
737.021	14943.83
737.361	14834.23
737.702	14873.78
738.042	14886.66
738.383	14855.24
738.723	14979.99
739.063	14866.54
739.404	14923.27
739.744	14932.08
740.084	14843.72
740.424	14918.52
740.764	14944.96
741.104	15042.13
741.444	14855.92
741.784	14956.26
742.124	14903.15
742.464	14894.34
742.804	14918.29
743.143	14935.24
743.483	15006.43
743.823	14876.26
744.162	14963.26
744.502	15119.87
744.841	15083.71
745.181	15138.4
745.52	15035.81
745.86	15159.64
746.199	15224.5
746.538	15147.44
746.877	15343.14
747.216	15361.9
747.556	15365.29
747.895	15443.48
748.234	15439.86
748.573	15412.07
748.911	15506.75
749.25	15571.16
749.589	15659.52
749.928	15726.63
750.267	15802.56
750.605	15726.63
750.944	15940.41
751.283	15864.03
751.621	16080.52
751.96	16117.13
752.298	16187.19
752.636	16235.77
752.975	16266.28
753.313	16420.4
753.651	16556.22
753.989	16612.94
754.327	16668.08
754.666	16693.39
755.004	16952.82
755.342	17039.14
755.679	17135.64
756.017	17168.18
756.355	17414.27
756.693	17407.72
757.031	17594.38
757.368	17502.63
757.706	17680.93
758.044	17754.38
758.381	17903.75
758.719	17994.6
759.056	18173.58
