Data from hue_80_FLMS001491_60.txt Node
Date: Mon Feb 06 15:23:15 GMT 2017
User: dcchb
Spectrometer: FLMS00149
Trigger mode: 0
Integration Time (sec): 2.000000E-2
Scans to average: 10
Electric dark correction enabled: true
Nonlinearity correction enabled: false
Boxcar width: 0
XAxis mode: Wavelengths
Number of Pixels in Spectrum: 2048
>>>>>Begin Spectral Data<<<<<
341.393	0.69
341.776	0.69
342.16	0.69
342.543	-45.18
342.927	-42.47
343.31	-80.89
343.693	-66.2
344.077	-73.43
344.46	-66.65
344.843	-56.93
345.226	-40.89
345.61	-35.24
345.993	-14.45
346.376	5.66
346.759	-6.99
347.142	44.98
347.525	44.98
347.908	53.57
348.291	72.78
348.674	99.22
349.057	120.46
349.44	112.1
349.823	149.39
350.206	158.88
350.588	201.59
350.971	205.88
351.354	223.29
351.737	235.94
352.119	241.59
352.502	262.38
352.884	286.33
353.267	298.54
353.65	309.16
354.032	288.14
354.414	302.38
354.797	317.75
355.179	324.3
355.562	348.71
355.944	329.5
356.326	323.62
356.709	333.34
357.091	329.95
357.473	358.42
357.855	359.33
358.238	356.61
358.62	363.39
359.002	353.9
359.384	364.75
359.766	348.25
360.148	349.84
360.53	349.38
360.912	333.79
361.294	338.76
361.676	344.41
362.057	339.21
362.439	318.2
362.821	356.39
363.203	328.14
363.584	324.53
363.966	317.07
364.348	334.92
364.729	327.92
365.111	322.27
365.493	299.67
365.874	337.63
366.256	327.46
366.637	328.14
367.019	311.42
367.4	311.42
367.781	338.99
368.163	295.83
368.544	322.27
368.925	306.9
369.306	307.8
369.688	308.03
370.069	309.61
370.45	296.96
370.831	322.49
371.212	298.09
371.593	331.08
371.974	331.76
372.355	325.43
372.736	315.49
373.117	309.38
373.498	296.73
373.879	338.99
374.26	308.03
374.641	320.23
375.021	322.72
375.402	339.89
375.783	340.12
376.163	314.58
376.544	350.51
376.925	331.3
377.305	319.1
377.686	329.72
378.066	336.05
378.447	313.68
378.827	306.9
379.208	341.25
379.588	327.46
379.968	322.49
380.349	334.69
380.729	349.61
381.109	345.09
381.489	335.15
381.87	316.62
382.25	347.12
382.63	342.15
383.01	328.14
383.39	350.29
383.77	325.2
384.15	335.82
384.53	348.03
384.91	346.45
385.29	358.2
385.67	345.77
386.049	348.48
386.429	343.73
386.809	335.82
387.189	351.87
387.568	344.19
387.948	376.73
388.328	372.21
388.707	360.46
389.087	342.6
389.466	364.3
389.846	360.23
390.225	362.94
390.605	356.84
390.984	355.49
391.363	371.3
391.743	356.61
392.122	382.15
392.501	366.56
392.881	369.27
393.26	353.9
393.639	362.26
394.018	366.56
394.397	387.12
394.776	355.71
395.155	383.73
395.534	361.36
395.913	382.83
396.292	381.25
396.671	409.04
397.05	391.42
397.429	388.03
397.808	381.7
398.186	381.7
398.565	381.47
398.944	378.08
399.323	383.96
399.701	381.7
400.08	386.67
400.458	382.83
400.837	408.36
401.215	399.1
401.594	405.65
401.972	406.56
402.351	393.68
402.729	401.59
403.107	427.35
403.486	409.49
403.864	432.09
404.242	409.04
404.62	393
404.999	411.98
405.377	416.27
405.755	423.05
406.133	411.53
406.511	433.68
406.889	402.94
407.267	434.35
407.645	423.05
408.023	417.4
408.401	414.01
408.779	453.56
409.156	432.09
409.534	449.95
409.912	427.35
410.29	431.64
410.667	442.04
411.045	465.09
411.422	450.17
411.8	457.86
412.178	466.67
412.555	459.44
412.933	477.52
413.31	471.19
413.687	459.21
414.065	477.06
414.442	482.26
414.819	466.22
415.197	481.13
415.574	474.35
415.951	466.22
416.328	495.82
416.705	500.34
417.082	482.49
417.46	506.89
417.837	504.63
418.214	508.02
418.591	505.31
418.967	510.06
419.344	509.61
419.721	506.67
420.098	522.49
420.475	526.33
420.852	529.49
421.228	531.3
421.605	526.55
421.982	533.56
422.358	531.07
422.735	519.1
423.111	552.99
423.488	540.56
423.864	550.28
424.241	573.56
424.617	565.65
424.994	555.71
425.37	560.45
425.746	540.34
426.123	572.43
426.499	542.6
426.875	577.4
427.251	590.28
427.627	586.44
428.003	596.61
428.379	601.35
428.756	590.73
429.132	610.39
429.507	607.68
429.883	592.77
430.259	612.88
430.635	614.01
431.011	611.3
431.387	608.81
431.763	638.19
432.138	627.79
432.514	642.94
432.89	649.26
433.265	653.56
433.641	667.57
434.016	649.94
434.392	643.61
434.767	664.63
435.143	689.26
435.518	681.35
435.894	714.57
436.269	701.24
436.644	708.02
437.02	728.81
437.395	724.29
437.77	720.45
438.145	738.75
438.52	727.9
438.895	741.24
439.271	760.67
439.646	750.28
440.021	743.72
440.395	736.04
440.77	732.42
441.145	753.67
441.52	761.58
441.895	764.97
442.27	772.2
442.645	787.34
443.019	765.87
443.394	800.45
443.769	805.64
444.143	797.51
444.518	807.45
444.892	801.8
445.267	806.09
445.641	811.74
446.016	796.15
446.39	849.71
446.764	826.66
447.139	825.3
447.513	847.68
447.887	839.09
448.262	835.02
448.636	833.21
449.01	856.71
449.384	861.46
449.758	874.79
450.132	882.7
450.506	881.35
450.88	886.32
451.254	909.82
451.628	884.28
452.002	898.3
452.376	905.75
452.75	929.48
453.123	917.28
453.497	933.32
453.871	934.9
454.244	938.97
454.618	981.91
454.992	961.34
455.365	985.52
455.739	998.18
456.112	1007.22
456.486	1002.25
456.859	1033.66
457.232	1046.31
457.606	1036.15
457.979	1040.44
458.352	1052.87
458.725	1068.91
459.099	1109.36
459.472	1122.24
459.845	1088.12
460.218	1145.52
460.591	1152.98
460.964	1155.24
461.337	1196.37
461.71	1185.07
462.083	1188.23
462.456	1205.86
462.829	1181.68
463.201	1228.68
463.574	1223.03
463.947	1252.41
464.32	1279.75
464.692	1310.26
465.065	1308.23
465.438	1322.24
465.81	1327.89
466.183	1373.09
466.555	1403.59
466.928	1399.07
467.3	1430.26
467.672	1464.16
468.045	1446.08
468.417	1496.92
468.789	1499.18
469.161	1517.04
469.534	1553.65
469.906	1583.25
470.278	1608.11
470.65	1645.17
471.022	1674.77
471.394	1705.05
471.766	1751.38
472.138	1770.59
472.51	1792.96
472.882	1875.67
473.253	1883.58
473.625	1878.83
473.997	1948.89
474.369	1988.44
474.74	2036.57
475.112	2087.87
475.484	2098.72
475.855	2160.41
476.227	2220.52
476.598	2289.9
476.97	2342.33
477.341	2430.68
477.713	2468.42
478.084	2443.34
478.455	2569.21
478.827	2637.91
479.198	2697.57
479.569	2760.39
479.94	2869.54
480.311	2928.3
480.682	3045.13
481.053	3125.81
481.424	3205.81
481.795	3269.53
482.166	3338.68
482.537	3416.87
482.908	3579.13
483.279	3621.39
483.65	3781.16
484.021	3800.14
484.391	3944.09
484.762	4055.95
485.133	4122.17
485.503	4237.19
485.874	4403.06
486.244	4462.5
486.615	4589.95
486.985	4702.26
487.356	4853.9
487.726	4963.5
488.097	5049.15
488.467	5147.22
488.837	5354
489.207	5415.46
489.578	5658.62
489.948	5700.43
490.318	5895.9
490.688	6000.31
491.058	6115.56
491.428	6292.96
491.798	6407.08
492.168	6600.07
492.538	6679.61
492.908	6829.21
493.278	7030.56
493.648	7097.91
494.017	7263.55
494.387	7441.63
494.757	7495.18
495.126	7710.55
495.496	7798.68
495.866	7908.28
496.235	8083.19
496.605	8237.09
496.974	8294.03
497.344	8475.5
497.713	8597.53
498.082	8748.48
498.452	8907.35
498.821	9035.26
499.19	9119.55
499.559	9240.68
499.928	9405.42
500.298	9505.3
500.667	9642.02
501.036	9625.98
501.405	9814.22
501.774	9905.52
502.143	10045.85
502.512	10215.56
502.88	10330.59
503.249	10331.95
503.618	10472.96
503.987	10585.5
504.356	10764.25
504.724	10795.21
505.093	10909.78
505.462	10902.33
505.83	11110.46
506.199	11243.79
506.567	11404.23
506.936	11372.6
507.304	11554.51
507.672	11605.36
508.041	11683.32
508.409	11876.09
508.777	11906.59
509.145	12011
509.514	12070.43
509.882	12243.31
510.25	12292.57
510.618	12427.26
510.986	12450.08
511.354	12628.83
511.722	12703.63
512.09	12788.38
512.458	12861.82
512.826	12969.16
513.193	13043.51
513.561	13133.45
513.929	13165.09
514.297	13314.47
514.664	13361.24
515.032	13445.54
515.4	13525.76
515.767	13656.6
516.135	13656.38
516.502	13577.74
516.869	13852.08
517.237	13941.34
517.604	13858.18
517.972	13934.11
518.339	14038.06
518.706	14135.01
519.073	14134.11
519.44	14203.93
519.808	14409.35
520.175	14279.19
520.542	14482.12
520.909	14638.95
521.276	14578.84
521.643	14694.32
522.009	14817.48
522.376	14883.46
522.743	14911.26
523.11	15019.51
523.477	15203.91
523.843	15081.43
524.21	15300.18
524.577	15385.82
524.943	15475.09
525.31	15494.07
525.676	15598.93
526.043	15652.71
526.409	15647.96
526.776	15910.78
527.142	15819.03
527.508	15877.11
527.874	15949.88
528.241	15942.65
528.607	16040.5
528.973	16145.13
529.339	16170.44
529.705	16318.46
530.071	16254.5
530.437	16365.23
530.803	16450.66
531.169	16476.87
531.535	16391.9
531.901	16440.03
532.267	16396.87
532.632	16532.23
532.998	16622.85
533.364	16646.81
533.73	16534.04
534.095	16729.52
534.461	16763.64
534.826	16661.72
535.192	16671.21
535.557	16830.31
535.923	16765
536.288	16927.25
536.653	16816.07
537.019	16735.39
537.384	16821.27
537.749	16766.58
538.114	16801.38
538.479	16843.87
538.845	16898.33
539.21	16835.73
539.575	16916.63
539.94	16778.56
540.305	16894.03
540.67	16844.54
541.034	16840.48
541.399	16870.98
541.764	16941.94
542.129	16851.55
542.494	16943.52
542.858	16827.82
543.223	16872.34
543.587	16884.77
543.952	16844.99
544.316	16877.99
544.681	16864.88
545.045	16940.36
545.41	16887.48
545.774	16872.56
546.138	16824.43
546.503	16931.09
546.867	16816.52
547.231	16967.7
547.595	16844.77
547.959	16963.64
548.324	16931.09
548.688	16913.24
549.052	16824.88
549.416	16883.19
549.779	16822.4
550.143	16826.46
550.507	16905.56
550.871	16883.86
551.235	16891.32
551.599	16979.91
551.962	16982.62
552.326	16933.13
552.689	16986.23
553.053	16813.13
553.417	16809.97
553.78	17003.86
554.143	16838.22
554.507	16864.43
554.87	16889.97
555.234	17078.44
555.597	16898.1
555.96	16985.56
556.323	16980.36
556.686	16857.65
557.05	16997.53
557.413	17073.46
557.776	17008.38
558.139	17056.97
558.502	17047.48
558.865	17028.27
559.228	17103.07
559.59	17133.35
559.953	17206.57
560.316	17323.17
560.679	17293.57
561.041	17277.3
561.404	17318.2
561.767	17341.48
562.129	17276.62
562.492	17479.1
562.854	17379.9
563.217	17419.9
563.579	17490.4
563.941	17579.89
564.304	17596.84
564.666	17674.35
565.028	17661.24
565.39	17579.21
565.753	17614.24
566.115	17683.39
566.477	17756.61
566.839	17775.82
567.201	17836.38
567.563	17802.94
567.925	17928.81
568.287	17912.31
568.648	17961.8
569.01	18003.83
569.372	18157.28
569.734	18045.64
570.095	18138.97
570.457	18192.53
570.819	18153.66
571.18	18105.3
571.542	18171.29
571.903	18176.94
572.265	18117.73
572.626	18239.08
572.987	18308.23
573.349	18361.57
573.71	18397.72
574.071	18379.64
574.432	18421.9
574.794	18511.39
575.155	18454.44
575.516	18408.34
575.877	18546.19
576.238	18517.95
576.599	18483.82
576.96	18537.83
577.32	18613.31
577.681	18633.87
578.042	18653.99
578.403	18653.53
578.763	18586.64
579.124	18592.29
579.485	18640.88
579.845	18729.69
580.206	18627.09
580.566	18592.07
580.927	18629.81
581.287	18670.94
581.648	18598.85
582.008	18657.15
582.368	18642.01
582.728	18737.37
583.089	18684.95
583.449	18649.02
583.809	18632.29
584.169	18679.97
584.529	18618.28
584.889	18791.16
585.249	18695.12
585.609	18616.02
585.969	18707.32
586.329	18570.37
586.688	18641.56
587.048	18583.71
587.408	18545.52
587.768	18621.67
588.127	18641.78
588.487	18584.84
588.846	18697.83
589.206	18497.61
589.565	18483.6
589.925	18654.21
590.284	18494.44
590.643	18547.55
591.003	18530.37
591.362	18589.58
591.721	18501.45
592.08	18590.26
592.44	18482.24
592.799	18563.82
593.158	18456.7
593.517	18536.48
593.876	18477.49
594.235	18469.13
594.593	18538.06
594.952	18543.93
595.311	18481.34
595.67	18510.26
596.029	18628.45
596.387	18572.18
596.746	18589.13
597.104	18555.01
597.463	18528.79
597.822	18501
598.18	18370.15
598.538	18457.16
598.897	18561.79
599.255	18431.85
599.613	18697.83
599.972	18550.71
600.33	18629.35
600.688	18438.4
601.046	18494.67
601.404	18567.66
601.762	18624.61
602.12	18628.9
602.478	18671.84
602.836	18573.99
603.194	18500.32
603.552	18549.81
603.91	18439.76
604.268	18590.71
604.625	18602.24
604.983	18686.3
605.341	18522.46
605.698	18644.04
606.056	18617.83
606.413	18560.66
606.771	18627.55
607.128	18656.02
607.485	18644.72
607.843	18686.75
608.2	18739.86
608.557	18803.14
608.914	18656.7
609.272	18698.96
609.629	18795
609.986	18765.62
610.343	18691.27
610.7	18814.43
611.057	18892.4
611.414	18786.41
611.771	18914.77
612.127	18895.34
612.484	18951.83
612.841	19032.51
613.198	18905.73
613.554	18914.55
613.911	19096.69
614.267	19036.58
614.624	19038.84
614.98	18962
615.337	19040.42
615.693	19011.49
616.05	19067.31
616.406	19175.78
616.762	19050.59
617.118	19054.2
617.475	19091.49
617.831	19147.53
618.187	19103.69
618.543	19116.8
618.899	19282.9
619.255	19217.81
619.611	19150.7
619.967	19226.85
620.323	19255.55
620.678	19253.52
621.034	19237.47
621.39	19229.57
621.746	19211.71
622.101	19380.97
622.457	19306.63
622.812	19322.9
623.168	19371.93
623.523	19361.99
623.879	19384.36
624.234	19239.51
624.589	19273.41
624.945	19362.22
625.3	19362.89
625.655	19349.79
626.01	19353.86
626.365	19413.29
626.72	19337.13
627.075	19284.25
627.43	19274.08
627.785	19237.93
628.14	19310.92
628.495	19233.18
628.85	19295.55
629.205	19250.81
629.559	19344.36
629.914	19261.65
630.269	19212.84
630.623	19105.5
630.978	19086.97
631.332	19272.5
631.687	19227.08
632.041	19143.47
632.396	19256.91
632.75	19063.02
633.104	19158.83
633.459	19055.33
633.813	19084.03
634.167	19074.99
634.521	19048.1
634.875	19132.17
635.229	19016.92
635.583	19012.17
635.937	19019.63
636.291	18973.3
636.645	18928.56
636.999	18908.44
637.352	18962.23
637.706	18720.43
638.06	18813.53
638.413	18842.23
638.767	18746.87
639.121	18764.72
639.474	18657.15
639.828	18666.19
640.181	18856.24
640.534	18675.68
640.888	18708.67
641.241	18622.8
641.594	18652.41
641.947	18764.94
642.301	18623.25
642.654	18745.06
643.007	18666.87
643.36	18653.31
643.713	18558.17
644.066	18736.02
644.419	18603.82
644.771	18492.18
645.124	18300.32
645.477	18281.79
645.83	18184.85
646.182	17949.15
646.535	18021.46
646.888	18047
647.24	17973.1
647.593	18067.56
647.945	17957.73
648.298	17934.46
648.65	17861.69
649.002	17812.2
649.355	17900.33
649.707	17849.71
650.059	18038.41
650.411	18223.26
650.763	18219.65
651.115	18436.82
651.467	18358.63
651.819	18437.5
652.171	18388.91
652.523	18262.13
652.875	18306.43
653.227	18242.47
653.578	18436.59
653.93	18369.7
654.282	18263.49
654.633	18237.27
654.985	18336.71
655.337	18364.28
655.688	18341.9
656.039	18407.89
656.391	18342.81
656.742	18275.69
657.094	18342.36
657.445	18312.08
657.796	18296.26
658.147	18332.87
658.498	18308.91
658.849	18378.97
659.2	18398.85
659.551	18288.35
659.902	18392.3
660.253	18312.98
660.604	18299.65
660.955	18191.63
661.306	18276.6
661.656	18301
662.007	18347.78
662.358	18302.36
662.708	18343.03
663.059	18306.88
663.409	18071.63
663.76	18382.58
664.11	18388.91
664.461	18391.62
664.811	18297.84
665.161	18377.38
665.511	18303.49
665.862	18347.55
666.212	18448.34
666.562	18400.89
666.912	18339.87
667.262	18351.4
667.612	18369.02
667.962	18428.46
668.312	18334
668.662	18493.09
669.011	18416.93
669.361	18390.94
669.711	18334.22
670.06	18231.85
670.41	18263.49
670.76	18246.54
671.109	18367.67
671.459	18203.15
671.808	18306.2
672.157	18326.76
672.507	18181.01
672.856	18124.51
673.205	18174.45
673.554	18238.18
673.904	18103.94
674.253	18230.27
674.602	18142.36
674.951	17957.73
675.3	17842.93
675.649	18022.59
675.998	18068.92
676.346	18062.59
676.695	18250.61
677.044	17986.43
677.393	18065.3
677.741	18103.27
678.09	17981.46
678.438	17938.53
678.787	17988.92
679.135	17948.24
679.484	17830.51
679.832	17973.55
680.181	17848.13
680.529	17841.8
680.877	17830.05
681.225	17859.66
681.573	17929.26
681.922	17700.11
682.27	17772.65
682.618	17662.15
682.966	17712.99
683.314	17722.03
683.661	17613.11
684.009	17522.72
684.357	17461.93
684.705	17477.29
685.053	17426.45
685.4	17339.22
685.748	17272.78
686.095	17233.69
686.443	17263.74
686.79	17248.15
687.138	17235.72
687.485	17297.64
687.832	17086.8
688.18	17168.38
688.527	17055.16
688.874	16958.44
689.221	16985.1
689.568	16939.46
689.915	16944.88
690.262	16908.95
690.609	16758.22
690.956	16691.55
691.303	16775.84
691.65	16607.04
691.997	16554.83
692.344	16504.21
692.69	16560.48
693.037	16493.37
693.383	16358.23
693.73	16402.52
694.077	16296.99
694.423	16321.62
694.769	16253.37
695.116	16222.86
695.462	16124.79
695.808	16162.3
696.155	16079.37
696.501	16033.49
696.847	15879.14
697.193	15844.12
697.539	15995.07
697.885	15637.34
698.231	15658.81
698.577	15634.63
698.923	15680.28
699.269	15577.23
699.614	15353.51
699.96	15393.51
700.306	15290.91
700.651	15312.61
700.997	15295.88
701.342	15165.49
701.688	15142.44
702.033	15119.16
702.379	15050.47
702.724	15007.53
703.069	15170.01
703.415	14897.48
703.76	14857.7
704.105	14865.16
704.45	14812.96
704.795	14730.25
705.14	14746.29
705.485	14729.57
705.83	14660.42
706.175	14567.99
706.52	14602.57
706.865	14601.89
707.209	14467.88
707.554	14400.77
707.899	14469.92
708.243	14329.35
708.588	14310.15
708.932	14260.66
709.277	14249.36
709.621	14250.94
709.966	14034.67
710.31	14190.6
710.654	14024.28
710.998	14014.79
711.342	13980.44
711.687	13916.26
712.031	13857.28
712.375	13894.79
712.719	13875.36
713.063	13805.07
713.407	13902.25
713.75	13794.23
714.094	13728.01
714.438	13654.12
714.782	13706.55
715.125	13595.36
715.469	13629.03
715.812	13564.63
716.156	13552.43
716.499	13501.58
716.843	13527.34
717.186	13482.6
717.53	13502.48
717.873	13504.29
718.216	13465.2
718.559	13508.81
718.902	13389.49
719.246	13369.15
719.589	13330.51
719.932	13296.61
720.275	13253.68
720.617	13241.02
720.96	13231.53
721.303	13216.16
721.646	13253.22
721.989	13124.19
722.331	13171.19
722.674	13151.08
723.016	13128.03
723.359	13063.17
723.701	13134.58
724.044	13059.56
724.386	13018.2
724.729	13127.58
725.071	13008.03
725.413	12994.93
725.755	13025.43
726.097	12997.19
726.439	12951.99
726.782	12914.7
727.124	12956.28
727.465	12967.13
727.807	12964.87
728.149	12933.46
728.491	12902.27
728.833	12920.8
729.175	12870.18
729.516	12881.26
729.858	12886.68
730.199	12887.81
730.541	12833.8
730.882	12872.9
731.224	12924.65
731.565	12816.63
731.906	12833.8
732.248	12824.76
732.589	12735.05
732.93	12714.48
733.271	12701.15
733.612	12755.84
733.953	12729.62
734.294	12684.43
734.635	12729.4
734.976	12830.64
735.317	12751.77
735.658	12794.48
735.999	12736.63
736.339	12746.57
736.68	12798.77
737.021	12700.02
737.361	12691.43
737.702	12816.4
738.042	12732.79
738.383	12795.84
738.723	12797.64
739.063	12700.25
739.404	12794.48
739.744	12830.86
740.084	12708.61
740.424	12845.78
740.764	12714.93
741.104	12815.5
741.444	12818.89
741.784	12804.2
742.124	12824.76
742.464	12890.75
742.804	12823.63
743.143	12839.45
743.483	12845.78
743.823	12918.77
744.162	12909.28
744.502	12918.54
744.841	12862.05
745.181	12934.36
745.52	13067.92
745.86	13071.31
746.199	13058.43
746.538	13170.74
746.877	13264.75
747.216	13261.81
747.556	13316.95
747.895	13376.16
748.234	13357.18
748.573	13340
748.911	13399.21
749.25	13493.67
749.589	13512.2
749.928	13621.8
750.267	13595.14
750.605	13661.8
750.944	13718.3
751.283	13777.96
751.621	13979.08
751.96	13921.91
752.298	14018.85
752.636	14067.21
752.975	14092.07
753.313	14226.98
753.651	14370.48
753.989	14436.92
754.327	14650.93
754.666	14579.97
755.004	14755.56
755.342	14784.48
755.679	14987.19
756.017	14918.04
756.355	15125.94
756.693	15172.04
