Data from hue_28_FLMS001491_00043.txt Node
Date: Tue Feb 07 17:17:19 GMT 2017
User: dcchb
Spectrometer: FLMS00149
Trigger mode: 0
Integration Time (sec): 2.000000E-2
Scans to average: 10
Electric dark correction enabled: true
Nonlinearity correction enabled: false
Boxcar width: 0
XAxis mode: Wavelengths
Number of Pixels in Spectrum: 2048
>>>>>Begin Spectral Data<<<<<
341.393	-18.93
341.776	-18.93
342.16	-18.93
342.543	-53.5
342.927	-56.44
343.31	-68.64
343.693	-61.18
344.077	-44.46
344.46	-65.48
344.843	-44.46
345.226	-40.39
345.61	-29.32
345.993	-26.61
346.376	-5.59
346.759	11.58
347.142	5.03
347.525	38.7
347.908	50
348.291	76.21
348.674	94.52
349.057	110.11
349.44	136.1
349.823	145.59
350.206	158.24
350.588	184.68
350.971	212.48
351.354	245.47
351.737	270.78
352.119	252.48
352.502	271.24
352.884	271.46
353.267	295.87
353.65	296.77
354.032	285.47
354.414	306.94
354.797	328.41
355.179	334.51
355.562	345.58
355.944	345.13
356.326	339.26
356.709	334.06
357.091	351.23
357.473	346.04
357.855	348.97
358.238	337
358.62	337.22
359.002	362.53
359.384	337.9
359.766	353.72
360.148	337.67
360.53	342.19
360.912	361.4
361.294	331.35
361.676	327.05
362.057	348.07
362.439	322.53
362.821	350.33
363.203	325.7
363.584	325.92
363.966	327.73
364.348	327.05
364.729	334.06
365.111	332.25
365.493	326.83
365.874	342.87
366.256	328.41
366.637	317.34
367.019	296.55
367.4	335.64
367.781	330.22
368.163	328.64
368.544	322.53
368.925	322.31
369.306	321.63
369.688	304.46
370.069	345.36
370.45	315.08
370.831	307.39
371.212	337.22
371.593	325.92
371.974	323.66
372.355	323.89
372.736	299.94
373.117	340.61
373.498	318.01
373.879	338.58
374.26	321.4
374.641	330.9
375.021	318.01
375.402	329.54
375.783	294.96
376.163	333.16
376.544	346.49
376.925	335.64
377.305	322.31
377.686	320.05
378.066	315.75
378.447	351.46
378.827	325.92
379.208	349.43
379.588	330.22
379.968	348.3
380.349	338.35
380.729	333.61
381.109	358.01
381.489	350.33
381.87	351.01
382.25	354.4
382.63	351.69
383.01	353.04
383.39	352.14
383.77	352.36
384.15	365.7
384.53	364.34
384.91	334.06
385.29	358.69
385.67	357.34
386.049	358.47
386.429	332.03
386.809	359.37
387.189	364.57
387.568	358.47
387.948	363.21
388.328	355.3
388.707	366.15
389.087	380.61
389.466	373.83
389.846	381.97
390.225	383.32
390.605	383.55
390.984	375.41
391.363	352.59
391.743	380.39
392.122	348.52
392.501	365.02
392.881	379.03
393.26	361.18
393.639	373.38
394.018	373.38
394.397	387.16
394.776	376.32
395.155	398.69
395.534	422.64
395.913	363.44
396.292	382.42
396.671	420.38
397.05	388.97
397.429	393.72
397.808	388.07
398.186	395.3
398.565	406.15
398.944	398.69
399.323	397.33
399.701	387.16
400.08	395.3
400.458	414.51
400.837	405.92
401.215	407.5
401.594	384.45
401.972	418.12
402.351	398.69
402.729	417.22
403.107	405.47
403.486	408.41
403.864	417.67
404.242	414.96
404.62	423.32
404.999	438.69
405.377	419.48
405.755	416.99
406.133	422.19
406.511	402.08
406.889	431.23
407.267	448.86
407.645	460.16
408.023	442.76
408.401	461.06
408.779	443.21
409.156	448.41
409.534	425.58
409.912	458.8
410.29	449.08
410.667	464.68
411.045	461.97
411.422	459.03
411.8	462.87
412.178	442.76
412.555	492.92
412.933	482.08
413.31	469.65
413.687	483.89
414.065	480.72
414.442	487.28
414.819	461.51
415.197	498.57
415.574	469.42
415.951	491.79
416.328	509.42
416.705	492.02
417.082	497.67
417.46	500.83
417.837	489.54
418.214	492.7
418.591	504
418.967	531.12
419.344	506.94
419.721	534.51
420.098	519.59
420.475	526.6
420.852	528.18
421.228	515.3
421.605	509.87
421.982	522.75
422.358	533.6
422.735	547.16
423.111	523.88
423.488	560.49
423.864	571.34
424.241	580.61
424.617	539.93
424.994	568.4
425.37	571.57
425.746	561.62
426.123	571.34
426.499	581.06
426.875	592.36
427.251	580.61
427.627	593.49
428.003	591.68
428.379	604.33
428.756	585.35
429.132	598.68
429.507	605.69
429.883	610.44
430.259	607.72
430.635	643.2
431.011	619.7
431.387	614.28
431.763	638.23
432.138	648.63
432.514	647.72
432.89	621.06
433.265	657.67
433.641	666.93
434.016	672.81
434.392	682.98
434.767	671.9
435.143	668.29
435.518	684.33
435.894	686.59
436.269	714.61
436.644	702.86
437.02	713.03
437.395	710.09
437.77	693.15
438.145	720.49
438.52	739.25
438.895	719.36
439.271	741.28
439.646	757.55
440.021	747.38
440.395	729.75
440.77	746.93
441.145	759.13
441.52	743.31
441.895	777.44
442.27	752.13
442.645	766.36
443.019	776.76
443.394	779.47
443.769	775.86
444.143	788.74
444.518	825.35
444.892	811.11
445.267	827.61
445.641	793.48
446.016	796.42
446.39	825.35
446.764	799.13
447.139	810.2
447.513	812.92
447.887	833.03
448.262	847.27
448.636	806.81
449.01	822.63
449.384	835.06
449.758	849.98
450.132	851.11
450.506	869.19
450.88	867.15
451.254	853.37
451.628	875.06
452.002	883.88
452.376	889.98
452.75	913.93
453.123	925.46
453.497	907.38
453.871	915.29
454.244	940.14
454.618	942.63
454.992	932.91
455.365	959.58
455.739	953.7
456.112	957.09
456.486	975.17
456.859	971.78
457.232	1008.17
457.606	992.35
457.979	1059.46
458.352	1059.24
458.725	1037.32
459.099	1066.92
459.472	1056.07
459.845	1084.55
460.218	1070.54
460.591	1093.14
460.964	1095.85
461.337	1099.91
461.71	1113.7
462.083	1122.51
462.456	1141.27
462.829	1152.79
463.201	1179.91
463.574	1142.85
463.947	1177.43
464.32	1197.77
464.692	1200.93
465.065	1210.19
465.438	1237.76
465.81	1263.53
466.183	1241.83
466.555	1276.63
466.928	1301.72
467.3	1291.77
467.672	1327.25
468.045	1330.64
468.417	1352.11
468.789	1380.59
469.161	1381.04
469.534	1414.93
469.906	1393.92
470.278	1427.59
470.65	1467.59
471.022	1449.51
471.394	1491.32
471.766	1515.95
472.138	1506.91
472.51	1574.7
472.882	1574.25
473.253	1583.29
473.625	1633.46
473.997	1671.88
474.369	1666.68
474.74	1702.38
475.112	1721.14
475.484	1761.37
475.855	1777.41
476.227	1774.25
476.598	1863.51
476.97	1860.57
477.341	1916.84
477.713	1922.04
478.084	1949.84
478.455	2004.75
478.827	2023.05
479.198	2126.33
479.569	2132.2
479.94	2184.18
480.311	2215.37
480.682	2230.51
481.053	2301.24
481.424	2329.71
481.795	2355.02
482.166	2465.75
482.537	2484.96
482.908	2541.91
483.279	2555.24
483.65	2617.84
484.021	2694
484.391	2701.91
484.762	2750.94
485.133	2762.7
485.503	2849.7
485.874	2900.32
486.244	2948.68
486.615	3076.13
486.985	3075.68
487.356	3148
487.726	3174.89
488.097	3277.71
488.467	3254.89
488.837	3328.78
489.207	3442
489.578	3445.16
489.948	3520.42
490.318	3565.39
490.688	3575.56
491.058	3681.32
491.428	3764.7
491.798	3748.43
492.168	3843.12
492.538	3914.53
492.908	3936.68
493.278	3991.59
493.648	4003.34
494.017	4055.54
494.387	4128.76
494.757	4215.76
495.126	4262.77
495.496	4304.35
495.866	4310
496.235	4358.13
496.605	4463.67
496.974	4452.82
497.344	4495.76
497.713	4539.37
498.082	4565.59
498.452	4601.29
498.821	4624.12
499.19	4660.05
499.559	4744.11
499.928	4801.29
500.298	4836.31
500.667	4889.87
501.036	4883.54
501.405	4941.4
501.774	4941.85
502.143	5006.25
502.512	5016.42
502.88	5067.72
503.249	5094.16
503.618	5138.9
503.987	5134.84
504.356	5202.86
504.724	5246.92
505.093	5214.16
505.462	5243.76
505.83	5283.08
506.199	5317.43
506.567	5383.87
506.936	5413.7
507.304	5480.82
507.672	5521.49
508.041	5474.04
508.409	5545
508.777	5599.91
509.145	5629.06
509.514	5623.41
509.882	5662.96
510.25	5688.04
510.618	5730.3
510.986	5752.67
511.354	5885.55
511.722	5821.6
512.09	5883.29
512.458	5854.37
512.826	5866.79
513.193	5906.34
513.561	5984.08
513.929	5983.85
514.297	6072.67
514.664	6108.6
515.032	6104.08
515.4	6152.66
515.767	6161.25
516.135	6163.96
516.502	6147.01
516.869	6238.54
517.237	6276.73
517.604	6204.64
517.972	6261.59
518.339	6387.23
518.706	6270.63
519.073	6353.34
519.44	6400.11
519.808	6453.45
520.175	6494.57
520.542	6521.69
520.909	6556.04
521.276	6536.16
521.643	6649.6
522.009	6655.47
522.376	6622.03
522.743	6697.73
523.11	6809.14
523.477	6788.8
523.843	6812.08
524.21	6851.4
524.577	6952.64
524.943	7002.58
525.31	7012.3
525.676	7040.78
526.043	7081.23
526.409	7080.55
526.776	7208.23
527.142	7144.95
527.508	7208
527.874	7340.43
528.241	7308.79
528.607	7374.55
528.973	7384.5
529.339	7401.22
529.705	7484.38
530.071	7516.47
530.437	7550.37
530.803	7590.37
531.169	7583.36
531.535	7557.15
531.901	7647.54
532.267	7610.25
532.632	7791.94
532.998	7795.56
533.364	7836.91
533.73	7802.11
534.095	7907.87
534.461	7928.21
534.826	7989.9
535.192	7994.2
535.557	8076.45
535.923	8033.29
536.288	8086.17
536.653	8116.91
537.019	8113.29
537.384	8124.59
537.749	8168.2
538.114	8286.17
538.479	8225.6
538.845	8281.42
539.21	8380.63
539.575	8369.78
539.94	8349.22
540.305	8481.64
540.67	8407.52
541.034	8437.8
541.399	8515.99
541.764	8586.05
542.129	8628.53
542.494	8607.06
542.858	8627.63
543.223	8683.9
543.587	8745.36
543.952	8756.21
544.316	8741.52
544.681	8853.61
545.045	8872.37
545.41	8873.27
545.774	8924.12
546.138	9012.7
546.503	8967.96
546.867	9001.85
547.231	9041.4
547.595	9057.67
547.959	9184.67
548.324	9126.6
548.688	9141.06
549.052	9176.99
549.416	9266.48
549.779	9225.35
550.143	9250.66
550.507	9325.46
550.871	9354.16
551.235	9400.49
551.599	9385.8
551.962	9414.5
552.326	9480.03
552.689	9585.34
553.053	9515.51
553.417	9553.7
553.78	9724.32
554.143	9654.04
554.507	9683.87
554.87	9729.29
555.234	9779.23
555.597	9769.29
555.96	9819.46
556.323	9852.9
556.686	9863.75
557.05	9896.97
557.413	9914.37
557.776	9942.85
558.139	10047.93
558.502	10022.84
558.865	10013.58
559.228	10102.84
559.59	10150.75
559.953	10112.78
560.316	10243.63
560.679	10271.88
561.041	10238.88
561.404	10324.08
561.767	10442.27
562.129	10392.55
562.492	10458.76
562.854	10524.75
563.217	10400.46
563.579	10554.58
563.941	10606.78
564.304	10521.14
564.666	10677.52
565.028	10706.67
565.39	10768.81
565.753	10786.44
566.115	10788.25
566.477	10863.27
566.839	10920.45
567.201	10964.29
567.563	10998.86
567.925	11046.09
568.287	11070.05
568.648	10992.08
569.01	11155.24
569.372	11214.9
569.734	11172.87
570.095	11214.45
570.457	11338.29
570.819	11320.89
571.18	11310.04
571.542	11439.98
571.903	11528.79
572.265	11611.28
572.626	11607.21
572.987	11625.29
573.349	11761.33
573.71	11845.39
574.071	11874.09
574.432	11955.22
574.794	12139.85
575.155	12108.21
575.516	12059.17
575.877	12146.4
576.238	12147.76
576.599	12370.13
576.96	12425.94
577.32	12524.02
577.681	12578.48
578.042	12686.95
578.403	12783.68
578.763	12839.49
579.124	12935.76
579.485	13101.41
579.845	13235.19
580.206	13342.98
580.566	13421.4
580.927	13551.79
581.287	13689.87
581.648	13764.89
582.008	14000.14
582.368	14097.54
582.728	14087.37
583.089	14429.28
583.449	14525.55
583.809	14664.53
584.169	14951.53
584.529	15029.49
584.889	15267
585.249	15463.15
585.609	15675.35
585.969	15921.9
586.329	16120.31
586.688	16347.2
587.048	16552.84
587.408	16664.7
587.768	16950.12
588.127	17200.28
588.487	17445.7
588.846	17816.54
589.206	17873.48
589.565	18177.88
589.925	18547.14
590.284	18656.06
590.643	19072.1
591.003	19248.36
591.362	19597.51
591.721	19827.11
592.08	20150.94
592.44	20456.24
592.799	20744.6
593.158	20870.24
593.517	21213.28
593.876	21650.79
594.235	21825.25
594.593	22093.49
594.952	22436.3
595.311	22690.99
595.67	23020.69
596.029	23364.87
596.387	23721.24
596.746	24050.72
597.104	24281.9
597.463	24497.27
597.822	24819.29
598.18	25038.95
598.538	25388.77
598.897	25778.36
599.255	25850
599.613	26495.18
599.972	26594.39
600.33	26933.81
600.688	27199.12
601.046	27536.06
601.404	27896.05
601.762	28189.37
602.12	28387.33
602.478	28732.86
602.836	29065.28
603.194	29126.07
603.552	29577.13
603.91	29663.01
604.268	30025.93
604.625	30162.2
604.983	30639.02
605.341	30676.54
605.698	31155.85
606.056	31362.17
606.413	31606.46
606.771	31940.69
607.128	32238.76
607.485	32253.9
607.843	32545.64
608.2	32990.15
608.557	33157.15
608.914	33120.99
609.272	33645.05
609.629	33855.21
609.986	34140.18
610.343	34105.83
610.7	34516.89
611.057	34643.67
611.414	34859.03
611.771	34969.98
612.127	35418.11
612.484	35483.42
612.841	35802.5
613.198	35807.02
613.554	35969.28
613.911	36429.16
614.267	36484.97
614.624	36553.22
614.98	36809.48
615.337	36982.59
615.693	37179.64
616.05	37323.82
616.406	37658.73
616.762	37658.05
617.118	37793.19
617.475	37956.57
617.831	38211.26
618.187	38276.56
618.543	38519.5
618.899	38706.61
619.255	38750.68
619.611	38729.89
619.967	39119.03
620.323	39196.77
620.678	39161.74
621.034	39229.31
621.39	39310.89
621.746	39324.67
622.101	39744.77
622.457	39620.48
622.812	39727.83
623.168	39917.42
623.523	40039
623.879	40166.91
624.234	40028.16
624.589	40186.57
624.945	40299.56
625.3	40459.33
625.655	40435.83
626.01	40596.96
626.365	40790.85
626.72	40721.92
627.075	40774.8
627.43	40795.82
627.785	40911.07
628.14	40962.82
628.495	41149.26
628.85	41007.57
629.205	40915.59
629.559	41220.22
629.914	41177.73
630.269	41164.4
630.623	41193.32
630.978	41127.79
631.332	41463.15
631.687	41470.6
632.041	41304.06
632.396	41428.57
632.75	41288.01
633.104	41380.44
633.459	41296.6
633.813	41353.32
634.167	41336.37
634.521	41389.93
634.875	41440.77
635.229	41353.32
635.583	41180.89
635.937	41339.76
636.291	41366.43
636.645	41402.81
636.999	41311.96
637.352	41427.89
637.706	41302.02
638.06	41392.87
638.413	41416.37
638.767	41336.82
639.121	41426.99
639.474	41230.61
639.828	41260.67
640.181	41410.49
640.534	41274.68
640.888	41193.32
641.241	41103.38
641.594	41316.94
641.947	41318.74
642.301	41196.26
642.654	41233.77
643.007	41192.19
643.36	41295.69
643.713	41200.78
644.066	41341.12
644.419	41063.61
644.771	40855.03
645.124	40442.61
645.477	40432.67
645.83	40341.82
646.182	40046.46
646.535	40094.14
646.888	40055.5
647.24	39869.52
647.593	40060.92
647.945	40097.99
648.298	39836.3
648.65	39782.74
649.002	39760.82
649.355	39992.68
649.707	39876.97
650.059	40112
650.411	40540.69
650.763	40488.71
651.115	40880.56
651.467	40769.38
651.819	40811.19
652.171	40582.49
652.523	40503.17
652.875	40628.37
653.227	40540.69
653.578	40634.47
653.93	40555.37
654.282	40478.77
654.633	40450.97
654.985	40646.22
655.337	40677.86
655.688	40606.67
656.039	40714.47
656.391	40220.92
656.742	40508.6
657.094	40541.59
657.445	40624.53
657.796	40537.97
658.147	40585.66
658.498	40421.59
658.849	40497.97
659.2	40422.27
659.551	40383.63
659.902	40483.96
660.253	40431.76
660.604	40451.87
660.955	40397.64
661.306	40438.77
661.656	40353.8
662.007	40564.64
662.358	40418.65
662.708	40444.42
663.059	40430.63
663.409	40137.31
663.76	40426.79
664.11	40333.23
664.461	40449.39
664.811	40402.16
665.161	40551.53
665.511	40194.48
665.862	40422.5
666.212	40410.07
666.562	40490.29
666.912	40399.9
667.262	40264.53
667.612	40283.52
667.962	40434.02
668.312	40184.54
668.662	40507.69
669.011	40274.25
669.361	40195.38
669.711	40176.63
670.06	40208.72
670.41	40080.36
670.76	39982.73
671.109	40268.38
671.459	40279.45
671.808	39966.46
672.157	40043.75
672.507	39834.49
672.856	39949.97
673.205	40015.95
673.554	40120.36
673.904	39852.34
674.253	40225.89
674.602	39969.4
674.951	39381.85
675.3	39414.61
675.649	39809.18
675.998	39823.87
676.346	39827.94
676.695	40053.69
677.044	39689.18
677.393	39900.48
677.741	39832.46
678.09	39728.28
678.438	39723.98
678.787	39720.37
679.135	39719.24
679.484	39645.79
679.832	39683.31
680.181	39509.98
680.529	39537.55
680.877	39452.13
681.225	39486.93
681.573	39762.4
681.922	39383.88
682.27	39346.59
682.618	39378.23
682.966	39257.56
683.314	39229.31
683.661	39161.29
684.009	39086.49
684.357	38839.04
684.705	38872.03
685.053	38864.57
685.4	38960.39
685.748	38699.15
686.095	38564.92
686.443	38453.96
686.79	38529.89
687.138	38631.13
687.485	38675.42
687.832	38308.43
688.18	38469.1
688.527	38186.17
688.874	38173.29
689.221	38212.84
689.568	38163.35
689.915	37973.3
690.262	37962.67
690.609	37772.62
690.956	37839.97
691.303	37719.97
691.65	37486.53
691.997	37474.78
692.344	37209.25
692.69	37314.1
693.037	37363.59
693.383	37097.39
693.73	37156.37
694.077	36902.14
694.423	36842.93
694.769	36783.27
695.116	36897.39
695.462	36783.95
695.808	36480.45
696.155	36607.91
696.501	36430.96
696.847	36406.1
697.193	36278.88
697.539	36274.81
697.885	36003.18
698.231	35908.26
698.577	35954.14
698.923	35853.35
699.269	35703.75
699.614	35499.01
699.96	35552.34
700.306	35474.38
700.651	35303.76
700.997	35362.74
701.342	35092.24
701.688	35116.2
702.033	35000.49
702.379	35067.16
702.724	34932.92
703.069	34990.77
703.415	34671.01
703.76	34685.25
704.105	34582.42
704.45	34471.01
704.795	34293.62
705.14	34260.85
705.485	34254.98
705.83	34042.78
706.175	34036.68
706.52	33986.51
706.865	33862.22
707.209	33837.13
707.554	33753.07
707.899	33886.17
708.243	33496.35
708.588	33653.41
708.932	33440.99
709.277	33246.87
709.621	33368.67
709.966	33025.18
710.31	33186.08
710.654	32958.29
710.998	32955.12
711.342	32959.87
711.687	32921.68
712.031	32695.24
712.375	32655.02
712.719	32725.07
713.063	32584.28
713.407	32737.05
713.75	32506.09
714.094	32553.55
714.438	32428.13
714.782	32366.66
715.125	32269.94
715.469	32330.28
715.812	32139.55
716.156	32054.35
716.499	31976.39
716.843	31953.79
717.186	31820.01
717.53	31952.44
717.873	31878.09
718.216	31787.02
718.559	31662.73
718.902	31582.95
719.246	31697.98
719.589	31424.54
719.932	31460.92
720.275	31410.08
720.617	31390.87
720.96	31117.43
721.303	31243.98
721.646	31152.46
721.989	30980.94
722.331	31042.4
722.674	31027.49
723.016	31166.69
723.359	31013.03
723.701	31025
724.044	30835.63
724.386	30733.49
724.729	30820.04
725.071	30716.76
725.413	30743.65
725.755	30604.68
726.097	30589.76
726.439	30418.92
726.782	30400.84
727.124	30667.95
727.465	30370.56
727.807	30385.02
728.149	30180.51
728.491	30351.57
728.833	30318.81
729.175	30127.63
729.516	30123.33
729.858	30108.42
730.199	30094.63
730.541	30021.64
730.882	29940.74
731.224	30083.79
731.565	29805.83
731.906	29823.91
732.248	29822.1
732.589	29589.11
732.93	29669.78
733.271	29575.32
733.612	29752.72
733.953	29690.12
734.294	29597.7
734.635	29466.17
734.976	29510.02
735.317	29243.81
735.658	29275.67
735.999	29373.97
736.339	29312.28
736.68	29319.29
737.021	29194.09
737.361	29049.69
737.702	29247.88
738.042	29107.31
738.383	28946.41
738.723	29225.73
739.063	28972.4
739.404	29051.04
739.744	28895.79
740.084	28770.37
740.424	28888.56
740.764	28931.5
741.104	28884.95
741.444	28748.91
741.784	28622.58
742.124	28762.46
742.464	28630.72
742.804	28598.4
743.143	28501
743.483	28559.98
743.823	28341.01
744.162	28427.33
744.502	28375.13
744.841	28212.42
745.181	28395.02
745.52	28292.42
745.86	28192.76
746.199	28143.27
746.538	28103.72
746.877	28125.42
747.216	28172.2
747.556	28010.39
747.895	28074.8
748.234	27830.51
748.573	27861.92
748.911	27833.67
749.25	27879.1
749.589	27702.6
749.928	27727.24
750.267	27724.53
750.605	27594.81
750.944	27528.82
751.283	27553.23
751.621	27747.35
751.96	27448.15
752.298	27418.54
752.636	27403.18
752.975	27386.23
753.313	27124.32
753.651	27332.45
753.989	27205.67
754.327	27065.79
754.666	27001.61
755.004	27106.24
755.342	27036.41
755.679	26976.3
756.017	26850.88
756.355	26919.12
756.693	26841.84
757.031	26862.18
757.368	26600.04
757.706	26587.61
758.044	26492.47
758.381	26577.66
758.719	26383.32
759.056	26588.28
759.394	26414.73
759.731	26236.88
