Data from hue_100_FLMS001491_00038.txt Node
Date: Tue Feb 07 17:03:05 GMT 2017
User: dcchb
Spectrometer: FLMS00149
Trigger mode: 0
Integration Time (sec): 2.000000E-2
Scans to average: 10
Electric dark correction enabled: true
Nonlinearity correction enabled: false
Boxcar width: 0
XAxis mode: Wavelengths
Number of Pixels in Spectrum: 2048
>>>>>Begin Spectral Data<<<<<
341.393	-3.23
341.776	-3.23
342.16	-3.23
342.543	-61.76
342.927	-58.37
343.31	-90.92
343.693	-76.9
344.077	-47.98
344.46	-43.01
344.843	-38.49
345.226	-22.67
345.61	-34.42
345.993	-17.92
346.376	-4.82
346.759	4.22
347.142	32.92
347.525	27.5
347.908	55.75
348.291	67.05
348.674	76.54
349.057	113.15
349.44	117.67
349.823	177.55
350.206	171
350.588	189.08
350.971	200.6
351.354	232.92
351.737	246.25
352.119	269.75
352.502	270.88
352.884	273.14
353.267	296.19
353.65	288.06
354.032	292.58
354.414	307.27
354.797	342.52
355.179	321.73
355.562	330.32
355.944	328.51
356.326	327.38
356.709	338
357.091	335.74
357.473	344.1
357.855	352.69
358.238	352.01
358.62	345.46
359.002	351.33
359.384	357.66
359.766	357.66
360.148	359.69
360.53	354.04
360.912	359.47
361.294	346.13
361.676	341.16
362.057	340.03
362.439	349.98
362.821	346.59
363.203	323.99
363.584	340.26
363.966	344.55
364.348	346.81
364.729	327.15
365.111	333.25
365.493	339.58
365.874	339.58
366.256	336.19
366.637	335.06
367.019	320.15
367.4	351.33
367.781	343.88
368.163	334.61
368.544	295.51
368.925	335.97
369.306	324.67
369.688	335.97
370.069	322.63
370.45	339.58
370.831	324.44
371.212	335.06
371.593	330.32
371.974	319.92
372.355	343.88
372.736	330.77
373.117	345.01
373.498	319.24
373.879	316.98
374.26	334.38
374.641	316.31
375.021	340.49
375.402	330.99
375.783	346.13
376.163	337.1
376.544	359.47
376.925	346.13
377.305	329.41
377.686	336.87
378.066	346.59
378.447	358.79
378.827	329.64
379.208	356.53
379.588	333.93
379.968	334.38
380.349	334.16
380.729	368.28
381.109	352.24
381.489	364.67
381.87	359.69
382.25	353.37
382.63	370.09
383.01	374.61
383.39	341.39
383.77	348.85
384.15	352.69
384.53	356.08
384.91	367.15
385.29	378
385.67	379.35
386.049	380.26
386.429	374.38
386.809	388.85
387.189	369.41
387.568	395.63
387.948	372.57
388.328	384.1
388.707	372.8
389.087	380.26
389.466	389.52
389.846	383.2
390.225	383.42
390.605	389.98
390.984	387.49
391.363	405.57
391.743	377.77
392.122	419.13
392.501	400.82
392.881	419.81
393.26	422.97
393.639	425.91
394.018	408.05
394.397	401.05
394.776	398.79
395.155	416.42
395.534	415.96
395.913	420.03
396.292	428.62
396.671	441.05
397.05	442.86
397.429	451.22
397.808	435.85
398.186	425
398.565	430.43
398.944	452.57
399.323	437.88
399.701	442.63
400.08	428.62
400.458	434.04
400.837	450.54
401.215	457.54
401.594	433.36
401.972	464.1
402.351	461.61
402.729	460.93
403.107	458.45
403.486	475.4
403.864	472.01
404.242	469.75
404.62	476.53
404.999	473.59
405.377	499.8
405.755	482.4
406.133	504.77
406.511	484.44
406.889	498.22
407.267	508.62
407.645	503.42
408.023	491.44
408.401	502.74
408.779	503.87
409.156	509.29
409.534	526.24
409.912	507.94
410.29	535.28
410.667	521.72
411.045	540.25
411.422	534.6
411.8	535.06
412.178	536.86
412.555	551.55
412.933	549.07
413.31	561.72
413.687	568.05
414.065	556.07
414.442	550.65
414.819	565.56
415.197	600.82
415.574	577.99
415.951	572.8
416.328	599.46
416.705	591.33
417.082	587.26
417.46	593.36
417.837	613.02
418.214	599.91
418.591	619.57
418.967	613.47
419.344	635.39
419.721	626.35
420.098	611.44
420.475	629.97
420.852	661.15
421.228	646.01
421.605	673.13
421.982	640.82
422.358	658.44
422.735	658.44
423.111	652.57
423.488	683.08
423.864	667.03
424.241	674.94
424.617	704.77
424.994	678.78
425.37	698.44
425.746	709.06
426.123	709.74
426.499	698.44
426.875	711.1
427.251	726.46
427.627	753.36
428.003	734.6
428.379	742.96
428.756	737.76
429.132	751.77
429.507	780.47
429.883	774.6
430.259	792
430.635	781.83
431.011	778.21
431.387	813.24
431.763	822.05
432.138	819.12
432.514	832
432.89	820.92
433.265	856.18
433.641	895.95
434.016	857.31
434.392	877.65
434.767	890.53
435.143	907.93
435.518	886.46
435.894	907.02
436.269	932.11
436.644	912.45
437.02	929.62
437.395	919.45
437.77	942.05
438.145	950.86
438.52	966.01
438.895	978.21
439.271	986.8
439.646	1006.68
440.021	991.77
440.395	1002.84
440.77	1010.98
441.145	1006
441.52	1025.67
441.895	1027.7
442.27	1039
442.645	1034.48
443.019	1055.95
443.394	1045.1
443.769	1067.02
444.143	1068.83
444.518	1086
444.892	1078.32
445.267	1090.75
445.641	1092.1
446.016	1100.01
446.39	1122.39
446.764	1144.08
447.139	1127.81
447.513	1128.94
447.887	1097.53
448.262	1134.14
448.636	1160.12
449.01	1154.7
449.384	1150.18
449.758	1196.28
450.132	1209.16
450.506	1199.22
450.88	1191.31
451.254	1206.23
451.628	1245.55
452.002	1229.95
452.376	1264.98
452.75	1255.49
453.123	1276.96
453.497	1302.04
453.871	1278.09
454.244	1348.37
454.618	1318.99
454.992	1366
455.365	1337.3
455.739	1382.49
456.112	1417.52
456.486	1422.04
456.859	1427.46
457.232	1438.08
457.606	1451.19
457.979	1459.1
458.352	1506.78
458.725	1529.83
459.099	1543.17
459.472	1559.66
459.845	1583.62
460.218	1603.96
460.591	1594.24
460.964	1607.34
461.337	1660.68
461.71	1675.59
462.083	1681.02
462.456	1679.66
462.829	1711.97
463.201	1760.79
463.574	1738.64
463.947	1800.56
464.32	1791.75
464.692	1845.76
465.065	1887.34
465.438	1894.57
465.81	1904.51
466.183	1921.01
466.555	1988.35
466.928	2008.69
467.3	2028.12
467.672	2047.11
468.045	2099.99
468.417	2130.49
468.789	2142.25
469.161	2143.6
469.534	2239.42
469.906	2245.52
470.278	2262.69
470.65	2314.22
471.022	2382.69
471.394	2412.97
471.766	2464.95
472.138	2509.02
472.51	2539.07
472.882	2585.4
473.253	2664.94
473.625	2702.68
473.997	2764.38
474.369	2798.05
474.74	2847.76
475.112	2919.17
475.484	3000.75
475.855	3069
476.227	3117.81
476.598	3213.86
476.97	3285.27
477.341	3312.84
477.713	3473.96
478.084	3442.1
478.455	3609.78
478.827	3653.17
479.198	3801.86
479.569	3855.2
479.94	3990.33
480.311	4053.16
480.682	4155.98
481.053	4271.46
481.424	4398.23
481.795	4491.34
482.166	4580.37
482.537	4713.48
482.908	4836.19
483.279	4955.73
483.65	5083.19
484.021	5222.84
484.391	5366.12
484.762	5461.48
485.133	5550.52
485.503	5665.32
485.874	5891.3
486.244	5987.34
486.615	6128.36
486.985	6315.24
487.356	6479.53
487.726	6642.24
488.097	6801.33
488.467	6900.31
488.837	7093.08
489.207	7257.82
489.578	7347.53
489.948	7592.27
490.318	7800.4
490.688	7929.66
491.058	8079.49
491.428	8252.82
491.798	8390.44
492.168	8604.9
492.538	8688.29
492.908	8841.96
493.278	9067.49
493.648	9168.28
494.017	9378.89
494.387	9515.16
494.757	9705.89
495.126	9901.36
495.496	10011.64
495.866	10177.97
496.235	10280.79
496.605	10488.02
496.974	10600.78
497.344	10793.09
497.713	10861.11
498.082	11041
498.452	11187.88
498.821	11298.84
499.19	11416.8
499.559	11605.73
499.928	11735.67
500.298	11823.8
500.667	11930.92
501.036	12034.19
501.405	12279.38
501.774	12268.31
502.143	12510.56
502.512	12541.07
502.88	12688.41
503.249	12761.85
503.618	12883.21
503.987	13090.66
504.356	13074.84
504.724	13273.48
505.093	13293.59
505.462	13433.7
505.83	13474.83
506.199	13637.31
506.567	13888.83
506.936	13858.1
507.304	14086.79
507.672	14028.49
508.041	14197.52
508.409	14285.66
508.777	14425.31
509.145	14535.14
509.514	14453.56
509.882	14604.74
510.25	14738.75
510.618	14865.3
510.986	14875.02
511.354	15042.92
511.722	15073.66
512.09	15224.16
512.458	15237.95
512.826	15303.48
513.193	15365.18
513.561	15434.78
513.929	15515.91
514.297	15641.55
514.664	15715
515.032	15781.44
515.4	15904.6
515.767	15892.62
516.135	15998.38
516.502	15905.73
516.869	16177.81
517.237	16248.32
517.604	16125.16
517.972	16287.18
518.339	16401.31
518.706	16287.64
519.073	16434.07
519.44	16467.07
519.808	16642.88
520.175	16601.53
520.542	16722.2
520.909	16752.48
521.276	16669.1
521.643	16869.99
522.009	16852.59
522.376	17009.2
522.743	17097.11
523.11	17206.26
523.477	17258.01
523.843	17212.81
524.21	17395.86
524.577	17477.44
524.943	17505.68
525.31	17649.41
525.676	17627.04
526.043	17695.51
526.409	17786.58
526.776	17829.52
527.142	17851.89
527.508	17952.9
527.874	17967.59
528.241	18062.28
528.607	17997.65
528.973	18116.06
529.339	18174.37
529.705	18141.6
530.071	18182.5
530.437	18327.13
530.803	18290.07
531.169	18370.97
531.535	18191.09
531.901	18220.24
532.267	18307.7
532.632	18320.8
532.998	18310.63
533.364	18387.92
533.73	18304.31
534.095	18424.53
534.461	18394.02
534.826	18490.52
535.192	18465.21
535.557	18495.49
535.923	18430.63
536.288	18364.19
536.653	18355.38
537.019	18387.69
537.384	18356.73
537.749	18340.69
538.114	18380.69
538.479	18371.2
538.845	18338.88
539.21	18221.6
539.575	18194.48
539.94	18321.71
540.305	18331.88
540.67	18365.32
541.034	18244.2
541.399	18202.84
541.764	18170.3
542.129	18245.55
542.494	18215.5
542.858	18143.86
543.223	18147.47
543.587	18247.59
543.952	18136.85
544.316	18160.81
544.681	18147.47
545.045	18068.83
545.41	18095.27
545.774	18074.48
546.138	18026.57
546.503	18103.63
546.867	17910.19
547.231	17903.41
547.595	17930.53
547.959	17978.44
548.324	17912.45
548.688	17785.9
549.052	17926.24
549.416	17819.12
549.779	17786.58
550.143	17813.47
550.507	17808.5
550.871	17796.07
551.235	17853.25
551.599	17777.32
551.962	17743.19
552.326	17750.88
552.689	17778.44
553.053	17628.84
553.417	17666.58
553.78	17769.86
554.143	17735.96
554.507	17751.78
554.87	17619.81
555.234	17809.63
555.597	17667.94
555.96	17711.33
556.323	17672.01
556.686	17667.04
557.05	17728.28
557.413	17738.67
557.776	17541.62
558.139	17740.03
558.502	17726.02
558.865	17615.51
559.228	17739.35
559.59	17737.54
559.953	17726.24
560.316	17863.41
560.679	17821.83
561.041	17908.84
561.404	17808.27
561.767	17937.31
562.129	17859.12
562.492	17984.54
562.854	17824.32
563.217	17847.82
563.579	17911.32
563.941	18026.57
564.304	17990.87
564.666	18151.09
565.028	18017.53
565.39	18059.57
565.753	18177.98
566.115	18194.48
566.477	18175.95
566.839	18157.64
567.201	18254.36
567.563	18247.13
567.925	18352.67
568.287	18327.58
568.648	18361.48
569.01	18504.08
569.372	18483.29
569.734	18374.14
570.095	18465.21
570.457	18512.66
570.819	18560.57
571.18	18609.84
571.542	18573.23
571.903	18560.35
572.265	18681.47
572.626	18630.4
572.987	18796.5
573.349	18639.67
573.71	18764.18
574.071	18728.93
574.432	18786.33
574.794	18909.49
575.155	18821.58
575.516	18786.33
575.877	18843.28
576.238	18745.88
576.599	18763.96
576.96	18887.79
577.32	18883.95
577.681	18927.12
578.042	18938.87
578.403	18818.19
578.763	18981.13
579.124	18860.22
579.485	18970.5
579.845	19039.88
580.206	18919.21
580.566	19046.66
580.927	19031.29
581.287	19063.38
581.648	18946.1
582.008	19040.78
582.368	18911.97
582.728	19012.76
583.089	18857.96
583.449	18900.9
583.809	18982.03
584.169	18970.73
584.529	18832.88
584.889	19015.93
585.249	18843.73
585.609	18813.22
585.969	18952.43
586.329	18818.87
586.688	18844.18
587.048	18791.07
587.408	18691.64
587.768	18800.11
588.127	18802.6
588.487	18764.63
588.846	18870.17
589.206	18787.91
589.565	18763.28
589.925	18840.79
590.284	18711.98
590.643	18773.22
591.003	18886.21
591.362	18804.41
591.721	18717.4
592.08	18823.84
592.44	18911.97
592.799	18777.97
593.158	18829.49
593.517	18813.45
593.876	18797.63
594.235	18787.91
594.593	18701.81
594.952	18721.47
595.311	18757.85
595.67	18608.25
596.029	18801.69
596.387	18829.26
596.746	18795.14
597.104	18661.13
597.463	18583.17
597.822	18701.13
598.18	18603.51
598.538	18653.22
598.897	18672.43
599.255	18629.95
599.613	18729.83
599.972	18692.09
600.33	18731.41
600.688	18610.29
601.046	18705.88
601.404	18829.49
601.762	18730.74
602.12	18770.28
602.478	18842.15
602.836	18757.85
603.194	18703.62
603.552	18700.23
603.91	18722.6
604.268	18701.13
604.625	18579.78
604.983	18782.49
605.341	18658.42
605.698	18698.42
606.056	18756.5
606.413	18710.62
606.771	18893.44
607.128	18806.67
607.485	18789.49
607.843	18729.83
608.2	18775.03
608.557	18872.65
608.914	18772.32
609.272	18858.42
609.629	18870.39
609.986	19061.58
610.343	18859.32
610.7	18997.17
611.057	18922.82
611.414	18978.19
611.771	18881.47
612.127	19013.21
612.484	18945.42
612.841	19105.42
613.198	18999.66
613.554	18977.51
613.911	19123.04
614.267	19026.77
614.624	19030.84
614.98	18987.23
615.337	19237.39
615.693	19153.1
616.05	19182.93
616.406	19204.17
616.762	19070.84
617.118	19178.63
617.475	19241.23
617.831	19249.37
618.187	19233.55
618.543	19280.33
618.899	19308.57
619.255	19308.57
619.611	19291.4
619.967	19259.31
620.323	19316.94
620.678	19282.59
621.034	19224.51
621.39	19224.06
621.746	19238.52
622.101	19463.6
622.457	19373.66
622.812	19367.56
623.168	19450.04
623.523	19297.95
623.879	19401.23
624.234	19306.09
624.589	19436.93
624.945	19387.89
625.3	19352.87
625.655	19407.1
626.01	19348.57
626.365	19406.42
626.72	19319.42
627.075	19281
627.43	19295.69
627.785	19244.4
628.14	19383.37
628.495	19338.63
628.85	19337.5
629.205	19256.37
629.559	19355.8
629.914	19154.91
630.269	19269.71
630.623	19236.49
630.978	19133.21
631.332	19245.98
631.687	19244.62
632.041	19087.79
632.396	19169.14
632.75	19093.66
633.104	19153.32
633.459	19009.37
633.813	18959.66
634.167	19039.43
634.521	18986.32
634.875	19067.45
635.229	18960.56
635.583	18901.35
635.937	18832.88
636.291	18873.33
636.645	18874.69
636.999	18833.56
637.352	18749.49
637.706	18739.55
638.06	18796.72
638.413	18787.46
638.767	18656.84
639.121	18738.42
639.474	18640.12
639.828	18747.01
640.181	18769.38
640.534	18698.87
640.888	18611.64
641.241	18558.99
641.594	18637.18
641.947	18645.54
642.301	18499.56
642.654	18586.56
643.007	18632.21
643.36	18537.97
643.713	18430.86
644.066	18568.25
644.419	18441.7
644.771	18325.78
645.124	18193.58
645.477	18197.19
645.83	18106.57
646.182	18005.11
646.535	17899.8
646.888	17944.09
647.24	17850.99
647.593	17911.77
647.945	17883.75
648.298	17829.74
648.65	17854.83
649.002	17786.13
649.355	17864.32
649.707	17888.05
650.059	18050.08
650.411	18149.28
650.763	18106.57
651.115	18343.63
651.467	18261.14
651.819	18265.21
652.171	18296.17
652.523	18171.2
652.875	18186.34
653.227	18102.28
653.578	18217.08
653.93	18156.06
654.282	18148.83
654.633	18108.83
654.985	18161.03
655.337	18174.37
655.688	18193.8
656.039	18300.69
656.391	18074.26
656.742	18178.66
657.094	18158.1
657.445	18146.34
657.796	18210.75
658.147	18102.5
658.498	18148.6
658.849	18186.57
659.2	18224.08
659.551	18145.21
659.902	18184.54
660.253	18195.38
660.604	18267.02
660.955	18136.18
661.306	18220.02
661.656	18240.13
662.007	18274.93
662.358	18300.01
662.708	18287.13
663.059	18239
663.409	18105.44
663.76	18320.58
664.11	18224.99
664.461	18177.53
664.811	18209.62
665.161	18140.47
665.511	18169.17
665.862	18274.48
666.212	18213.46
666.562	18248.94
666.912	18156.51
667.262	18173.46
667.612	18254.82
667.962	18204.2
668.312	18168.49
668.662	18289.84
669.011	18126.01
669.361	18151.32
669.711	18118.1
670.06	18070.64
670.41	18194.03
670.76	18271.09
671.109	18153.58
671.459	18097.76
671.808	18207.13
672.157	18229.05
672.507	18034.26
672.856	18104.99
673.205	18042.39
673.554	18058.66
673.904	18019.79
674.253	18036.07
674.602	17982.51
674.951	17741.84
675.3	17652.12
675.649	17949.29
675.998	17952.68
676.346	18000.36
676.695	17932.79
677.044	17863.19
677.393	17855.96
677.741	17819.12
678.09	17907.71
678.438	17814.6
678.787	17789.74
679.135	17805.79
679.484	17780.25
679.832	17685.57
680.181	17640.6
680.529	17641.73
680.877	17625.45
681.225	17572.12
681.573	17678.11
681.922	17472.69
682.27	17551.56
682.618	17531.9
682.966	17486.02
683.314	17462.52
683.661	17457.1
684.009	17293.03
684.357	17397.44
684.705	17314.95
685.053	17340.94
685.4	17275.86
685.748	17121.29
686.095	17129.87
686.443	17044.23
686.79	17091.46
687.138	17158.12
687.485	17119.48
687.832	16971.69
688.18	16982.53
688.527	16851.24
688.874	16836.55
689.221	16826.15
689.568	16790.22
689.915	16679.26
690.262	16773.27
690.609	16640.4
690.956	16520.85
691.303	16552.26
691.65	16409.67
691.997	16491.93
692.344	16379.61
692.69	16311.14
693.037	16361.31
693.383	16176.68
693.73	16176.91
694.077	16149.56
694.423	16100.52
694.769	16035.21
695.116	15879.74
695.462	15920.19
695.808	15927.19
696.155	15837.71
696.501	15737.59
696.847	15672.51
697.193	15643.13
697.539	15686.07
697.885	15564.94
698.231	15521.78
698.577	15486.53
698.923	15402.69
699.269	15397.04
699.614	15239.98
699.96	15219.19
700.306	15227.33
700.651	15178.97
700.997	15099.87
701.342	15094
701.688	15053.09
702.033	14918.86
702.379	14910.72
702.724	14866.66
703.069	14822.36
703.415	14690.84
703.76	14731.97
704.105	14651.52
704.45	14650.84
704.795	14488.59
705.14	14556.16
705.485	14509.6
705.83	14354.35
706.175	14442.94
706.52	14370.4
706.865	14294.02
707.209	14308.71
707.554	14230.29
707.899	14174.02
708.243	14183.74
708.588	14126.79
708.932	14016.96
709.277	14028.04
709.621	14016.74
709.966	13885.67
710.31	13948.04
710.654	13866.23
710.998	13754.6
711.342	13828.04
711.687	13851.99
712.031	13712.56
712.375	13589.18
712.719	13659.01
713.063	13687.25
713.407	13644.54
713.75	13565.22
714.094	13583.53
714.438	13498.33
714.782	13468.73
715.125	13471.89
715.469	13428.73
715.812	13443.19
716.156	13321.84
716.499	13364.1
716.843	13391.22
717.186	13238.45
717.53	13381.27
717.873	13301.5
718.216	13272.12
718.559	13240.03
718.902	13104.22
719.246	13215.4
719.589	13173.59
719.932	13093.37
720.275	13107.61
720.617	13072.81
720.96	13045.01
721.303	13051.79
721.646	13084.78
721.989	13054.95
722.331	13044.11
722.674	13027.61
723.016	12963.88
723.359	12940.15
723.701	12950.32
724.044	12945.8
724.386	12814.28
724.729	12932.47
725.071	12808.41
725.413	12852.02
725.755	12815.41
726.097	12773.83
726.439	12831.68
726.782	12809.08
727.124	12794.4
727.465	12754.17
727.807	12748.97
728.149	12689.54
728.491	12659.71
728.833	12725.02
729.175	12607.96
729.516	12672.36
729.858	12671.46
730.199	12636.89
730.541	12683.89
730.882	12609.99
731.224	12625.81
731.565	12619.94
731.906	12609.77
732.248	12687.05
732.589	12713.49
732.93	12475.53
733.271	12622.65
733.612	12626.94
733.953	12593.72
734.294	12646.6
734.635	12542.88
734.976	12617.9
735.317	12489.32
735.658	12630.78
735.999	12645.25
736.339	12555.31
736.68	12675.75
737.021	12592.37
737.361	12541.07
737.702	12652.93
738.042	12608.86
738.383	12566.15
738.723	12609.77
739.063	12606.15
739.404	12608.41
739.744	12572.71
740.084	12545.36
740.424	12680.5
740.764	12583.1
741.104	12644.57
741.444	12569.09
741.784	12599.6
742.124	12651.12
742.464	12650.9
742.804	12647.05
743.143	12664
743.483	12763.89
743.823	12659.26
744.162	12698.35
744.502	12875.75
744.841	12797.33
745.181	12863.32
745.52	12811.8
745.86	12891.34
746.199	12988.97
746.538	13050.66
746.877	13089.75
747.216	13144.22
747.556	13148.96
747.895	13239.36
748.234	13097.66
748.573	13227.15
748.911	13407.49
749.25	13367.71
749.589	13434.15
749.928	13584.88
750.267	13669.85
750.605	13662.85
750.944	13768.38
751.283	13847.47
751.621	13981.26
751.96	14017.19
752.298	14107.58
752.636	14279.1
752.975	14321.36
753.313	14409.72
753.651	14510.51
753.989	14633.22
754.327	14748.69
754.666	14805.87
755.004	14981.23
755.342	15165.41
755.679	15305.52
