Data from hue_190_FLMS001491_00029.txt Node
Date: Tue Feb 07 16:45:04 GMT 2017
User: dcchb
Spectrometer: FLMS00149
Trigger mode: 0
Integration Time (sec): 2.000000E-2
Scans to average: 10
Electric dark correction enabled: true
Nonlinearity correction enabled: false
Boxcar width: 0
XAxis mode: Wavelengths
Number of Pixels in Spectrum: 2048
>>>>>Begin Spectral Data<<<<<
341.393	-6.17
341.776	-6.17
342.16	-6.17
342.543	-61.31
342.927	-77.36
343.31	-70.58
343.693	-62.22
344.077	-77.58
344.46	-59.5
344.843	-43.91
345.226	-10.69
345.61	-24.02
345.993	-14.99
346.376	-28.09
346.759	-6.62
347.142	32.02
347.525	41.51
347.908	58.46
348.291	75.41
348.674	101.17
349.057	89.64
349.44	120.83
349.823	144.56
350.206	148.17
350.588	176.2
350.971	192.01
351.354	215.52
351.737	246.48
352.119	246.7
352.502	249.64
352.884	271.79
353.267	272.24
353.65	284.22
354.032	283.99
354.414	310.88
354.797	297.1
355.179	318.34
355.562	311.33
355.944	306.36
356.326	327.6
356.709	341.62
357.091	334.84
357.473	329.41
357.855	335.06
358.238	331.67
358.62	337.77
359.002	330.99
359.384	328.51
359.766	333.93
360.148	331.45
360.53	331.22
360.912	329.64
361.294	330.32
361.676	320.6
362.057	306.14
362.439	291
362.821	333.25
363.203	321.95
363.584	320.37
363.966	309.98
364.348	331.45
364.729	325.57
365.111	304.55
365.493	310.43
365.874	314.05
366.256	277.66
366.637	305.91
367.019	297.1
367.4	294.61
367.781	332.58
368.163	303.42
368.544	295.06
368.925	303.2
369.306	302.97
369.688	306.14
370.069	295.29
370.45	308.17
370.831	309.98
371.212	306.81
371.593	305.01
371.974	299.58
372.355	303.42
372.736	312.69
373.117	306.14
373.498	315.85
373.879	314.72
374.26	292.58
374.641	307.49
375.021	300.94
375.402	303.88
375.783	302.52
376.163	299.58
376.544	303.65
376.925	293.26
377.305	300.49
377.686	324.89
378.066	314.27
378.447	312.01
378.827	317.44
379.208	307.94
379.588	316.98
379.968	327.15
380.349	310.43
380.729	320.15
381.109	338.45
381.489	339.58
381.87	340.49
382.25	327.83
382.63	321.73
383.01	318.79
383.39	322.41
383.77	328.06
384.15	334.84
384.53	334.38
384.91	313.82
385.29	333.25
385.67	342.07
386.049	329.86
386.429	324.67
386.809	333.71
387.189	332.8
387.568	324.89
387.948	365.57
388.328	344.55
388.707	326.47
389.087	338.45
389.466	343.42
389.846	345.46
390.225	340.26
390.605	363.99
390.984	348.62
391.363	330.77
391.743	317.66
392.122	366.47
392.501	355.4
392.881	359.92
393.26	359.92
393.639	363.54
394.018	350.2
394.397	380.26
394.776	356.53
395.155	359.02
395.534	366.25
395.913	378.45
396.292	369.41
396.671	370.54
397.05	367.15
397.429	365.57
397.808	357.66
398.186	362.41
398.565	380.03
398.944	372.12
399.323	374.16
399.701	400.37
400.08	382.52
400.458	380.71
400.837	374.83
401.215	400.6
401.594	409.18
401.972	391.33
402.351	390.65
402.729	388.62
403.107	403.76
403.486	417.32
403.864	408.51
404.242	418.68
404.62	428.39
404.999	413.25
405.377	408.05
405.755	410.99
406.133	429.97
406.511	423.65
406.889	442.4
407.267	457.32
407.645	438.34
408.023	484.44
408.401	479.92
408.779	465.23
409.156	470.2
409.534	481.72
409.912	479.46
410.29	491.44
410.667	492.12
411.045	510.42
411.422	505
411.8	503.87
412.178	529.63
412.555	519.24
412.933	547.49
413.31	557.88
413.687	547.49
414.065	570.99
414.442	587.48
414.819	565.11
415.197	599.91
415.574	601.27
415.951	605.34
416.328	596.98
416.705	612.34
417.082	643.75
417.46	615.28
417.837	643.08
418.214	643.3
418.591	671.1
418.967	653.47
419.344	669.52
419.721	704.09
420.098	679.23
420.475	710.65
420.852	717.42
421.228	729.18
421.605	760.81
421.982	758.55
422.358	776.86
422.735	781.6
423.111	763.75
423.488	794.94
423.864	836.29
424.241	830.64
424.617	854.37
424.994	870.19
425.37	883.97
425.746	860.7
426.123	888.49
426.499	895.73
426.875	903.18
427.251	916.06
427.627	928.72
428.003	951.32
428.379	956.74
428.756	958.55
429.132	981.82
429.507	1003.52
429.883	1003.74
430.259	995.61
430.635	1030.64
431.011	1031.77
431.387	1074.48
431.763	1069.73
432.138	1116.74
432.514	1081.93
432.89	1124.19
433.265	1117.64
433.641	1143.4
434.016	1191.76
434.392	1202.38
434.767	1243.29
435.143	1233.34
435.518	1248.71
435.894	1263.17
436.269	1314.47
436.644	1331.42
437.02	1340.01
437.395	1374.13
437.77	1382.72
438.145	1410.51
438.52	1436.95
438.895	1474.69
439.271	1474.69
439.646	1515.14
440.021	1537.74
440.395	1562.37
440.77	1570.74
441.145	1596.5
441.52	1632.88
441.895	1630.62
442.27	1638.53
442.645	1655.25
443.019	1711.52
443.394	1697.96
443.769	1705.87
444.143	1678.53
444.518	1737.96
444.892	1759.43
445.267	1761.69
445.641	1780.67
446.016	1813.44
446.39	1799.2
446.764	1862.48
447.139	1830.16
447.513	1862.48
447.887	1863.84
448.262	1918.3
448.636	1888.24
449.01	1915.81
449.384	1949.71
449.758	1942.48
450.132	1977.96
450.506	1991.74
450.88	1978.86
451.254	2024.28
451.628	2095.02
452.002	2077.61
452.376	2104.73
452.75	2116.26
453.123	2136.6
453.497	2134.11
453.871	2165.07
454.244	2205.3
454.618	2246.2
454.992	2247.55
455.365	2273.77
455.739	2301.34
456.112	2365.97
456.486	2369.13
456.859	2403.48
457.232	2422.01
457.606	2440.32
457.979	2474.44
458.352	2491.39
458.725	2536.81
459.099	2549.24
459.472	2617.94
459.845	2654.1
460.218	2658.16
460.591	2693.64
460.964	2694.1
461.337	2747.65
461.71	2823.36
462.083	2833.75
462.456	2821.1
462.829	2854.09
463.201	2948.78
463.574	2911.27
463.947	2984.71
464.32	3059.74
464.692	3071.49
465.065	3103.58
465.438	3119.4
465.81	3193.74
466.183	3210.24
466.555	3268.32
466.928	3287.3
467.3	3292.72
467.672	3313.74
468.045	3507.86
468.417	3478.71
468.789	3457.69
469.161	3493.85
469.534	3610.68
469.906	3674.41
470.278	3691.13
470.65	3764.58
471.022	3789.21
471.394	3877.57
471.766	3887.06
472.138	3947.4
472.51	4067.85
472.882	4080.05
473.253	4169.76
473.625	4246.6
473.997	4304.67
474.369	4356.43
474.74	4412.69
475.112	4467.16
475.484	4528.4
475.855	4655.4
476.227	4690.88
476.598	4757.09
476.97	4810.42
477.341	4939.46
477.713	4992.34
478.084	5008.84
478.455	5201.37
478.827	5227.59
479.198	5357.98
479.569	5369.05
479.94	5564.08
480.311	5586.22
480.682	5763.85
481.053	5872.77
481.424	5904.86
481.795	6008.13
482.166	6116.83
482.537	6177.85
482.908	6335.81
483.279	6409.03
483.65	6529.25
484.021	6645.18
484.391	6661.9
484.762	6757.72
485.133	6850.37
485.503	6870.71
485.874	7070.25
486.244	7124.71
486.615	7247.87
486.985	7335.56
487.356	7462.11
487.726	7550.47
488.097	7704.81
488.467	7714.53
488.837	7917.69
489.207	7984.35
489.578	8124.46
489.948	8149.55
490.318	8330.11
490.688	8304.8
491.058	8443.1
491.428	8526.94
491.798	8578.01
492.168	8762.41
492.538	8728.51
492.908	8871.33
493.278	8985.91
493.648	8975.51
494.017	9046.7
494.387	9094.38
494.757	9255.96
495.126	9264.77
495.496	9335.5
495.866	9367.59
496.235	9475.39
496.605	9524.88
496.974	9557.42
497.344	9647.36
497.713	9691.43
498.082	9757.41
498.452	9828.37
498.821	9843.74
499.19	9914.02
499.559	9923.51
499.928	9995.37
500.298	10022.49
500.667	10110.4
501.036	10015.94
501.405	10191.98
501.774	10065.88
502.143	10257.74
502.512	10222.94
502.88	10298.64
503.249	10313.1
503.618	10332.99
503.987	10385.65
504.356	10401.46
504.724	10442.59
505.093	10478.3
505.462	10522.82
505.83	10501.12
506.199	10574.34
506.567	10717.16
506.936	10615.7
507.304	10719.42
507.672	10759.65
508.041	10735.69
508.409	10774.34
508.777	10827.44
509.145	10854.11
509.514	10846.65
509.882	10916.48
510.25	10863.82
510.618	10910.15
510.986	10907.21
511.354	11005.52
511.722	10970.71
512.09	11028.57
512.458	11033.99
512.826	11144.72
513.193	11088
513.561	11136.13
513.929	11090.49
514.297	11142.01
514.664	11119.19
515.032	11152.4
515.4	11166.19
515.767	11098.85
516.135	11270.37
516.502	11063.82
516.869	11225.85
517.237	11218.17
517.604	11169.81
517.972	11219.97
518.339	11312.85
518.706	11227.43
519.073	11261.33
519.44	11193.53
519.808	11296.36
520.175	11258.62
520.542	11256.13
520.909	11321.21
521.276	11238.28
521.643	11270.59
522.009	11259.75
522.376	11270.37
522.743	11275.34
523.11	11377.26
523.477	11374.77
523.843	11351.5
524.21	11393.98
524.577	11444.37
524.943	11350.59
525.31	11405.05
525.676	11370.7
526.043	11434.66
526.409	11330.03
526.776	11405.05
527.142	11328.22
527.508	11363.25
527.874	11364.38
528.241	11348.33
528.607	11317.37
528.973	11338.84
529.339	11241.22
529.705	11296.36
530.071	11323.47
530.437	11246.64
530.803	11220.65
531.169	11205.06
531.535	11172.52
531.901	11174.55
532.267	11099.75
532.632	11089.81
532.998	11063.14
533.364	11062.01
533.73	10958.29
534.095	10996.25
534.461	10953.31
534.826	10955.57
535.192	10877.16
535.557	10794.9
535.923	10763.04
536.288	10746.09
536.653	10694.11
537.019	10568.01
537.384	10614.79
537.749	10553.55
538.114	10559.65
538.479	10463.84
538.845	10406.21
539.21	10326.89
539.575	10285.76
539.94	10359.88
540.305	10261.35
540.67	10128.93
541.034	10153.56
541.399	10102.94
541.764	10055.26
542.129	9949.05
542.494	9929.84
542.858	9887.58
543.223	9867.92
543.587	9754.93
543.952	9748.83
544.316	9633.57
544.681	9625.89
545.045	9628.83
545.41	9566.91
545.774	9433.81
546.138	9437.65
546.503	9383.64
546.867	9377.76
547.231	9299.12
547.595	9206.02
547.959	9217.09
548.324	9097.09
548.688	9096.64
549.052	9061.61
549.416	9031.33
549.779	8982.74
550.143	8934.16
550.507	8892.8
550.871	8870.2
551.235	8722.64
551.599	8747.72
551.962	8676.31
552.326	8653.94
552.689	8672.02
553.053	8540.04
553.417	8506.6
553.78	8557.9
554.143	8427.73
554.507	8415.75
554.87	8371.69
555.234	8386.38
555.597	8249.66
555.96	8286.49
556.323	8283.55
556.686	8168.75
557.05	8238.81
557.413	8145.93
557.776	8095.08
558.139	8135.76
558.502	8061.41
558.865	8008.31
559.228	8027.74
559.59	8100.51
559.953	7955.43
560.316	8052.15
560.679	7882.89
561.041	7951.13
561.404	7907.97
561.767	7904.13
562.129	7869.33
562.492	7914.3
562.854	7813.06
563.217	7785.71
563.579	7790.23
563.941	7786.62
564.304	7780.29
564.666	7758.82
565.028	7764.47
565.39	7764.02
565.753	7749.33
566.115	7767.41
566.477	7772.38
566.839	7700.97
567.201	7736.68
567.563	7672.27
567.925	7686.51
568.287	7700.97
568.648	7683.57
569.01	7640.18
569.372	7643.57
569.734	7648.54
570.095	7613.74
570.457	7657.13
570.819	7639.73
571.18	7608.32
571.542	7669.56
571.903	7649.67
572.265	7593.85
572.626	7636.56
572.987	7671.59
573.349	7605.61
573.71	7493.97
574.071	7627.98
574.432	7583.68
574.794	7663.91
575.155	7581.65
575.516	7561.99
575.877	7579.39
576.238	7536.45
576.599	7632.72
576.96	7545.72
577.32	7558.15
577.681	7584.59
578.042	7551.14
578.403	7539.17
578.763	7515.89
579.124	7567.19
579.485	7508.66
579.845	7545.04
580.206	7505.72
580.566	7511.6
580.927	7467.53
581.287	7548.66
581.648	7475.21
582.008	7557.47
582.368	7464.37
582.728	7470.47
583.089	7427.3
583.449	7462.78
583.809	7404.03
584.169	7426.17
584.529	7385.27
584.889	7403.8
585.249	7368.78
585.609	7321.54
585.969	7366.97
586.329	7385.95
586.688	7331.26
587.048	7349.11
587.408	7331.49
587.768	7282.22
588.127	7269.79
588.487	7256.91
588.846	7325.61
589.206	7261.21
589.565	7225.73
589.925	7287.42
590.284	7304.37
590.643	7152.51
591.003	7231.83
591.362	7267.76
591.721	7180.76
592.08	7206.75
592.44	7227.99
592.799	7237.93
593.158	7189.34
593.517	7203.81
593.876	7228.89
594.235	7193.41
594.593	7129.01
594.952	7190.47
595.311	7127.65
595.67	7133.98
596.029	7184.15
596.387	7162.23
596.746	7132.4
597.104	7121.55
597.463	7069.57
597.822	7138.95
598.18	7123.58
598.538	7043.36
598.897	7093.53
599.255	7025.73
599.613	7125.84
599.972	7065.73
600.33	7034.32
600.688	7103.7
601.046	7044.04
601.404	7096.92
601.762	7034.77
602.12	7062.79
602.478	7082.46
602.836	7067.77
603.194	7007.88
603.552	7010.37
603.91	6990.03
604.268	7016.02
604.625	7063.02
604.983	6972.63
605.341	6957.03
605.698	7033.19
606.056	7036.35
606.413	6966.53
606.771	7032.74
607.128	7021.89
607.485	6993.42
607.843	6949.13
608.2	6986.41
608.557	7094.43
608.914	7026.64
609.272	6957.71
609.629	7023.7
609.986	7003.81
610.343	6985.06
610.7	7093.08
611.057	7013.76
611.414	7024.15
611.771	7023.93
612.127	7103.47
612.484	7063.47
612.841	7087.88
613.198	7073.87
613.554	7031.16
613.911	7089.46
614.267	7050.14
614.624	7049.24
614.98	7067.31
615.337	7063.02
615.693	7050.59
616.05	7091.04
616.406	7065.73
616.762	7069.35
617.118	7096.01
617.475	7058.5
617.831	7100.08
618.187	7086.07
618.543	7057.6
618.899	7130.59
619.255	7097.37
619.611	7085.39
619.967	7127.2
620.323	7160.87
620.678	7082.46
621.034	7090.14
621.39	7063.47
621.746	7052.63
622.101	7185.96
622.457	7095.34
622.812	7032.51
623.168	7117.26
623.523	7141.89
623.879	7145.73
624.234	7077.26
624.589	7064.83
624.945	7071.38
625.3	7099.86
625.655	7089.46
626.01	7086.75
626.365	7098.5
626.72	7102.34
627.075	7068.67
627.43	7114.09
627.785	6987.99
628.14	7078.84
628.495	7086.97
628.85	7056.47
629.205	7041.33
629.559	7073.64
629.914	7055.56
630.269	7072.96
630.623	7094.66
630.978	7032.51
631.332	7041.1
631.687	7047.2
632.041	6975.79
632.396	7003.36
632.75	6981.21
633.104	7023.02
633.459	6978.5
633.813	6915.91
634.167	6957.03
634.521	6959.52
634.875	6988.67
635.229	6920.2
635.583	6894.21
635.937	6960.42
636.291	6929.92
636.645	6931.95
636.999	6890.6
637.352	6907.54
637.706	6820.54
638.06	6894.66
638.413	6891.27
638.767	6830.94
639.121	6867.77
639.474	6834.1
639.828	6807.66
640.181	6815.34
640.534	6853.08
640.888	6756.59
641.241	6770.37
641.594	6824.38
641.947	6818.73
642.301	6790.71
642.654	6801.11
643.007	6772.41
643.36	6771.95
643.713	6744.38
644.066	6791.39
644.419	6737.15
644.771	6706.87
645.124	6665.74
645.477	6624.16
645.83	6593.2
646.182	6646.99
646.535	6601.34
646.888	6608.34
647.24	6578.51
647.593	6639.08
647.945	6557.95
648.298	6568.34
648.65	6520.44
649.002	6520.21
649.355	6556.37
649.707	6548.68
650.059	6632.07
650.411	6681.56
650.763	6682.47
651.115	6739.41
651.467	6746.19
651.819	6701.22
652.171	6721.11
652.523	6705.29
652.875	6656.03
653.227	6683.14
653.578	6666.19
653.93	6743.03
654.282	6729.47
654.633	6691.05
654.985	6625.97
655.337	6739.87
655.688	6716.81
656.039	6780.99
656.391	6734.89
656.742	6698.28
657.094	6696.02
657.445	6740.32
657.796	6771.05
658.147	6702.58
658.498	6739.64
658.849	6729.02
659.2	6753.65
659.551	6772.41
659.902	6775.12
660.253	6781.45
660.604	6825.06
660.955	6731.96
661.306	6805.4
661.656	6752.52
662.007	6802.24
662.358	6777.6
662.708	6762.24
663.059	6854.44
663.409	6757.27
663.76	6815.57
664.11	6838.17
664.461	6891.95
664.811	6854.89
665.161	6812.86
665.511	6815.57
665.862	6820.77
666.212	6892.63
666.562	6868
666.912	6885.17
667.262	6863.25
667.612	6825.06
667.962	6863.25
668.312	6843.37
668.662	6801.33
669.011	6872.07
669.361	6842.46
669.711	6785.97
670.06	6828
670.41	6813.99
670.76	6784.16
671.109	6808.79
671.459	6785.74
671.808	6787.1
672.157	6809.24
672.507	6748.23
672.856	6770.82
673.205	6821.44
673.554	6808.11
673.904	6731.28
674.253	6775.34
674.602	6806.3
674.951	6638.85
675.3	6644.73
675.649	6705.97
675.998	6761.33
676.346	6731.73
676.695	6751.62
677.044	6719.3
677.393	6744.16
677.741	6655.35
678.09	6684.5
678.438	6668.68
678.787	6678.85
679.135	6681.11
679.484	6660.77
679.832	6635.69
680.181	6603.6
680.529	6648.34
680.877	6626.2
681.225	6609.7
681.573	6626.42
681.922	6553.88
682.27	6522.24
682.618	6583.03
682.966	6549.81
683.314	6555.24
683.661	6491.96
684.009	6517.5
684.357	6411.96
684.705	6435.47
685.053	6446.99
685.4	6510.04
685.748	6395.69
686.095	6418.74
686.443	6406.54
686.79	6329.48
687.138	6401.34
687.485	6381.91
687.832	6346.2
688.18	6377.39
688.527	6341.46
688.874	6302.81
689.221	6267.11
689.568	6270.05
689.915	6239.99
690.262	6227.56
690.609	6244.74
690.956	6190.05
691.303	6172.2
691.65	6101.24
691.997	6105.53
692.344	6053.1
692.69	6049.04
693.037	6048.58
693.383	6006.1
693.73	6035.25
694.077	5960
694.423	5990.05
694.769	5995.03
695.116	5960.22
695.462	5919.77
695.808	5880
696.155	5924.97
696.501	5837.06
696.847	5859.66
697.193	5807.69
697.539	5763.85
697.885	5725.2
698.231	5723.62
698.577	5675.94
698.923	5728.82
699.269	5682.72
699.614	5588.93
699.96	5613.12
700.306	5595.49
700.651	5624.19
700.997	5532.89
701.342	5498.32
701.688	5543.29
702.033	5506.9
702.379	5503.51
702.724	5458.09
703.069	5445.44
703.415	5424.65
703.76	5373.35
704.105	5397.75
704.45	5393.23
704.795	5345.1
705.14	5308.72
705.485	5310.3
705.83	5256.74
706.175	5256.97
706.52	5221.49
706.865	5272.33
707.209	5215.84
707.554	5233.24
707.899	5200.24
708.243	5178.1
708.588	5171.54
708.932	5130.19
709.277	5125.67
709.621	5083.41
709.966	5095.16
710.31	5098.33
710.654	5028.95
710.998	5087.03
711.342	5090.64
711.687	5035.96
712.031	5033.7
712.375	5010.19
712.719	4975.17
713.063	5039.12
713.407	5019.23
713.75	4957.77
714.094	4997.54
714.438	4955.51
714.782	4951.21
715.125	4911.44
715.469	4983.53
715.812	4929.29
716.156	4887.26
716.499	4902.85
716.843	4906.92
717.186	4901.95
717.53	4889.52
717.873	4910.31
718.216	4927.48
718.559	4891.55
718.902	4850.42
719.246	4882.29
719.589	4762.74
719.932	4808.84
720.275	4818.56
720.617	4755.06
720.96	4840.93
721.303	4815.85
721.646	4830.08
721.989	4801.61
722.331	4793.25
722.674	4828.05
723.016	4827.83
723.359	4781.05
723.701	4808.16
724.044	4767.49
724.386	4764.78
724.729	4773.82
725.071	4751.22
725.413	4751.67
725.755	4741.27
726.097	4749.86
726.439	4722.29
726.782	4744.21
727.124	4746.92
727.465	4761.39
727.807	4727.49
728.149	4724.78
728.491	4730.65
728.833	4721.16
729.175	4721.61
729.516	4731.56
729.858	4767.26
730.199	4772.01
730.541	4773.14
730.882	4707.6
731.224	4760.48
731.565	4712.35
731.906	4753.25
732.248	4792.57
732.589	4747.38
732.93	4755.06
733.271	4699.47
733.612	4776.75
733.953	4765
734.294	4741.27
734.635	4800.48
734.976	4783.31
735.317	4743.31
735.658	4796.19
735.999	4781.27
736.339	4793.02
736.68	4782.18
737.021	4786.24
737.361	4816.53
737.702	4834.38
738.042	4821.5
738.383	4843.19
738.723	4851.55
739.063	4825.79
739.404	4928.16
739.744	4879.35
740.084	4889.97
740.424	4937.65
740.764	4899.69
741.104	4934.49
741.444	4918.67
741.784	4938.78
742.124	4971.78
742.464	5007.48
742.804	5023.75
743.143	5051.77
743.483	5073.47
743.823	5102.62
744.162	5113.47
744.502	5198.89
744.841	5182.62
745.181	5211.77
745.52	5205.67
745.86	5221.04
746.199	5326.79
746.538	5318.43
746.877	5431.2
747.216	5430.07
747.556	5451.09
747.895	5481.82
748.234	5499.45
748.573	5602.27
748.911	5647.24
749.25	5659.67
749.589	5739.67
749.928	5835.48
750.267	5890.85
750.605	5937.85
750.944	6059.43
751.283	6138.3
751.621	6163.16
751.96	6233.66
752.298	6404.28
752.636	6461.45
752.975	6526.76
753.313	6663.26
753.651	6782.35
753.989	6829.35
754.327	6928.11
754.666	7022.34
755.004	7164.71
755.342	7289.23
755.679	7449.9
756.017	7492.84
756.355	7758.37
756.693	7843.11
757.031	7995.65
757.368	8140.05
757.706	8270.22
758.044	8463.66
758.381	8633.15
758.719	8758.34
759.056	8926.93
759.394	9058
759.731	9232
760.068	9441.04
760.405	9544.76
760.743	9688.71
761.08	9972.1
761.417	10099.32
761.754	10212.99
762.091	10462.48
762.428	10590.39
762.765	10811.4
763.102	10982.69
763.438	11051.39
763.775	11355.11
764.112	11508.33
764.449	11697.47
764.785	11879.17
765.122	11967.98
765.458	12172.49
765.795	12344.46
766.131	12480.51
766.467	12695.19
766.804	12867.39
