Data from hue_150_FLMS001491_00076.txt Node
Date: Tue Feb 07 16:54:30 GMT 2017
User: dcchb
Spectrometer: FLMS00149
Trigger mode: 0
Integration Time (sec): 2.000000E-2
Scans to average: 10
Electric dark correction enabled: true
Nonlinearity correction enabled: false
Boxcar width: 0
XAxis mode: Wavelengths
Number of Pixels in Spectrum: 2048
>>>>>Begin Spectral Data<<<<<
341.393	-2.18
341.776	-2.18
342.16	-2.18
342.543	-57.31
342.927	-51.21
343.31	-80.14
343.693	-86.69
344.077	-67.26
344.46	-57.31
344.843	-51.89
345.226	-34.72
345.61	-36.3
345.993	-5.34
346.376	2.57
346.759	1.44
347.142	27.2
347.525	27.65
347.908	64.49
348.291	69.24
348.674	109.69
349.057	117.37
349.44	120.99
349.823	161.66
350.206	160.98
350.588	204.83
350.971	222
351.354	230.14
351.737	238.5
352.119	257.25
352.502	265.61
352.884	274.65
353.267	283.02
353.65	292.51
354.032	301.32
354.414	312.39
354.797	323.01
355.179	314.43
355.562	330.92
355.944	340.64
356.326	339.28
356.709	358.49
357.091	344.26
357.473	346.74
357.855	338.38
358.238	352.17
358.62	335.22
359.002	332.96
359.384	345.61
359.766	346.29
360.148	345.61
360.53	353.52
360.912	328.89
361.294	339.06
361.676	306.07
362.057	325.27
362.439	351.71
362.821	333.18
363.203	334.77
363.584	315.1
363.966	319.62
364.348	319.62
364.729	332.28
365.111	331.83
365.493	351.71
365.874	301.77
366.256	327.08
366.637	337.93
367.019	304.03
367.4	318.27
367.781	336.57
368.163	319.4
368.544	326.4
368.925	300.87
369.306	323.92
369.688	320.75
370.069	331.83
370.45	313.75
370.831	307.42
371.212	326.4
371.593	317.82
371.974	326.86
372.355	343.13
372.736	325.27
373.117	308.33
373.498	331.83
373.879	308.33
374.26	321.66
374.641	353.3
375.021	306.74
375.402	335.9
375.783	326.18
376.163	321.88
376.544	332.73
376.925	337.25
377.305	304.26
377.686	339.96
378.066	329.79
378.447	330.7
378.827	338.83
379.208	319.4
379.588	334.09
379.968	335.44
380.349	336.8
380.729	327.31
381.109	329.34
381.489	333.64
381.87	345.84
382.25	356.46
382.63	338.83
383.01	340.64
383.39	340.19
383.77	337.48
384.15	353.52
384.53	356.46
384.91	333.64
385.29	334.31
385.67	361.21
386.049	356.69
386.429	360.53
386.809	351.49
387.189	353.75
387.568	361.66
387.948	347.87
388.328	365.5
388.707	353.75
389.087	351.71
389.466	358.72
389.846	340.41
390.225	343.13
390.605	359.4
390.984	379.96
391.363	384.03
391.743	371.6
392.122	345.84
392.501	370.92
392.881	371.6
393.26	377.7
393.639	387.65
394.018	408.44
394.397	403.69
394.776	390.58
395.155	379.06
395.534	386.74
395.913	390.36
396.292	380.19
396.671	399.62
397.05	396.23
397.429	413.86
397.808	400.07
398.186	397.14
398.565	371.15
398.944	391.71
399.323	400.3
399.701	439.17
400.08	397.81
400.458	392.62
400.837	422.22
401.215	422.67
401.594	401.66
401.972	405.5
402.351	426.06
402.729	391.71
403.107	410.24
403.486	417.25
403.864	424.71
404.242	394.88
404.62	414.31
404.999	429.68
405.377	423.58
405.755	445.04
406.133	452.05
406.511	433.52
406.889	452.28
407.267	426.97
407.645	431.71
408.023	450.47
408.401	447.3
408.779	462.9
409.156	448.21
409.534	450.69
409.912	477.81
410.29	456.12
410.667	464.03
411.045	468.32
411.422	469
411.8	490.69
412.178	485.5
412.555	486.4
412.933	500.18
413.31	486.4
413.687	491.6
414.065	501.31
414.442	486.17
414.819	515.78
415.197	503.12
415.574	501.54
415.951	492.73
416.328	519.85
416.705	505.38
417.082	515.33
417.46	514.87
417.837	536.79
418.214	533.86
418.591	547.19
418.967	502.44
419.344	537.47
419.721	524.14
420.098	533.86
420.475	526.17
420.852	551.26
421.228	538.83
421.605	542.44
421.982	561.65
422.358	541.77
422.735	596.91
423.111	573.4
423.488	570.92
423.864	568.66
424.241	573.63
424.617	594.42
424.994	587.41
425.37	595.32
425.746	596.68
426.123	607.75
426.499	601.65
426.875	608.66
427.251	642.33
427.627	626.96
428.003	627.86
428.379	636.23
428.756	642.78
429.132	634.19
429.507	635.55
429.883	634.19
430.259	644.59
430.635	638.94
431.011	652.95
431.387	677.58
431.763	684.13
432.138	658.37
432.514	689.11
432.89	680.29
433.265	691.82
433.641	699.73
434.016	702.89
434.392	712.38
434.767	731.36
435.143	714.42
435.518	746.05
435.894	734.08
436.269	750.57
436.644	760.52
437.02	754.42
437.395	773.4
437.77	758.26
438.145	800.06
438.52	801.87
438.895	787.18
439.271	799.84
439.646	803.23
440.021	797.35
440.395	821.31
440.77	818.82
441.145	819.72
441.52	838.03
441.895	838.71
442.27	867.86
442.645	870.34
443.019	862.89
443.394	872.15
443.769	857.24
444.143	871.02
444.518	910.8
444.892	900.4
445.267	904.47
445.641	894.75
446.016	899.04
446.39	900.4
446.764	886.84
447.139	903.56
447.513	924.13
447.887	931.59
448.262	925.94
448.636	920.51
449.01	938.59
449.384	967.06
449.758	969.55
450.132	951.47
450.506	948.08
450.88	952.6
451.254	987.4
451.628	998.7
452.002	996.22
452.376	997.57
452.75	1042.09
453.123	1010.91
453.497	1050.9
453.871	1038.93
454.244	1076.21
454.618	1070.34
454.992	1069.66
455.365	1110.56
455.739	1104.46
456.112	1141.75
456.486	1122.09
456.859	1140.39
457.232	1185.36
457.606	1140.85
457.979	1155.53
458.352	1199.38
458.725	1221.75
459.099	1208.87
459.472	1246.38
459.845	1261.07
460.218	1274.4
460.591	1289.32
460.964	1313.04
461.337	1298.36
461.71	1316.21
462.083	1334.74
462.456	1366.6
462.829	1360.5
463.201	1370.9
463.574	1374.51
463.947	1412.25
464.32	1454.28
464.692	1475.07
465.065	1492.25
465.438	1520.72
465.81	1492.25
466.183	1555.98
466.555	1561.17
466.928	1573.38
467.3	1609.99
467.672	1646.6
468.045	1674.62
468.417	1685.01
468.789	1710.77
469.161	1722.53
469.534	1771.79
469.906	1816.31
470.278	1817.44
470.65	1849.08
471.022	1877.55
471.394	1917.77
471.766	1960.49
472.138	2004.78
472.51	2015.17
472.882	2069.41
473.253	2135.17
473.625	2177.65
473.997	2176.3
474.369	2232.79
474.74	2276.86
475.112	2342.85
475.484	2369.97
475.855	2448.38
476.227	2500.36
476.598	2548.27
476.97	2633.69
477.341	2699.22
477.713	2772.44
478.084	2821.93
478.455	2876.39
478.827	2945.09
479.198	3049.72
479.569	3083.39
479.94	3240
480.311	3256.72
480.682	3356.61
481.053	3486.09
481.424	3562.25
481.795	3636.37
482.166	3724.05
482.537	3854.45
482.908	3905.29
483.279	4010.6
483.65	4114.55
484.021	4226.64
484.391	4317.03
484.762	4427.76
485.133	4562.68
485.503	4652.62
485.874	4784.59
486.244	4894.65
486.615	4967.64
486.985	5151.14
487.356	5281.75
487.726	5402.43
488.097	5517.91
488.467	5621.63
488.837	5777.33
489.207	5919.25
489.578	6050.1
489.948	6193.37
490.318	6356.3
490.688	6406.92
491.058	6546.35
491.428	6747.48
491.798	6848.49
492.168	7031.76
492.538	7082.38
492.908	7248.26
493.278	7412.55
493.648	7484.86
494.017	7610.05
494.387	7767.34
494.757	7945.64
495.126	8092.08
495.496	8093.21
495.866	8238.06
496.235	8404.16
496.605	8508.34
496.974	8603.47
497.344	8770.02
497.713	8863.58
498.082	8868.78
498.452	9072.39
498.821	9151.26
499.19	9266.73
499.559	9360.52
499.928	9398.71
500.298	9612.04
500.667	9721.41
501.036	9738.36
501.405	9907.85
501.774	9880.73
502.143	10094.96
502.512	10088.41
502.88	10261.74
503.249	10282.53
503.618	10404.33
503.987	10502.86
504.356	10530.2
504.724	10621.95
505.093	10678
505.462	10755.73
505.83	10798.9
506.199	10951.66
506.567	11109.85
506.936	11057.2
507.304	11152.11
507.672	11157.53
508.041	11378.54
508.409	11428.94
508.777	11519.1
509.145	11513.68
509.514	11587.35
509.882	11634.81
510.25	11682.04
510.618	11692.21
510.986	11764.3
511.354	11925.19
511.722	11969.94
512.09	12070.5
512.458	12025.08
512.826	12132.42
513.193	12196.15
513.561	12204.06
513.929	12310.04
514.297	12268.91
514.664	12462.36
515.032	12439.31
515.4	12466.42
515.767	12571.28
516.135	12540.77
516.502	12497.61
516.869	12722.91
517.237	12659.64
517.604	12699.19
517.972	12733.76
518.339	12798.62
518.706	12868.45
519.073	12851.05
519.44	12963.81
519.808	13011.04
520.175	12972.63
520.542	13076.8
520.909	13112.28
521.276	13066.41
521.643	13162.68
522.009	13224.14
522.376	13249.91
522.743	13206.74
523.11	13286.97
523.477	13415.78
523.843	13304.14
524.21	13554.76
524.577	13524.7
524.943	13507.3
525.31	13591.59
525.676	13647.64
526.043	13655.77
526.409	13699.39
526.776	13672.27
527.142	13670.46
527.508	13793.85
527.874	13768.99
528.241	13764.24
528.607	13804.92
528.973	13813.05
529.339	13750.46
529.705	13848.31
530.071	13954.29
530.437	13916.1
530.803	13885.6
531.169	13944.12
531.535	13888.99
531.901	13838.59
532.267	13863
532.632	13917.91
532.998	13825.48
533.364	13932.6
533.73	13873.62
534.095	13878.82
534.461	13938.02
534.826	13958.81
535.192	13906.39
535.557	13954.97
535.923	13836.11
536.288	13897.35
536.653	13856.67
537.019	13839.49
537.384	13768.99
537.749	13775.09
538.114	13645.15
538.479	13728.31
538.845	13726.96
539.21	13643.79
539.575	13673.85
539.94	13551.82
540.305	13697.58
540.67	13505.72
541.034	13605.15
541.399	13498.49
541.764	13497.13
542.129	13462.33
542.494	13405.38
542.858	13452.61
543.223	13361.99
543.587	13369.9
543.952	13298.49
544.316	13336.68
544.681	13250.58
545.045	13245.16
545.41	13285.16
545.774	13130.36
546.138	13163.58
546.503	13100.31
546.867	13095.11
547.231	13090.81
547.595	13035.45
547.959	13019.18
548.324	12942.12
548.688	13005.39
549.052	12898.73
549.416	12889.01
549.779	12897.37
550.143	12855.79
550.507	12899.63
550.871	12838.84
551.235	12717.49
551.599	12768.34
551.962	12750.48
552.326	12637.04
552.689	12726.08
553.053	12664.16
553.417	12641.11
553.78	12695.34
554.143	12663.48
554.507	12637.04
554.87	12508.23
555.234	12595.46
555.597	12556.82
555.96	12506.87
556.323	12554.78
556.686	12463.71
557.05	12563.14
557.413	12555.91
557.776	12524.5
558.139	12533.09
558.502	12527.44
558.865	12488.57
559.228	12589.13
559.59	12445.18
559.953	12442.92
560.316	12490.15
560.679	12591.62
561.041	12517.72
561.404	12628
561.767	12603.6
562.129	12470.04
562.492	12548.46
562.854	12591.39
563.217	12487.21
563.579	12482.69
563.941	12553.88
564.304	12551.62
564.666	12541.68
565.028	12575.8
565.39	12542.81
565.753	12650.37
566.115	12587.55
566.477	12616.7
566.839	12586.65
567.201	12661.9
567.563	12599.53
567.925	12734.21
568.287	12742.35
568.648	12684.05
569.01	12752.52
569.372	12797.49
569.734	12651.28
570.095	12712.74
570.457	12715.68
570.819	12773.53
571.18	12862.12
571.542	12842.91
571.903	12742.8
572.265	12906.19
572.626	12810.37
572.987	12873.19
573.349	12854.21
573.71	12880.88
574.071	12952.06
574.432	12937.82
574.794	12940.76
575.155	12923.81
575.516	12908.67
575.877	12945.06
576.238	12986.41
576.599	12988.22
576.96	13063.47
577.32	12968.78
577.681	12967.2
578.042	12991.83
578.403	13039.74
578.763	12957.26
579.124	12907.09
579.485	12983.02
579.845	12955.68
580.206	13001.1
580.566	12990.03
580.927	12958.16
581.287	12949.35
581.648	12937.15
582.008	13020.99
582.368	13020.31
582.728	12982.57
583.089	12967.65
583.449	13002.91
583.809	12922
584.169	12993.42
584.529	12863.48
584.889	12967.43
585.249	12905.96
585.609	12814.89
585.969	12837.49
586.329	12833.65
586.688	12853.98
587.048	12964.94
587.408	12827.54
587.768	12853.31
588.127	12844.04
588.487	12773.76
588.846	12884.94
589.206	12862.8
589.565	12738.28
589.925	12876.58
590.284	12719.75
590.643	12889.46
591.003	12756.36
591.362	12818.05
591.721	12753.2
592.08	12787.09
592.44	12810.82
592.799	12733.08
593.158	12771.05
593.517	12709.13
593.876	12749.35
594.235	12745.51
594.593	12702.35
594.952	12792.97
595.311	12755.23
595.67	12753.87
596.029	12823.02
596.387	12820.54
596.746	12858.96
597.104	12790.03
597.463	12757.94
597.822	12793.19
598.18	12654.89
598.538	12657.15
598.897	12707.55
599.255	12690.15
599.613	12705.97
599.972	12696.25
600.33	12679.53
600.688	12713.2
601.046	12743.03
601.404	12642.46
601.762	12730.6
602.12	12780.09
602.478	12771.73
602.836	12721.33
603.194	12779.18
603.552	12705.29
603.91	12686.08
604.268	12725.85
604.625	12657.15
604.983	12649.24
605.341	12566.76
605.698	12716.36
606.056	12703.93
606.413	12702.12
606.771	12755.23
607.128	12686.3
607.485	12613.09
607.843	12643.82
608.2	12733.54
608.557	12763.59
608.914	12714.1
609.272	12801.1
609.629	12820.31
609.986	12883.81
610.343	12779.86
610.7	12850.59
611.057	12826.87
611.414	12856.7
611.771	12818.28
612.127	12793.87
612.484	12944.15
612.841	12833.87
613.198	12870.25
613.554	12800.65
613.911	13001.32
614.267	12914.77
614.624	12935.34
614.98	12908.67
615.337	12945.28
615.693	12986.64
616.05	12936.92
616.406	13073.19
616.762	13011.04
617.118	12948.22
617.475	12974.43
617.831	13033.64
618.187	13019.4
618.543	13038.39
618.899	13183.01
619.255	12986.86
619.611	13025.05
619.967	13124.71
620.323	13103.7
620.678	13097.82
621.034	13098.95
621.39	13015.56
621.746	13039.97
622.101	13110.93
622.457	13040.19
622.812	13103.92
623.168	13088.78
623.523	13126.29
623.879	13081.1
624.234	12947.09
624.589	13052.85
624.945	13099.85
625.3	13102.79
625.655	13026.63
626.01	13056.69
626.365	13068.89
626.72	13047.65
627.075	13067.76
627.43	13089.23
627.785	12990.48
628.14	13074.77
628.495	13091.27
628.85	13065.96
629.205	13003.58
629.559	13049.69
629.914	12981.66
630.269	13058.95
630.623	12951.83
630.978	13004.94
631.332	13021.89
631.687	13030.02
632.041	12938.73
632.396	13013.75
632.75	12912.97
633.104	12938.28
633.459	12962
633.813	12853.31
634.167	12839.97
634.521	12850.59
634.875	12887.2
635.229	12828.67
635.583	12743.03
635.937	12850.59
636.291	12809.47
636.645	12828.67
636.999	12688.79
637.352	12721.56
637.706	12665.29
638.06	12706.42
638.413	12658.51
638.767	12706.42
639.121	12679.53
639.474	12602.69
639.828	12592.97
640.181	12605.4
640.534	12669.58
640.888	12568.79
641.241	12507.55
641.594	12559.3
641.947	12552.3
642.301	12548.68
642.654	12551.62
643.007	12546.2
643.36	12529.47
643.713	12465.29
644.066	12458.29
644.419	12464.16
644.771	12453.99
645.124	12327.67
645.477	12319.53
645.83	12190.5
646.182	12172.19
646.535	12047.68
646.888	12096.26
647.24	12100.33
647.593	12090.61
647.945	12149.82
648.298	12024.63
648.65	11948.47
649.002	11967.91
649.355	12112.76
649.707	12088.58
650.059	12169.71
650.411	12263.72
650.763	12217.84
651.115	12346.65
651.467	12321.12
651.819	12339.42
652.171	12318.18
652.523	12294.45
652.875	12341.91
653.227	12318.4
653.578	12412.41
653.93	12317.05
654.282	12300.55
654.633	12248.12
654.985	12289.48
655.337	12319.76
655.688	12237.73
656.039	12342.13
656.391	12264.85
656.742	12254.45
657.094	12307.11
657.445	12362.7
657.796	12305.07
658.147	12281.34
658.498	12311.17
658.849	12311.85
659.2	12302.59
659.551	12246.99
659.902	12320.66
660.253	12302.13
660.604	12289.25
660.955	12261.23
661.306	12322.47
661.656	12406.09
662.007	12382.36
662.358	12399.08
662.708	12432.3
663.059	12357.95
663.409	12312.53
663.76	12376.03
664.11	12391.4
664.461	12391.17
664.811	12317.28
665.161	12396.37
665.511	12370.83
665.862	12378.06
666.212	12407.89
666.562	12409.7
666.912	12339.65
667.262	12332.42
667.612	12318.18
667.962	12345.07
668.312	12354.34
668.662	12415.35
669.011	12353.21
669.361	12310.04
669.711	12333.32
670.06	12340.78
670.41	12308.46
670.76	12197.28
671.109	12282.47
671.459	12355.24
671.808	12308.01
672.157	12294.45
672.507	12266.43
672.856	12262.81
673.205	12311.17
673.554	12323.6
673.904	12223.27
674.253	12321.12
674.602	12185.08
674.951	12096.49
675.3	12015.36
675.649	12232.08
675.998	12156.38
676.346	12172.42
676.695	12207.67
677.044	12131.74
677.393	12125.19
677.741	12120.22
678.09	12143.72
678.438	12013.78
678.787	12134.45
679.135	12087.22
679.484	12004.74
679.832	12071.41
680.181	11991.41
680.529	12025.08
680.877	11930.17
681.225	11917.74
681.573	12032.08
681.922	11901.69
682.27	11789.38
682.618	11872.54
682.966	11855.37
683.314	11810.4
683.661	11769.49
684.009	11737.86
684.357	11669.83
684.705	11708.03
685.053	11681.81
685.4	11786.22
685.748	11650.17
686.095	11673.22
686.443	11563.4
686.79	11564.98
687.138	11623.28
687.485	11580.57
687.832	11530.63
688.18	11580.8
688.527	11459.44
688.874	11455.6
689.221	11407.02
689.568	11400.01
689.915	11352.1
690.262	11322.27
690.609	11279.11
690.956	11201.37
691.303	11175.84
691.65	11216.51
691.997	11146.46
692.344	11062.84
692.69	11073.69
693.037	11069.85
693.383	10915.5
693.73	11005.9
694.077	10837.31
694.423	10893.58
694.769	10897.65
695.116	10811.1
695.462	10884.77
695.808	10790.76
696.155	10836.86
696.501	10781.72
696.847	10759.35
697.193	10625.12
697.539	10637.09
697.885	10568.62
698.231	10550.09
698.577	10497.21
698.923	10512.35
699.269	10367.04
699.614	10343.54
699.96	10310.77
700.306	10343.77
700.651	10284.33
700.997	10144
701.342	10258.8
701.688	10202.98
702.033	10114.4
702.379	10081.85
702.724	10073.04
703.069	10075.07
703.415	9939.48
703.76	9921.63
704.105	10027.39
704.45	9948.52
704.795	9907.85
705.14	9807.28
705.485	9794.63
705.83	9701.52
706.175	9819.71
706.52	9721.19
706.865	9721.41
707.209	9686.16
707.554	9636.89
707.899	9630.79
708.243	9584.01
708.588	9565.93
708.932	9542.88
709.277	9515.31
709.621	9484.36
709.966	9454.53
710.31	9404.81
710.654	9355.77
710.998	9392.83
711.342	9336.34
711.687	9344.25
712.031	9278.03
712.375	9283.68
712.719	9290.24
713.063	9261.08
713.407	9253.4
713.75	9208.2
714.094	9185.61
714.438	9168.66
714.782	9098.83
715.125	9134.08
715.469	9131.37
715.812	9127.53
716.156	9102.67
716.499	9145.38
716.843	9077.36
717.186	9058.15
717.53	9058.15
717.873	8983.58
718.216	9023.8
718.559	9041.43
718.902	8940.19
719.246	8956.01
719.589	8924.14
719.932	8857.93
720.275	8866.97
720.617	8867.87
720.96	8836.46
721.303	8929.79
721.646	8867.2
721.989	8837.59
722.331	8858.16
722.674	8838.27
723.016	8874.65
723.359	8764.83
723.701	8792.4
724.044	8757.82
724.386	8757.82
724.729	8766.18
725.071	8809.8
725.413	8724.6
725.755	8713.98
726.097	8757.37
726.439	8716.24
726.782	8674.66
727.124	8791.94
727.465	8690.93
727.807	8714.88
728.149	8665.39
728.491	8680.76
728.833	8655.68
729.175	8773.87
729.516	8668.56
729.858	8649.12
730.199	8654.77
730.541	8591.95
730.882	8615.68
731.224	8709.69
731.565	8596.24
731.906	8685.73
732.248	8600.99
732.589	8569.35
732.93	8534.78
733.271	8570.93
733.612	8664.26
733.953	8583.14
734.294	8620.42
734.635	8584.04
734.976	8618.62
735.317	8603.7
735.658	8572.06
735.999	8664.49
736.339	8641.21
736.68	8609.12
737.021	8623.59
737.361	8607.09
737.702	8681.21
738.042	8572.74
738.383	8615.45
738.723	8706.52
739.063	8603.02
739.404	8633.98
739.744	8688.44
740.084	8646.41
740.424	8690.48
740.764	8669.46
741.104	8666.07
741.444	8674.21
741.784	8630.14
742.124	8698.84
742.464	8732.28
742.804	8746.52
743.143	8699.74
743.483	8782
743.823	8768.67
744.162	8832.85
744.502	8927.99
744.841	8843.02
745.181	8928.89
745.52	8888.66
745.86	8938.38
746.199	8927.76
746.538	9057.02
746.877	9113.52
747.216	9104.48
747.556	9144.7
747.895	9198.03
748.234	9190.35
748.573	9230.35
748.911	9335.43
749.25	9369.33
749.589	9366.39
749.928	9478.93
750.267	9537.69
750.605	9535.65
750.944	9711.02
751.283	9708.76
751.621	9895.64
751.96	9861.52
752.298	9945.36
752.636	10033.95
752.975	10000.73
753.313	10164.79
753.651	10354.39
753.989	10335.41
754.327	10435.29
754.666	10558.9
755.004	10697.2
755.342	10914.15
755.679	10976.97
756.017	11023.75
756.355	11277.08
756.693	11231.43
757.031	11494.92
757.368	11475.26
757.706	11742.83
758.044	11826.89
758.381	12041.12
758.719	12116.15
759.056	12275.69
