Data from hue_28_FLMS001491_00048.txt Node
Date: Tue Feb 07 17:17:20 GMT 2017
User: dcchb
Spectrometer: FLMS00149
Trigger mode: 0
Integration Time (sec): 2.000000E-2
Scans to average: 10
Electric dark correction enabled: true
Nonlinearity correction enabled: false
Boxcar width: 0
XAxis mode: Wavelengths
Number of Pixels in Spectrum: 2048
>>>>>Begin Spectral Data<<<<<
341.393	-9.82
341.776	-9.82
342.16	-9.82
342.543	-64.5
342.927	-67.89
343.31	-78.51
343.693	-68.12
344.077	-71.28
344.46	-60.89
344.843	-55.92
345.226	-39.42
345.61	-38.74
345.993	-18.4
346.376	12.33
346.759	12.78
347.142	20.47
347.525	41.26
347.908	63.85
348.291	79.22
348.674	91.42
349.057	109.95
349.44	118.32
349.823	137.07
350.206	168.03
350.588	181.82
350.971	208.26
351.354	226.79
351.737	229.27
352.119	243.96
352.502	260.46
352.884	275.15
353.267	288.71
353.65	287.13
354.032	295.94
354.414	315.83
354.797	295.71
355.179	323.51
355.562	335.26
355.944	325.77
356.326	331.64
356.709	321.25
357.091	334.81
357.473	364.64
357.855	327.35
358.238	339.78
358.62	348.14
359.002	346.78
359.384	345.88
359.766	350.63
360.148	353.79
360.53	337.52
360.912	340.01
361.294	324.19
361.676	333.9
362.057	333.9
362.439	339.33
362.821	331.19
363.203	327.58
363.584	337.52
363.966	328.93
364.348	344.07
364.729	319.44
365.111	338.42
365.493	315.83
365.874	315.83
366.256	321.93
366.637	333.9
367.019	336.84
367.4	306.33
367.781	329.16
368.163	349.95
368.544	304.75
368.925	323.28
369.306	325.09
369.688	322.38
370.069	314.47
370.45	316.95
370.831	312.44
371.212	310.4
371.593	315.37
371.974	328.48
372.355	325.32
372.736	307.92
373.117	307.69
373.498	327.58
373.879	326.45
374.26	302.27
374.641	311.08
375.021	301.36
375.402	333.23
375.783	324.19
376.163	349.04
376.544	327.58
376.925	329.61
377.305	323.06
377.686	320.34
378.066	346.56
378.447	342.27
378.827	350.63
379.208	357.86
379.588	353.34
379.968	357.18
380.349	343.62
380.729	345.2
381.109	329.61
381.489	362.38
381.87	331.64
382.25	329.38
382.63	357.86
383.01	347.69
383.39	347.24
383.77	343.62
384.15	360.12
384.53	330.97
384.91	343.62
385.29	341.14
385.67	344.07
386.049	348.82
386.429	352.66
386.809	345.43
387.189	350.63
387.568	353.34
387.948	372.09
388.328	369.38
388.707	368.93
389.087	359.21
389.466	379.1
389.846	368.48
390.225	370.51
390.605	374.81
390.984	372.32
391.363	360.8
391.743	366.22
392.122	370.74
392.501	385.2
392.881	394.02
393.26	373.22
393.639	384.07
394.018	377.29
394.397	378.42
394.776	379.78
395.155	389.95
395.534	375.03
395.913	394.24
396.292	383.62
396.671	379.33
397.05	379.78
397.429	393.79
397.808	405.54
398.186	396.27
398.565	394.47
398.944	377.52
399.323	376.61
399.701	363.06
400.08	413.45
400.458	388.37
400.837	407.57
401.215	422.26
401.594	389.72
401.972	386.56
402.351	408.03
402.729	410.06
403.107	398.76
403.486	384.98
403.864	433.11
404.242	427.46
404.62	392.66
404.999	420
405.377	428.36
405.755	392.89
406.133	430.17
406.511	439.89
406.889	424.52
407.267	421.58
407.645	450.74
408.023	438.08
408.401	442.6
408.779	442.83
409.156	442.15
409.534	447.57
409.912	438.76
410.29	465.65
410.667	462.49
411.045	466.33
411.422	472.21
411.8	440.57
412.178	454.58
412.555	468.82
412.933	462.71
413.31	464.52
413.687	467.23
414.065	492.77
414.442	480.57
414.819	469.72
415.197	486.22
415.574	489.38
415.951	494.35
416.328	473.56
416.705	486.89
417.082	490.06
417.46	507.01
417.837	489.38
418.214	508.36
418.591	505.65
418.967	518.31
419.344	521.92
419.721	499.55
420.098	520.34
420.475	508.36
420.852	495.93
421.228	547.68
421.605	518.76
421.982	521.24
422.358	545.65
422.735	540.68
423.111	550.17
423.488	548.36
423.864	570.96
424.241	565.54
424.617	562.15
424.994	538.87
425.37	549.27
425.746	556.72
426.123	561.47
426.499	574.12
426.875	562.6
427.251	581.58
427.627	603.73
428.003	566.89
428.379	570.06
428.756	596.5
429.132	596.95
429.507	620.68
429.883	621.35
430.259	625.42
430.635	611.18
431.011	617.06
431.387	632.2
431.763	623.61
432.138	627.68
432.514	637.62
432.89	654.12
433.265	658.41
433.641	676.04
434.016	658.41
434.392	681.47
434.767	700.9
435.143	692.31
435.518	699.77
435.894	678.98
436.269	707.45
436.644	720.56
437.02	697.28
437.395	703.39
437.77	717.17
438.145	726.21
438.52	718.98
438.895	727.57
439.271	721.01
439.646	753.78
440.021	763.04
440.395	720.56
440.77	737.06
441.145	751.75
441.52	746.55
441.895	783.61
442.27	750.39
442.645	763.72
443.019	772.31
443.394	764.17
443.769	785.64
444.143	764.85
444.518	789.71
444.892	788.13
445.267	801.91
445.641	804.4
446.016	793.33
446.39	825.19
446.764	786.55
447.139	802.14
447.513	807.34
447.887	815.25
448.262	809.15
448.636	841.91
449.01	844.17
449.384	827.9
449.758	831.29
450.132	845.98
450.506	864.06
450.88	858.64
451.254	859.54
451.628	881.91
452.002	886.43
452.376	883.27
452.75	890.5
453.123	887.34
453.497	915.58
453.871	923.49
454.244	923.94
454.618	925.3
454.992	936.6
455.365	937.5
455.739	973.21
456.112	963.72
456.486	969.14
456.859	985.86
457.232	1005.52
457.606	996.71
457.979	998.52
458.352	1017.28
458.725	1010.04
459.099	1060.89
459.472	1077.84
459.845	1039.2
460.218	1066.77
460.591	1050.95
460.964	1094.11
461.337	1107.67
461.71	1124.17
462.083	1094.56
462.456	1133.43
462.829	1127.33
463.201	1141.57
463.574	1138.85
463.947	1188.12
464.32	1171.85
464.692	1187.67
465.065	1217.5
465.438	1208.68
465.81	1233.77
466.183	1271.28
466.555	1273.09
466.928	1272.41
467.3	1266.31
467.672	1288.91
468.045	1323.48
468.417	1349.92
468.789	1351.96
469.161	1363.26
469.534	1397.15
469.906	1430.37
470.278	1422.24
470.65	1431.28
471.022	1469.69
471.394	1464.27
471.766	1495
472.138	1521.9
472.51	1558.73
472.882	1574.55
473.253	1611.61
473.625	1613.19
473.997	1673.08
474.369	1662.68
474.74	1704.49
475.112	1714.88
475.484	1728.22
475.855	1780.65
476.227	1796.46
476.598	1863.35
476.97	1858.16
477.341	1899.06
477.713	1918.27
478.084	1953.52
478.455	2011.83
478.827	2033.97
479.198	2104.25
479.569	2124.59
479.94	2148.09
480.311	2183.12
480.682	2256.56
481.053	2283.68
481.424	2372.95
481.795	2406.84
482.166	2425.6
482.537	2449.1
482.908	2497.91
483.279	2570.46
483.65	2590.57
484.021	2655.42
484.391	2683.45
484.762	2743.78
485.133	2781.52
485.503	2823.78
485.874	2912.14
486.244	2918.69
486.615	3005.25
486.985	3080.5
487.356	3124.56
487.726	3193.72
488.097	3237.56
488.467	3264.22
488.837	3275.75
489.207	3390.09
489.578	3436.19
489.948	3456.76
490.318	3541.05
490.688	3580.6
491.058	3666.02
491.428	3706.24
491.798	3788.28
492.168	3830.53
492.538	3842.06
492.908	3910.31
493.278	3973.13
493.648	3975.16
494.017	4012.23
494.387	4112.56
494.757	4164.54
495.126	4212.9
495.496	4243.63
495.866	4304.42
496.235	4313.23
496.605	4407.92
496.974	4418.54
497.344	4480.91
497.713	4495.83
498.082	4567.24
498.452	4607.24
498.821	4600.68
499.19	4650.63
499.559	4693.79
499.928	4748.48
500.298	4735.14
500.667	4850.17
501.036	4858.08
501.405	4874.58
501.774	4917.06
502.143	4953.22
502.512	4968.58
502.88	5105.3
503.249	5094.46
503.618	5114.34
503.987	5136.72
504.356	5171.74
504.724	5177.84
505.093	5185.98
505.462	5167.67
505.83	5254.23
506.199	5286.99
506.567	5372.19
506.936	5385.97
507.304	5450.83
507.672	5444.96
508.041	5508
508.409	5491.28
508.777	5540.09
509.145	5601.34
509.514	5621.67
509.882	5639.07
510.25	5654.67
510.618	5705.06
510.986	5726.53
511.354	5788.9
511.722	5826.41
512.09	5885.62
512.458	5854.21
512.826	5876.13
513.193	5886.3
513.561	5916.58
513.929	5913.87
514.297	6020.31
514.664	6010.82
515.032	6028.44
515.4	6098.05
515.767	6132.62
516.135	6119.06
516.502	6104.83
516.869	6269.34
517.237	6164.94
517.604	6201.55
517.972	6226.18
518.339	6270.02
518.706	6262.56
519.073	6333.97
519.44	6397.92
519.808	6396.34
520.175	6409.68
520.542	6461.88
520.909	6494.19
521.276	6534.19
521.643	6572.84
522.009	6563.12
522.376	6669.78
522.743	6689.67
523.11	6783.23
523.477	6802.43
523.843	6778.71
524.21	6832.04
524.577	6899.61
524.943	6924.24
525.31	6935.54
525.676	6950.23
526.043	7042.65
526.409	7062.99
526.776	7106.15
527.142	7193.16
527.508	7178.92
527.874	7178.92
528.241	7307.51
528.607	7320.61
528.973	7357.67
529.339	7411.01
529.705	7433.15
530.071	7471.12
530.437	7489.87
530.803	7520.83
531.169	7606.93
531.535	7538.46
531.901	7667.95
532.267	7641.28
532.632	7656.65
532.998	7719.02
533.364	7756.99
533.73	7802.18
534.095	7808.06
534.461	7880.37
534.826	7942.74
535.192	7970.76
535.557	7979.58
535.923	8045.34
536.288	8055.73
536.653	8073.14
537.019	8046.02
537.384	8166.92
537.749	8145.22
538.114	8189.06
538.479	8249.4
538.845	8276.75
539.21	8179.8
539.575	8345.67
539.94	8323.52
540.305	8449.4
540.67	8405.33
541.034	8471.09
541.399	8522.61
541.764	8498.66
542.129	8565.1
542.494	8589.96
542.858	8617.53
543.223	8599
543.587	8695.04
543.952	8710.63
544.316	8736.85
544.681	8743.17
545.045	8825.66
545.41	8862.49
545.774	8896.16
546.138	8874.47
546.503	8968.48
546.867	8922.6
547.231	9061.58
547.595	9069.04
547.959	9151.07
548.324	9057.52
548.688	9135.48
549.052	9166.44
549.416	9192.43
549.779	9217.51
550.143	9209.6
550.507	9294.12
550.871	9310.39
551.235	9303.16
551.599	9454.34
551.962	9448.24
552.326	9433.78
552.689	9550.61
553.053	9428.58
553.417	9523.27
553.78	9683.04
554.143	9578.86
554.507	9615.24
554.87	9647.78
555.234	9754.67
555.597	9690.72
555.96	9729.59
556.323	9766.88
556.686	9797.61
557.05	9902.47
557.413	9898.17
557.776	9903.14
558.139	9912.18
558.502	9939.07
558.865	10066.3
559.228	10109.01
559.59	10063.59
559.953	10057.94
560.316	10198.95
560.679	10219.75
561.041	10252.96
561.404	10318.73
561.767	10367.99
562.129	10387.65
562.492	10343.81
562.854	10423.58
563.217	10505.39
563.579	10497.7
563.941	10525.73
564.304	10552.84
564.666	10622.22
565.028	10673.74
565.39	10664.25
565.753	10715.78
566.115	10823.8
566.477	10811.59
566.839	10786.06
567.201	10936.34
567.563	10989.67
567.925	10986.5
568.287	10991.7
568.648	11016.33
569.01	11148.76
569.372	11227.18
569.734	11184.69
570.095	11173.39
570.457	11186.27
570.819	11338.81
571.18	11337.68
571.542	11407.28
571.903	11431.01
572.265	11477.11
572.626	11563.66
572.987	11549.2
573.349	11702.42
573.71	11752.36
574.071	11719.37
574.432	11891.57
574.794	12035.52
575.155	11988.29
575.516	11967.95
575.877	12144.89
576.238	12199.13
576.599	12338.56
576.96	12316.87
577.32	12392.34
577.681	12556.18
578.042	12653.81
578.403	12645.67
578.763	12777.87
579.124	12881.6
579.485	13031.42
579.845	13138.54
580.206	13238.65
580.566	13415.59
580.927	13537.85
581.287	13608.81
581.648	13666.66
582.008	13900.78
582.368	14055.8
582.728	14167.89
583.089	14326.76
583.449	14568.56
583.809	14700.08
584.169	14960.19
584.529	14988.43
584.889	15274.3
585.249	15431.59
585.609	15514.75
585.969	15842.87
586.329	15988.86
586.688	16283.09
587.048	16465
587.408	16556.08
587.768	16950.42
588.127	17192.67
588.487	17284.42
588.846	17712.66
589.206	17819.09
589.565	18140.67
589.925	18480.32
590.284	18646.64
590.643	18931.83
591.003	19196.91
591.362	19511.93
591.721	19840.51
592.08	20045.7
592.44	20360.95
592.799	20550.1
593.158	20840.48
593.517	21094.71
593.876	21468.26
594.235	21627.36
594.593	22037.74
594.952	22408.13
595.311	22511.4
595.67	22954.1
596.029	23276.58
596.387	23655.55
596.746	23879.73
597.104	24170.57
597.463	24456.43
597.822	24879.92
598.18	25048.28
598.538	25295.73
598.897	25837.64
599.255	25756.29
599.613	26417.96
599.972	26580.9
600.33	26912.87
600.688	27082.58
601.046	27476.47
601.404	27833.97
601.762	27998.49
602.12	28322.77
602.478	28710.78
602.836	28888.41
603.194	28929.31
603.552	29319.13
603.91	29552.8
604.268	29892.67
604.625	30147.81
604.983	30529.72
605.341	30731.3
605.698	30969.48
606.056	31263.71
606.413	31513.2
606.771	31809.23
607.128	32149.79
607.485	32126.06
607.843	32451.7
608.2	32795.42
608.557	33044.23
608.914	33188.86
609.272	33498.68
609.629	33750.65
609.986	33959.46
610.343	34125.11
610.7	34473.12
611.057	34576.62
611.414	34792.66
611.771	34898.42
612.127	35174.34
612.484	35175.25
612.841	35641.22
613.198	35681.9
613.554	35899.97
613.911	36252.96
614.267	36403.01
614.624	36450.02
614.98	36759.84
615.337	37046.16
615.693	37073.95
616.05	37211.35
616.406	37411.12
616.762	37590.33
617.118	37599.36
617.475	37828.06
617.831	38027.38
618.187	38232.12
618.543	38312.79
618.899	38749.39
619.255	38718.43
619.611	38675.04
619.967	39035.03
620.323	39151.19
620.678	38986.67
621.034	39138.76
621.39	39238.87
621.746	39195.03
622.101	39839.08
622.457	39472.31
622.812	39643.83
623.168	39733.55
623.523	39916.37
623.879	40188.67
624.234	39972.41
624.589	40109.35
624.945	40256.7
625.3	40373.75
625.655	40257.37
626.01	40485.16
626.365	40451.49
626.72	40704.14
627.075	40571.04
627.43	40694.2
627.785	40681.77
628.14	40856.45
628.495	40849.67
628.85	40882.67
629.205	40726.97
629.559	41138.71
629.914	40944.14
630.269	41161.98
630.623	40939.84
630.978	40979.84
631.332	41228.87
631.687	41365.82
632.041	41296.22
632.396	41300.96
632.75	41149.78
633.104	41504.35
633.459	41107.75
633.813	41194.52
634.167	41296.44
634.521	41292.6
634.875	41208.76
635.229	41303.22
635.583	41102.78
635.937	41223
636.291	41175.77
636.645	41269.1
636.999	41285.37
637.352	41317.01
637.706	41060.52
638.06	41399.26
638.413	41225.48
638.767	41123.34
639.121	41270.23
639.474	40974.87
639.828	41290.11
640.181	41105.49
640.534	41080.85
640.888	41124.47
641.241	40963.12
641.594	41079.5
641.947	41259.83
642.301	41130.57
642.654	41053.51
643.007	41128.76
643.36	41117.46
643.713	41053.06
644.066	41253.96
644.419	41001.76
644.771	40647.87
645.124	40306.41
645.477	40350.7
645.83	40101.9
646.182	39916.37
646.535	39954.1
646.888	39893.77
647.24	39842.24
647.593	40070.71
647.945	39998.17
648.298	39751.85
648.65	39848.57
649.002	39705.52
649.355	39879.53
649.707	39802.92
650.059	39915.91
650.411	40369.69
650.763	40445.84
651.115	40682.22
651.467	40685.39
651.819	40786.63
652.171	40547.08
652.523	40392.29
652.875	40516.58
653.227	40282.01
653.578	40616.69
653.93	40627.53
654.282	40376.47
654.633	40430.25
654.985	40510.02
655.337	40480.64
655.688	40379.86
656.039	40464.37
656.391	40295.11
656.742	40479.06
657.094	40472.28
657.445	40443.13
657.796	40461.44
658.147	40448.78
658.498	40231.39
658.849	40440.65
659.2	40272.51
659.551	40116.81
659.902	40521.32
660.253	40314.55
660.604	40405.39
660.955	40137.38
661.306	40364.26
661.656	40174.44
662.007	40225.74
662.358	40210.6
662.708	40208.56
663.059	40336.24
663.409	40023.93
663.76	40321.1
664.11	40238.62
664.461	40365.17
664.811	40255.79
665.161	40232.74
665.511	40208.56
665.862	40198.17
666.212	40344.38
666.562	40331.5
666.912	40164.72
667.262	40252.63
667.612	40250.37
667.962	40204.49
668.312	40106.19
668.662	40212.86
669.011	40086.08
669.361	40049.02
669.711	40024.39
670.06	40059.41
670.41	40050.6
670.76	40062.35
671.109	40125.4
671.459	39994.33
671.808	39860.55
672.157	40098.73
672.507	39730.16
672.856	39796.37
673.205	39790.27
673.554	39970.6
673.904	39801.34
674.253	39931.05
674.602	39908.91
674.951	39283.39
675.3	39171.98
675.649	39742.13
675.998	39698.29
676.346	39790.49
676.695	39947.78
677.044	39523.61
677.393	39772.87
677.741	39826.2
678.09	39653.77
678.438	39571.29
678.787	39599.76
679.135	39618.07
679.484	39502.37
679.832	39508.47
680.181	39417.85
680.529	39521.57
680.877	39383.05
681.225	39310.96
681.573	39597.96
681.922	39179.21
682.27	39090.62
682.618	39119.32
682.966	39165.2
683.314	39194.35
683.661	38974.7
684.009	38877.75
684.357	38833.23
684.705	38867.35
685.053	38858.09
685.4	38846.34
685.748	38456.29
686.095	38557.53
686.443	38449.96
686.79	38430.53
687.138	38436.18
687.485	38432.79
687.832	38285.9
688.18	38310.98
688.527	38156.41
688.874	38098.11
689.221	37966.36
689.568	37904.89
689.915	37873.03
690.262	37838.91
690.609	37759.36
690.956	37618.12
691.303	37659.48
691.65	37347.62
691.997	37486.37
692.344	37144.46
692.69	37082.09
693.037	37085.93
693.383	36926.16
693.73	37022.2
694.077	36818.37
694.423	36707.64
694.769	36719.16
695.116	36694.53
695.462	36639.39
695.808	36419.73
696.155	36598.49
696.501	36262.22
696.847	36297.03
697.193	35984.27
697.539	36203.69
697.885	35879.64
698.231	35858.85
698.577	35956.92
698.923	35750.83
699.269	35626.99
699.614	35588.8
699.96	35282.36
700.306	35457.73
700.651	35182.7
700.997	35056.61
701.342	34981.81
701.688	35053.44
702.033	34824.52
702.379	34791.08
702.724	34693.68
703.069	34812.09
703.415	34434.48
703.76	34543.85
704.105	34558.31
704.45	34352.22
704.795	34258.89
705.14	34065.22
705.485	34212.56
705.83	34034.94
706.175	34045.11
706.52	33930.31
706.865	33820.93
707.209	33690.09
707.554	33561.28
707.899	33634.95
708.243	33497.55
708.588	33422.07
708.932	33269.99
709.277	33195.86
709.621	33266.15
709.966	32924.23
710.31	33106.83
710.654	32878.81
710.998	32846.95
711.342	32875.65
711.687	32707.52
712.031	32688.76
712.375	32553.4
712.719	32516.11
713.063	32510.23
713.407	32534.41
713.75	32418.26
714.094	32435.88
714.438	32315.66
714.782	32285.83
715.125	32247.41
715.469	32294.42
715.812	32021.66
716.156	31879.74
716.499	32044.03
716.843	31969.46
717.186	31785.28
717.53	31886.07
717.873	31910.47
718.216	31773.98
718.559	31619.41
718.902	31477.27
719.246	31581.44
719.589	31361.34
719.932	31265.52
720.275	31353.43
720.617	31185.52
720.96	31123.15
721.303	31149.59
721.646	31199.76
721.989	30951.4
722.331	30997.5
722.674	31009.26
723.016	31063.49
723.359	30867.56
723.701	30925.87
724.044	30793.22
724.386	30563.39
724.729	30829.37
725.071	30618.53
725.413	30618.98
725.755	30579.89
726.097	30428.48
726.439	30362.72
726.782	30364.3
727.124	30527.01
727.465	30225.32
727.807	30308.03
728.149	30122.05
728.491	30024.87
728.833	30058.32
729.175	30163.4
729.516	29954.82
729.858	29951.88
730.199	29955.05
730.541	29781.72
730.882	29828.95
731.224	29931.54
731.565	29750.98
731.906	29777.2
732.248	29868.72
732.589	29514.83
732.93	29395.74
733.271	29575.17
733.612	29644.09
733.953	29568.39
734.294	29493.36
734.635	29346.02
734.976	29430.54
735.317	29235.52
735.658	29332.46
735.999	29224.22
736.339	29176.76
736.68	29231.45
737.021	29099.7
737.361	28961.63
737.702	29061.28
738.042	28921.17
738.383	28898.58
738.723	28955.52
739.063	28788.75
739.404	28909.2
739.744	28892.7
740.084	28774.51
740.424	28842.08
740.764	28665.59
741.104	28830.78
741.444	28550.56
741.784	28433.05
742.124	28642.09
742.464	28516.21
742.804	28426.95
743.143	28381.53
743.483	28390.34
743.823	28281.64
744.162	28234.86
744.502	28352.38
744.841	28186.28
745.181	28253.85
745.52	28119.39
745.86	28202.32
746.199	28131.14
746.538	28127.52
746.877	28165.71
747.216	28008.66
747.556	28040.07
747.895	28010.24
748.234	27842.11
748.573	27851.6
748.911	27829.68
749.25	27761.21
749.589	27653.19
749.928	27679.63
750.267	27821.77
750.605	27624.71
750.944	27486.86
751.283	27553.3
751.621	27440.76
751.96	27293.19
752.298	27204.16
752.636	27345.62
752.975	27195.8
753.313	27082.8
753.651	27288.45
753.989	27043.71
754.327	27093.88
754.666	26952.86
755.004	26990.6
755.342	26975.46
755.679	26941.79
756.017	26814.11
756.355	26790.38
756.693	26720.55
757.031	26730.05
757.368	26566.89
757.706	26654.57
758.044	26519.43
758.381	26561.24
758.719	26328.25
759.056	26432.65
