Data from hue_140_FLMS001491_00065.txt Node
Date: Tue Feb 07 16:56:15 GMT 2017
User: dcchb
Spectrometer: FLMS00149
Trigger mode: 0
Integration Time (sec): 2.000000E-2
Scans to average: 10
Electric dark correction enabled: true
Nonlinearity correction enabled: false
Boxcar width: 0
XAxis mode: Wavelengths
Number of Pixels in Spectrum: 2048
>>>>>Begin Spectral Data<<<<<
341.393	-10.11
341.776	-10.11
342.16	-10.11
342.543	-58.25
342.927	-58.25
343.31	-57.12
343.693	-64.8
344.077	-70.45
344.46	-55.99
344.843	-49.66
345.226	-53.95
345.61	-29.77
345.993	-2.88
346.376	-4.92
346.759	17.01
347.142	29.89
347.525	29.43
347.908	42.99
348.291	72.6
348.674	86.38
349.057	111.24
349.44	129.77
349.823	126.83
350.206	165.7
350.588	205.93
350.971	216.1
351.354	201.18
351.737	236.66
352.119	236.43
352.502	277.79
352.884	270.33
353.267	278.47
353.65	297.9
354.032	295.42
354.414	306.94
354.797	320.5
355.179	303.78
355.562	314.62
355.944	321.18
356.326	315.08
356.709	311.46
357.091	319.82
357.473	346.94
357.855	359.37
358.238	342.65
358.62	336.32
359.002	334.51
359.384	340.39
359.766	361.63
360.148	337.45
360.53	341.97
360.912	317.34
361.294	328.64
361.676	344.68
362.057	361.63
362.439	337.22
362.821	337.9
363.203	313.95
363.584	342.65
363.966	305.81
364.348	329.54
364.729	326.6
365.111	300.84
365.493	332.93
365.874	321.4
366.256	311.69
366.637	314.17
367.019	310.1
367.4	317.56
367.781	304.46
368.163	328.86
368.544	331.8
368.925	320.95
369.306	326.15
369.688	289.31
370.069	323.44
370.45	319.37
370.831	332.03
371.212	307.62
371.593	313.72
371.974	319.82
372.355	307.17
372.736	317.79
373.117	336.77
373.498	321.63
373.879	322.31
374.26	303.78
374.641	327.51
375.021	323.66
375.402	296.77
375.783	304.46
376.163	308.75
376.544	317.34
376.925	334.51
377.305	318.24
377.686	322.08
378.066	334.74
378.447	321.86
378.827	316.21
379.208	323.66
379.588	338.35
379.968	337.22
380.349	327.96
380.729	321.63
381.109	333.38
381.489	333.61
381.87	322.99
382.25	352.82
382.63	347.39
383.01	340.61
383.39	327.51
383.77	335.41
384.15	346.49
384.53	337.9
384.91	328.64
385.29	353.04
385.67	350.1
386.049	365.24
386.429	344.45
386.809	349.65
387.189	357.34
387.568	344
387.948	371.57
388.328	363.89
388.707	351.23
389.087	360.95
389.466	365.7
389.846	352.59
390.225	369.09
390.605	368.63
390.984	363.44
391.363	370.44
391.743	370.89
392.122	374.74
392.501	353.72
392.881	389.42
393.26	370.89
393.639	367.05
394.018	378.58
394.397	368.18
394.776	376.32
395.155	375.87
395.534	379.26
395.913	372.7
396.292	374.28
396.671	392.36
397.05	389.42
397.429	408.63
397.808	378.13
398.186	372.25
398.565	389.42
398.944	417.22
399.323	373.61
399.701	398.01
400.08	408.86
400.458	393.04
400.837	431.01
401.215	395.75
401.594	423.1
401.972	409.54
402.351	415.64
402.729	414.28
403.107	400.5
403.486	406.15
403.864	415.86
404.242	420.61
404.62	418.12
404.999	415.64
405.377	434.17
405.755	434.62
406.133	433.04
406.511	444.11
406.889	436.66
407.267	424.9
407.645	440.95
408.023	428.29
408.401	438.46
408.779	417.45
409.156	436.43
409.534	458.12
409.912	462.42
410.29	456.54
410.667	483.43
411.045	455.64
411.422	444.11
411.8	459.93
412.178	482.3
412.555	463.77
412.933	471.91
413.31	486.82
413.687	485.24
414.065	485.92
414.442	485.47
414.819	500.61
415.197	492.25
415.574	495.18
415.951	489.31
416.328	538.8
416.705	515.52
417.082	539.93
417.46	496.99
417.837	509.42
418.214	543.77
418.591	493.6
418.967	520.49
419.344	525.92
419.721	527.95
420.098	515.52
420.475	515.52
420.852	552.36
421.228	517.56
421.605	533.15
421.982	540.61
422.358	539.48
422.735	542.64
423.111	553.04
423.488	552.58
423.864	551
424.241	568.4
424.617	574.28
424.994	540.38
425.37	567.5
425.746	555.07
426.123	594.84
426.499	579.02
426.875	589.42
427.251	575.41
427.627	593.94
428.003	620.38
428.379	605.92
428.756	620.83
429.132	609.53
429.507	621.51
429.883	634.39
430.259	613.15
430.635	630.1
431.011	625.8
431.387	642.3
431.763	663.77
432.138	659.93
432.514	658.34
432.89	651.56
433.265	677.55
433.641	679.59
434.016	674.39
434.392	697.44
434.767	701.51
435.143	720.26
435.518	702.18
435.894	721.17
436.269	700.6
436.644	731.34
437.02	692.02
437.395	734.73
437.77	746.7
438.145	747.38
438.52	756.87
438.895	756.87
439.271	776.31
439.646	773.37
440.021	751.22
440.395	793.71
440.77	763.88
441.145	767.27
441.52	801.17
441.895	796.19
442.27	808.17
442.645	811.11
443.019	815.4
443.394	814.95
443.769	838
444.143	815.85
444.518	832.13
444.892	848.85
445.267	845.23
445.641	862.86
446.016	855.85
446.39	878.23
446.764	856.76
447.139	863.76
447.513	863.99
447.887	858.34
448.262	879.13
448.636	891.78
449.01	895.63
449.384	888.62
449.758	891.78
450.132	940.14
450.506	943.76
450.88	898.34
451.254	925.68
451.628	951.22
452.002	918.45
452.376	958.9
452.75	983.76
453.123	955.29
453.497	969.3
453.871	987.38
454.244	1002.52
454.618	1003.19
454.992	1022.4
455.365	1036.41
455.739	1040.93
456.112	1062.63
456.486	1056.53
456.859	1090.2
457.232	1104.21
457.606	1077.77
457.979	1098.11
458.352	1135.85
458.725	1127.94
459.099	1138.11
459.472	1164.55
459.845	1176.52
460.218	1177.43
460.591	1180.14
460.964	1197.54
461.337	1230.31
461.71	1241.83
462.083	1254.49
462.456	1293.13
462.829	1286.12
463.201	1279.57
463.574	1284.32
463.947	1324.32
464.32	1394.14
464.692	1394.82
465.065	1376.97
465.438	1413.58
465.81	1396.86
466.183	1429.62
466.555	1473.69
466.928	1486.8
467.3	1436.85
467.672	1551.2
468.045	1536.74
468.417	1550.07
468.789	1579.22
469.161	1605.44
469.534	1636.85
469.906	1694.02
470.278	1715.04
470.65	1724.53
471.022	1767.92
471.394	1801.59
471.766	1815.15
472.138	1868.48
472.51	1916.84
472.882	1928.14
473.253	1970.63
473.625	1997.97
473.997	2057.4
474.369	2092.2
474.74	2102.83
475.112	2152.54
475.484	2213.56
475.855	2265.76
476.227	2309.15
476.598	2399.99
476.97	2428.24
477.341	2458.52
477.713	2591.4
478.084	2616.26
478.455	2701.91
478.827	2717.95
479.198	2849.25
479.569	2879.53
479.94	2982.12
480.311	3036.36
480.682	3172.18
481.053	3220.54
481.424	3290.59
481.795	3373.53
482.166	3475.9
482.537	3536.46
482.908	3635.89
483.279	3721.54
483.65	3875.21
484.021	3967.41
484.391	4044.24
484.762	4125.15
485.133	4207.4
485.503	4357.91
485.874	4459.15
486.244	4506.38
486.615	4677
486.985	4814.17
487.356	4998.34
487.726	5035.63
488.097	5178.23
488.467	5239.47
488.837	5447.6
489.207	5550.65
489.578	5669.51
489.948	5816.85
490.318	5929.17
490.688	6010.97
491.058	6155.83
491.428	6331.19
491.798	6443.28
492.168	6615.93
492.538	6722.82
492.908	6803.72
493.278	7008.91
493.648	7078.06
494.017	7257.94
494.387	7378.39
494.757	7458.17
495.126	7595.34
495.496	7691.61
495.866	7798.27
496.235	7954.2
496.605	8054.08
496.974	8156.68
497.344	8237.81
497.713	8351.02
498.082	8537.01
498.452	8585.59
498.821	8728.87
499.19	8772.03
499.559	8878.92
499.928	9071
500.298	9106.03
500.667	9285.24
501.036	9319.13
501.405	9437.1
501.774	9448.17
502.143	9598.67
502.512	9607.94
502.88	9740.59
503.249	9823.98
503.618	9937.65
503.987	9990.75
504.356	10084.09
504.724	10182.16
505.093	10160.47
505.462	10265.1
505.83	10355.72
506.199	10466.22
506.567	10635.71
506.936	10619.21
507.304	10741.69
507.672	10769.72
508.041	10809.94
508.409	10931.07
508.777	11053.55
509.145	10997.06
509.514	11088.58
509.882	11131.52
510.25	11153.66
510.618	11229.37
510.986	11339.19
511.354	11331.28
511.722	11428.91
512.09	11530.6
512.458	11530.6
512.826	11612.63
513.193	11705.96
513.561	11664.83
513.929	11734.66
514.297	11830.71
514.664	11900.53
515.032	11777.6
515.4	11973.98
515.767	11995.22
516.135	11958.39
516.502	11973.3
516.869	12148.66
517.237	12144.14
517.604	12114.54
517.972	12190.02
518.339	12242.9
518.706	12204.93
519.073	12280.41
519.44	12267.98
519.808	12411.93
520.175	12364.03
520.542	12471.37
520.909	12523.57
521.276	12501.65
521.643	12505.26
522.009	12609.22
522.376	12655.77
522.743	12691.7
523.11	12682.89
523.477	12792.26
523.843	12796.56
524.21	12927.85
524.577	12830
524.943	12855.31
525.31	12960.85
525.676	13024.8
526.043	12986.38
526.409	13001.3
526.776	13056.21
527.142	13038.58
527.508	13111.12
527.874	13132.59
528.241	13166.94
528.607	13184.12
528.973	13193.16
529.339	13110.67
529.705	13269.09
530.071	13269.76
530.437	13284.9
530.803	13171.24
531.169	13255.53
531.535	13093.72
531.901	13179.6
532.267	13164.23
532.632	13147.73
532.998	13167.85
533.364	13240.61
533.73	13187.28
534.095	13269.09
534.461	13180.73
534.826	13195.19
535.192	13166.26
535.557	13246.04
535.923	13142.54
536.288	13153.38
536.653	13169.43
537.019	13063.44
537.384	13071.8
537.749	13091.92
538.114	13038.36
538.479	12988.64
538.845	13019.38
539.21	12921.3
539.575	12905.25
539.94	12855.31
540.305	12906.16
540.67	12800.17
541.034	12777.35
541.399	12825.71
541.764	12795.2
542.129	12730.8
542.494	12671.81
542.858	12709.78
543.223	12696.22
543.587	12688.08
543.952	12625.71
544.316	12571.03
544.681	12526.73
545.045	12574.87
545.41	12549.78
545.774	12510.91
546.138	12446.28
546.503	12514.76
546.867	12389.79
547.231	12420.29
547.595	12321.09
547.959	12361.99
548.324	12243.35
548.688	12273.18
549.052	12274.08
549.416	12298.26
549.779	12224.59
550.143	12096.69
550.507	12252.84
550.871	12245.38
551.235	12104.6
551.599	12119.74
551.962	12120.19
552.326	12025.28
552.689	12002.68
553.053	11959.52
553.417	11999.06
553.78	12079.51
554.143	11943.25
554.507	11918.84
554.87	11954.77
555.234	11968.56
555.597	11875
555.96	11874.09
556.323	11871.38
556.686	11855.79
557.05	11926.07
557.413	11863.7
557.776	11836.13
558.139	11941.89
558.502	11883.59
558.865	11839.97
559.228	11819.86
559.59	11903.92
559.953	11895.11
560.316	11931.95
560.679	11831.84
561.041	11849.69
561.404	11928.1
561.767	11892.85
562.129	11847.65
562.492	11907.99
562.854	11967.43
563.217	11904.6
563.579	11904.15
563.941	11926.97
564.304	11981.89
564.666	11905.28
565.028	11966.97
565.39	12015.33
565.753	12050.81
566.115	12104.82
566.477	12017.59
566.839	12024.15
567.201	12043.81
567.563	11980.08
567.925	12097.59
568.287	12072.73
568.648	12096.01
569.01	12115.44
569.372	12193.63
569.734	12051.94
570.095	12176.46
570.457	12139.85
570.819	12183.01
571.18	12199.28
571.542	12225.72
571.903	12175.1
572.265	12265.72
572.626	12226.18
572.987	12245.61
573.349	12256.23
573.71	12315.44
574.071	12283.35
574.432	12273.86
574.794	12420.29
575.155	12268.89
575.516	12301.88
575.877	12355.44
576.238	12355.66
576.599	12433.63
576.96	12351.82
577.32	12347.3
577.681	12311.6
578.042	12377.36
578.403	12407.64
578.763	12319.05
579.124	12490.12
579.485	12410.35
579.845	12402.44
580.206	12367.41
580.566	12423.46
580.927	12426.62
581.287	12420.29
581.648	12344.59
582.008	12434.53
582.368	12412.61
582.728	12394.08
583.089	12342.56
583.449	12369.22
583.809	12331.48
584.169	12394.53
584.529	12365.83
584.889	12425.72
585.249	12326.51
585.609	12225.5
585.969	12389.34
586.329	12324.25
586.688	12362.67
587.048	12302.56
587.408	12204.71
587.768	12293.07
588.127	12169.23
588.487	12264.37
588.846	12418.71
589.206	12174.88
589.565	12242.45
589.925	12277.7
590.284	12251.71
590.643	12181.88
591.003	12248.32
591.362	12258.94
591.721	12243.35
592.08	12228.21
592.44	12250.13
592.799	12265.04
593.158	12190.92
593.517	12286.29
593.876	12227.08
594.235	12214.2
594.593	12219.4
594.952	12165.39
595.311	12139.4
595.67	12077.71
596.029	12229.11
596.387	12162.67
596.746	12234.09
597.104	12158.83
597.463	12161.09
597.822	12141.88
598.18	12086.29
598.538	12193.41
598.897	12185.27
599.255	12014.88
599.613	12274.31
599.972	12191.83
600.33	12139.85
600.688	12083.13
601.046	12114.99
601.404	12137.36
601.762	12137.36
602.12	12229.79
602.478	12249.9
602.836	12225.27
603.194	12102.79
603.552	12141.66
603.91	12026.63
604.268	12197.25
604.625	12149.57
604.983	12221.2
605.341	12106.4
605.698	12237.7
606.056	12148.89
606.413	12181.88
606.771	12170.36
607.128	12262.56
607.485	12165.84
607.843	12165.16
608.2	12258.72
608.557	12274.76
608.914	12247.19
609.272	12272.73
609.629	12303.24
609.986	12299.62
610.343	12258.49
610.7	12285.84
611.057	12286.97
611.414	12278.15
611.771	12340.07
612.127	12350.24
612.484	12359.51
612.841	12447.19
613.198	12350.69
613.554	12351.14
613.911	12407.19
614.267	12311.37
614.624	12372.39
614.98	12381.65
615.337	12410.13
615.693	12482.89
616.05	12355.89
616.406	12463.68
616.762	12423.68
617.118	12415.78
617.475	12418.94
617.831	12408.09
618.187	12557.92
618.543	12476.56
618.899	12568.09
619.255	12531.7
619.611	12477.69
619.967	12562.66
620.323	12679.72
620.678	12571.7
621.034	12618.26
621.39	12508.2
621.746	12565.15
622.101	12650.8
622.457	12573.06
622.812	12585.94
623.168	12525.38
623.523	12585.49
623.879	12676.56
624.234	12630.23
624.589	12556.79
624.945	12532.61
625.3	12616.9
625.655	12627.07
626.01	12554.75
626.365	12627.97
626.72	12471.37
627.075	12550.46
627.43	12548.88
627.785	12550.91
628.14	12582.78
628.495	12514.76
628.85	12555.88
629.205	12511.37
629.559	12491.03
629.914	12425.27
630.269	12517.69
630.623	12443.35
630.978	12434.53
631.332	12472.5
631.687	12454.87
632.041	12475.43
632.396	12481.99
632.75	12334.65
633.104	12398.83
633.459	12326.06
633.813	12303.69
634.167	12288.09
634.521	12386.17
634.875	12301.65
635.229	12294.2
635.583	12211.94
635.937	12142.56
636.291	12257.81
636.645	12244.48
636.999	12178.95
637.352	12195.44
637.706	12136.01
638.06	12085.39
638.413	12152.96
638.767	12173.75
639.121	12123.35
639.474	12067.08
639.828	12076.12
640.181	12107.53
640.534	12123.81
640.888	12035.45
641.241	12025.73
641.594	12010.59
641.947	12118.38
642.301	12020.31
642.654	12076.12
643.007	12056.69
643.36	12027.31
643.713	12012.62
644.066	12106.4
644.419	11999.97
644.771	11940.08
645.124	11867.09
645.477	11768.56
645.83	11715.68
646.182	11722.46
646.535	11700.99
646.888	11714.32
647.24	11552.52
647.593	11660.54
647.945	11622.12
648.298	11612.86
648.65	11559.75
649.002	11501.9
649.355	11529.7
649.707	11611.05
650.059	11627.1
650.411	11822.34
650.763	11732.18
651.115	11919.74
651.467	11931.04
651.819	11788.45
652.171	11921.55
652.523	11834.32
652.875	11867.32
653.227	11763.59
653.578	11896.24
653.93	11878.39
654.282	11860.08
654.633	11809.69
654.985	11803.81
655.337	11841.55
655.688	11832.29
656.039	11924.71
656.391	11788.45
656.742	11874.77
657.094	11864.83
657.445	11935.11
657.796	11815.57
658.147	11790.48
658.498	11834.1
658.849	11833.87
659.2	11865.51
659.551	11810.37
659.902	11936.69
660.253	11912.29
660.604	11871.38
660.955	11853.3
661.306	11891.95
661.656	11860.08
662.007	11921.55
662.358	11937.82
662.708	11871.61
663.059	11852.17
663.409	11778.05
663.76	11974.43
664.11	11858.73
664.461	11846.75
664.811	11887.65
665.161	11872.74
665.511	11845.85
665.862	11883.59
666.212	11902.12
666.562	11832.06
666.912	11886.98
667.262	11870.48
667.612	11865.06
667.962	11840.65
668.312	11829.58
668.662	11903.92
669.011	11803.81
669.361	11865.73
669.711	11851.27
670.06	11770.14
670.41	11766.53
670.76	11691.95
671.109	11860.54
671.459	11857.82
671.808	11742.12
672.157	11859.41
672.507	11786.19
672.856	11736.47
673.205	11749.58
673.554	11805.62
673.904	11710.26
674.253	11831.16
674.602	11770.14
674.951	11640.2
675.3	11553.88
675.649	11719.52
675.998	11687.88
676.346	11648.79
676.695	11711.84
677.044	11636.13
677.393	11646.3
677.741	11711.84
678.09	11621.45
678.438	11588.9
678.787	11626.64
679.135	11556.14
679.484	11515.46
679.832	11535.57
680.181	11544.61
680.529	11511.17
680.877	11552.97
681.225	11459.42
681.573	11556.14
681.922	11509.81
682.27	11459.64
682.618	11478.85
682.966	11422.13
683.314	11419.19
683.661	11344.84
684.009	11366.31
684.357	11311.62
684.705	11239.53
685.053	11267.56
685.4	11295.35
685.748	11215.13
686.095	11176.49
686.443	11149.14
686.79	11176.26
687.138	11183.94
687.485	11162.25
687.832	11117.96
688.18	11097.62
688.527	11030.73
688.874	10941.24
689.221	10930.84
689.568	10963.84
689.915	10876.15
690.262	10935.59
690.609	10886.78
690.956	10799.77
691.303	10795.25
691.65	10732.43
691.997	10762.94
692.344	10688.36
692.69	10617.18
693.037	10714.58
693.383	10520.68
693.73	10678.19
694.077	10517.75
694.423	10534.24
694.769	10537.63
695.116	10516.62
695.462	10413.12
695.808	10373.8
696.155	10364.76
696.501	10334.93
696.847	10272.55
697.193	10205.66
697.539	10259.9
697.885	10225.32
698.231	10113.69
698.577	10221.93
698.923	10056.29
699.269	10059.45
699.614	9946.46
699.96	9969.06
700.306	9970.19
700.651	9901.04
700.997	9793.47
701.342	9848.16
701.688	9823.98
702.033	9822.85
702.379	9774.94
702.724	9762.51
703.069	9794.38
703.415	9660.37
703.76	9600.03
704.105	9625.79
704.45	9602.74
704.795	9537.66
705.14	9535.85
705.485	9424.89
705.83	9491.78
706.175	9465.34
706.52	9431.9
706.865	9370.88
707.209	9369.75
707.554	9278.68
707.899	9324.11
708.243	9316.87
708.588	9258.12
708.932	9186.48
709.277	9204.33
709.621	9257.89
709.966	9118.23
710.31	9148.97
710.654	9121.4
710.998	9096.77
711.342	9030.33
711.687	9063.1
712.031	8982.42
712.375	8917.56
712.719	8981.29
713.063	8987.84
713.407	8994.17
713.75	8841.63
714.094	8884.79
714.438	8901.52
714.782	8855.87
715.125	8824.91
715.469	8807.06
715.812	8821.75
716.156	8712.14
716.499	8718.47
716.843	8745.82
717.186	8690
717.53	8747.62
717.873	8761.41
718.216	8718.7
718.559	8722.09
718.902	8648.87
719.246	8664.46
719.589	8648.19
719.932	8622.2
720.275	8617.01
720.617	8586.27
720.96	8539.49
721.303	8599.83
721.646	8628.76
721.989	8512.15
722.331	8532.26
722.674	8501.98
723.016	8534.75
723.359	8539.49
723.701	8505.6
724.044	8493.17
724.386	8421.3
724.729	8475.09
725.071	8457.24
725.413	8512.83
725.755	8457.24
726.097	8442.77
726.439	8363
726.782	8390.57
727.124	8446.39
727.465	8431.25
727.807	8465.6
728.149	8330.91
728.491	8417.69
728.833	8369.33
729.175	8403.68
729.516	8368.65
729.858	8304.02
730.199	8412.04
730.541	8310.57
730.882	8367.97
731.224	8354.87
731.565	8328.65
731.906	8379.5
732.248	8365.49
732.589	8277.35
732.93	8310.8
733.271	8314.87
733.612	8336.33
733.953	8400.29
734.294	8346.5
734.635	8273.96
734.976	8339.05
735.317	8346.73
735.658	8307.18
735.999	8330.91
736.339	8333.17
736.68	8281.19
737.021	8306.73
737.361	8270.12
737.702	8362.77
738.042	8314.87
738.383	8270.12
738.723	8374.98
739.063	8391.47
739.404	8285.04
739.744	8375.88
740.084	8351.02
740.424	8388.31
740.764	8407.75
741.104	8456.33
741.444	8395.54
741.784	8406.39
742.124	8444.35
742.464	8450.46
742.804	8405.71
743.143	8487.06
743.483	8514.41
743.823	8466.5
744.162	8546.27
744.502	8564.35
744.841	8567.51
745.181	8561.19
745.52	8581.3
745.86	8669.43
746.199	8754.85
746.538	8776.77
746.877	8772.03
747.216	8912.59
747.556	8824.23
747.895	8929.54
748.234	8853.61
748.573	8984
748.911	9030.1
749.25	9077.11
749.589	9120.27
749.928	9194.39
750.267	9201.62
750.605	9345.35
750.944	9395.97
751.283	9479.13
751.621	9541.27
751.96	9535.17
752.298	9630.54
752.636	9861.72
752.975	9774.26
753.313	9960.47
753.651	10032.34
753.989	10078.89
754.327	10204.31
754.666	10278.43
755.004	10391.87
755.342	10486.11
755.679	10688.59
756.017	10702.6
756.355	10890.62
756.693	10911.41
757.031	11110.27
757.368	11198.86
757.706	11301.45
758.044	11473.88
758.381	11609.47
758.719	11773.53
759.056	11931.95
759.394	12064.15
759.731	12169
