Data from hue_160_FLMS001491_00047.txt Node
Date: Tue Feb 07 16:51:14 GMT 2017
User: dcchb
Spectrometer: FLMS00149
Trigger mode: 0
Integration Time (sec): 2.000000E-2
Scans to average: 10
Electric dark correction enabled: true
Nonlinearity correction enabled: false
Boxcar width: 0
XAxis mode: Wavelengths
Number of Pixels in Spectrum: 2048
>>>>>Begin Spectral Data<<<<<
341.393	-13.04
341.776	-13.04
342.16	-13.04
342.543	-69.98
342.927	-82.64
343.31	-62.75
343.693	-64.56
344.077	-78.57
344.46	-62.98
344.843	-55.52
345.226	-34.96
345.61	-26.14
345.993	-14.62
346.376	-3.77
346.759	10.47
347.142	31.03
347.525	34.87
347.908	41.43
348.291	85.49
348.674	71.48
349.057	129.11
349.44	133.85
349.823	130.69
350.206	172.04
350.588	210.01
350.971	187.41
351.354	218.6
351.737	238.71
352.119	251.59
352.502	280.06
352.884	255.43
353.267	270.12
353.65	292.49
354.032	312.83
354.414	289.78
354.797	313.51
355.179	303.11
355.562	324.36
355.944	333.62
356.326	333.17
356.709	358.03
357.091	329.33
357.473	343.79
357.855	346.05
358.238	345.15
358.62	330.68
359.002	348.54
359.384	330.91
359.766	346.5
360.148	323.23
360.53	312.6
360.912	329.33
361.294	351.02
361.676	330.68
362.057	326.39
362.439	336.11
362.821	317.35
363.203	324.58
363.584	331.36
363.966	315.99
364.348	304.7
364.729	329.1
365.111	321.87
365.493	312.38
365.874	306.96
366.256	308.31
366.637	323
367.019	295.88
367.4	295.66
367.781	309.22
368.163	309.44
368.544	299.5
368.925	302.89
369.306	320.29
369.688	319.61
370.069	315.77
370.45	321.87
370.831	317.58
371.212	316.9
371.593	327.07
371.974	317.35
372.355	309.89
372.736	303.57
373.117	310.34
373.498	325.26
373.879	317.58
374.26	328.42
374.641	319.84
375.021	303.79
375.402	306.96
375.783	304.02
376.163	332.27
376.544	321.64
376.925	326.84
377.305	327.97
377.686	336.11
378.066	319.61
378.447	309.22
378.827	323.23
379.208	331.81
379.588	320.06
379.968	337.69
380.349	330.91
380.729	336.33
381.109	335.2
381.489	324.13
381.87	349.67
382.25	337.91
382.63	332.94
383.01	349.67
383.39	341.3
383.77	340.85
384.15	346.95
384.53	345.6
384.91	334.53
385.29	338.59
385.67	344.47
386.049	344.69
386.429	355.99
386.809	339.95
387.189	350.8
387.568	347.41
387.948	343.79
388.328	343.34
388.707	358.71
389.087	361.42
389.466	367.07
389.846	363.68
390.225	364.35
390.605	358.25
390.984	371.13
391.363	365.94
391.743	346.73
392.122	382.43
392.501	366.39
392.881	367.97
393.26	374.07
393.639	361.64
394.018	365.26
394.397	359.84
394.776	376.56
395.155	365.03
395.534	377.91
395.913	391.25
396.292	373.85
396.671	390.57
397.05	378.59
397.429	396.22
397.808	389.21
398.186	384.02
398.565	375.65
398.944	386.5
399.323	392.38
399.701	394.18
400.08	406.39
400.458	406.61
400.837	393.51
401.215	379.95
401.594	408.65
401.972	388.76
402.351	410.68
402.729	400.51
403.107	399.38
403.486	416.78
403.864	404.35
404.242	430.34
404.62	425.82
404.999	439.61
405.377	414.3
405.755	430.79
406.133	432.83
406.511	421.08
406.889	432.15
407.267	438.7
407.645	432.15
408.023	428.31
408.401	430.12
408.779	429.44
409.156	464.24
409.534	457.46
409.912	461.98
410.29	457.91
410.667	459.49
411.045	437.35
411.422	443.45
411.8	467.85
412.178	470.11
412.555	487.29
412.933	465.82
413.31	459.95
413.687	507.63
414.065	499.72
414.442	481.19
414.819	501.53
415.197	496.55
415.574	497.01
415.951	483.22
416.328	479.61
416.705	506.5
417.082	515.99
417.46	513.96
417.837	513.5
418.214	492.49
418.591	539.49
418.967	498.14
419.344	526.61
419.721	529.1
420.098	520.28
420.475	520.28
420.852	515.09
421.228	537.01
421.605	539.72
421.982	558.93
422.358	550.79
422.735	543.11
423.111	561.41
423.488	551.24
423.864	570.23
424.241	590.79
424.617	566.38
424.994	577.91
425.37	565.93
425.746	591.02
426.123	588.98
426.499	577.91
426.875	582.65
427.251	583.33
427.627	604.8
428.003	600.96
428.379	618.13
428.756	604.12
429.132	628.53
429.507	619.04
429.883	623.56
430.259	641.18
430.635	631.47
431.011	637.34
431.387	676.21
431.763	671.01
432.138	682.31
432.514	685.93
432.89	661.3
433.265	694.06
433.641	683.22
434.016	677.11
434.392	691.13
434.767	720.05
435.143	697.91
435.518	721.41
435.894	710.56
436.269	714.18
436.644	754.18
437.02	753.95
437.395	749.2
437.77	720.73
438.145	746.49
438.52	769.99
438.895	773.38
439.271	759.82
439.646	777
440.021	793.72
440.395	801.41
440.77	774.29
441.145	801.41
441.52	820.61
441.895	804.34
442.27	842.76
442.645	837.56
443.019	829.43
443.394	845.92
443.769	839.6
444.143	828.3
444.518	858.58
444.892	865.13
445.267	878.92
445.641	852.93
446.016	859.94
446.39	908.97
446.764	900.16
447.139	919.37
447.513	889.99
447.887	893.61
448.262	936.32
448.636	930.89
449.01	934.96
449.384	946.71
449.758	965.47
450.132	950.1
450.506	948.29
450.88	970.44
451.254	965.47
451.628	992.36
452.002	984.45
452.376	989.88
452.75	993.72
453.123	995.75
453.497	1058.35
453.871	1029.65
454.244	1031.91
454.618	1054.96
454.992	1068.07
455.365	1069.87
455.739	1096.76
456.112	1119.59
456.486	1089.31
456.859	1115.52
457.232	1135.86
457.606	1143.32
457.979	1141.74
458.352	1150.77
458.725	1182.86
459.099	1207.04
459.472	1222.41
459.845	1204.11
460.218	1255.4
460.591	1243.65
460.964	1261.73
461.337	1279.36
461.71	1304.9
462.083	1317.1
462.456	1343.99
462.829	1330.21
463.201	1359.36
463.574	1347.61
463.947	1391.67
464.32	1409.53
464.692	1445.23
465.065	1435.97
465.438	1464.21
465.81	1485.68
466.183	1499.47
466.555	1553.7
466.928	1569.29
467.3	1578.79
467.672	1591.89
468.045	1623.3
468.417	1653.59
468.789	1659.91
469.161	1661.5
469.534	1762.06
469.906	1766.35
470.278	1745.11
470.65	1816.29
471.022	1832.11
471.394	1910.98
471.766	1953.69
472.138	1944.65
472.51	1995.72
472.882	2039.57
473.253	2074.37
473.625	2111.43
473.997	2204.76
474.369	2205.21
474.74	2239.79
475.112	2299.45
475.484	2339.9
475.855	2404.08
476.227	2451.08
476.598	2509.84
476.97	2591.64
477.341	2636.84
477.713	2709.38
478.084	2771.98
478.455	2825.99
478.827	2887.9
479.198	3006.55
479.569	2984.17
479.94	3153.66
480.311	3193.43
480.682	3279.08
481.053	3373.32
481.424	3502.13
481.795	3531.96
482.166	3658.28
482.537	3759.97
482.908	3857.82
483.279	3917.26
483.65	4023.24
484.021	4141.43
484.391	4238.15
484.762	4298.49
485.133	4454.42
485.503	4536.22
485.874	4656.67
486.244	4755.43
486.615	4864.12
486.985	4965.14
487.356	5144.57
487.726	5227.73
488.097	5412.58
488.467	5440.38
488.837	5538.91
489.207	5712.69
489.578	5857.77
489.948	5950.65
490.318	6057.76
490.688	6177.54
491.058	6349.96
491.428	6474.25
491.798	6554.47
492.168	6730.29
492.538	6856.61
492.908	6961.92
493.278	7119.43
493.648	7198.53
494.017	7387.9
494.387	7417.05
494.757	7574.11
495.126	7735.01
495.496	7778.62
495.866	7906.3
496.235	8052.97
496.605	8111.04
496.974	8232.62
497.344	8353.98
497.713	8472.16
498.082	8538.83
498.452	8644.36
498.821	8775.89
499.19	8800.74
499.559	8951.25
499.928	9047.29
500.298	9080.96
500.667	9232.14
501.036	9214.29
501.405	9402.54
501.774	9473.27
502.143	9494.96
502.512	9625.13
502.88	9692.7
503.249	9703.09
503.618	9793.03
503.987	9854.05
504.356	9988.06
504.724	10029.19
505.093	10093.14
505.462	10169.97
505.83	10184.44
506.199	10267.37
506.567	10453.58
506.936	10391.44
507.304	10509.62
507.672	10574.48
508.041	10632.56
508.409	10723.18
508.777	10771.31
509.145	10795.72
509.514	10868.49
509.882	10905.09
510.25	11022.83
510.618	11036.16
510.986	11018.09
511.354	11082.27
511.722	11204.75
512.09	11258.31
512.458	11216.95
512.826	11320.9
513.193	11391.18
513.561	11379.66
513.929	11416.27
514.297	11567.22
514.664	11632.76
515.032	11608.58
515.4	11622.59
515.767	11646.32
516.135	11645.87
516.502	11629.14
516.869	11765.18
517.237	11724.28
517.604	11725.41
517.972	11844.96
518.339	11947.78
518.706	11896.03
519.073	11928.57
519.44	11935.12
519.808	12044.73
520.175	11961.34
520.542	12101.22
520.909	12109.36
521.276	12118.85
521.643	12056.93
522.009	12157.27
522.376	12199.98
522.743	12262.12
523.11	12253.76
523.477	12324.72
523.843	12292.85
524.21	12496.01
524.577	12430.93
524.943	12417.15
525.31	12430.93
525.676	12522
526.043	12501.44
526.409	12521.32
526.776	12564.71
527.142	12580.76
527.508	12544.6
527.874	12592.96
528.241	12565.16
528.607	12528.1
528.973	12658.49
529.339	12554.77
529.705	12655.33
530.071	12640.87
530.437	12594.09
530.803	12705.05
531.169	12764.03
531.535	12641.77
531.901	12623.24
532.267	12715.89
532.632	12606.97
532.998	12631.83
533.364	12578.5
533.73	12589.12
534.095	12581.43
534.461	12630.47
534.826	12601.32
535.192	12540.31
535.557	12631.15
535.923	12538.95
536.288	12501.89
536.653	12489.23
537.019	12350.25
537.384	12384.15
537.749	12351.84
538.114	12436.58
538.479	12311.84
538.845	12328.11
539.21	12171.95
539.575	12194.1
539.94	12160.43
540.305	12201.78
540.67	12199.75
541.034	12161.78
541.399	12132.41
541.764	12087.44
542.129	12034.1
542.494	11995.91
542.858	11949.81
543.223	11918.63
543.587	11910.72
543.952	11874.33
544.316	11848.12
544.681	11923.6
545.045	11859.65
545.41	11823.94
545.774	11717.5
546.138	11674.11
546.503	11673.21
546.867	11630.5
547.231	11699.2
547.595	11633.21
547.959	11585.53
548.324	11518.64
548.688	11578.52
549.052	11456.72
549.416	11475.02
549.779	11472.76
550.143	11409.04
550.507	11430.5
550.871	11340.34
551.235	11324.52
551.599	11320.9
551.962	11272.32
552.326	11252.43
552.689	11310.51
553.053	11123.39
553.417	11169.04
553.78	11217.63
554.143	11130.17
554.507	11101.7
554.87	11152.32
555.234	11151.42
555.597	11070.51
555.96	11089.04
556.323	11028.48
556.686	10981.7
557.05	11071.19
557.413	11053.34
557.776	10983.06
558.139	11011.76
558.502	11008.59
558.865	10988.03
559.228	10980.8
559.59	10960.23
559.953	10903.29
560.316	10986.9
560.679	10986.67
561.041	11056.5
561.404	10992.32
561.767	11019.44
562.129	10974.02
562.492	10983.51
562.854	10920.46
563.217	10952.33
563.579	10986.22
563.941	10990.29
564.304	11032.77
564.666	11069.16
565.028	11009.05
565.39	11065.77
565.753	11066.22
566.115	11100.8
566.477	11020.12
566.839	11084.75
567.201	11112.09
567.563	11055.37
567.925	11064.64
568.287	11056.05
568.648	11091.76
569.01	11179.21
569.372	11237.52
569.734	11114.35
570.095	11130.63
570.457	11191.19
570.819	11194.13
571.18	11216.72
571.542	11247.46
571.903	11154.13
572.265	11227.57
572.626	11253.11
572.987	11225.99
573.349	11312.09
573.71	11251.3
574.071	11282.26
574.432	11305.76
574.794	11322.03
575.155	11290.4
575.516	11272.77
575.877	11288.81
576.238	11299.43
576.599	11322.26
576.96	11251.3
577.32	11344.86
577.681	11333.78
578.042	11279.32
578.403	11350.28
578.763	11245.88
579.124	11380.11
579.485	11378.75
579.845	11379.66
580.206	11376.72
580.566	11259.44
580.927	11352.77
581.287	11360.45
581.648	11353.22
582.008	11345.31
582.368	11378.53
582.728	11373.78
583.089	11332.88
583.449	11307.57
583.809	11315.03
584.169	11253.33
584.529	11263.5
584.889	11372.2
585.249	11291.07
585.609	11275.71
585.969	11284.07
586.329	11209.04
586.688	11275.25
587.048	11234.35
587.408	11191.41
587.768	11242.03
588.127	11214.69
588.487	11153.9
588.846	11265.31
589.206	11209.95
589.565	11127.01
589.925	11186.67
590.284	11166.56
590.643	11126.56
591.003	11116.61
591.362	11232.54
591.721	11163.84
592.08	11132.21
592.44	11144.64
592.799	11208.82
593.158	11062.83
593.517	11156.61
593.876	11126.78
594.235	11109.38
594.593	11088.82
594.952	11044.98
595.311	11043.17
595.67	11010.85
596.029	11157.74
596.387	11087.91
596.746	11107.58
597.104	11067.8
597.463	11044.75
597.822	11048.14
598.18	11072.1
598.538	10993
598.897	11087.01
599.255	11044.98
599.613	11095.82
599.972	11095.82
600.33	11072.77
600.688	11057.41
601.046	11023.06
601.404	11156.39
601.762	11151.87
602.12	11079.33
602.478	11082.94
602.836	11063.51
603.194	11083.62
603.552	11071.42
603.91	11004.53
604.268	11091.98
604.625	11011.08
604.983	11197.74
605.341	11012.66
605.698	11077.75
606.056	11106.67
606.413	11087.69
606.771	11087.91
607.128	11103.28
607.485	11070.51
607.843	11073.23
608.2	11091.3
608.557	11106.9
608.914	11091.08
609.272	11062.15
609.629	11159.33
609.986	11200.68
610.343	11117.97
610.7	11244.07
611.057	11204.3
611.414	11232.77
611.771	11158.2
612.127	11216.05
612.484	11167.69
612.841	11244.97
613.198	11234.58
613.554	11185.77
613.911	11288.81
614.267	11312.09
614.624	11234.13
614.98	11227.8
615.337	11282.71
615.693	11315.03
616.05	11244.97
616.406	11304.18
616.762	11284.29
617.118	11285.65
617.475	11285.88
617.831	11318.64
618.187	11302.82
618.543	11307.34
618.899	11359.09
619.255	11338.3
619.611	11339.21
619.967	11314.35
620.323	11408.81
620.678	11397.06
621.034	11355.48
621.39	11333.78
621.746	11298.98
622.101	11448.81
622.457	11374.01
622.812	11387.57
623.168	11423.73
623.523	11362.71
623.879	11452.65
624.234	11345.31
624.589	11461.24
624.945	11388.02
625.3	11440.22
625.655	11386.21
626.01	11429.6
626.365	11463.27
626.72	11308.7
627.075	11309.15
627.43	11385.08
627.785	11361.81
628.14	11407
628.495	11366.33
628.85	11363.16
629.205	11294.01
629.559	11406.55
629.914	11353.44
630.269	11322.94
630.623	11298.08
630.978	11254.92
631.332	11319.32
631.687	11342.37
632.041	11246.78
632.396	11320.68
632.75	11204.52
633.104	11210.85
633.459	11133.11
633.813	11204.97
634.167	11157.97
634.521	11172.21
634.875	11177.18
635.229	11073.45
635.583	11232.77
635.937	11173.56
636.291	11111.64
636.645	11133.56
636.999	11061.25
637.352	11075.26
637.706	11024.41
638.06	11039.55
638.413	11123.17
638.767	10942.38
639.121	11044.07
639.474	10899.45
639.828	11045.43
640.181	10955.49
640.534	10970.86
640.888	10924.53
641.241	10954.13
641.594	10917.07
641.947	10882.72
642.301	10938.54
642.654	10915.94
643.007	10951.87
643.36	10929.73
643.713	10882.72
644.066	10944.42
644.419	10830.52
644.771	10792.1
645.124	10707.59
645.477	10724.76
645.83	10579.45
646.182	10586.23
646.535	10574.71
646.888	10556.86
647.24	10521.15
647.593	10571.77
647.945	10602.05
648.298	10486.35
648.65	10527.25
649.002	10450.64
649.355	10491.32
649.707	10509.62
650.059	10514.6
650.411	10676.4
650.763	10679.79
651.115	10847.24
651.467	10745.1
651.819	10736.96
652.171	10730.64
652.523	10711.2
652.875	10730.41
653.227	10631.43
653.578	10747.81
653.93	10723.86
654.282	10758.88
654.633	10666.23
654.985	10703.29
655.337	10763.63
655.688	10756.62
656.039	10769.28
656.391	10730.18
656.742	10706.91
657.094	10763.4
657.445	10768.83
657.796	10730.18
658.147	10692.22
658.498	10755.49
658.849	10711.88
659.2	10724.99
659.551	10698.09
659.902	10729.05
660.253	10759.34
660.604	10719.34
660.955	10731.99
661.306	10760.69
661.656	10793.46
662.007	10751.2
662.358	10798.88
662.708	10736.51
663.059	10779
663.409	10720.47
663.76	10768.83
664.11	10824.87
664.461	10857.41
664.811	10781.48
665.161	10811.54
665.511	10784.42
665.862	10841.37
666.212	10815.15
666.562	10858.09
666.912	10797.07
667.262	10803.63
667.612	10793.69
667.962	10878.65
668.312	10818.54
668.662	10808.37
669.011	10812.22
669.361	10815.83
669.711	10813.35
670.06	10751.43
670.41	10682.95
670.76	10809.28
671.109	10708.04
671.459	10852.21
671.808	10778.54
672.157	10786.91
672.507	10730.41
672.856	10703.07
673.205	10699.9
673.554	10756.85
673.904	10666.23
674.253	10673.91
674.602	10709.62
674.951	10529.06
675.3	10485.67
675.649	10696.74
675.998	10704.2
676.346	10623.07
676.695	10668.04
677.044	10556.4
677.393	10622.84
677.741	10632.11
678.09	10593.92
678.438	10588.04
678.787	10548.72
679.135	10604.54
679.484	10535.61
679.832	10500.13
680.181	10419.23
680.529	10465.56
680.877	10423.3
681.225	10472.11
681.573	10459
681.922	10393.92
682.27	10381.27
682.618	10315.28
682.966	10309.86
683.314	10342.4
683.661	10335.62
684.009	10268.5
684.357	10224.43
684.705	10209.29
685.053	10201.38
685.4	10260.59
685.748	10136.08
686.095	10152.8
686.443	10098.79
686.79	10065.34
687.138	10072.8
687.485	10133.59
687.832	10126.58
688.18	10088.17
688.527	10027.15
688.874	9982.41
689.221	9953.26
689.568	9903.31
689.915	9955.29
690.262	9899.25
690.609	9896.99
690.956	9832.35
691.303	9783.99
691.65	9765.69
691.997	9805.24
692.344	9684.79
692.69	9674.39
693.037	9671.91
693.383	9599.59
693.73	9664.9
694.077	9541.74
694.423	9549.65
694.769	9506.49
695.116	9530.89
695.462	9421.74
695.808	9388.98
696.155	9428.98
696.501	9339.26
696.847	9396.43
697.193	9280.05
697.539	9307.62
697.885	9175.87
698.231	9175.65
698.577	9174.74
698.923	9167.06
699.269	9138.81
699.614	9101.98
699.96	9080.51
700.306	9003.9
700.651	8955.09
700.997	8952.6
701.342	8852.95
701.688	8837.58
702.033	8829.67
702.379	8770.91
702.724	8823.12
703.069	8788.77
703.415	8643.69
703.76	8713.51
704.105	8677.36
704.45	8727.52
704.795	8615.44
705.14	8653.63
705.485	8616.12
705.83	8603.01
706.175	8589
706.52	8489.79
706.865	8465.84
707.209	8429
707.554	8450.92
707.899	8449.11
708.243	8354.43
708.588	8274.43
708.932	8243.24
709.277	8374.77
709.621	8290.7
709.966	8285.05
710.31	8315.56
710.654	8215.45
710.998	8209.12
711.342	8193.3
711.687	8185.17
712.031	8127.77
712.375	8078.28
712.719	8112.85
713.063	8135.9
713.407	8147.2
713.75	8047.09
714.094	8016.13
714.438	8014.32
714.782	8070.59
715.125	7974.32
715.469	8010.48
715.812	7978.84
716.156	7932.52
716.499	7937.49
716.843	7957.6
717.186	7807.1
717.53	7911.28
717.873	7924.16
718.216	7913.08
718.559	7883.03
718.902	7805.06
719.246	7832.41
719.589	7806.19
719.932	7844.84
720.275	7807.55
720.617	7831.05
720.96	7750.83
721.303	7790.6
721.646	7779.08
721.989	7728.45
722.331	7728.91
722.674	7737.27
723.016	7722.81
723.359	7726.2
723.701	7709.25
724.044	7722.81
724.386	7652.07
724.729	7716.03
725.071	7736.14
725.413	7682.35
725.755	7700.21
726.097	7650.49
726.439	7672.64
726.782	7702.01
727.124	7673.32
727.465	7687.33
727.807	7662.92
728.149	7709.47
728.491	7660.66
728.833	7680.77
729.175	7612.3
729.516	7636.93
729.858	7636.48
730.199	7668.12
730.541	7565.52
730.882	7623.6
731.224	7624.05
731.565	7540.44
731.906	7556.26
732.248	7582.47
732.589	7535.69
732.93	7549.48
733.271	7516.94
733.612	7532.98
733.953	7540.21
734.294	7586.54
734.635	7533.88
734.976	7541.57
735.317	7523.04
735.658	7535.92
735.999	7529.59
736.339	7543.38
736.68	7656.14
737.021	7579.98
737.361	7499.76
737.702	7626.54
738.042	7572.07
738.383	7586.76
738.723	7610.72
739.063	7585.86
739.404	7646.65
739.744	7561.23
740.084	7606.2
740.424	7611.4
740.764	7638.51
741.104	7675.58
741.444	7712.41
741.784	7706.31
742.124	7668.34
742.464	7682.81
742.804	7769.81
743.143	7699.3
743.483	7768.45
743.823	7743.37
744.162	7840.09
744.502	7891.84
744.841	7883.71
745.181	7931.16
745.52	7918.51
745.86	7929.81
746.199	7939.07
746.538	8000.76
746.877	8036.47
747.216	8082.57
747.556	8105.39
747.895	8211.61
748.234	8169.12
748.573	8166.18
748.911	8301.77
749.25	8250.02
749.589	8406.86
749.928	8443.69
750.267	8508.32
750.605	8650.24
750.944	8650.24
751.283	8746.51
751.621	8815.66
751.96	8850.69
752.298	8914.64
752.636	9041.64
752.975	9034.64
753.313	9164.8
753.651	9293.84
753.989	9424.23
754.327	9551.23
754.666	9540.16
755.004	9715.52
755.342	9865.12
755.679	9923.88
756.017	9988.51
756.355	10197.32
756.693	10280.7
757.031	10476.18
757.368	10513.92
757.706	10689.06
758.044	10792.56
758.381	10923.85
758.719	11075.71
759.056	11260.57
759.394	11444.29
759.731	11500.56
760.068	11636.6
