Data from hue_170_FLMS001491_00029.txt Node
Date: Tue Feb 07 16:48:28 GMT 2017
User: dcchb
Spectrometer: FLMS00149
Trigger mode: 0
Integration Time (sec): 2.000000E-2
Scans to average: 10
Electric dark correction enabled: true
Nonlinearity correction enabled: false
Boxcar width: 0
XAxis mode: Wavelengths
Number of Pixels in Spectrum: 2048
>>>>>Begin Spectral Data<<<<<
341.393	0.99
341.776	0.99
342.16	0.99
342.543	-71.55
342.927	-70.65
343.31	-68.39
343.693	-73.36
344.077	-74.49
344.46	-53.93
344.843	-45.79
345.226	-37.43
345.61	-33.36
345.993	-26.81
346.376	31.5
346.759	-8.73
347.142	22.68
347.525	42.8
347.908	50.48
348.291	79.4
348.674	80.76
349.057	114.66
349.44	121.66
349.823	132.96
350.206	184.71
350.588	181.77
350.971	212.96
351.354	222.23
351.737	231.49
352.119	264.26
352.502	263.13
352.884	264.26
353.267	270.13
353.65	286.4
354.032	300.64
354.414	314.88
354.797	315.56
355.179	298.83
355.562	313.75
355.944	310.81
356.326	341.54
356.709	337.7
357.091	329.79
357.473	336.12
357.855	330.92
358.238	335.9
358.62	337.93
359.002	338.83
359.384	344.26
359.766	336.12
360.148	332.96
360.53	351.26
360.912	331.83
361.294	323.69
361.676	333.86
362.057	307.42
362.439	337.25
362.821	300.42
363.203	328.21
363.584	296.8
363.966	332.28
364.348	316.46
364.729	321.43
365.111	340.19
365.493	302.68
365.874	324.37
366.256	332.96
366.637	292.96
367.019	295.44
367.4	285.27
367.781	327.31
368.163	311.71
368.544	307.2
368.925	289.79
369.306	311.94
369.688	316.46
370.069	312.84
370.45	302.68
370.831	308.55
371.212	325.27
371.593	311.71
371.974	325.5
372.355	285.73
372.736	313.52
373.117	325.05
373.498	316.01
373.879	320.98
374.26	330.92
374.641	301.77
375.021	303.81
375.402	283.69
375.783	305.61
376.163	322.56
376.544	329.79
376.925	323.24
377.305	322.11
377.686	325.5
378.066	325.5
378.447	330.7
378.827	334.09
379.208	331.83
379.588	307.42
379.968	325.27
380.349	323.69
380.729	325.95
381.109	336.57
381.489	346.06
381.87	340.19
382.25	338.15
382.63	341.54
383.01	333.18
383.39	323.92
383.77	338.15
384.15	339.06
384.53	351.26
384.91	367.31
385.29	336.12
385.67	343.8
386.049	363.92
386.429	356.91
386.809	358.27
387.189	358.72
387.568	344.71
387.948	352.62
388.328	363.47
388.707	361.88
389.087	343.35
389.466	349.23
389.846	363.01
390.225	350.81
390.605	353.97
390.984	356.91
391.363	359.4
391.743	367.08
392.122	364.82
392.501	360.98
392.881	373.86
393.26	368.44
393.639	379.74
394.018	377.02
394.397	380.64
394.776	364.59
395.155	378.15
395.534	355.78
395.913	370.47
396.292	358.49
396.671	354.43
397.05	379.06
397.429	383.8
397.808	393.75
398.186	373.41
398.565	391.49
398.944	392.84
399.323	400.53
399.701	397.59
400.08	390.81
400.458	389.68
400.837	379.74
401.215	404.37
401.594	406.18
401.972	409.57
402.351	403.01
402.729	422.9
403.107	419.51
403.486	434.42
403.864	416.57
404.242	429.68
404.62	413.63
404.999	425.16
405.377	417.02
405.755	415.22
406.133	429.68
406.511	434.88
406.889	446.4
407.267	451.37
407.645	449.11
408.023	445.72
408.401	434.88
408.779	465.38
409.156	454.76
409.534	452.28
409.912	454.31
410.29	463.12
410.667	492.05
411.045	470.81
411.422	473.07
411.8	490.02
412.178	488.89
412.555	500.86
412.933	511.03
413.31	518.72
413.687	503.8
414.065	523.01
414.442	544.93
414.819	528.88
415.197	525.49
415.574	549.45
415.951	551.48
416.328	563.23
416.705	573.63
417.082	567.98
417.46	541.31
417.837	584.02
418.214	587.19
418.591	577.7
418.967	616.79
419.344	587.64
419.721	587.41
420.098	567.3
420.475	603.68
420.852	598.04
421.228	617.02
421.605	614.53
421.982	615.21
422.358	636.9
422.735	645.27
423.111	661.31
423.488	639.16
423.864	657.02
424.241	677.36
424.617	651.82
424.994	676.68
425.37	681.2
425.746	688.43
426.123	668.32
426.499	696.11
426.875	724.59
427.251	729.11
427.627	727.52
428.003	727.75
428.379	729.56
428.756	749.9
429.132	759.39
429.507	774.08
429.883	771.82
430.259	768.2
430.635	794.87
431.011	803
431.387	793.96
431.763	807.52
432.138	844.58
432.514	833.51
432.89	840.97
433.265	857.92
433.641	864.69
434.016	852.72
434.392	871.93
434.767	870.8
435.143	890.23
435.518	913.06
435.894	925.26
436.269	922.32
436.644	946.27
437.02	930.23
437.395	943.56
437.77	970.91
438.145	978.59
438.52	992.15
438.895	1008.65
439.271	997.8
439.646	1036.67
440.021	1029.89
440.395	1043.9
440.77	1040.96
441.145	1054.29
441.52	1038.25
441.895	1088.19
442.27	1108.08
442.645	1081.41
443.019	1114.63
443.394	1112.6
443.769	1117.57
444.143	1105.14
444.518	1134.74
444.892	1150.34
445.267	1173.16
445.641	1175.87
446.016	1177.91
446.39	1190.79
446.764	1206.38
447.139	1191.92
447.513	1221.75
447.887	1233.95
448.262	1252.26
448.636	1238.7
449.01	1263.78
449.384	1268.53
449.758	1260.16
450.132	1288.64
450.506	1292.48
450.88	1311.69
451.254	1298.13
451.628	1331.8
452.002	1344.91
452.376	1339.03
452.75	1362.08
453.123	1350.56
453.497	1374.06
453.871	1409.99
454.244	1401.4
454.618	1442.98
454.992	1468.07
455.365	1474.62
455.739	1500.61
456.112	1510.33
456.486	1534.51
456.859	1529.08
457.232	1570.44
457.606	1580.83
457.979	1565.24
458.352	1617.9
458.725	1671.23
459.099	1673.49
459.472	1663.54
459.845	1695.18
460.218	1705.8
460.591	1771.34
460.964	1743.54
461.337	1771.79
461.71	1797.55
462.083	1814.05
462.456	1852.69
462.829	1814.27
463.201	1898.79
463.574	1902.18
463.947	1920.49
464.32	1985.12
464.692	2022.18
465.065	2066.25
465.438	2065.34
465.81	2117.54
466.183	2077.54
466.555	2132.23
466.928	2173.36
467.3	2173.59
467.672	2228.5
468.045	2279.12
468.417	2317.76
468.789	2334.49
469.161	2357.31
469.534	2428.72
469.906	2467.59
470.278	2482.96
470.65	2521.83
471.022	2590.07
471.394	2635.5
471.766	2645.89
472.138	2707.58
472.51	2783.97
472.882	2826.23
473.253	2879.56
473.625	2936.5
473.997	3013.56
474.369	2999.1
474.74	3053.34
475.112	3158.42
475.484	3203.62
475.855	3310.05
476.227	3343.05
476.598	3443.84
476.97	3505.08
477.341	3630.05
477.713	3687.67
478.084	3739.2
478.455	3848.35
478.827	3922.92
479.198	4024.16
479.569	4086.76
479.94	4261.22
480.311	4264.15
480.682	4338.95
481.053	4446.75
481.424	4637.25
481.795	4634.54
482.166	4752.5
482.537	4886.28
482.908	5069.78
483.279	5090.57
483.65	5194.98
484.021	5310.45
484.391	5446.27
484.762	5494.63
485.133	5570.11
485.503	5761.97
485.874	5918.12
486.244	5938.23
486.615	6152.01
486.985	6263.42
487.356	6327.15
487.726	6461.84
488.097	6635.84
488.467	6644.66
488.837	6874.71
489.207	6971.2
489.578	7115.83
489.948	7210.06
490.318	7333.23
490.688	7395.37
491.058	7530.51
491.428	7734.8
491.798	7811.18
492.168	7958.75
492.538	8070.61
492.908	8186.76
493.278	8389.92
493.648	8412.52
494.017	8538.84
494.387	8679.18
494.757	8716.01
495.126	8873.75
495.496	8961.66
495.866	9052.05
496.235	9115.55
496.605	9201.2
496.974	9273.97
497.344	9397.58
497.713	9501.76
498.082	9582.88
498.452	9687.74
498.821	9755.31
499.19	9782.2
499.559	9927.06
499.928	10004.57
500.298	10129.99
500.667	10225.13
501.036	10241.4
501.405	10303.32
501.774	10411.11
502.143	10440.71
502.512	10466.02
502.88	10534.5
503.249	10595.74
503.618	10654.04
503.987	10718.45
504.356	10779.24
504.724	10936.52
505.093	10945.11
505.462	10990.3
505.83	11048.61
506.199	11126.57
506.567	11203.63
506.936	11231.65
507.304	11319.79
507.672	11414.93
508.041	11469.61
508.409	11443.85
508.777	11518.88
509.145	11651.98
509.514	11663.96
509.882	11669.38
510.25	11670.06
510.618	11690.85
510.986	11770.85
511.354	11860.34
511.722	11917.74
512.09	11981.46
512.458	11947.57
512.826	12090.84
513.193	12151.18
513.561	12148.69
513.929	12120.22
514.297	12251.06
514.664	12342.59
515.032	12298.74
515.4	12443.15
515.767	12357.27
516.135	12430.04
516.502	12265.98
516.869	12481.34
517.237	12476.59
517.604	12383.26
517.972	12534.22
518.339	12532.86
518.706	12595.46
519.073	12649.7
519.44	12663.48
519.808	12721.33
520.175	12644.5
520.542	12749.81
520.909	12778.28
521.276	12791.16
521.643	12835.23
522.009	12892.63
522.376	12897.15
522.743	12910.25
523.11	13016.01
523.477	13141.66
523.843	13024.83
524.21	13146.41
524.577	13179.17
524.943	13200.64
525.31	13156.12
525.676	13178.5
526.043	13243.35
526.409	13300.53
526.776	13419.84
527.142	13314.99
527.508	13321.09
527.874	13417.13
528.241	13348.89
528.607	13356.34
528.973	13360.86
529.339	13288.32
529.705	13439.96
530.071	13477.92
530.437	13451.93
530.803	13481.09
531.169	13467.53
531.535	13351.82
531.901	13314.54
532.267	13448.77
532.632	13482.44
532.998	13435.89
533.364	13343.01
533.73	13413.07
534.095	13423.46
534.461	13342.11
534.826	13343.69
535.192	13407.19
535.557	13456.45
535.923	13333.75
536.288	13329.68
536.653	13287.64
537.019	13240.87
537.384	13178.72
537.749	13237.93
538.114	13231.15
538.479	13136.24
538.845	13176.01
539.21	13069.8
539.575	13061.44
539.94	13030.7
540.305	13089.46
540.67	12997.03
541.034	12991.38
541.399	12980.76
541.764	12965.17
542.129	12954.77
542.494	12836.13
542.858	12748.22
543.223	12789.13
543.587	12782.35
543.952	12754.33
544.316	12725.63
544.681	12618.96
545.045	12585.06
545.41	12586.19
545.774	12606.53
546.138	12610.83
546.503	12527.44
546.867	12488.57
547.231	12555.46
547.595	12513.65
547.959	12448.12
548.324	12400.66
548.688	12377.61
549.052	12379.19
549.416	12302.59
549.779	12180.56
550.143	12145.98
550.507	12213.77
550.871	12211.52
551.235	12070.28
551.599	12117.05
551.962	12131.74
552.326	12097.39
552.689	12043.16
553.053	12003.38
553.417	11931.07
553.78	11996.61
554.143	11959.77
554.507	11903.27
554.87	11927.23
555.234	12055.36
555.597	11912.54
555.96	11902.6
556.323	11832.54
556.686	11817.85
557.05	11834.8
557.413	11811.98
557.776	11739.21
558.139	11824.63
558.502	11792.32
558.865	11710.96
559.228	11812.66
559.59	11766.78
559.953	11735.37
560.316	11871.19
560.679	11787.8
561.041	11731.98
561.404	11768.14
561.767	11847.68
562.129	11697.4
562.492	11791.87
562.854	11730.4
563.217	11739.44
563.579	11745.31
563.941	11767.91
564.304	11757.74
564.666	11801.36
565.028	11792.54
565.39	11882.26
565.753	11818.76
566.115	11801.36
566.477	11905.31
566.839	11831.64
567.201	11872.31
567.563	11937.85
567.925	11948.02
568.287	11902.6
568.648	11964.06
569.01	11970.84
569.372	11975.14
569.734	11895.37
570.095	11911.64
570.457	11901.69
570.819	12043.16
571.18	11957.51
571.542	11997.28
571.903	12028.92
572.265	12058.98
572.626	12019.43
572.987	12010.62
573.349	12032.31
573.71	12031.41
574.071	12114.57
574.432	12110.73
574.794	12130.39
575.155	12183.04
575.516	12054.68
575.877	12119.54
576.238	12084.06
576.599	12101.69
576.96	12079.32
577.32	12209.48
577.681	12124.74
578.042	12191.63
578.403	12218.97
578.763	12104.85
579.124	12124.96
579.485	12144.4
579.845	12199.54
580.206	12119.09
580.566	12092.2
580.927	12164.28
581.287	12222.81
581.648	12105.08
582.008	12170.84
582.368	12150.73
582.728	12142.36
583.089	12110.5
583.449	12125.19
583.809	12122.03
584.169	12147.79
584.529	12110.73
584.889	12059.65
585.249	11957.74
585.609	12001.8
585.969	12074.8
586.329	12015.36
586.688	12001.35
587.048	11984.85
587.408	11999.09
587.768	11888.13
588.127	11911.86
588.487	11970.39
588.846	12052.42
589.206	11917.96
589.565	11905.31
589.925	11993.89
590.284	11889.04
590.643	11929.71
591.003	12054.91
591.362	11998.41
591.721	11921.35
592.08	11888.59
592.44	11917.29
592.799	11946.21
593.158	11916.61
593.517	11882.94
593.876	11876.38
594.235	11842.94
594.593	11813.79
594.952	11854.01
595.311	11858.53
595.67	11934.69
596.029	11973.1
596.387	11834.35
596.746	11848.81
597.104	11843.84
597.463	11854.01
597.822	11818.98
598.18	11859.43
598.538	11780.34
598.897	11768.59
599.255	11819.21
599.613	11869.15
599.972	11799.77
600.33	11815.37
600.688	11794.35
601.046	11816.05
601.404	11860.79
601.762	11862.37
602.12	11882.03
602.478	11831.86
602.836	11874.57
603.194	11823.05
603.552	11784.18
603.91	11753
604.268	11847.46
604.625	11740.57
604.983	11802.49
605.341	11746.67
605.698	11747.35
606.056	11889.94
606.413	11733.79
606.771	11842.94
607.128	11804.29
607.485	11718.65
607.843	11782.6
608.2	11923.39
608.557	11880.45
608.914	11788.93
609.272	11865.54
609.629	11890.85
609.986	11939.88
610.343	11910.96
610.7	11961.58
611.057	11859.21
611.414	11880.45
611.771	11896.95
612.127	12027.57
612.484	11969.94
612.841	12030.5
613.198	11970.17
613.554	11986.44
613.911	11974.46
614.267	11982.14
614.624	11874.57
614.98	11960
615.337	11993.44
615.693	12041.35
616.05	11939.66
616.406	12097.62
616.762	12022.14
617.118	12101.69
617.475	11995.93
617.831	12086.32
618.187	12038.64
618.543	12063.04
618.899	12200.89
619.255	12161.57
619.611	12040.67
619.967	12099.65
620.323	12177.17
620.678	12120.44
621.034	12098.98
621.39	12107.79
621.746	12072.31
622.101	12239.31
622.457	12109.6
622.812	12086.32
623.168	12058.75
623.523	12120.67
623.879	12112.53
624.234	12045.42
624.589	12143.49
624.945	12132.2
625.3	12203.38
625.655	12052.42
626.01	12133.55
626.365	12134
626.72	12120.9
627.075	12070.95
627.43	12097.85
627.785	12112.53
628.14	12016.49
628.495	12138.97
628.85	12108.24
629.205	12122.25
629.559	12101.01
629.914	12036.38
630.269	12032.99
630.623	12002.26
630.978	12003.84
631.332	12135.81
631.687	12008.13
632.041	12048.58
632.396	12079.32
632.75	11960.9
633.104	11951.86
633.459	11922.94
633.813	11946.21
634.167	11891.3
634.521	11817.18
634.875	11889.94
635.229	11847.23
635.583	11782.83
635.937	11860.56
636.291	11839.55
636.645	11849.26
636.999	11739.66
637.352	11882.03
637.706	11705.77
638.06	11791.87
638.413	11751.19
638.767	11708.48
639.121	11775.59
639.474	11613.11
639.828	11592.32
640.181	11665.54
640.534	11703.28
640.888	11641.13
641.241	11524.53
641.594	11558.65
641.947	11638.87
642.301	11617.63
642.654	11640.46
643.007	11654.02
643.36	11561.59
643.713	11524.98
644.066	11577.41
644.419	11493.34
644.771	11489.05
645.124	11307.13
645.477	11344.42
645.83	11289.28
646.182	11258.55
646.535	11273.69
646.888	11277.3
647.24	11164.54
647.593	11225.33
647.945	11187.59
648.298	11114.82
648.65	11113.69
649.002	11139.9
649.355	11127.25
649.707	11142.16
650.059	11139.9
650.411	11389.39
650.763	11320.01
651.115	11435.94
651.467	11449.28
651.819	11406.34
652.171	11379.9
652.523	11347.58
652.875	11377.64
653.227	11255.38
653.578	11397.98
653.93	11392.33
654.282	11301.93
654.633	11311.43
654.985	11376.73
655.337	11321.59
655.688	11429.39
656.039	11403.4
656.391	11369.96
656.742	11404.98
657.094	11423.06
657.445	11414.7
657.796	11441.37
658.147	11355.94
658.498	11379.67
658.849	11448.15
659.2	11421.71
659.551	11413.8
659.902	11471.2
660.253	11432.33
660.604	11475.94
660.955	11414.47
661.306	11477.3
661.656	11496.28
662.007	11480.23
662.358	11398.66
662.708	11480.01
663.059	11400.01
663.409	11428.71
663.76	11490.18
664.11	11488.37
664.461	11439.56
664.811	11462.38
665.161	11442.27
665.511	11480.46
665.862	11422.61
666.212	11524.75
666.562	11531.31
666.912	11425.77
667.262	11418.54
667.612	11438.2
667.962	11526.11
668.312	11445.21
668.662	11458.77
669.011	11402.72
669.361	11396.17
669.711	11371.54
670.06	11375.38
670.41	11410.18
670.76	11409.5
671.109	11506.22
671.459	11413.12
671.808	11404.98
672.157	11423.29
672.507	11356.62
672.856	11348.71
673.205	11397.75
673.554	11439.11
673.904	11319.11
674.253	11413.12
674.602	11314.82
674.951	11203.63
675.3	11163.41
675.649	11271.88
675.998	11294.48
676.346	11308.26
676.695	11322.05
677.044	11280.69
677.393	11230.75
677.741	11271.2
678.09	11226.68
678.438	11190.98
678.787	11264.42
679.135	11207.93
679.484	11151.2
679.832	11209.73
680.181	11059.45
680.529	11137.87
680.877	11093.58
681.225	11069.62
681.573	11199.79
681.922	11059.91
682.27	11057.2
682.618	11053.35
682.966	11085.44
683.314	10979.46
683.661	11002.51
684.009	11016.29
684.357	10959.57
684.705	10901.04
685.053	10939.46
685.4	10910.98
685.748	10825.11
686.095	10824.43
686.443	10802.74
686.79	10758.22
687.138	10750.76
687.485	10804.09
687.832	10638.9
688.18	10776.75
688.527	10676.19
688.874	10677.77
689.221	10602.97
689.568	10546.25
689.915	10547.6
690.262	10506.25
690.609	10537.66
690.956	10424.44
691.303	10428.74
691.65	10301.96
691.997	10360.72
692.344	10286.37
692.69	10227.84
693.037	10278.23
693.383	10199.82
693.73	10177.9
694.077	10098.35
694.423	10168.63
694.769	10113.04
695.116	10047.5
695.462	10058.35
695.808	10011.12
696.155	9950.78
696.501	9912.37
696.847	9851.13
697.193	9816.78
697.539	9850.45
697.885	9755.53
698.231	9743.33
698.577	9724.12
698.923	9661.75
699.269	9678.93
699.614	9578.82
699.96	9576.1
700.306	9542.21
700.651	9515.77
700.997	9470.57
701.342	9486.39
701.688	9453.62
702.033	9417.92
702.379	9367.52
702.724	9405.94
703.069	9394.41
703.415	9253.17
703.76	9215.44
704.105	9210.46
704.45	9206.85
704.795	9151.93
705.14	9099.73
705.485	9072.39
705.83	9101.31
706.175	9016.8
706.52	8976.57
706.865	8987.42
707.209	8966.63
707.554	8895.22
707.899	8934.09
708.243	8846.41
708.588	8780.42
708.932	8765.96
709.277	8822
709.621	8767.31
709.966	8732.28
710.31	8763.7
710.654	8645.96
710.998	8645.96
711.342	8639.86
711.687	8593.08
712.031	8563.93
712.375	8567.54
712.719	8536.13
713.063	8568
713.407	8542.01
713.75	8478.96
714.094	8516.7
714.438	8436.7
714.782	8551.95
715.125	8383.82
715.469	8480.09
715.812	8408.68
716.156	8393.31
716.499	8384.72
716.843	8368
717.186	8352.18
717.53	8398.51
717.873	8382.01
718.216	8346.98
718.559	8281.22
718.902	8224.73
719.246	8240.55
719.589	8228.57
719.932	8194.9
720.275	8205.74
720.617	8210.72
720.96	8178.4
721.303	8160.77
721.646	8199.64
721.989	8083.26
722.331	8170.72
722.674	8114.9
723.016	8135.69
723.359	8168.23
723.701	8154.22
724.044	8096.37
724.386	8045.75
724.729	8152.86
725.071	8039.65
725.413	8070.61
725.755	8096.14
726.097	8079.42
726.439	8039.87
726.782	8029.25
727.124	8083.49
727.465	8032.64
727.807	8016.82
728.149	8075.35
728.491	8024.28
728.833	8023.83
729.175	8019.31
729.516	7964.62
729.858	8021.79
730.199	7976.37
730.541	8017.28
730.882	7986.32
731.224	7988.8
731.565	7977.05
731.906	7974.79
732.248	8027.22
732.589	7937.05
732.93	7917.39
733.271	7944.73
733.612	7990.16
733.953	8010.95
734.294	7926.88
734.635	7894.34
734.976	7981.12
735.317	7957.39
735.658	7949.03
735.999	7937.96
736.339	7951.97
736.68	7977.95
737.021	8027.22
737.361	7896.83
737.702	8041.23
738.042	8028.35
738.383	8015.69
738.723	8047.33
739.063	8040.33
739.404	8073.54
739.744	8018.18
740.084	8022.92
740.424	8036.26
740.764	8094.34
741.104	8086.2
741.444	8062.92
741.784	8085.75
742.124	8109.93
742.464	8125.29
742.804	8110.15
743.143	8156.93
743.483	8132.75
743.823	8130.27
744.162	8211.62
744.502	8288.23
744.841	8248.68
745.181	8330.94
745.52	8357.38
745.86	8392.86
746.199	8398.96
746.538	8429.69
746.877	8538.84
747.216	8598.28
747.556	8572.06
747.895	8610.93
748.234	8602.8
748.573	8661.33
748.911	8782
749.25	8775.22
749.589	8892.96
749.928	8977.7
750.267	8949.23
750.605	9063.58
750.944	9089.11
751.283	9169.56
751.621	9256.56
751.96	9311.25
752.298	9387.18
752.636	9565.71
752.975	9626.27
753.313	9701.3
753.651	9759.38
753.989	9883.89
754.327	10037.11
754.666	10066.94
755.004	10168.63
755.342	10336.08
755.679	10450.21
756.017	10478.45
756.355	10688.62
756.693	10754.15
757.031	10994.15
757.368	11048.61
757.706	11233.91
758.044	11319.11
758.381	11484.53
758.719	11553.68
