Data from hue_80_FLMS001491_40.txt Node
Date: Mon Feb 06 15:22:55 GMT 2017
User: dcchb
Spectrometer: FLMS00149
Trigger mode: 0
Integration Time (sec): 2.000000E-2
Scans to average: 10
Electric dark correction enabled: true
Nonlinearity correction enabled: false
Boxcar width: 0
XAxis mode: Wavelengths
Number of Pixels in Spectrum: 2048
>>>>>Begin Spectral Data<<<<<
341.393	-18.05
341.776	-18.05
342.16	-18.05
342.543	-71.38
342.927	-81.33
343.31	-64.6
343.693	-67.09
344.077	-66.64
344.46	-60.99
344.843	-65.51
345.226	-35.23
345.61	-23.7
345.993	-10.37
346.376	4.77
346.759	7.03
347.142	20.59
347.525	39.35
347.908	59.69
348.291	60.82
348.674	90.42
349.057	111.44
349.44	116.18
349.823	127.48
350.206	139.46
350.588	180.36
350.971	213.13
351.354	221.72
351.737	238.44
352.119	240.93
352.502	260.81
352.884	249.74
353.267	283.41
353.65	290.19
354.032	308.27
354.414	306.69
354.797	284.31
355.179	326.57
355.562	314.14
355.944	311.88
356.326	333.58
356.709	318.89
357.091	342.39
357.473	349.4
357.855	326.35
358.238	332
358.62	325.67
359.002	326.12
359.384	336.74
359.766	335.61
360.148	323.64
360.53	332.22
360.912	337.65
361.294	334.26
361.676	329.74
362.057	336.52
362.439	317.76
362.821	337.19
363.203	308.95
363.584	329.06
363.966	317.76
364.348	332.45
364.729	325.9
365.111	304.2
365.493	323.18
365.874	316.18
366.256	307.82
366.637	305.33
367.019	299.23
367.4	324.09
367.781	302.39
368.163	305.33
368.544	309.17
368.925	324.31
369.306	310.53
369.688	321.83
370.069	301.94
370.45	306.91
370.831	315.05
371.212	313.69
371.593	295.84
371.974	306.69
372.355	326.57
372.736	324.31
373.117	305.78
373.498	309.4
373.879	312.34
374.26	320.02
374.641	311.21
375.021	317.31
375.402	314.14
375.783	316.63
376.163	316.86
376.544	327.25
376.925	327.03
377.305	316.4
377.686	315.05
378.066	323.41
378.447	328.61
378.827	320.25
379.208	333.35
379.588	320.7
379.968	294.26
380.349	331.32
380.729	344.88
381.109	331.54
381.489	323.41
381.87	332.9
382.25	339.91
382.63	348.95
383.01	321.15
383.39	333.35
383.77	337.87
384.15	342.84
384.53	327.48
384.91	336.06
385.29	349.17
385.67	341.04
386.049	332.9
386.429	354.6
386.809	354.14
387.189	357.53
387.568	332.45
387.948	336.29
388.328	352.56
388.707	349.4
389.087	344.88
389.466	346.23
389.846	356.63
390.225	351.21
390.605	388.27
390.984	351.21
391.363	351.88
391.743	374.71
392.122	344.88
392.501	359.57
392.881	365.89
393.26	364.99
393.639	377.65
394.018	353.24
394.397	375.39
394.776	375.84
395.155	384.88
395.534	364.31
395.913	370.41
396.292	378.78
396.671	356.86
397.05	369.28
397.429	360.02
397.808	386.23
398.186	373.58
398.565	377.65
398.944	382.17
399.323	382.17
399.701	390.98
400.08	383.52
400.458	374.93
400.837	402.5
401.215	400.92
401.594	395.05
401.972	393.46
402.351	399.79
402.729	386.68
403.107	392.56
403.486	382.62
403.864	409.96
404.242	405.22
404.62	401.37
404.999	401.37
405.377	419.45
405.755	417.64
406.133	417.42
406.511	398.66
406.889	416.51
407.267	399.79
407.645	431.43
408.023	411.32
408.401	427.81
408.779	414.25
409.156	427.14
409.534	431.66
409.912	416.74
410.29	441.82
410.667	466
411.045	449.28
411.422	430.53
411.8	440.02
412.178	457.42
412.555	459
412.933	450.19
413.31	451.32
413.687	458.77
414.065	486.57
414.442	462.39
414.819	463.97
415.197	460.13
415.574	484.76
415.951	453.35
416.328	471.88
416.705	467.13
417.082	459
417.46	483.41
417.837	498.09
418.214	503.97
418.591	487.25
418.967	481.6
419.344	506
419.721	507.81
420.098	499
420.475	481.6
420.852	524.08
421.228	513.46
421.605	509.85
421.982	507.59
422.358	539.68
422.735	499.45
423.111	531.54
423.488	513.01
423.864	526.12
424.241	546
424.617	529.96
424.994	539
425.37	544.65
425.746	560.01
426.123	543.29
426.499	565.89
426.875	550.07
427.251	546.91
427.627	540.13
428.003	564.99
428.379	556.4
428.756	577.87
429.132	567.92
429.507	586.45
429.883	587.58
430.259	607.92
430.635	602.27
431.011	622.16
431.387	598.2
431.763	600.01
432.138	615.38
432.514	642.5
432.89	629.16
433.265	654.93
433.641	662.38
434.016	643.18
434.392	657.64
434.767	651.08
435.143	661.48
435.518	683.63
435.894	660.58
436.269	663.74
436.644	696.73
437.02	686.11
437.395	678.43
437.77	698.31
438.145	700.57
438.52	699.67
438.895	689.5
439.271	718.65
439.646	719.11
440.021	734.7
440.395	735.15
440.77	713.91
441.145	736.73
441.52	731.76
441.895	737.86
442.27	739.22
442.645	758.2
443.019	746.45
443.394	762.95
443.769	755.26
444.143	741.93
444.518	778.99
444.892	783.51
445.267	766.56
445.641	767.01
446.016	779.22
446.39	783.06
446.764	819.22
447.139	785.09
447.513	797.52
447.887	804.3
448.262	822.38
448.636	801.36
449.01	845.2
449.384	836.16
449.758	843.85
450.132	841.36
450.506	854.24
450.88	857.41
451.254	832.77
451.628	858.31
452.002	894.02
452.376	885.2
452.75	891.3
453.123	868.71
453.497	889.95
453.871	888.14
454.244	903.51
454.618	933.79
454.992	927.91
455.365	951.64
455.739	942.15
456.112	952.09
456.486	985.77
456.859	986.67
457.232	986.22
457.606	972.66
457.979	1010.4
458.352	1021.47
458.725	1030.28
459.099	1063.28
459.472	1072.77
459.845	1067.8
460.218	1087.68
460.591	1084.97
460.964	1079.1
461.337	1123.84
461.71	1129.94
462.083	1126.1
462.456	1137.85
462.829	1144.63
463.201	1178.98
463.574	1167.46
463.947	1209.94
464.32	1209.94
464.692	1221.69
465.065	1236.61
465.438	1257.4
465.81	1284.74
466.183	1293.1
466.555	1348.02
466.928	1328.81
467.3	1342.14
467.672	1343.72
468.045	1417.17
468.417	1413.55
468.789	1451.06
469.161	1455.13
469.534	1473.66
469.906	1523.15
470.278	1511.17
470.65	1519.76
471.022	1597.27
471.394	1589.36
471.766	1632.08
472.138	1653.77
472.51	1679.53
472.882	1721.79
473.253	1754.78
473.625	1763.82
473.997	1826.42
474.369	1843.82
474.74	1892.41
475.112	1931.28
475.484	2008.11
475.855	2055.57
476.227	2084.95
476.598	2108.22
476.97	2145.96
477.341	2187.32
477.713	2313.41
478.084	2336.24
478.455	2432.28
478.827	2461.66
479.198	2548.89
479.569	2558.83
479.94	2658.94
480.311	2726.96
480.682	2774.19
481.053	2899.84
481.424	2934.64
481.795	3032.26
482.166	3128.08
482.537	3186.16
482.908	3285.82
483.279	3361.52
483.65	3432.25
484.021	3547.28
484.391	3619.59
484.762	3715.64
485.133	3796.76
485.503	3900.94
485.874	4016.87
486.244	4074.27
486.615	4253.25
486.985	4312.01
487.356	4489.85
487.726	4557.87
488.097	4711.77
488.467	4844.42
488.837	4986.56
489.207	5046.45
489.578	5177.75
489.948	5316.27
490.318	5427.46
490.688	5572.76
491.058	5701.8
491.428	5791.97
491.798	5880.55
492.168	6130.04
492.538	6232.86
492.908	6332.74
493.278	6509.01
493.648	6584.26
494.017	6678.72
494.387	6823.13
494.757	6988.77
495.126	7117.36
495.496	7240.52
495.866	7297.24
496.235	7429.44
496.605	7659.04
496.974	7711.92
497.344	7849.31
497.713	7990.78
498.082	8113.71
498.452	8213.37
498.821	8348.96
499.19	8411.33
499.559	8563.87
499.928	8726.35
500.298	8727.48
500.667	8926.8
501.036	9021.26
501.405	9116.62
501.774	9159.56
502.143	9307.35
502.512	9421.48
502.88	9529.04
503.249	9611.07
503.618	9698.3
503.987	9825.31
504.356	9914.34
504.724	10020.33
505.093	10052.65
505.462	10108.01
505.83	10315.01
506.199	10412.64
506.567	10546.64
506.936	10618.96
507.304	10682.23
507.672	10784.83
508.041	10821.66
508.409	11008.1
508.777	11100.98
509.145	11142.79
509.514	11219.39
509.882	11303.91
510.25	11408.32
510.618	11505.71
510.986	11579.38
511.354	11637.91
511.722	11739.38
512.09	11863.22
512.458	11868.87
512.826	11982.99
513.193	12051.46
513.561	12097.34
513.929	12192.48
514.297	12383.88
514.664	12394.28
515.032	12410.55
515.4	12590.43
515.767	12630.88
516.135	12668.62
516.502	12526.93
516.869	12816.41
517.237	12885.11
517.604	12779.81
517.972	12944.55
518.339	12989.97
518.706	12968.27
519.073	13138.67
519.44	13197.2
519.808	13301.15
520.175	13302.5
520.542	13420.47
520.909	13534.81
521.276	13482.61
521.643	13640.35
522.009	13624.08
522.376	13776.84
522.743	13812.32
523.11	13828.82
523.477	13912.66
523.843	14057.96
524.21	14081.24
524.577	14265.87
524.943	14356.71
525.31	14317.62
525.676	14381.12
526.043	14384.73
526.409	14425.64
526.776	14605.97
527.142	14551.51
527.508	14563.71
527.874	14738.62
528.241	14809.58
528.607	14788.11
528.973	14891.16
529.339	14840.77
529.705	14957.83
530.071	14941.56
530.437	15098.61
530.803	15072.17
531.169	15137.48
531.535	15087.99
531.901	15174.32
532.267	15206.86
532.632	15198.72
532.998	15174.54
533.364	15261.77
533.73	15199.85
534.095	15265.39
534.461	15352.17
534.826	15387.19
535.192	15404.59
535.557	15460.41
535.923	15371.38
536.288	15430.81
536.653	15443.69
537.019	15444.14
537.384	15414.99
537.749	15544.48
538.114	15515.1
538.479	15475.33
538.845	15531.15
539.21	15363.69
539.575	15483.01
539.94	15412.73
540.305	15634.87
540.67	15480.07
541.034	15511.48
541.399	15510.58
541.764	15428.78
542.129	15521.2
542.494	15547.87
542.858	15417.02
543.223	15456.12
543.587	15520.07
543.952	15462.9
544.316	15487.76
544.681	15429.91
545.045	15528.89
545.41	15411.83
545.774	15442.56
546.138	15471.94
546.503	15469
546.867	15432.84
547.231	15470.58
547.595	15532.05
547.959	15479.17
548.324	15321.89
548.688	15418.38
549.052	15483.46
549.416	15432.62
549.779	15407.53
550.143	15417.48
550.507	15469.45
550.871	15406.4
551.235	15426.29
551.599	15517.81
551.962	15497.47
552.326	15428.55
552.689	15406.63
553.053	15433.52
553.417	15374.31
553.78	15555.55
554.143	15510.81
554.507	15462.22
554.87	15514.65
555.234	15617.02
555.597	15516.91
555.96	15522.33
556.323	15496.34
556.686	15524.59
557.05	15568.43
557.413	15561.88
557.776	15534.31
558.139	15679.39
558.502	15528.21
558.865	15657.92
559.228	15672.84
559.59	15673.06
559.953	15672.84
560.316	15738.6
560.679	15741.31
561.041	15912.83
561.404	15809.1
561.767	15946.28
562.129	15812.72
562.492	16006.84
562.854	15912.38
563.217	15983.11
563.579	16031.02
563.941	16027.86
564.304	16105.14
564.666	16187.85
565.028	16152.6
565.39	16101.98
565.753	16179.49
566.115	16216.1
566.477	16179.04
566.839	16232.82
567.201	16297.9
567.563	16395.98
567.925	16386.26
568.287	16316.44
568.648	16389.88
569.01	16397.56
569.372	16533.15
569.734	16349.43
570.095	16493.15
570.457	16622.42
570.819	16605.02
571.18	16652.47
571.542	16724.56
571.903	16650.89
572.265	16729.31
572.626	16756.42
572.987	16777.21
573.349	16821.51
573.71	16802.75
574.071	16820.83
574.432	16916.19
574.794	16967.94
575.155	16988.73
575.516	17000.94
575.877	16896.31
576.238	17041.16
576.599	17084.78
576.96	17034.83
577.32	17028.28
577.681	17058.11
578.042	17079.81
578.403	17049.52
578.763	17098.34
579.124	16983.54
579.485	17072.35
579.845	17187.82
580.206	17104.44
580.566	17090.65
580.927	17215.39
581.287	17108.96
581.648	17067.15
582.008	17231.67
582.368	17176.53
582.728	17226.69
583.089	17166.13
583.449	17092.01
583.809	17090.2
584.169	17126.13
584.529	17106.47
584.889	17199.12
585.249	17118.22
585.609	17093.59
585.969	17205
586.329	17094.04
586.688	17074.61
587.048	17050.2
587.408	17078
587.768	17033.93
588.127	17104.21
588.487	16998
588.846	17197.09
589.206	17057.43
589.565	17153.25
589.925	17095.85
590.284	17058.11
590.643	17058.79
591.003	17122.06
591.362	17203.42
591.721	17056.53
592.08	17053.59
592.44	17129.75
592.799	17110.76
593.158	17099.69
593.517	16978.56
593.876	17114.38
594.235	17022.86
594.593	16960.71
594.952	17085.68
595.311	17008.39
595.67	16901.5
596.029	17097.88
596.387	17069.18
596.746	17113.93
597.104	17064.89
597.463	17030.99
597.822	17015.4
598.18	16922.97
598.538	16967.49
598.897	17075.51
599.255	16890.43
599.613	17198.45
599.972	17124.55
600.33	17091.33
600.688	16952.12
601.046	17117.54
601.404	17107.83
601.762	17061.05
602.12	17094.04
602.478	17122.74
602.836	17091.56
603.194	17046.59
603.552	17057.43
603.91	17028.96
604.268	17007.49
604.625	17004.1
604.983	17206.13
605.341	17061.73
605.698	17122.97
606.056	17211.55
606.413	17079.81
606.771	17224.21
607.128	17240.93
607.485	17126.58
607.843	17133.14
608.2	17237.54
608.557	17301.49
608.914	17220.82
609.272	17347.82
609.629	17216.98
609.986	17361.61
610.343	17336.75
610.7	17395.73
611.057	17394.6
611.414	17322.51
611.771	17503.75
612.127	17424.65
612.484	17384.2
612.841	17525.67
613.198	17453.35
613.554	17427.59
613.911	17520.7
614.267	17554.14
614.624	17521.15
614.98	17528.83
615.337	17640.69
615.693	17616.74
616.05	17562.5
616.406	17687.02
616.762	17606.57
617.118	17598.89
617.475	17607.93
617.831	17628.49
618.187	17685.89
618.543	17627.14
618.899	17671.65
619.255	17678.66
619.611	17743.52
619.967	17799.33
620.323	17840.01
620.678	17691.31
621.034	17691.77
621.39	17618.32
621.746	17759.79
622.101	17957.3
622.457	17717.3
622.812	17790.52
623.168	17948.93
623.523	17916.39
623.879	17910.07
624.234	17807.02
624.589	17897.86
624.945	17894.25
625.3	17927.92
625.655	17835.04
626.01	17877.98
626.365	17912.33
626.72	17846.34
627.075	17873.23
627.43	17862.61
627.785	17805.66
628.14	17832.1
628.495	17802.05
628.85	17745.78
629.205	17682.28
629.559	17799.33
629.914	17684.08
630.269	17732.22
630.623	17788.71
630.978	17707.13
631.332	17784.87
631.687	17789.39
632.041	17749.39
632.396	17777.41
632.75	17606.57
633.104	17684.08
633.459	17659.45
633.813	17563.63
634.167	17642.95
634.521	17579
634.875	17572.45
635.229	17656.74
635.583	17468.72
635.937	17512.56
636.291	17505.33
636.645	17479.34
636.999	17412.45
637.352	17512.11
637.706	17421.04
638.06	17479.79
638.413	17434.6
638.767	17389.63
639.121	17407.93
639.474	17408.84
639.828	17327.48
640.181	17360.02
640.534	17329.74
640.888	17243.87
641.241	17231.44
641.594	17238.67
641.947	17296.97
642.301	17280.25
642.654	17330.65
643.007	17242.51
643.36	17163.64
643.713	17212.23
644.066	17341.27
644.419	17151.67
644.771	17130.43
645.124	16898.79
645.477	16887.95
645.83	16771.34
646.182	16710.55
646.535	16614.28
646.888	16642.98
647.24	16601.85
647.593	16795.97
647.945	16660.16
648.298	16522.31
648.65	16598.24
649.002	16520.27
649.355	16499.48
649.707	16607.95
650.059	16591.91
650.411	16840.72
650.763	16779.7
651.115	17037.09
651.467	16931.79
651.819	16997.55
652.171	17008.39
652.523	16975.18
652.875	16932.69
653.227	16873.71
653.578	16903.54
653.93	16960.94
654.282	16861.51
654.633	16915.06
654.985	16938.79
655.337	16904.67
655.688	16916.87
656.039	17000.94
656.391	16854.73
656.742	16960.94
657.094	16817.21
657.445	16941.5
657.796	16991.67
658.147	16797.1
658.498	16878.45
658.849	16967.94
659.2	16904.44
659.551	16940.83
659.902	16888.17
660.253	16920.04
660.604	16888.17
660.955	16861.28
661.306	16828.51
661.656	16916.19
662.007	16932.69
662.358	16962.75
662.708	16921.84
663.059	16929.75
663.409	16788.06
663.76	16951.9
664.11	16923.43
664.461	16908.51
664.811	17020.15
665.161	16906.48
665.511	16962.07
665.862	16973.59
666.212	17067.6
666.562	16969.07
666.912	17011.56
667.262	16963.88
667.612	17033.7
667.962	16971.33
668.312	16935.63
668.662	16985.34
669.011	16976.31
669.361	16941.73
669.711	16849.08
670.06	16900.6
670.41	16843.43
670.76	16887.72
671.109	16880.04
671.459	16956.87
671.808	16885.23
672.157	16880.04
672.507	16757.33
672.856	16716.88
673.205	16791.9
673.554	16746.93
673.904	16686.6
674.253	16836.2
674.602	16754.16
674.951	16517.11
675.3	16508.75
675.649	16778.12
675.998	16685.24
676.346	16792.13
676.695	16748.29
677.044	16551.46
677.393	16638.23
677.741	16692.02
678.09	16609.76
678.438	16511.23
678.787	16576.77
679.135	16587.39
679.484	16535.64
679.832	16602.3
680.181	16463.32
680.529	16598.46
680.877	16436.43
681.225	16482.53
681.573	16485.7
681.922	16370.9
682.27	16293.16
682.618	16359.6
682.966	16247.74
683.314	16306.27
683.661	16223.1
684.009	16181.52
684.357	16211.81
684.705	16088.42
685.053	16088.64
685.4	16185.82
685.748	15966.84
686.095	16057.23
686.443	16029.21
686.79	15957.12
687.138	15950.57
687.485	15895.66
687.832	15837.35
688.18	15881.42
688.527	15795.55
688.874	15798.03
689.221	15709.9
689.568	15681.2
689.915	15641.42
690.262	15672.61
690.609	15597.81
690.956	15518.94
691.303	15440.75
691.65	15343.81
691.997	15414.99
692.344	15194.88
692.69	15285.05
693.037	15285.05
693.383	15068.78
693.73	15194.21
694.077	15108.33
694.423	15097.94
694.769	15092.29
695.116	14982.69
695.462	14922.8
695.808	14861.78
696.155	14871.05
696.501	14771.84
696.847	14745.86
697.193	14629.93
697.539	14687.1
697.885	14597.61
698.231	14564.17
698.577	14525.07
698.923	14496.6
699.269	14359.2
699.614	14258.41
699.96	14215.02
700.306	14279.65
700.651	14172.31
700.997	14180.67
701.342	14144.52
701.688	14042.82
702.033	13995.59
702.379	13973.9
702.724	13960.57
703.069	13940
703.415	13691.65
703.76	13845.31
704.105	13722.38
704.45	13770.97
704.795	13635.83
705.14	13655.71
705.485	13514.02
705.83	13597.86
706.175	13493.01
706.52	13531.42
706.865	13391.77
707.209	13455.72
707.554	13361.26
707.899	13380.69
708.243	13365.55
708.588	13202.62
708.932	13194.03
709.277	13224.09
709.621	13163.98
709.966	13141.38
710.31	13180.02
710.654	12951.78
710.998	13067.26
711.342	13043.08
711.687	12928.5
712.031	12928.05
712.375	12852.12
712.719	12946.13
713.063	12863.87
713.407	12960.82
713.75	12806.25
714.094	12821.84
714.438	12675.63
714.782	12748.62
715.125	12602.18
715.469	12712.46
715.812	12625.68
716.156	12569.42
716.499	12593.37
716.843	12561.28
717.186	12589.98
717.53	12521.28
717.873	12567.38
718.216	12472.47
718.559	12486.71
718.902	12407.61
719.246	12429.98
719.589	12393.6
719.932	12326.94
720.275	12385.47
720.617	12342.98
720.96	12331.46
721.303	12269.08
721.646	12333.49
721.989	12230.44
722.331	12278.12
722.674	12223.66
723.016	12293.94
723.359	12253.94
723.701	12317.44
724.044	12198.13
724.386	12009.66
724.729	12126.26
725.071	12100.95
725.413	12091.91
725.755	12131.01
726.097	12039.94
726.439	12011.92
726.782	11984.12
727.124	12053.72
727.465	12019.15
727.807	12016.89
728.149	11989.09
728.491	11924.91
728.833	11943.67
729.175	11951.13
729.516	11924.23
729.858	11990.45
730.199	11984.12
730.541	11877.23
730.882	11917.91
731.224	11894.4
731.565	11837.23
731.906	11927.4
732.248	11886.95
732.589	11859.38
732.93	11840.85
733.271	11844.24
733.612	11853.5
733.953	11896.89
734.294	11833.16
734.635	11808.53
734.976	11860.73
735.317	11766.95
735.658	11810.57
735.999	11816.21
736.339	11784.8
736.68	11849.43
737.021	11822.99
737.361	11797.23
737.702	11839.94
738.042	11810.57
738.383	11841.52
738.723	11828.42
739.063	11818.47
739.404	11823.22
739.744	11831.58
740.084	11858.93
740.424	11871.81
740.764	11843.33
741.104	11913.61
741.444	11828.19
741.784	11848.3
742.124	11921.52
742.464	11897.79
742.804	11915.65
743.143	11930.56
743.483	12001.07
743.823	11815.76
744.162	11900.05
744.502	11980.5
744.841	12010.56
745.181	12104.79
745.52	11959.04
745.86	12096.21
746.199	12008.75
746.538	12098.69
746.877	12241.06
747.216	12284.68
747.556	12224.79
747.895	12337.33
748.234	12319.03
748.573	12363.77
748.911	12467.05
749.25	12457.78
749.589	12439.48
749.928	12639.02
750.267	12678.79
750.605	12772.35
750.944	12745
751.283	12814.83
751.621	12899.58
751.96	12977.77
752.298	12982.06
752.636	13042.62
752.975	13068.61
753.313	13121.49
753.651	13303.18
753.989	13291.66
754.327	13436.06
754.666	13502.05
755.004	13656.39
755.342	13811.87
755.679	13879.21
756.017	13874.47
756.355	14022.03
756.693	14041.47
